#   1 NUMBER                 Running object number                                     
#   2 MAG_AUTO               Kron-like elliptical aperture magnitude                    [mag]
#   3 X_IMAGE                Object position along x                                    [pixel]
#   4 Y_IMAGE                Object position along y                                    [pixel]
#   5 X_WORLD                Barycenter position along world x axis                     [deg]
#   6 Y_WORLD                Barycenter position along world y axis                     [deg]
#   7 A_WORLD                Profile RMS along major axis (world units)                 [deg]
#   8 B_WORLD                Profile RMS along minor axis (world units)                 [deg]
#   9 THETA_WORLD            Position angle (CCW/world-x)                               [deg]
#  10 FWHM_WORLD             FWHM assuming a gaussian core                              [deg]
#  11 ELONGATION             A_IMAGE/B_IMAGE                                           
#  12 ELLIPTICITY            1 - B_IMAGE/A_IMAGE                                       
         1  -9.0219     13.0847     29.9586   7.6708637030e+01   6.8150778164e+01    0.2850554    0.1670574 -65.19  0.001219053    1.965    0.491
         2  -8.1416     17.1878     14.1320   6.8828664234e+01   7.0638593059e+01    0.1382021    0.1195185 -34.84 0.0004864349    1.324    0.245
         3  -8.1048     47.5893      9.7829   5.2319371545e+01   6.8043558029e+01    0.1575592     0.100805 -37.43 0.0006301181    1.641    0.391
         4  -8.6931     91.0680      8.7368   3.5947598918e+01   6.0738267233e+01    0.2149963    0.1718722 -28.04 0.0007518594    1.376    0.273
         5  -8.6270     55.7826      9.8923   4.8907582931e+01   6.6862224747e+01    0.1969928    0.1540762 -36.12 0.0006116965    1.522    0.343
         6  -8.5982    188.7403     13.5261   1.8206941915e+01   3.6382160474e+01    0.2289462    0.1834828  63.55  0.000414748    1.156    0.135
         7  -8.6967     33.5965      4.9348   5.6356080681e+01   7.0448208133e+01    0.2741528    0.1742773 -53.76  0.001467822    2.983    0.665
         8  -8.5221     79.1907      3.5011   3.7245012807e+01   6.3606221012e+01    0.2351486    0.1461124 -37.09  0.001046875    1.919    0.479
         9  -7.8895     15.7033      3.3138   6.4726685680e+01   7.2451880783e+01   0.09135866   0.08330651 -38.14  0.000608705    1.602    0.376
        10  -7.6525    101.6418      8.2779   3.2761278432e+01   5.8566741544e+01    0.1233908    0.1048625 -77.30  0.000701022    1.660    0.398
        11  -7.6300     44.4966      2.5609   5.0069709266e+01   6.9388814998e+01    0.1174812   0.09297789  -2.51  0.000119485    1.054    0.052
        12  -8.0888     62.8451      1.4438   4.1956822954e+01   6.6733616454e+01    0.1675117    0.1092723  42.03 0.0009949944    1.522    0.343
        13  -8.4634     67.4577    244.7732   9.4091706088e+01   1.7100736787e+01    0.1873477   0.09616369 -81.23  0.001130374    2.054    0.513
        14  -9.9333    248.8819    243.7338   6.1673814663e+01  -1.1057211100e+01    0.6143425    0.2158629 -32.52  0.003054522    3.193    0.687
        15  -9.1044    211.1680    246.9206   6.8675002387e+01  -5.6892743813e+00    0.3262685    0.2000685 -56.45  0.001669776    3.266    0.694
        16  -7.6801    125.2892    250.6572   8.4545319936e+01   7.6995426680e+00    0.1187869   0.07422423  65.83 0.0005529558    1.649    0.394
        17  -8.3578     94.0744    249.4050   8.9904619099e+01   1.2625391392e+01    0.2203433    0.1062405  67.43  0.001083422    2.328    0.570
        18  -8.9066      9.9862    244.2021   1.0326460988e+02   2.3881090618e+01    0.2693292   0.08199026  82.09  0.001291961    3.569    0.720
        19  -8.9030    139.7790    244.2030   8.1225687178e+01   6.3673174968e+00    0.1992068     0.109295  68.69 0.0007934819    2.757    0.637
        20  -8.1913    201.9459    243.0113   6.9743187332e+01  -3.7354742252e+00    0.1643013    0.1394177  67.63 0.0006445688    1.691    0.409
        21  -8.5205    168.9719    243.1450   7.5750154659e+01   1.6956672797e+00    0.1830502    0.1370902  53.97 0.0005480591    1.293    0.227
        22  -8.7413     77.8862    242.8183   9.2156830361e+01   1.6021680157e+01    0.2643846    0.1192714  67.32  0.001353575    2.395    0.582
        23  -7.7604     34.3498    243.7127   9.9467366742e+01   2.1360924289e+01    0.1139408   0.05257156  63.59 0.0003554683    1.661    0.398
        24  -9.1864    194.2810    240.1123   7.0704896045e+01  -2.1073656415e+00    0.2710196    0.1930137 -47.83  0.001357761    1.899    0.473
        25  -9.2806    183.1329    240.0863   7.2736893817e+01  -2.4753091489e-01     0.355247    0.2307992  65.49  0.001897442    2.350    0.574
        26  -9.3712    160.2711    240.3917   7.6990243597e+01   3.5457453079e+00    0.2925223    0.2097141 -85.83  0.001278166    2.186    0.543
        27  -8.0841    153.4568    241.9680   7.8448223170e+01   4.4508722285e+00    0.1509652    0.1227476 -59.89  0.001017296    1.571    0.364
        28  -8.1160     88.1973    242.1142   9.0297234090e+01   1.4685917625e+01    0.1590181    0.1046192  71.89 0.0005104711    1.365    0.267
        29  -8.0051    213.9674    241.0218   6.7298226025e+01  -5.4297048777e+00    0.1466847    0.1137459  26.58 0.0003944863    1.017    0.016
        30  -8.0760    240.6025    240.2582   6.2525115356e+01  -9.4707996203e+00     0.146769   0.09755361  -9.73 0.0007096644    1.553    0.356
        31  -8.6218    242.0328    236.4960   6.1674182640e+01  -9.2707685397e+00     0.202084    0.1168344  21.96  0.001194967    1.519    0.342
        32  -7.7197    111.4879    240.4851   8.5974499141e+01   1.1472288834e+01    0.1218097   0.09187109  57.52 0.0002550723    1.029    0.028
        33  -9.8254    214.9998    233.3187   6.5921223132e+01  -4.6490744245e+00    0.5226827    0.3796304 -83.01  0.002454569    4.087    0.755
        34  -8.2418    146.1844    239.2420   7.9453441266e+01   6.0721205966e+00    0.1654003    0.1220264  62.62 0.0004803567    1.358    0.264
        35  -9.0111    231.2703    237.0268   6.3623702599e+01  -7.6862191648e+00    0.2655322    0.2209675  88.90  0.001614726    2.632    0.620
        36  -8.3961    208.9849    238.0117   6.7731541656e+01  -4.2555898481e+00    0.1689626    0.1403982  60.66 0.0005368907    1.656    0.396
        37  -8.0484    135.4503    238.5358   8.1358957471e+01   7.9564625772e+00    0.1250808   0.09516887  54.75 0.0008059056    1.090    0.082
        38  -9.7432    147.2441    245.8670   8.0061466253e+01   4.8977147445e+00    0.3033367    0.1855845  66.66   0.00160367    2.061    0.515
        39  -8.4327     25.9980    236.9980   1.0044635851e+02   2.3457854399e+01    0.2285137   0.06174614  64.40 0.0009487321    4.048    0.753
        40  -8.8316    203.0333    234.3100   6.8244445816e+01  -2.8028207543e+00    0.2611016    0.1753297 -54.45  0.001098879    2.325    0.570
        41  -9.8675    175.7283    233.2074   7.3133601115e+01   1.9717709644e+00     0.418054    0.2289956 -57.27  0.002110584    2.790    0.642
        42  -8.5017    247.6010    234.2727   6.0358198181e+01  -9.8577441841e+00    0.2301609    0.1417905 -16.41  0.001044768    1.679    0.404
        43  -9.3957    246.5158    228.3806   5.9561381690e+01  -9.0352260635e+00    0.3847247    0.1960924 -27.04  0.001504837    2.092    0.522
        44  -8.1312    170.1784    235.2168   7.4454297338e+01   2.6278869053e+00    0.1615675    0.1322067  62.35 0.0005451339    1.360    0.265
        45  -9.0952    109.2801    234.3229   8.5741115040e+01   1.2850492937e+01    0.4787479    0.1743228  55.51  0.002028433    2.842    0.648
        46  -9.0017     78.7601    234.6537   9.1327327046e+01   1.7317866989e+01     0.221885    0.1349489  85.60  0.001370435    1.667    0.400
        47  -8.1534    122.9825    233.9976   8.3155872411e+01   1.0727573806e+01    0.2013835    0.1233839  67.09  0.000898729    1.768    0.435
        48  -8.1249     99.7926    234.0147   8.7458543735e+01   1.4362269492e+01    0.2018086     0.112475  73.74  0.001073079    2.095    0.523
        49  -9.2562     68.6073    232.0037   9.2914934118e+01   1.9183059831e+01    0.4983659    0.2167051  77.06  0.002274538    3.171    0.685
        50  -8.3816      7.6739    234.7046   1.0322440486e+02   2.5748579465e+01   0.08308315    0.0707188 -78.59 0.0004206208    1.626    0.385
        51  -9.0800    140.1885    230.0950   7.9438038012e+01   8.5264978193e+00    0.3068166    0.1304837  54.30  0.001114359    2.428    0.588
        52  -8.3936    132.6869    232.6299   8.1172922892e+01   9.3652920237e+00    0.2193513    0.1379207  89.34  0.001142391    2.401    0.583
        53  -8.5268     92.7902    232.0905   8.8556063987e+01   1.5748408832e+01    0.3544208    0.1717778  70.67  0.001322063    2.637    0.621
        54  -8.2632    194.4633    232.1152   6.9484366310e+01  -1.0707673509e+00    0.1532087    0.1237801 -34.10 0.0004421865    1.508    0.337
        55  -9.3632    186.3883    230.4639   7.0737487900e+01   5.3598108159e-01    0.3153808    0.2388138 -80.52  0.001469801    2.298    0.565
        56  -8.8000    236.0525    230.6802   6.1757756182e+01  -7.6919127515e+00    0.1987417    0.1847618 -11.86 0.0007718189    1.431    0.301
        57  -8.4690      1.5758    230.6290   1.0400041481e+02   2.7048649068e+01     0.183192   0.08734177  81.24  0.001245824    1.590    0.371
        58  -8.8115    151.5078    229.0114   7.7137420939e+01   6.7737609282e+00    0.2551788    0.1797249  78.73  0.001429324    1.948    0.487
        59  -9.4974    148.6170    224.3249   7.7061852011e+01   8.0306735286e+00    0.3905593    0.2415026  76.27  0.001851944    2.662    0.624
        60  -8.9461      8.7617    228.5231   1.0278726278e+02   2.6738245369e+01    0.2615786   0.06500334  71.03 0.0009008715    6.176    0.838
        61  -8.1560    229.5345    228.1120   6.2480875642e+01  -6.3562178219e+00    0.1604317    0.1142882 -25.98 0.0008065142    1.554    0.357
        62  -8.7131    162.2544    227.6529   7.4896737998e+01   5.1309949446e+00    0.2664585    0.1808715  66.21  0.001258665    1.842    0.457
        63  -8.4085    136.1567    228.1101   7.9957553243e+01   9.5335753007e+00    0.1790363    0.1495275  38.13 0.0003515961    1.209    0.173
        64  -8.6994    127.8474    227.1048   8.1425093865e+01   1.1092644417e+01    0.2773274    0.1712235  65.25  0.001475047    1.742    0.426
        65  -8.2933    119.9498    227.7705   8.3013447458e+01   1.2276203554e+01     0.212182    0.1130865  61.08 0.0009476689    1.957    0.489
        66  -8.2485    223.4049    226.7779   6.3354456611e+01  -5.2009660427e+00      0.19738    0.1158662 -37.76 0.0007697262    2.042    0.510
        67  -8.7637    206.2477    226.0832   6.6365771568e+01  -2.2532566867e+00     0.221562    0.1899904 -78.38  0.001022953    1.893    0.472
        68  -7.9916     49.4096    226.6164   9.5892987884e+01   2.2630600051e+01    0.2065891   0.08181833  88.41 0.0009484909    3.158    0.683
        69  -8.4380    199.9014    226.1099   6.7545880186e+01  -1.1750781883e+00    0.1800211     0.155527  48.01  0.000544427    1.288    0.224
        70  -8.7289     94.1223    223.8797   8.7496446882e+01   1.7023359804e+01    0.3580211    0.1660184  66.20  0.001522648    2.668    0.625
        71  -8.8050    216.4998    223.4222   6.4050307098e+01  -3.6287121805e+00    0.2199151    0.2010024 -74.40   0.00101822    1.711    0.416
        72  -8.6709    180.6986    224.1417   7.0858596001e+01   2.4412128753e+00    0.2487086    0.1522902  51.00 0.0008392512    1.577    0.366
        73  -7.8333    113.8472    223.7988   8.3722678809e+01   1.3960373605e+01      0.17167    0.1208944  66.23 0.0004155367    1.319    0.242
        74  -8.7840    104.8739    223.4569   8.5406119085e+01   1.5447837190e+01    0.3135475    0.1743786  77.98   0.00154137    2.409    0.585
        75  -7.7600     38.2722    224.6261   9.7693278815e+01   2.4321005826e+01    0.1184365   0.05950518  70.11 0.0006999522    1.683    0.406
        76  -8.6151    173.1393    222.7893   7.2102370850e+01   3.9764557100e+00    0.1963064    0.1744362 -77.39 0.0007613893    1.455    0.313
        77  -8.4021    163.0141    222.4942   7.4014214160e+01   5.8090788777e+00    0.2740628    0.1551532  58.80  0.001327959    2.086    0.521
        78  -8.5776    159.1752    220.4272   7.4461359281e+01   6.8190506325e+00    0.2510267    0.1651925  60.45 0.0009484066    1.669    0.401
        79  -9.1628    238.8449    220.9328   5.9624228295e+01  -6.9665536013e+00    0.3084412    0.1667914 -30.60  0.001138466    1.996    0.499
        80  -9.2291    225.5771    221.6498   6.2107548731e+01  -4.9079187829e+00    0.2350288    0.2037581  47.69  0.001128353    1.457    0.313
        81  -9.4224    192.4140    221.0704   6.8152194178e+01   8.3578528252e-01      0.29538    0.2543844 -79.65 0.0009543117    1.706    0.414
        82  -9.0543      7.4216    221.5563   1.0268858165e+02   2.8129565432e+01    0.2785892    0.0582417  56.79  0.001250746    3.597    0.722
        83  -8.5595     82.9194    220.2882   8.9258590801e+01   1.9341154903e+01    0.2939397    0.1494692  75.57  0.001437906    2.414    0.586
        84  -8.1067     73.1995    220.3708   9.1092031349e+01   2.0698758259e+01    0.2492098    0.1120502  84.63   0.00097191    3.318    0.699
        85  -8.0291     27.5014    220.9840   9.9317292554e+01   2.6198670636e+01    0.1581661   0.08561199 -84.44  0.001030138    1.583    0.368
        86  -8.2353    202.5208    219.9813   6.6070114951e+01  -7.7447562088e-01    0.1682355    0.1262363 -35.15 0.0006382708    1.566    0.361
        87  -8.9945    120.2742    219.0373   8.1907651709e+01   1.3761381847e+01    0.3476124    0.1749539  67.74  0.001464864    2.972    0.664
        88  -8.2428    210.1283    218.7749   6.4450534058e+01  -1.9228304809e+00    0.1890614    0.1705005 -38.29 0.0006615754    1.418    0.295
        89  -9.2506    248.2937    217.6088   5.7399808853e+01  -8.0507733513e+00    0.2940232    0.2066054  68.25  0.001374946    3.875    0.742
        90  -9.2930    132.9408    215.9008   7.9003657138e+01   1.2181829302e+01    0.4663374    0.2674015  76.66  0.002018803    2.986    0.665
        91  -8.9055     51.7367    217.2625   9.4791194384e+01   2.4100180290e+01    0.2552824    0.1216508  85.74 0.0009984139    2.209    0.547
        92  -8.8154    169.3484    215.9482   7.1801588135e+01   5.7281127122e+00    0.2787027    0.2064199 -88.62 0.0008515266    2.105    0.525
        93  -8.6354    143.1017    216.5366   7.7072540579e+01   1.0304890492e+01    0.2647296    0.1852099  79.63  0.001345053    1.877    0.467
        94  -8.0848    111.7989    216.9401   8.3318785564e+01   1.5531887724e+01    0.2109235    0.1278829  77.41   0.00107702    2.051    0.512
        95  -8.5975     62.0767    217.1774   9.2883881256e+01   2.2800813214e+01    0.2339723    0.1181676  59.82  0.001313978    1.691    0.409
        96  -7.5664    151.3206    218.3371   7.5701471655e+01   8.5522184040e+00     0.126183   0.09765988  12.97 0.0007050016    1.709    0.415
        97  -8.7130    232.2425    214.7294   5.9717005074e+01  -5.1196039355e+00    0.1995035    0.1958221  66.71 0.0009764677    1.528    0.345
        98  -8.3811    154.2881    215.0984   7.4647132194e+01   8.5706287304e+00    0.2473711    0.1483455  62.36  0.001201223    2.027    0.507
        99  -8.7601     93.3295    214.0239   8.6613469780e+01   1.8982371677e+01    0.3417504    0.1538779  62.86  0.001285457    2.603    0.616
       100  -7.8417     41.5092    215.0297   9.6478456823e+01   2.5756450747e+01    0.1646765   0.07097191  77.67 0.0008096768    2.500    0.600
       101  -8.3178    185.6715    214.1679   6.8334763986e+01   3.0658309811e+00    0.1827057    0.1647503  88.93 0.0009538276    1.466    0.318
       102  -9.2202     72.2365    211.1608   9.0424132320e+01   2.2598078263e+01    0.3543779    0.1642543  71.08  0.001504453    2.650    0.623
       103  -9.2705    213.8326    212.0290   6.2612123936e+01  -1.6288337503e+00    0.3372347    0.2288334  56.02  0.001583966    1.902    0.474
       104  -8.0461    106.7351    212.9265   8.3843475419e+01   1.7095859679e+01    0.2064918     0.125013  75.90  0.001058757    1.959    0.490
       105  -7.9678    224.9818    212.4869   6.0635865060e+01  -3.6097974235e+00     0.159942    0.1061192  58.93 0.0005273255    2.327    0.570
       106  -8.4426    161.7591    212.1668   7.2722138202e+01   7.7196833777e+00    0.2007703    0.1620244  64.57 0.0008022141    1.338    0.252
       107  -8.9608    204.2388    210.5113   6.4156040240e+01   2.8076388138e-01    0.2472595    0.2052939 -52.95 0.0008626812    1.614    0.381
       108  -9.2614    175.5619    209.8977   6.9623118098e+01   5.5773752719e+00    0.3948103    0.2403383  66.10  0.001765891    2.606    0.616
       109  -8.5833    148.0728    210.5087   7.5216283600e+01   1.0473343451e+01    0.2710373    0.1908341  78.60  0.001326067    1.898    0.473
       110  -8.6970    116.2958    210.1965   8.1593205052e+01   1.6047031833e+01    0.3111403    0.1726796  72.58 0.0008641299    2.537    0.606
       111  -8.2571    192.3943    210.2280   6.6380648199e+01   2.4542120734e+00    0.1631833    0.1270977 -54.35 0.0005279733    1.685    0.407
       112  -8.3430     85.8234    209.6648   8.7621966474e+01   2.0948253863e+01    0.2434841    0.1340661  76.90  0.001218333    2.129    0.530
       113  -8.6280     32.3746    210.1658   9.7788798977e+01   2.7729376423e+01    0.1629513   0.08088468  86.87 0.0009440079    1.801    0.445
       114  -9.0647    236.5677    208.0466   5.7751923947e+01  -4.9683950540e+00    0.2729606    0.2340326 -76.49  0.001294718    2.154    0.536
       115  -7.9653     46.3421    209.1732   9.5162364492e+01   2.6323843865e+01    0.1655468     0.086615 -89.92 0.0009408817    1.790    0.441
       116  -9.3937    246.3830    207.1709   5.5859981285e+01  -6.4635195711e+00    0.2390487    0.1952011 -23.23 0.0005209427    1.343    0.255
       117  -8.0422    156.5759    207.7884   7.3089617155e+01   9.4090726158e+00    0.1667608    0.1284848 -71.83 0.0006085773    1.652    0.395
       118  -8.4119    139.2431    208.0508   7.6646967603e+01   1.2488176771e+01    0.2577108    0.1491288  63.18  0.001002023    2.067    0.516
       119  -9.1314      5.9889    208.0144   1.0228486546e+02   3.0795646155e+01    0.1832847   0.08298566  67.82 0.0009926724    1.753    0.429
       120  -9.2092     99.5321    206.0844   8.4476827262e+01   1.9555221970e+01    0.3597676    0.1950947  71.52   0.00121365    2.309    0.567
       121  -8.3518     56.4975    205.3761   9.2930386177e+01   2.5826368114e+01     0.242138    0.1159259  65.26  0.001127066    2.023    0.506
       122  -8.1857     12.3021    206.6634   1.0112953612e+02   3.0464822708e+01    0.1160925   0.05597177  68.53 0.0006436685    1.664    0.399
       123  -9.2426    194.8818    203.3561   6.4717768004e+01   3.0610715645e+00    0.3341441     0.278225  59.24  0.001209832    1.413    0.292
       124  -9.4145    192.4489    197.2401   6.4112820456e+01   4.4876313300e+00    0.4147562    0.3063902 -66.25  0.001275354    2.053    0.513
       125  -8.0696    109.0639    205.0222   8.2405324942e+01   1.8230285071e+01     0.210464    0.1349728  71.74  0.000893422    1.693    0.409
       126  -9.0027    183.6998    203.7409   6.6986700425e+01   5.0734054745e+00     0.283475     0.214673  62.08  0.001424341    1.577    0.366
       127  -9.6327    163.9093    202.8561   7.0820548179e+01   8.9126098199e+00    0.4702838    0.2639196  59.47  0.001166924    2.214    0.548
       128  -8.5850    131.3165    203.7361   7.7652854133e+01   1.4687093783e+01    0.2830778    0.1864084  69.72  0.001149029    1.767    0.434
       129  -9.5631    250.1270    201.6176   5.4183710497e+01  -6.3609958325e+00    0.3820313    0.1702726 -29.71  0.001422863    2.279    0.561
       130  -8.5750    211.0560    201.9503   6.1350019845e+01   3.1642680748e-01    0.2387943    0.1763331 -55.88 0.0007784086    1.968    0.492
       131  -9.0801    243.2227    200.6438   5.5208646178e+01  -5.1018739486e+00    0.3056399    0.1877541 -32.93 0.0009649314    1.717    0.417
       132  -8.8112    140.7019    200.9806   7.5303108514e+01   1.3524784692e+01    0.3679042    0.2198068  69.54  0.001536763    2.367    0.578
       133  -8.0634     73.0000    201.9574   8.9368876628e+01   2.4320380803e+01    0.1829273   0.06442037 -67.20 0.0005426909    2.846    0.649
       134  -8.3037     48.6399    202.2591   9.4176183336e+01   2.7422983449e+01    0.2005813    0.1024352  69.80  0.001091274    1.850    0.460
       135  -8.3839     10.2124    202.3623   1.0126252402e+02   3.1495844575e+01    0.1470474   0.07331371  51.21 0.0009416651    1.680    0.405
       136  -8.0822    222.0312    201.0788   5.9128736421e+01  -1.5207556186e+00    0.1826204    0.1645259  86.27 0.0009648292    1.710    0.415
       137  -8.5060     80.0193    200.8954   8.7843819639e+01   2.3539531001e+01    0.2789237     0.142285  69.15  0.001322864    2.245    0.555
       138  -9.4791    149.7245    198.5245   7.3044991188e+01   1.2324876982e+01    0.4309686    0.2769876  76.62   0.00136795    2.426    0.588
       139  -8.7748    124.0632    199.0620   7.8495131695e+01   1.6851061555e+01    0.3095958    0.2035944  84.28  0.001131661    1.995    0.499
       140  -9.3255    113.0249    198.1789   8.0688145932e+01   1.8915274188e+01    0.4717666    0.2509671  71.58  0.001832978    2.854    0.650
       141  -9.0745    237.1160    198.2837   5.5853046245e+01  -3.7556107589e+00     0.257702    0.1732389 -34.46 0.0008852138    1.618    0.382
       142  -8.4882    177.0763    198.7637   6.7461232250e+01   7.1415383465e+00     0.205685    0.1878363 -77.67 0.0004508994    1.345    0.257
       143  -9.0706     88.6580    198.3327   8.5787554831e+01   2.2781717835e+01    0.3297763    0.1949274  79.20   0.00129227    1.938    0.484
       144  -8.3099    202.2761    197.4936   6.2228997192e+01   2.6056006334e+00     0.205344    0.1673681 -67.21 0.0006382728    1.802    0.445
       145  -9.0601     61.3015    196.7043   9.1192724315e+01   2.6967483556e+01    0.4036954     0.181222  69.52  0.001638983    2.689    0.628
       146  -8.1016     29.3408    197.6802   9.7492640240e+01   3.0528363982e+01     0.123935   0.06264319  67.34 0.0007049859    1.717    0.417
       147  -8.3670     12.3986    196.6482   1.0055204867e+02   3.2416892258e+01    0.2172438   0.07213245  86.20 0.0009564965    3.251    0.692
       148  -8.0801    133.2844    195.8426   7.6079887856e+01   1.5839549589e+01    0.2033931    0.1573634  89.86 0.0007956763    1.489    0.329
       149  -7.7057     36.3196    196.6408   9.6092376617e+01   2.9985000347e+01    0.1274971   0.06520107  69.35 0.0007043891    1.764    0.433
       150  -8.7108    224.6298    193.8837   5.7302084834e+01  -9.4589429094e-01    0.2722572    0.1531627 -41.22  0.001103814    2.041    0.510
       151  -8.8596    185.0969    194.5265   6.5095577469e+01   6.3308134856e+00    0.2311582    0.2002237 -55.33 0.0006665534    1.399    0.285
       152  -8.8721    160.6689    193.8605   6.9996560535e+01   1.1120712429e+01    0.2785566     0.223295  84.53 0.0007668374    1.578    0.366
       153  -8.1504    231.1756    194.1607   5.6148843594e+01  -2.1504815607e+00    0.1622689    0.1601077  -5.66 0.0004510642    1.358    0.264
       154  -8.7835     77.1011    193.7690   8.7660277679e+01   2.5419496345e+01    0.2549587    0.1724019  70.43 0.0007099616    1.348    0.258
       155  -9.0071     43.9763    193.4644   9.4348721824e+01   2.9768689601e+01    0.3702289    0.1721532  68.33  0.001881555    2.175    0.540
       156  -8.1254    199.1054    191.4837   6.1742432608e+01   4.1577120243e+00    0.2026595    0.1903993  76.06 0.0006830781    1.339    0.253
       157  -8.4751    172.5856    191.8216   6.7167693955e+01   9.2011712637e+00    0.2442637    0.1730961 -64.20 0.0009261552    1.899    0.473
       158  -9.0778    139.6148    190.4883   7.3895795196e+01   1.5719704503e+01    0.3790796    0.2466697  79.86  0.001105217    2.274    0.560
       159  -8.6123    215.8563    195.2541   5.9206784708e+01   4.4155868789e-01    0.2097383    0.1872095 -67.15 0.0007603765    1.606    0.378
       160  -8.2647    179.3698    191.2712   6.5673974396e+01   7.9871457436e+00    0.1788663    0.1329958 -55.91 0.0006255047    1.654    0.395
       161 -10.5143     92.6248    188.8768   8.3793498240e+01   2.4124516317e+01    0.9750271    0.2822764  50.16  0.003438104    3.455    0.711
       162  -9.6758    245.7904    193.5366   5.3411231185e+01  -4.5829356286e+00    0.3257095    0.2654816 -67.16  0.001747734    2.257    0.557
       163  -8.3691    237.1454    188.3374   5.3943474630e+01  -2.3740044143e+00    0.2176813    0.1586945 -16.22 0.0008050246    1.346    0.257
       164  -8.6777    148.5640    188.9473   7.1726389282e+01   1.4338899767e+01    0.2420718    0.1711573 -69.64 0.0009818755    1.769    0.435
       165  -8.8873    129.2767    188.3445   7.5784240089e+01   1.8037431975e+01    0.2877652    0.1984864  72.23 0.0008910091    1.685    0.406
       166  -8.7684     34.3509    188.0427   9.5804403332e+01   3.1970310556e+01    0.3199154    0.1385675  76.40  0.001514629    2.551    0.608
       167  -8.9208    216.5608    187.6533   5.7626312192e+01   1.4665500039e+00    0.2703779    0.2413978  83.76  0.001004382    1.621    0.383
       168  -8.9125    191.3981    187.0874   6.2456842798e+01   6.3692785375e+00     0.308665     0.229948 -75.22 0.0009808835    2.182    0.542
       169  -9.2224    155.9893    187.2881   6.9857689951e+01   1.3234868216e+01    0.3140857    0.2249132 -64.44 0.0008271405    1.709    0.415
       170  -9.5370    120.6399    185.8176   7.7275149021e+01   2.0095058916e+01    0.4881813    0.2642164 -74.33  0.002050957    2.647    0.622
       171  -9.1048     54.7956    186.8259   9.1558303893e+01   2.9858574016e+01    0.3811828    0.1684414  70.43  0.001388886    2.836    0.647
       172  -7.9935    230.5415    187.0288   5.4889175093e+01  -1.0078441848e+00    0.1889075    0.1255923 -31.02 0.0006304258    1.546    0.353
       173  -8.6773    164.7977    186.5450   6.7857156722e+01   1.1665757193e+01      0.31954    0.2221763  77.50   0.00120402    2.176    0.540
       174  -9.1938    109.5467    185.7071   7.9688115087e+01   2.2037620085e+01     0.397379    0.2435631  81.70  0.001093142    2.185    0.542
       175  -9.1964    249.2488    185.4691   5.1238344936e+01  -4.0690496470e+00    0.2699428    0.2094152 -32.13 0.0008788168    1.395    0.283
       176  -8.6450    202.9045    184.5036   5.9665665290e+01   4.5656239085e+00    0.2371536    0.1970219 -60.48 0.0007608273    1.596    0.373
       177  -8.6394    182.9582    184.7694   6.3741304256e+01   8.4214980337e+00    0.2262394    0.2051136 -38.92   0.00073299    1.229    0.187
       178  -9.0380     66.8708    184.4966   8.8782136146e+01   2.8793855155e+01    0.3157509    0.1595803  62.00 0.0009436855    2.014    0.503
       179  -8.4933    224.1532    183.5456   5.5388896677e+01   6.8176776208e-01    0.2168695    0.1766136 -36.48 0.0007197832    1.373    0.272
       180  -8.7470    210.0953    183.9075   5.8141392236e+01   3.2778353275e+00    0.2269759    0.1920525 -29.65 0.0006257583    1.265    0.210
       181  -8.9123    174.2717    183.4695   6.5302924704e+01   1.0368042912e+01    0.2706308     0.228708  82.99 0.0007117381    1.485    0.327
       182  -8.0044     11.6677    184.3359   9.9942692217e+01   3.4969763925e+01    0.1212861   0.05990807  68.38 0.0005903096    1.736    0.424
       183  -8.9812     44.2069    181.7943   9.3271442126e+01   3.2194084330e+01    0.3461993    0.1706579  85.80  0.001274378    2.115    0.527
       184  -8.0137      1.7446    183.5803   1.0176331748e+02   3.5975044500e+01    0.1420926   0.07735945  53.32 0.0009405005    1.615    0.381
       185  -7.7626    235.4676    181.5098   5.2899316419e+01  -1.0869426500e+00    0.1330968    0.1171478  10.10 0.0002034462    1.056    0.053
       186  -9.1738    147.5448    180.3750   7.0474611762e+01   1.6201324786e+01    0.3230474    0.2444421  78.90  0.001002619    1.624    0.384
       187  -7.6819     90.3310    181.3200   8.3304181015e+01   2.6084068220e+01    0.1219562    0.1061443 -23.11 0.0007048583    1.693    0.409
       188  -8.9267     26.4882    180.0092   9.6738537530e+01   3.4470770269e+01    0.3427175    0.1443448  73.01  0.001636471    2.577    0.612
       189  -8.9679     24.3240    176.6494   9.6913688057e+01   3.5395108555e+01    0.3119897    0.1407724  87.79  0.001611028    2.105    0.525
       190  -8.7074    137.6717    179.0070   7.2412896756e+01   1.8365362411e+01    0.3295646    0.2184438  68.63  0.001095741    1.838    0.456
       191  -7.7409    240.5033    179.5126   5.1593026182e+01  -1.7001544876e+00     0.135823    0.1134421   7.99 0.0008102402    1.039    0.038
       192  -9.4202    191.5329    178.2254   6.0724999985e+01   7.8659564470e+00    0.3346593    0.2470706  66.15 0.0006385442    1.778    0.438
       193  -8.2370    169.5602    178.7526   6.5416287244e+01   1.2174111441e+01    0.1875262    0.1391204 -62.18 0.0009349131    1.664    0.399
       194  -8.6059    250.4729    172.3355   4.8384651625e+01  -2.4324768929e+00    0.2492076    0.1741804 -15.66 0.0006426213    1.369    0.270
       195  -9.3326    248.9057    177.2743   4.9661866504e+01  -2.8635725974e+00    0.3011115    0.2536176 -46.79  0.001063002    1.565    0.361
       196  -8.0815    247.2830    173.6632   4.9209594022e+01  -2.0597947403e+00    0.1398276    0.1157095   4.14 0.0003621847    1.057    0.054
       197  -8.6792    205.0641    177.2494   5.7810211295e+01   5.3444741481e+00    0.2278617    0.1767139 -52.22 0.0005533213    1.593    0.372
       198  -8.4556    129.4744    177.4115   7.3969814861e+01   2.0229142537e+01    0.3135257    0.1959562  76.74 0.0009370011    2.347    0.574
       199  -9.0623     36.1238    176.7060   9.4490550055e+01   3.4180159386e+01    0.4481837    0.1789679  74.89  0.001818402    3.451    0.710
       200  -8.6713    231.0622    176.4889   5.2691904644e+01   4.7190259497e-01    0.2781498    0.1715487 -37.65 0.0009974479    1.703    0.413
       201  -8.5188    217.4410    176.9288   5.5336704862e+01   2.9833706445e+00    0.2334961     0.191598 -47.24 0.0007504947    1.469    0.319
       202  -8.0152     97.4964    177.4324   8.1169667506e+01   2.5789357554e+01    0.1329007      0.12033  71.71 0.0001300382    1.079    0.073
       203  -8.6887     89.1965    176.6822   8.2929390874e+01   2.7263045278e+01    0.2902607    0.1832672  72.43 0.0009263625    1.723    0.420
       204  -9.5956     58.3110    174.9651   8.9574951082e+01   3.1975550009e+01    0.5185152    0.2373933  71.81  0.002164741    2.967    0.663
       205  -9.1814     55.6815    170.3646   8.9641986695e+01   3.3317475277e+01    0.3853279    0.1974198  87.64  0.001688832    2.222    0.550
       206  -8.8238     12.8501    176.5121   9.9201001737e+01   3.6485909730e+01    0.2307507    0.1095813  80.61  0.001223391    1.872    0.466
       207  -7.6067    211.5307    176.4723   5.6384987442e+01   4.2036717476e+00    0.1397657     0.126295  20.55 0.0001090756    1.034    0.033
       208  -8.9264    183.1608    175.9072   6.1998181504e+01   9.9611202042e+00    0.2493305    0.2244701  79.98 0.0007528455    1.331    0.249
       209  -9.2561    158.8074    174.7728   6.6989186149e+01   1.5087168424e+01    0.4039799    0.2816098  82.87  0.001238616    2.204    0.546
       210  -9.2560    104.2511    174.5095   7.9209490628e+01   2.5310719889e+01    0.5001962    0.2522368  65.86  0.001914828    2.870    0.652
       211  -9.3876     81.6471    154.6583   8.1492541867e+01   3.3349170215e+01    0.4556602    0.2564378  72.33  0.001393818    2.377    0.579
       212 -10.7788     75.9121    170.1788   8.5061358246e+01   3.0669991178e+01      1.21285    0.4426759 -76.16  0.003923725    4.455    0.776
       213  -8.4025     79.0451    158.2122   8.2659027712e+01   3.2918090926e+01    0.2638035    0.1903457  24.26   0.00127717    1.831    0.454
       214  -8.3003    224.4794    174.0608   5.3418954421e+01   2.0881562219e+00    0.1982257    0.1317443 -35.22 0.0005558066    1.553    0.356
       215  -9.7402    175.7668    172.0702   6.2802044605e+01   1.2171098488e+01    0.3710156      0.25531 -40.12  0.001711759    1.581    0.367
       216  -8.5392    142.9686    172.4876   7.0078503907e+01   1.8676797140e+01    0.2617716    0.1990652 -77.30 0.0005959811    1.583    0.368
       217  -8.3524    134.7414    171.4107   7.1743332956e+01   2.0487558110e+01    0.2448788    0.1791133 -72.52 0.0007415297    1.583    0.368
       218  -9.3237     45.2370    170.9658   9.2003455127e+01   3.4422963934e+01    0.3378044    0.1806898  83.27  0.001342782    1.919    0.479
       219  -8.6981    198.6357    170.1523   5.7656941118e+01   7.8445603685e+00    0.2695239     0.219201  74.04 0.0007525794    1.655    0.396
       220  -9.6091    121.3709    169.7643   7.4517039749e+01   2.3335966318e+01    0.5168509    0.2689176 -61.80  0.001833532    2.145    0.534
       221  -8.5410    237.2534    169.4756   5.0122412232e+01   3.8714997158e-01    0.2406538    0.1768497 -29.01 0.0006673433    1.337    0.252
       222  -9.0590    230.2643    169.0774   5.1312507540e+01   1.7659988757e+00    0.3627347    0.2305977 -44.56  0.001790465    1.817    0.450
       223  -8.3251    205.6831    169.9311   5.6198097202e+01   6.4565978386e+00     0.257978      0.17536 -53.03 0.0008368008    1.872    0.466
       224  -8.4982    149.9087    169.3082   6.7929855063e+01   1.7955698290e+01    0.2565849    0.1987979  88.46 0.0009183676    1.628    0.386
       225  -8.1714    244.4876    169.0521   4.8747897054e+01  -8.8111903468e-01    0.1969995    0.1238843 -30.43 0.0004841309    1.536    0.349
       226  -9.2219    167.0245    168.3616   6.3954229154e+01   1.4671704400e+01    0.3226992    0.2401618  69.60 0.0008541953    1.664    0.399
       227  -8.1008     88.8650    168.8020   8.1893795933e+01   2.9050183465e+01    0.1945038    0.1403231  69.94 0.0006743854    1.360    0.265
       228  -8.4154    218.8406    168.1391   5.3260575512e+01   4.1321619042e+00    0.1969912    0.1913948 -38.72 0.0004652713    1.230    0.187
       229  -7.9669    211.4318    167.9424   5.4651726574e+01   5.6381588326e+00    0.1895754    0.1228748 -60.58  0.000806028    2.491    0.599
       230  -8.9829    111.6070    167.1608   7.6343608070e+01   2.5650917947e+01    0.3573094     0.219252  75.55  0.001219183    2.234    0.552
       231  -9.0600     21.1407    166.5892   9.6769305008e+01   3.7852501126e+01    0.4508716    0.1323217  57.90  0.001755891    4.070    0.754
       232  -9.0263    191.9052    166.5861   5.8297420735e+01   9.8588428103e+00    0.2580236    0.2117085 -47.33 0.0005688344    1.355    0.262
       233  -8.6336    185.0335    166.3941   5.9691259665e+01   1.1318536475e+01    0.2610657    0.2026132 -60.97 0.0006110909    1.600    0.375
       234  -7.8929     13.3037    167.6463   9.8482717511e+01   3.8320906590e+01    0.1227249   0.06443997  71.31 0.0004440095    1.709    0.415
       235  -9.5959    137.4404    164.5854   6.9877328413e+01   2.1401323274e+01    0.7083622    0.2858742  56.59  0.002198612    3.650    0.726
       236 -10.0068     95.0060    162.4614   7.9493646789e+01   2.9498258390e+01    0.8672836    0.4534026  79.23  0.003014128    3.752    0.733
       237  -8.1697    234.0083    164.9337   4.9757054037e+01   1.6997169108e+00    0.1978363     0.171003 -67.97  0.000638945    1.661    0.398
       238  -9.8513     33.7217    163.2803   9.3763726507e+01   3.7359271095e+01    0.5231135    0.1918982  57.92  0.002255284    3.074    0.675
       239  -8.1741    240.0711    164.0047   4.8470497695e+01   6.9632894263e-01    0.1946288    0.1720736 -75.56 0.0006425589    1.670    0.401
       240  -8.5730    159.4956    163.9913   6.4746865001e+01   1.7085464315e+01    0.2675655    0.2014883  63.25 0.0009100126    1.462    0.316
       241  -9.3613    246.1429    162.7058   4.7128087172e+01  -2.3514889328e-01    0.2965335    0.1779133 -28.34 0.0005657619    1.598    0.374
       242  -8.4930    212.8779    163.1929   5.3367083838e+01   6.1484637739e+00      0.19795      0.19673  80.83 0.0004392808    1.203    0.169
       243  -8.4618    204.9790    162.5239   5.4783451870e+01   7.8789910028e+00    0.2555055    0.2001836 -53.33 0.0006451576    1.535    0.349
       244  -9.3438      3.5619    162.2371   1.0010247691e+02   4.0263505150e+01    0.3778602    0.1552295  58.81  0.001985731    2.306    0.566
       245  -8.0565     58.9376    163.0000   8.8042370158e+01   3.4558143870e+01    0.1904038   0.07002413  35.12 0.0006083781    2.886    0.653
       246  -8.8931    177.4224    160.3674   6.0059303596e+01   1.4051571576e+01    0.3085151    0.2461182 -67.39 0.0009067036    1.561    0.360
       247  -8.8502    151.6114    160.6254   6.5853637402e+01   1.9391696190e+01    0.3082008    0.2335162 -85.37 0.0009378623    1.731    0.422
       248  -8.8276     60.8576    159.9858   8.7220246169e+01   3.4997304086e+01    0.3603847     0.183452  71.37  0.001134123    2.515    0.602
       249  -8.6715    227.2697    158.7814   4.9679890833e+01   3.9926270743e+00    0.3024748    0.2070235 -53.92 0.0009797449    1.960    0.490
       250  -9.7833    250.1904    157.4763   4.5318968021e+01  -1.9357412835e-01    0.3387333    0.1771856 -33.77 0.0008170058    1.808    0.447
       251  -9.1250    246.7298    155.3345   4.5451630923e+01   7.7540167530e-01    0.2000965     0.171902  23.01 0.0005441198    1.131    0.116
       252  -8.5514    237.2236    158.5999   4.7825572129e+01   2.0763864598e+00    0.2528135    0.1589455 -42.67 0.0008042809    1.730    0.422
       253  -8.0575    128.0620    158.9739   7.1015458613e+01   2.4422284241e+01    0.2335036    0.1702665  77.87 0.0008058985    1.654    0.395
       254  -9.6411    105.8227    157.7157   7.6115594063e+01   2.8759475525e+01     0.485174    0.3180089  87.54  0.001646721    1.970    0.492
       255  -8.6248    196.7176    157.6965   5.5419465808e+01   1.0464747680e+01    0.2732081    0.1963096 -49.18 0.0006894295    1.569    0.362
       256  -8.3500    188.1411    157.6373   5.7190401964e+01   1.2295277842e+01      0.24454    0.2015266 -53.71 0.0005579407    1.375    0.273
       257  -9.1815    167.6434    157.1751   6.1530089041e+01   1.6748307723e+01    0.3438034    0.2569066 -85.03 0.0009847657    1.930    0.482
       258  -8.6155    217.9528    156.3855   5.0916717920e+01   6.2683064783e+00    0.2628972    0.1935228 -50.65 0.0007172336    1.623    0.384
       259  -9.0212    157.6541    155.7088   6.3470309538e+01   1.9153157220e+01    0.3243136    0.2395664 -61.61  0.001549833    1.556    0.357
       260  -9.1796    119.7264    155.0607   7.2274844602e+01   2.6858681053e+01    0.4110583    0.2694336  87.82  0.001476435    2.183    0.542
       261  -9.4265     49.8138    155.2703   8.9229641667e+01   3.7411091212e+01    0.3823119    0.1986894  64.89  0.001615927    2.147    0.534
       262  -9.5892    241.2241    153.5951   4.6032112543e+01   2.0923420458e+00    0.4348113    0.3034905  84.16  0.001810212    3.263    0.694
       263  -7.9959    204.6576    154.9282   5.3203970936e+01   9.2859836896e+00    0.2021715    0.1325539 -48.22 0.0006199745    1.728    0.421
       264  -9.1711    144.7812    153.9294   6.6077677069e+01   2.2196094583e+01    0.4606057    0.2923845 -38.50  0.001413473    1.808    0.447
       265  -9.3852     68.3798    153.8623   8.4603685654e+01   3.5412522854e+01    0.4323141    0.2263557  69.25  0.001369386    2.513    0.602
       266  -9.6386    132.7166    152.7087   6.8691381540e+01   2.4886393683e+01    0.4605597    0.3082537  75.09  0.001112832    2.047    0.512
       267  -8.9904    133.5846    148.1785   6.7564761315e+01   2.5707819231e+01    0.3269478    0.2500799 -38.43  0.001047264    1.470    0.320
       268  -8.3533    182.7575    151.4046   5.6976341209e+01   1.4636559437e+01    0.2775956    0.1958086 -79.29   0.00103513    2.360    0.576
       269 -10.4170    148.8649    144.8386   6.3193054347e+01   2.3287614259e+01    0.6152331    0.4114519 -86.20  0.001590345    2.489    0.598
       270  -9.2240    151.9597    135.6474   6.0393137395e+01   2.4590303887e+01    0.5730083    0.2943043  31.96  0.002038833    2.570    0.611
       271  -8.8443     20.2380    152.2916   9.5734057831e+01   4.1065453550e+01     0.194802   0.09814586  70.14  0.001032195    2.023    0.506
       272  -8.6619      8.5830    153.0000   9.8371131266e+01   4.1864546553e+01    0.2050421   0.06370656  26.74 0.0009360612    3.945    0.747
       273  -8.9110      3.1158    151.1049   9.9411784102e+01   4.2683766924e+01    0.3063735   0.07880318 -69.56  0.001385338    2.759    0.638
       274  -8.8099    189.4685    149.9691   5.5228636519e+01   1.3453366907e+01    0.2878736    0.2321872 -65.52 0.0009754645    1.545    0.353
       275  -8.3150    162.6556    150.6069   6.1247664434e+01   1.9140042352e+01    0.2955749    0.2151634  85.11 0.0008709316    2.009    0.502
       276  -8.5587     98.4537    150.6159   7.6683275404e+01   3.1626694158e+01    0.3032922    0.1992105  82.56 0.0009475268    1.934    0.483
       277  -9.5326    248.8647    149.0585   4.3723067311e+01   1.3377947800e+00    0.3227825    0.1952427 -31.63 0.0007980019    1.547    0.354
       278  -8.7930    243.3062    149.7989   4.4838360445e+01   2.2867836037e+00    0.2513333    0.1572065 -35.22  0.001243125    1.536    0.349
       279  -8.3755    213.0833    149.6796   5.0373939774e+01   8.4343876212e+00    0.2373941    0.1980981 -45.74 0.0004974736    1.312    0.238
       280  -9.7525    233.5282    148.1047   4.6191512883e+01   4.4849131034e+00    0.3103877    0.2181985 -27.59 0.0008759479    1.377    0.274
       281  -9.9494     89.3786    146.1644   7.8181665537e+01   3.4128156174e+01    0.6687999    0.3559732 -89.35  0.002365387    3.488    0.713
       282  -9.7288     39.9241    147.7069   9.0681241982e+01   4.0223188807e+01    0.4986217    0.2319484  66.32  0.001869055    2.694    0.629
       283  -9.3336     78.4951    147.1572   8.1091837450e+01   3.5547948161e+01    0.2941274    0.1817815  65.10  0.001167234    1.828    0.453
       284 -10.3956     54.9791    144.4440   8.6581109349e+01   3.9294261254e+01    0.7735532    0.3624423  71.58  0.002941342    3.497    0.714
       285  -9.3867     55.5499    135.8253   8.5198215038e+01   4.1235991998e+01    0.4697004    0.2799829 -13.73  0.001817586    4.315    0.768
       286  -8.4572    223.4783    146.9359   4.7773802804e+01   6.7311583249e+00    0.2485488    0.2047627  65.27 0.0007207271    1.513    0.339
       287 -10.2184    106.6246    143.9804   7.3414547183e+01   3.1748326779e+01    0.7601045    0.4578456  84.96  0.002367192    2.777    0.640
       288  -9.4416     13.1275    145.9848   9.6777965946e+01   4.3050553158e+01    0.3032158    0.1681346  88.96  0.001465758    1.536    0.349
       289  -8.1202    206.8011    146.1499   5.0814056654e+01   1.0400044155e+01    0.2120178    0.2032541 -82.47 0.0005664584    1.220    0.180
       290  -8.3151    175.6577    146.1085   5.7341539495e+01   1.7224022808e+01    0.2334999    0.1883069 -64.91 0.0005989682    1.471    0.320
       291  -9.7861    139.1455    144.9381   6.5540459649e+01   2.5291783859e+01    0.4091205    0.2867995 -88.33  0.001255715    2.054    0.513
       292 -10.7163    241.1914    144.4516   4.4021625567e+01   3.5482133648e+00    0.6714514    0.3619177 -23.49  0.002925845    2.025    0.506
       293  -9.3680    247.0502    143.5684   4.2820053217e+01   2.5408069881e+00    0.2696922    0.1887177 -30.57 0.0005783063    1.333    0.250
       294  -8.0391    250.4847    140.5050   4.1562810242e+01   2.3558687472e+00    0.1900597    0.1263758  33.87 0.0006316122    1.577    0.366
       295  -8.6359    165.6055    143.9626   5.9109863134e+01   1.9863408605e+01    0.2775005    0.2100606  64.55 0.0006818195    1.498    0.333
       296  -9.7717    124.9469    142.4845   6.8508460699e+01   2.8680140282e+01    0.5226857    0.3469912 -85.77  0.001645521    2.212    0.548
       297  -7.7652    194.3314    143.6970   5.2790238810e+01   1.3572155545e+01    0.1496057    0.1223642 -89.20 0.0007035491    1.654    0.395
       298 -11.0388     69.5569    139.2431   8.2096967035e+01   3.8653783760e+01    0.8857118    0.3995456 -66.23  0.002855605    2.097    0.523
       299  -8.4529    198.9067    148.8976   5.3028091658e+01   1.1605798287e+01    0.2215339    0.1852572 -84.09 0.0005555446    1.610    0.379
       300  -8.3502    182.0765    141.6339   5.4917656850e+01   1.6686937893e+01    0.2584573    0.2078283 -56.47 0.0006836393    1.395    0.283
       301  -9.2144      2.4299    141.0692   9.8794718285e+01   4.4915464824e+01    0.3428669    0.1421985  81.68  0.001681829    2.481    0.597
       302  -9.9018     23.3485    137.7089   9.3564274879e+01   4.4069714526e+01    0.4921943    0.2317277  74.44  0.002048683    2.570    0.611
       303  -7.7625    218.4994    138.4615   4.6775399750e+01   9.2416589467e+00    0.1449242    0.1403211  -6.77 0.0002501239    1.066    0.062
       304  -8.4906    207.7458    137.7004   4.8678141697e+01   1.1719775300e+01    0.2765211    0.1890735 -60.95 0.0008681533    2.011    0.503
       305  -8.4892    197.6277    137.4151   5.0649357676e+01   1.4019773265e+01    0.2835274    0.2146839 -62.74 0.0008792498    1.675    0.403
       306  -8.6297    172.1785    137.8737   5.6227972887e+01   1.9648890966e+01    0.3004223    0.2285486 -87.51 0.0008025059    1.854    0.461
       307  -9.1598    139.4686    137.3869   6.3813543343e+01   2.6879546301e+01     0.357981    0.2462536  -3.30  0.001219791    2.702    0.630
       308  -9.0770    248.4298    134.8980   4.0645630738e+01   3.6393321719e+00    0.2854788    0.2211207 -32.51 0.0007744769    1.209    0.173
       309  -8.7339    250.7932    129.8742   3.9119063650e+01   3.9672732511e+00    0.4923947    0.1190917 -31.90  0.001399639    4.464    0.776
       310  -8.4766    162.6440    136.1678   5.8002353519e+01   2.2128093341e+01     0.261579    0.2105932  61.92 0.0006603134    1.322    0.244
       311  -9.3144     38.9316    135.9198   8.9479260502e+01   4.3035051376e+01    0.2632236    0.1716656  57.64 0.0008141327    1.595    0.373
       312  -7.9254    187.5644    135.4949   5.2300987490e+01   1.6651139780e+01    0.1510027    0.1490203  29.09 0.0001019518    1.037    0.035
       313  -7.9312    125.6234    135.6725   6.6888246460e+01   3.0081396833e+01    0.1554274    0.1220191  -3.85 0.0007024404    1.838    0.456
       314 -10.3843     83.5352    132.9340   7.7327076147e+01   3.8129521576e+01    0.5378169    0.2989981 -74.02  0.001431906    2.099    0.524
       315  -8.0680    231.4511    133.9651   4.3351271930e+01   7.2558173020e+00    0.2140786     0.135514 -35.10 0.0004277071    1.514    0.340
       316  -8.7049    179.4420    133.6709   5.3623217718e+01   1.8852595962e+01    0.3123083    0.2326878 -72.14 0.0008704104    1.826    0.452
       317  -7.9153    237.5231    133.5057   4.2177249242e+01   6.0675783024e+00    0.1420531    0.1325016 -20.08 0.0008094432    1.062    0.058
       318  -9.8725    132.1047    131.0296   6.4211153972e+01   2.9815261204e+01    0.4787284    0.3088693 -76.59  0.001032542    2.326    0.570
       319  -8.8701    112.7333    132.9575   6.9615207624e+01   3.3177658382e+01    0.3226775    0.2219162  66.36 0.0009127218    1.731    0.422
       320  -9.2449    142.9165    131.5449   6.1633077432e+01   2.7430928252e+01    0.3151457    0.2553877 -83.29 0.0008274308    1.470    0.320
       321 -10.0108     97.8496    129.3968   7.2804280012e+01   3.6654900657e+01    0.6419889    0.2230022 -52.72  0.002269064    2.707    0.631
       322  -9.9034     12.9608    128.9729   9.5199583688e+01   4.6863410726e+01    0.4607146    0.2196556  75.94  0.001872783    2.395    0.583
       323  -8.3066    247.0136    130.0277   3.9772424397e+01   4.6980071603e+00    0.2155943    0.1892521 -29.28 0.0005463673    1.087    0.080
       324  -8.0940    204.5176    130.0301   4.7498234437e+01   1.3842598373e+01    0.2255792    0.1475421 -39.08 0.0005851659    1.526    0.345
       325  -7.8907    192.8435    129.9016   4.9846521329e+01   1.6525625296e+01    0.2060948    0.1801329 -65.79  0.000420695    1.313    0.238
       326  -9.1191    168.3590    129.3510   5.5065009643e+01   2.2251254128e+01    0.3095791    0.2484576  89.26 0.0005132004    1.597    0.374
       327  -9.7191     29.6003    150.8311   9.3456858624e+01   4.0541618998e+01    0.4110872    0.1854891  71.67  0.001838105    2.718    0.632
       328  -9.6093    153.0075    128.6817   5.8501072503e+01   2.5849334327e+01    0.4994071    0.2577363 -54.75  0.001241619    2.267    0.559
       329 -10.0543     73.2818    128.8999   7.9344165237e+01   4.0577093734e+01    0.4463125     0.279984 -84.42  0.001356033    1.883    0.469
       330  -7.8176    220.5020    129.5750   4.4314241691e+01   1.0360526658e+01    0.1465581    0.1399093  -1.26 0.0001430891    1.017    0.017
       331  -8.0098    211.5487    128.8276   4.5831158466e+01   1.2478602792e+01    0.2155001    0.1367593 -49.34 0.0009319608    1.754    0.430
       332 -10.7295     45.0512    123.5012   8.6128346030e+01   4.5297999122e+01     1.040906    0.4965014  78.32  0.003797865    3.969    0.748
       333  -9.8485    117.9025    124.9439   6.6488665265e+01   3.4032797751e+01    0.5768037     0.373296  81.17  0.001599715    2.542    0.607
       334  -7.7279    228.5223    125.4575   4.1877010368e+01   9.3229657731e+00    0.1449547    0.1382469 -29.63  0.000807661    1.073    0.068
       335  -8.9141    179.2196    124.5924   5.1461874292e+01   2.0711015249e+01    0.3124217    0.2469831 -78.76 0.0006630294    1.651    0.394
       336 -10.2750     28.5614    122.0807   9.0375254413e+01   4.7200247581e+01    0.7002655    0.3175174  77.66  0.002798643    3.542    0.718
       337  -8.0129    243.8637    124.1267   3.8931663036e+01   6.2933028406e+00    0.1961568    0.1593092  -2.09 0.0004935195    1.299    0.230
       338  -9.0778    235.4731    123.9600   4.0306669337e+01   8.0819397903e+00    0.2853419    0.1847507 -80.20  0.001042818    3.473    0.712
       339  -7.6744    188.3659    123.7148   4.9270363233e+01   1.8751951323e+01    0.1580845     0.124982 -89.32 0.0007019932    1.694    0.410
       340  -8.1982    194.7642    121.3823   4.7353613959e+01   1.7705457620e+01    0.2866449    0.1793775 -48.80 0.0005710743    1.723    0.420
       341  -9.1259    158.7015    121.3100   5.5330664053e+01   2.6128683650e+01    0.3699395    0.2717786 -81.72    0.0011423    1.932    0.482
       342  -8.9763     84.3100    122.3704   7.5061985810e+01   4.0498485967e+01    0.2783352    0.1832408  10.18   0.00120741    2.536    0.606
       343  -8.5441    171.9273    121.3313   5.2271904530e+01   2.3066122937e+01    0.2624301    0.2119002 -52.50 0.0004547162    1.306    0.234
       344 -10.5183     60.3151    125.2723   8.2242479851e+01   4.3139804072e+01    0.7791398    0.4120868  80.09  0.003017335    3.261    0.693
       345  -9.6883     71.0857    119.4139   7.8180652105e+01   4.3120258759e+01     0.426432    0.2110368 -70.63  0.001183854    2.269    0.559
       346  -9.8679    141.7579    118.3562   5.8732701464e+01   3.0562500345e+01    0.5098593    0.3478792 -74.72  0.001291428    2.112    0.527
       347 -10.0143    130.8983    118.5095   6.1549290974e+01   3.2859413828e+01    0.4785422    0.3243699 -88.32  0.001226185    2.390    0.582
       348  -9.6037      2.8867    117.3101   9.6558800997e+01   5.0139818891e+01    0.4022998    0.1829907  79.05  0.002003758    2.501    0.600
       349  -7.9439    231.5591    117.5034   3.9442774379e+01   1.0014341379e+01     0.146004    0.1368016 -27.09 0.0001456998    1.032    0.031
       350  -8.2549    185.8787    115.9255   4.7834873546e+01   2.0849953598e+01    0.2473405    0.1911835 -74.51 0.0006771539    1.691    0.408
       351  -9.9306    109.3237    113.9520   6.6225671233e+01   3.8185068147e+01     0.543362    0.3527252 -78.68  0.001611834    2.276    0.561
       352  -8.9250    109.9811    106.8256   6.4280138644e+01   3.9681555817e+01    0.3385089    0.2251238 -13.68   0.00132602    2.596    0.615
       353  -8.7488     58.4914    115.4967   8.1026197646e+01   4.5665268990e+01    0.2572796    0.1605048 -34.26  0.001251678    2.076    0.518
       354 -10.6485     65.4594    112.0397   7.8350533762e+01   4.5606627980e+01    0.6484778    0.3263251 -50.71 0.0004901752    1.817    0.450
       355  -8.4868    192.9909    115.1387   4.6143856914e+01   1.9310639449e+01    0.2359149    0.2087361 -74.92 0.0004835519    1.292    0.226
       356  -7.6232    153.3103    115.6362   5.5183863884e+01   2.8557634161e+01     0.164958     0.125947 -83.12  0.000703953    1.752    0.429
       357 -10.0790     92.8363    112.4187   7.0503342463e+01   4.1461461601e+01    0.5118568    0.3293926 -74.35  0.001324026    1.940    0.485
       358  -8.0627    167.5433    114.4270   5.1507099454e+01   2.5499552922e+01    0.1565292    0.1532486  66.65 0.0003363744    1.030    0.029
       359  -9.8964     78.9183    112.2805   7.4482891501e+01   4.3683033091e+01    0.5199395    0.3462082  87.97  0.001965735    2.075    0.518
       360  -8.2879     78.4843    105.0009   7.2998282947e+01   4.5444887152e+01    0.2996718    0.1474899 -38.12   0.00117751    2.531    0.605
       361 -10.0992    133.6852    109.3394   5.8494558782e+01   3.4288367423e+01    0.6292791    0.3303879 -54.47  0.002112975    2.128    0.530
       362  -9.8160    122.1578    112.4826   6.2360302886e+01   3.6010163907e+01    0.3260475    0.2631232 -65.58 0.0005959696    1.320    0.243
       363  -8.4769    174.8764    111.7567   4.9151692710e+01   2.4295942578e+01    0.2920915    0.2003992 -65.69 0.0007022881    1.952    0.488
       364  -8.8414    159.0674    111.5443   5.2736285963e+01   2.8083599130e+01    0.2922644    0.2171208 -58.40 0.0006225434    1.505    0.336
       365  -8.3363    142.3335    112.3076   5.7044104989e+01   3.1746524793e+01    0.1596331    0.1263414   4.82 0.0005394212    1.669    0.401
       366  -9.7107     14.1125    110.4935   9.2805091605e+01   5.0959882450e+01    0.4129727    0.1999832  89.36   0.00162885    2.246    0.555
       367 -11.2284    248.5703    105.6432   3.3837985987e+01   8.2976752470e+00    0.9242421    0.2977207 -34.14  0.003209523    2.851    0.649
       368  -8.2487    189.4705    107.5177   4.4900212782e+01   2.1605498893e+01    0.2647716    0.1425863 -48.26 0.0007142406    2.008    0.502
       369  -9.9023    119.0028    105.7168   6.1485120770e+01   3.8159726396e+01    0.4007229    0.2941588 -64.55  0.001304471    1.530    0.346
       370 -10.7410    108.9148     98.5458   6.2423134274e+01   4.1739734965e+01    0.8705423    0.4911129  66.61  0.001280162    3.318    0.699
       371  -8.7409    107.7570     92.3946   6.1075904462e+01   4.3314927064e+01    0.2834367    0.2482162 -32.97  0.000882436    1.141    0.124
       372 -10.4741     45.8125    102.1546   8.2285248380e+01   5.0200352570e+01    0.6995072    0.3780964  73.99  0.002857197    3.325    0.699
       373 -10.7301     22.8065    102.3409   8.9209733938e+01   5.2195354830e+01    0.7044898    0.3597426  76.65  0.002433368    2.876    0.652
       374  -9.5693    150.6000    102.5530   5.2373885493e+01   3.1928519819e+01    0.5486674    0.2979741 -55.47  0.001672914    2.261    0.558
       375  -9.5777    139.9491    103.8876   5.5418650081e+01   3.4085157686e+01    0.5356795    0.3091983 -46.47  0.001867617    1.741    0.426
       376  -8.7925     93.6552    104.3829   6.8359211577e+01   4.3178724288e+01    0.3639346    0.2408331  -6.48   0.00145529    2.776    0.640
       377  -8.5044    166.7976    103.8966   4.8885375333e+01   2.7807998822e+01    0.2942521    0.2115892 -60.46 0.0006999514    1.643    0.391
       378  -9.6584    128.7104    102.0825   5.7879575464e+01   3.6938214539e+01    0.3705954     0.293873 -86.81 0.0009354758    1.615    0.381
       379  -8.7728      6.8891    102.7736   9.3861742236e+01   5.3152617095e+01    0.2266726    0.1222086  80.28 0.0009572743    2.081    0.519
       380  -7.9155    175.5846    101.7931   4.6338881906e+01   2.6090759318e+01    0.2256693     0.147019 -50.29 0.0004990554    1.646    0.392
       381  -8.5941    159.7994    100.7230   4.9649080967e+01   3.0128495507e+01    0.3053541    0.2113576 -51.83  0.000532429    1.545    0.353
       382  -9.2405     82.2510     99.8492   7.0651927167e+01   4.6064199308e+01     0.357948    0.2460809 -80.03 0.0009353017    1.904    0.475
       383  -9.2454     95.1332     96.7976   6.6000214364e+01   4.4647601109e+01    0.3035805    0.2401838 -60.73 0.0005704153    1.272    0.214
       384 -10.0331     64.0748     95.7835   7.5303632731e+01   4.9564914439e+01    0.5227243    0.3280251  82.52  0.001691278    2.686    0.628
       385  -7.9761    150.1230    110.1276   5.4528276532e+01   3.0452060666e+01     0.220768    0.1902558 -81.97 0.0004968231    1.333    0.250
       386  -8.1538    164.5638     93.9604   4.6650398554e+01   3.0321071744e+01    0.2378803    0.1559074 -39.70 0.0004689003    1.535    0.349
       387  -7.8001    182.8415    109.5720   4.6837817295e+01   2.2812483401e+01    0.2098794    0.1524314  65.19 0.0004601574    1.565    0.361
       388  -8.3557    176.4678     93.0667   4.3743936775e+01   2.7553630744e+01    0.2515452    0.2172913 -76.16  0.000627028    1.311    0.237
       389  -9.2895    138.9944     91.9977   5.2340457611e+01   3.6793520248e+01    0.4307826    0.3117366 -76.45 0.0008441735    1.974    0.493
       390  -9.7231    124.5671     90.7156   5.5826235650e+01   4.0256306734e+01    0.4315643    0.3746159 -66.29 0.0009034899    1.263    0.208
       391  -9.0368    120.6782     92.6844   5.7468181124e+01   4.0660610229e+01    0.2628415    0.2234389   6.40  0.001307394    1.371    0.270
       392  -9.1833     46.4708     92.1699   8.0095566630e+01   5.2430025287e+01    0.3873938    0.2162395   8.91  0.001807141    2.783    0.641
       393  -9.6335      5.1649     91.7336   9.2936996479e+01   5.5708295110e+01    0.2936154    0.1844606  72.92  0.001333402    1.838    0.456
       394  -9.5631     34.8193     89.5480   8.3307474160e+01   5.4137468698e+01    0.4464782    0.2365181 -84.76  0.001493609    2.629    0.620
       395  -8.1108    157.5958     91.5061   4.7580561597e+01   3.2501869561e+01    0.1564045    0.1537711 -59.39 6.859874e-05    1.032    0.031
       396  -7.9074    151.3462     89.1642   4.8409596448e+01   3.4471954521e+01    0.2282929    0.1430438 -49.00 0.0005159137    1.688    0.408
       397 -10.0357     86.5529     86.4765   6.5859185388e+01   4.8387919295e+01    0.4664795    0.3358104  83.76  0.001332518    2.176    0.540
       398  -9.7270     48.5606     84.1780   7.7655305581e+01   5.4019981197e+01    0.4593329    0.2908647  73.68  0.001768464    2.603    0.616
       399  -7.5024    179.2861     85.6263   4.1048802081e+01   2.8237628424e+01    0.1662239    0.1219333 -68.34 0.0007018055    1.715    0.417
       400  -9.7807    104.7963     82.9756   5.9244947763e+01   4.5904271120e+01    0.4524015    0.3285548 -76.90  0.001030942    2.004    0.501
       401  -8.6646    105.2192     76.9181   5.7287808195e+01   4.7082581515e+01    0.3153306    0.2150639  -4.20 0.0008874823    2.220    0.549
       402  -8.3545    158.0782     83.6872   4.5192392634e+01   3.3901835358e+01    0.2701821     0.209737 -49.30 0.0005145882    1.341    0.254
       403  -9.2562    140.9491     82.5239   4.9043925865e+01   3.8248695536e+01    0.3298478    0.2216045 -45.40 0.0008513455    1.515    0.340
       404  -7.8392    185.4802     82.4789   3.8886286036e+01   2.7240291066e+01     0.156895    0.1520145 -78.94 2.183665e-05    1.042    0.041
       405  -8.1780     64.2095     82.2732   7.1967785003e+01   5.2596249046e+01    0.1816251    0.1506765 -76.79 0.0006847261    1.362    0.266
       406  -9.0825     22.7575     89.9852   8.7238283126e+01   5.5000991132e+01    0.3027002    0.1852676 -40.25  0.001650572    1.665    0.399
       407  -9.6167     24.6597     80.3655   8.4858355237e+01   5.7013626655e+01    0.3992929    0.2360953 -89.92  0.001370317    2.227    0.551
       408  -9.3674     10.0442     80.8452   8.9784310560e+01   5.7849199499e+01    0.3242297    0.1664257  52.02  0.001724643    2.681    0.627
       409  -8.8768     74.6419     80.0991   6.7926223491e+01   5.1630002972e+01    0.3359562    0.2191698 -73.83  0.001147349    2.197    0.545
       410  -8.2584    150.3528     79.9239   4.5913043460e+01   3.6508283033e+01    0.3081639    0.1359703 -46.16  0.001061457    2.429    0.588
       411  -8.7891    119.3010     79.4969   5.3960153354e+01   4.3695718734e+01    0.3514147     0.241498 -49.43  0.001218343    1.502    0.334
       412  -8.9892     66.1328     87.0902   7.2563867920e+01   5.1270531384e+01    0.5650209    0.2687621  15.36  0.001959393    4.289    0.767
       413  -8.0114    166.9255     79.3662   4.1899078763e+01   3.2506335185e+01    0.2163961    0.2000978  53.03 0.0004217114    1.067    0.063
       414  -8.1525    184.3267     78.1356   3.7881995256e+01   2.8304540990e+01     0.227423    0.1376202 -43.78 0.0006410474    1.672    0.402
       415  -7.6122    170.6506     83.3111   4.2233707284e+01   3.0841107449e+01     0.165251    0.1254042 -78.81 0.0007045378    1.716    0.417
       416  -8.8376    140.5151     75.2872   4.6939619935e+01   3.9748724596e+01     0.266729    0.2136928 -58.02 0.0006325278    1.400    0.286
       417  -9.3655    128.1582     75.1222   5.0140612505e+01   4.2630223949e+01    0.3548358    0.2465889 -56.83 0.0007616457    1.697    0.411
       418 -10.0138     63.0416     73.2786   6.9935621386e+01   5.4708021474e+01    0.4503523    0.2670192 -63.91  0.001059844    1.938    0.484
       419  -9.6784     82.3304     72.2325   6.3089771976e+01   5.2121610625e+01    0.3844749    0.2576632 -61.66 0.0009388597    1.778    0.438
       420  -8.1097    163.4990     73.0940   4.0784582112e+01   3.4507180457e+01     0.238738    0.1546468 -38.07  0.001018551    1.559    0.359
       421  -8.0916    151.5078     73.0351   4.3529500154e+01   3.7512268693e+01    0.2354385    0.1541069 -38.67 0.0006774151    1.543    0.352
       422  -8.4387    115.6529     72.7393   5.2892442038e+01   4.5812003695e+01    0.2546806      0.18471 -50.10 0.0004302046    1.453    0.312
       423  -7.6946    175.4592     72.4317   3.8022860512e+01   3.1574588805e+01     0.155149    0.1513378  52.55  0.000222264    1.019    0.018
       424  -9.2697    105.8791     71.5399   5.5400684135e+01   4.8038505651e+01    0.2846922    0.2081529 -50.43 0.0007595812    1.427    0.299
       425  -9.2415     95.3089     71.0548   5.8519118394e+01   5.0138037507e+01    0.3926535    0.2645104 -65.75  0.001130648    2.084    0.520
       426  -8.4047     42.6830     72.3521   7.6836583262e+01   5.7232846762e+01    0.1851342    0.1445033  82.69 0.0007781194    1.712    0.416
       427  -9.3582     51.5259     69.3995   7.2910341311e+01   5.6934781211e+01    0.4365107    0.2389983 -72.04  0.001512045    2.789    0.641
       428  -9.1520     29.4139     70.1304   8.1040531494e+01   5.8895418202e+01     0.326545    0.1601275 -22.41   0.00146422    3.088    0.676
       429  -9.1441     16.6278     70.0078   8.5573895593e+01   5.9827076122e+01    0.2296977    0.1673986  86.63 0.0008963245    1.647    0.393
       430  -8.8610    147.3424     68.1953   4.3016773200e+01   3.9411035561e+01    0.3365265    0.2477817 -59.28 0.0006904181    1.620    0.383
       431  -8.9441    121.8119     65.7754   4.8882079520e+01   4.5815468770e+01    0.3148768    0.2366676 -55.83  0.000626519    1.546    0.353
       432  -8.5307    138.7668     65.9949   4.4437200936e+01   4.1878704158e+01    0.2800198    0.2094279 -55.41  0.000831029    1.536    0.349
       433  -8.8116     64.5081     63.3590   6.6490557766e+01   5.6590346990e+01    0.4374545    0.2213511 -22.96  0.001626492    3.426    0.708
       434  -8.8250     37.3049     63.9220   7.6627273689e+01   5.9549771869e+01    0.2724065    0.1847653 -80.17  0.001234453    1.986    0.496
       435  -8.9690    110.2162     63.4146   5.1437394141e+01   4.8730119158e+01    0.3142831    0.2365762 -60.49 0.0006762504    1.661    0.398
       436  -7.7795    157.2612     69.6494   4.1137721413e+01   3.6691654411e+01    0.1585822     0.120731 -66.41 0.0003181243    1.610    0.379
       437  -8.1570    158.2138     61.4430   3.8358416706e+01   3.7865962021e+01    0.2077542    0.1500797  69.81 0.0003820069    1.541    0.351
       438  -9.2449     97.8140     60.3632   5.4208724813e+01   5.1758130492e+01    0.3128126    0.2551449  60.84 0.0009557702    1.513    0.339
       439  -9.6231     73.3465     59.2089   6.2016576670e+01   5.6156142231e+01    0.3792386    0.2279311 -53.91  0.001179592    1.807    0.446
       440  -9.7951     23.4164     56.0903   7.9878429201e+01   6.2322941450e+01    0.4215752    0.2539486  89.58  0.001907472    3.050    0.672
       441  -9.6084      7.3796     56.8500   8.6243435617e+01   6.3138918129e+01    0.2972813    0.1784853 -75.64  0.001480048    1.678    0.404
       442  -8.0217    130.7257     57.5607   4.3720733848e+01   4.5255470065e+01    0.1993733    0.1467712  62.64 0.0005366171    1.517    0.341
       443  -8.3979    140.0657     56.0198   4.0833953413e+01   4.3288799661e+01    0.2339435    0.1828795 -67.38 0.0005366071    1.617    0.381
       444  -8.8012    119.2883     55.6459   4.6162891798e+01   4.8186105046e+01    0.2912168    0.2351238 -74.00 0.0007571909    1.682    0.405
       445  -8.6252     44.2833     55.4183   7.1571590020e+01   6.0625025389e+01    0.2257728    0.1738912 -74.37  0.000693229    1.701    0.412
       446  -9.1380     62.7791     54.0979   6.4131968994e+01   5.8668094862e+01    0.3883192    0.1753452 -52.70  0.001628343    2.331    0.571
       447  -8.8095     54.1356     53.6899   6.7246668575e+01   5.9857924522e+01     0.346565    0.1695018 -59.74  0.001090463    2.637    0.621
       448  -8.4863    105.8890     53.0980   4.9171249168e+01   5.1481141430e+01    0.2156909    0.1964903 -62.56 0.0005623873    1.317    0.241
       449  -9.4790     92.4514     50.2926   5.2389886435e+01   5.4595032161e+01    0.3945301    0.2358416 -49.22  0.001152805    1.917    0.478
       450  -8.3551    144.6566     48.7705   3.7305452032e+01   4.3321332696e+01    0.2093629    0.1359378 -40.89  0.000537995    1.614    0.380
       451  -7.9575    129.8383     48.8233   4.0948111376e+01   4.6905435760e+01    0.1980916    0.1747246 -58.90  0.000385793    1.306    0.234
       452  -8.4325    120.8171     47.1229   4.2736151119e+01   4.9258536696e+01    0.2162789    0.1982855 -50.46 0.0006125958    1.225    0.184
       453  -8.1603    112.3331     46.9288   4.5044577190e+01   5.1164238044e+01    0.2020228    0.1774283 -26.44 0.0005296677    1.137    0.121
       454  -9.0378     82.2546     46.4029   5.4388436312e+01   5.7097345910e+01    0.2649039     0.224613 -61.65 0.0008189352    1.550    0.355
       455  -8.6593     44.9983     44.4809   6.7758370474e+01   6.2689466670e+01    0.2193971    0.1597506 -55.58 0.0006050603    1.485    0.326
       456  -8.9379     16.8416     44.5004   7.9439223219e+01   6.5119770994e+01    0.2004351    0.1631505 -76.41 0.0006815369    1.495    0.331
       457  -8.2918    132.8378     43.1006   3.8182455907e+01   4.7073822039e+01    0.2201268    0.2010232 -67.10 0.0004647334    1.266    0.210
       458  -9.3161     69.8138     41.5972   5.7036423611e+01   5.9952803087e+01    0.3165858    0.2476522 -63.49  0.001108096    1.862    0.463
       459  -8.7803     58.1992     42.2729   6.1712878628e+01   6.1496422310e+01     0.302226    0.2080501 -59.93  0.001144126    1.986    0.497
       460  -9.7551      5.1991     41.8796   8.3643012510e+01   6.6291127678e+01    0.3220549    0.1716291 -74.61  0.001601942    2.194    0.544
       461  -8.4686     92.6541     42.6606   4.9487604895e+01   5.5852418304e+01    0.2262137    0.1576353   4.62  0.001108898    1.709    0.415
       462  -8.7546    105.9103     41.1324   4.4778886311e+01   5.3449568089e+01    0.2066271    0.1941641 -59.74 0.0005417407    1.291    0.225
       463  -8.5950     36.9757     40.5401   6.9717115294e+01   6.4263699603e+01    0.2145186     0.158565 -58.41 0.0007075149    1.524    0.344
       464  -8.7864     95.6985     37.9137   4.6683227407e+01   5.6020420295e+01    0.2426994    0.1820498 -46.26 0.0007893099    1.547    0.354
       465  -8.4610    152.6848     35.9306   3.1223003006e+01   4.3147572257e+01    0.2284611    0.1808748   7.88 0.0006927702    1.469    0.319
       466  -7.5834    133.3282     36.3071   3.5649449567e+01   4.7934068457e+01    0.1553244    0.1061593  25.89 0.0007037947    1.656    0.396
       467  -7.9858     80.5669     36.4931   5.1169178583e+01   5.9044757644e+01    0.1330799    0.1195532 -10.27 7.857732e-05    1.075    0.070
       468  -9.3834     26.2635     35.2489   7.2522025978e+01   6.6215205611e+01    0.2558978    0.1769637 -57.12 0.0007877313    1.503    0.335
       469  -7.9405    126.0073     35.4645   3.7141780777e+01   4.9800538691e+01     0.211172    0.1363512  52.56 0.0003559883    1.476    0.322
       470  -8.4600    111.7380     34.2520   4.0478490537e+01   5.3221315081e+01    0.2138025    0.1751436 -47.44 0.0006582079    1.430    0.301
       471  -8.1922    118.9505     32.6440   3.7909830021e+01   5.1827763184e+01    0.2791794    0.1760291 -46.76 0.0008816624    1.908    0.476
       472  -8.8992     60.8562     32.2920   5.6803956452e+01   6.2847640703e+01    0.2069593    0.1609672 -39.58  0.000586904    1.330    0.248
       473  -8.8531     48.5468     33.0541   6.2103113276e+01   6.4347248788e+01    0.1911565     0.173584  35.98 0.0006256229    1.451    0.311
       474  -8.5598     72.0906     31.0330   5.2003379694e+01   6.1329541345e+01      0.19859    0.1730796  -8.81 0.0005871123    1.056    0.053
       475  -8.9104    132.6471    247.9547   8.2941651962e+01   6.9468166699e+00    0.3263991    0.1720841  63.94  0.001039614    2.323    0.570
       476  -8.7964     81.5885     27.1844   4.7010584676e+01   6.0273589280e+01    0.2702048    0.2125885 -54.04 0.0009233679    1.776    0.437
       477  -9.2579      3.7971     27.4046   8.0231311170e+01   6.9143448659e+01    0.2324148    0.1358713 -72.66  0.001066082    2.210    0.548
       478  -7.4399    137.3169     27.6784   3.1639268105e+01   4.8092332744e+01    0.1446782    0.1118399 -69.19 0.0004054545    1.663    0.399
       479  -8.9097     91.9035     26.1779   4.3175997207e+01   5.8471341524e+01    0.2981358    0.1736778 -40.21 0.0008058312    1.901    0.474
       480  -8.0293     34.9063     22.9374   6.3979339638e+01   6.7584413141e+01    0.1579415    0.1481759 -78.66  0.001116458    1.720    0.419
       481  -8.5028    104.4318     22.2781   3.7811727336e+01   5.6399487064e+01    0.1835508    0.1242769 -36.81 0.0009400386    1.616    0.381
       482  -9.0523     63.6958     20.7692   5.0788616089e+01   6.4189524726e+01    0.2777215    0.1948274 -44.32 0.0009430182    1.740    0.425
       483  -8.8860     48.3096     21.3119   5.7332738733e+01   6.6290499396e+01    0.2347102     0.170708 -38.22 0.0006881083    1.391    0.281
       484  -8.0620    120.6197     20.7791   3.2958016811e+01   5.2943245159e+01    0.1861828    0.1262695 -35.76 0.0005433341    1.605    0.377
       485  -7.7254    117.2890     21.6725   3.4131499013e+01   5.3610430713e+01    0.1335296     0.109038 -63.87 0.0003023005    1.616    0.381
       486  -8.2721     19.4222     21.1667   7.0565016600e+01   6.9282805268e+01    0.1517386   0.09642857 -55.70 0.0007601585    1.730    0.422
       487  -8.8041     74.1463     19.2943   4.6221863082e+01   6.2677296388e+01    0.2338717     0.171193 -33.30 0.0007679374    1.429    0.300
       488  -7.6689     11.6545     20.3031   7.4038294265e+01   6.9984130460e+01   0.09334806   0.08689911  85.69  0.000659389    1.687    0.407
       489  -8.1205     39.0186     18.2996   6.0114019394e+01   6.7880416314e+01    0.1630451     0.131952  -8.78 0.0005046171    1.078    0.072
       490  -8.1658     87.7468     17.2231   4.0698733247e+01   6.0438431691e+01    0.1932178    0.1545997 -36.99  0.001133372    1.450    0.310
       491  -7.9640    112.5901     16.5135   3.3289342289e+01   5.5275316692e+01    0.1369428    0.1218302  26.11 9.062493e-05    1.017    0.016
       492  -8.2303     30.0567     15.9908   6.3279830103e+01   6.9198177507e+01    0.1544512    0.1394979 -53.85 0.0005989371    1.651    0.394
       493  -8.0521     97.0197     14.9420   3.6888547864e+01   5.8837865059e+01    0.1637644    0.1394526  -0.66 0.0005758619    1.119    0.106
       494  -8.2116    101.4986     29.0279   4.1387005042e+01   5.6140852606e+01    0.1996138    0.1306917 -30.59 0.0005264768    1.539    0.350
       495  -8.9582    243.0656    246.4708   6.3086330196e+01  -1.0499437170e+01    0.2984807    0.1497058 -21.89  0.001712522    2.285    0.562
       496  -8.7938    232.4952    246.6380   6.4915422951e+01  -8.9511984396e+00    0.2385762    0.1482124 -29.67 0.0009492121    1.881    0.468
       497  -8.0588    235.0027    243.0000   6.3920269599e+01  -8.9304754554e+00    0.2036483    0.1057268  21.42  0.001060749    1.921    0.480
       498  -8.5763    218.5023    247.2199   6.7430714004e+01  -6.8744320771e+00    0.2497935    0.1140914 -35.70  0.001347355    2.672    0.626
       499  -9.0739    175.5065    247.5616   7.5144992220e+01   6.6973562955e-03    0.2748983    0.1813434  60.07  0.001326362    1.810    0.448
       500  -8.8199    156.2943    248.0159   7.8678817462e+01   3.1022592430e+00    0.2161867    0.1346517  57.09 0.0007763263    1.597    0.374
       501  -8.1354    113.3209    248.2013   8.6420316262e+01   9.9405005057e+00    0.1489936   0.09935361 -83.71 0.0009269249    1.805    0.446
       502  -9.1051    103.7309    246.4653   8.7950641797e+01   1.1676640736e+01    0.3813641    0.1895798 -84.98  0.001860263    3.209    0.688
       503  -9.9466    223.8751    243.7292   6.5964049301e+01  -7.3091124087e+00    0.3931451    0.2254364 -43.32  0.002282672    2.470    0.595
       504  -9.1570    120.0070    245.1454   8.4915603030e+01   9.3872358953e+00    0.2745005     0.169497  87.53  0.001560844    2.211    0.548
