#   1 NUMBER                 Running object number                                     
#   2 MAG_AUTO               Kron-like elliptical aperture magnitude                    [mag]
#   3 X_IMAGE                Object position along x                                    [pixel]
#   4 Y_IMAGE                Object position along y                                    [pixel]
#   5 X_WORLD                Barycenter position along world x axis                     [deg]
#   6 Y_WORLD                Barycenter position along world y axis                     [deg]
#   7 A_WORLD                Profile RMS along major axis (world units)                 [deg]
#   8 B_WORLD                Profile RMS along minor axis (world units)                 [deg]
#   9 THETA_WORLD            Position angle (CCW/world-x)                               [deg]
#  10 FWHM_WORLD             FWHM assuming a gaussian core                              [deg]
#  11 ELONGATION             A_IMAGE/B_IMAGE                                           
#  12 ELLIPTICITY            1 - B_IMAGE/A_IMAGE                                       
         1 -11.4529     80.3273     23.4512   8.7288930537e+01   5.9495412830e+01    0.5673541    0.2291439  37.17 0.0006592073    2.372    0.578
         2  -9.0148     46.4458     20.5206   9.7865056567e+01   6.5177582343e+01    0.3384874    0.1934037 -17.05  0.001596014    1.724    0.420
         3  -9.6123     74.4698     13.4948   8.5246775547e+01   6.1607480575e+01    0.4402166    0.2369811   3.40  0.002169288    2.484    0.597
         4  -9.3712     79.0167     12.6374   8.3535564722e+01   6.0880293291e+01    0.3989803    0.1982669  47.90  0.001560626    1.789    0.441
         5  -9.2951     63.7830     14.5423   8.9123418407e+01   6.3302827414e+01    0.4632494    0.2146475  18.25  0.001962926    3.327    0.699
         6  -9.0652    134.1625     13.5764   7.0816621284e+01   4.9310017478e+01    0.2572049    0.1944374  29.58  0.000269659    1.414    0.293
         7  -8.2231    137.0000     10.0304   6.9219558778e+01   4.8987568718e+01    0.1726678    0.1449077 -71.85 0.0005286226    1.377    0.274
         8  -8.7604    106.8054     13.2909   7.6440250572e+01   5.5360374331e+01     0.431073    0.1649689  31.88  0.001547183    3.927    0.745
         9  -8.2980     87.8831     13.2586   8.1239672774e+01   5.9166322724e+01    0.2281027    0.1337762  16.53 0.0007406202    1.961    0.490
        10  -8.1326     97.3270     11.9525   7.8268338396e+01   5.7434511874e+01    0.2315844    0.1364114  32.70 0.0006788321    1.604    0.377
        11  -9.2792     32.0996     10.9263   9.9647515610e+01   6.8149172475e+01    0.2932454    0.1499425  15.71 0.0004579247    2.063    0.515
        12  -8.5313    129.9897     10.2954   7.0578688191e+01   5.0562802234e+01     0.226776    0.1842874  44.50 0.0007404704    1.117    0.105
        13  -8.5831    125.2090     10.3068   7.1499145948e+01   5.1637125902e+01    0.2854119    0.1620302  55.08 0.0009967105    1.455    0.313
        14  -7.9830    113.5541     11.1903   7.4196658699e+01   5.4117765545e+01    0.1650303    0.1145067   6.15 0.0006380413    1.688    0.408
        15  -9.2668     70.3868      9.1266   8.4776275666e+01   6.2746463123e+01     0.411474    0.1352339  38.03   0.00132213    2.792    0.642
        16  -9.3420     46.4150      6.4357   9.1936112042e+01   6.6784426429e+01    0.2515241    0.1598198  17.82  0.001114787    1.359    0.264
        17  -8.9602     41.0148      5.8191   9.3757634303e+01   6.7594008808e+01    0.3260753    0.1863383  -9.21  0.001558258    1.715    0.417
        18 -10.1037      7.3946      5.5050   1.0854289961e+02   7.1291092745e+01    0.5019202    0.2041968  10.08  0.002542112    3.245    0.692
        19  -7.8218    100.5986      6.7053   7.5582467767e+01   5.7235243027e+01    0.1953012    0.1148422  31.37 0.0007077879    1.651    0.394
        20  -9.3461     76.5192      5.4355   8.1442622647e+01   6.2000586970e+01    0.4033536     0.243461 -19.32  0.001574963    1.747    0.427
        21  -8.8872     32.2077      6.1614   9.7509741939e+01   6.8682458369e+01    0.1813368    0.1367082   7.77 0.0002735427    1.079    0.073
        22  -9.0691     92.7056      5.1303   7.6936124313e+01   5.8957858844e+01    0.3902758    0.1764773  45.96  0.002005809    1.783    0.439
        23  -9.7132     84.9635      5.3070   7.9021047432e+01   6.0445150263e+01    0.2546359    0.2022414  -2.77  0.001727841    1.286    0.222
        24  -8.5282    110.5894      3.4455   7.2210210560e+01   5.5412614751e+01    0.3107584     0.196933 -37.85  0.001311153    1.916    0.478
        25  -8.2472    105.4576      1.7413   7.2726529774e+01   5.6631165659e+01    0.3453139    0.1228352  52.99  0.001588197    2.141    0.533
        26  -8.3464    134.1560      3.1578   6.7630928071e+01   5.0229787180e+01    0.1844011    0.1401289  46.80 0.0002636272    1.185    0.156
        27  -8.0379     57.0780      2.9039   8.6554516999e+01   6.5525459906e+01    0.2137049    0.1300688  33.46  0.001359678    1.364    0.267
        28  -8.3169    143.1231      2.0878   6.5842399422e+01   4.8262005496e+01    0.1831747    0.1542266  64.13 0.0003303223    1.015    0.015
        29  -9.1610    119.2289      6.8210   7.1557094425e+01   5.3265427531e+01    0.2171057    0.1695828  43.60  0.000217753    1.111    0.100
        30  -7.8655      2.9889      1.4614   1.0894079606e+02   7.2154524908e+01    0.1404807   0.08171029  11.63 0.0005232312    1.552    0.355
        31  -7.9134    133.8830    106.4292   9.8572444738e+01   3.4810966847e+01    0.3131078    0.2058874 -26.88  0.001067477    1.898    0.473
        32 -10.7487    195.9559    249.2186   1.1405658784e+02  -6.5625898994e+00    0.5583959    0.2640412  43.51  0.002721128    1.932    0.482
        33  -9.3001     14.5931    105.2267   1.3358675710e+02   5.2582830577e+01      0.38688    0.1620705 -34.08  0.001705012    3.061    0.673
        34  -7.7693     93.9812    103.4638   1.0882030018e+02   4.3371119561e+01    0.2181809    0.1452684  36.70  0.001026334    1.584    0.369
        35  -7.2703    140.3517     99.3075   9.5012257979e+01   3.4863727432e+01    0.1590501    0.1235458   9.56 0.0004418022    1.713    0.416
        36  -7.5086    130.1861     96.6370   9.6864184389e+01   3.7662151893e+01     0.225491    0.1396145  36.51 0.0008424462    1.758    0.431
        37  -9.8588     16.1003     94.9295   1.3127834752e+02   5.4746245162e+01    0.3870616    0.2287589 -39.98  0.001177323    1.555    0.357
        38 -10.1516     12.0706     93.9167   1.3236855509e+02   5.5238807937e+01    0.4514835    0.2221373 -32.38  0.002062059    2.260    0.557
        39  -9.0941    240.9836     95.2336   7.4574477442e+01   1.2416874180e+01    0.2694483    0.1276506 -64.29 0.0009037692    3.641    0.725
        40  -8.9501     44.1608     92.4854   1.2166140506e+02   5.2813821090e+01    0.2567708    0.1688421 -17.42  0.001354616    1.855    0.461
        41  -7.9811     56.5362     91.5316   1.1737839350e+02   5.1591526362e+01    0.2474605    0.1008368 -44.28 0.0009688583    2.210    0.548
        42  -8.0078    110.0163     90.8558   1.0071370911e+02   4.3045736782e+01    0.3584667    0.1953964  21.98  0.001237253    3.218    0.689
        43  -7.9332     97.0840     89.9490   1.0420950910e+02   4.5692878898e+01    0.3766293    0.1896407  19.97  0.001153035    4.346    0.770
        44  -8.0598     65.9179     84.6554   1.1248776507e+02   5.1803991801e+01    0.2098942    0.1622186   0.12 0.0008248965    1.448    0.309
        45 -10.4352     37.2446     81.1425   1.2123156159e+02   5.5924084817e+01    0.6391892    0.3303164 -11.61  0.002704755    3.305    0.697
        46  -7.9815    126.5082     83.7193   9.4156719933e+01   4.1018541110e+01    0.3192109    0.1711092  35.68  0.001258686    2.144    0.534
        47  -7.9613    180.1082     82.0824   8.1549496775e+01   2.8765618132e+01    0.2140822    0.1941587  27.33 0.0003008196    1.276    0.216
        48  -8.8307     87.5404     79.2251   1.0399376899e+02   4.9528537444e+01    0.5542421    0.3035233  12.80  0.001907795    3.818    0.738
        49  -9.8226      7.7989     77.8360   1.3063971329e+02   5.8901637533e+01    0.4160222     0.193788 -35.21  0.001481653    2.056    0.514
        50  -7.7380    184.0573     77.9550   7.9724074432e+01   2.8535595390e+01    0.2279494    0.1833773  18.81 0.0006733528    1.672    0.402
        51  -8.7438     49.1475     77.1765   1.1608122519e+02   5.5465305968e+01    0.3604128    0.2040844  -4.36  0.001600775    2.780    0.640
        52  -8.1254     23.4599     69.5059   1.2317233567e+02   5.9504469008e+01    0.1820981    0.1607876 -61.89 0.0005643343    1.297    0.229
        53  -8.8970     23.8578     74.2375   1.2420825665e+02   5.8525798610e+01    0.4145722    0.1490864 -42.08  0.001445703    2.364    0.577
        54  -9.2555     28.0871     69.6537   1.2153033493e+02   5.9090805723e+01    0.3954349    0.1911435 -23.44  0.001831704    2.694    0.629
        55  -7.2814    109.3252     75.3052   9.6330817455e+01   4.6198662230e+01    0.1479799    0.1111496   6.33 0.0003514736    1.645    0.392
        56  -8.0986     74.9340     74.3268   1.0654662899e+02   5.2536177334e+01    0.1880279    0.1597575  17.14 0.0003907168    1.187    0.158
        57  -9.4213    236.6064     71.7310   6.9996766128e+01   1.7305496225e+01    0.3161013    0.2373032  48.59 0.0005718364    1.603    0.376
        58  -8.7593     83.1118     65.1793   1.0105505998e+02   5.2898395911e+01    0.5681019    0.3054753 -11.06  0.001895281    4.289    0.767
        59  -8.9285     16.0177     64.2477   1.2457243210e+02   6.1093910652e+01    0.2015788    0.1084237 -34.71   0.00062964    1.627    0.385
        60  -7.4665    148.3318     63.3721   8.2926102625e+01   3.9617298926e+01    0.1547957    0.1121573  19.53 0.0007027594    1.837    0.456
        61  -8.9229     32.3506     61.4154   1.1768977588e+02   6.0293797372e+01    0.4461361    0.1321845 -47.35  0.001891682    2.647    0.622
        62  -8.1603     95.6784     60.6490   9.5697328413e+01   5.1430225811e+01    0.4061529     0.174543 -23.41  0.001246646    4.561    0.781
        63  -9.4482     62.8057     61.3359   1.0660217250e+02   5.6733733974e+01    0.4736174    0.2416868  20.32  0.001663539    2.541    0.606
        64  -9.6624     36.6421     59.9154   1.1564175143e+02   6.0154126186e+01     0.496749    0.2093742 -30.83  0.002160189    2.748    0.636
        65  -7.9119    111.6920     58.1544   9.0308171291e+01   4.8663375712e+01    0.2832826    0.1634104  27.85  0.001213303    2.163    0.538
        66  -7.3314     49.6834     58.6839   1.1043583735e+02   5.8927758874e+01     0.131397   0.08488865 -16.60 0.0005352826    1.650    0.394
        67  -7.6143    105.3391     67.3194   9.4998079693e+01   4.8425519574e+01    0.1481756     0.107443   8.05 0.0007049707    1.711    0.416
        68 -10.1533     75.1903     50.2220   9.8671056208e+01   5.6723890466e+01    0.4330388    0.3073037   1.40 0.0002610229    1.535    0.349
        69  -8.1992    118.4193     51.0924   8.6261601331e+01   4.8321778881e+01    0.2347288    0.1701675  40.76 0.0005463246    1.298    0.229
        70  -8.8821     45.3029     48.8629   1.0885791822e+02   6.1156870640e+01    0.3458836    0.1972308 -17.99  0.001187866    1.993    0.498
        71  -8.2047    106.3661     49.0742   8.8803449223e+01   5.1152122440e+01    0.3588845    0.1927598  26.34  0.001478836    2.527    0.604
        72  -9.8491     11.9913     45.7211   1.2105126954e+02   6.4806143584e+01    0.6711233    0.3093656 -17.04  0.002574052    2.713    0.631
        73  -9.3068     56.8633     42.7204   1.0241646798e+02   6.0660414257e+01    0.6672474     0.328031 -11.53  0.002418421    4.323    0.769
        74  -7.4756     91.5073     46.5010   9.2214287450e+01   5.4434477595e+01    0.1323824    0.1194421  12.74 -0.0001604135    1.029    0.028
        75 -10.7098     83.1844     40.0663   9.2515523625e+01   5.6873206334e+01    0.4054928    0.2586325 -10.70 0.0002270677    1.814    0.449
        76  -8.7358     87.6025     38.1424   9.0465785588e+01   5.6338120701e+01     0.259702    0.1946736  15.93  0.000847606    1.309    0.236
        77  -8.4933      1.6859     45.0620   1.2508242995e+02   6.5558922764e+01    0.1640106    0.1101183 -41.90   0.00115674    1.111    0.100
        78  -7.4317    124.1779     39.6022   8.1150894144e+01   4.8655672431e+01    0.1890552     0.113621  44.41 0.0004568797    1.531    0.347
        79  -8.8143     35.7380     37.9955   1.0881847024e+02   6.4002935045e+01    0.2666116    0.1336994 -38.39   0.00103465    1.734    0.423
        80  -8.7271     38.7182     35.4300   1.0669800398e+02   6.4067988678e+01    0.2415714    0.1572275  13.25 0.0009840513    1.502    0.334
        81  -9.4859     70.3201     36.0642   9.5252038366e+01   5.9611657669e+01    0.6867149    0.2972418  23.27  0.002497624    3.985    0.749
        82  -8.1295    105.7554     36.9275   8.4875171137e+01   5.2953694055e+01    0.2825199    0.1360739  31.30  0.001157411    2.582    0.613
        83  -8.0787     92.1257     36.8769   8.8666779550e+01   5.5660540272e+01    0.1837781     0.139753  13.41 0.0004595051    1.312    0.238
        84  -9.1083     56.1964     34.9578   9.9820146585e+01   6.1905636456e+01    0.3061621     0.180361 -16.98  0.001666162    1.793    0.442
        85  -9.2929     22.5026     35.5242   1.1338710457e+02   6.5696354444e+01    0.4004531    0.1829607  23.42  0.002234593    2.299    0.565
        86  -8.9986     22.2848     32.3241   1.1234921138e+02   6.6220608624e+01    0.3393636    0.1932466  19.88  0.001504693    1.794    0.443
        87  -9.4510      6.2742     33.8382   1.1977484596e+02   6.7214168111e+01    0.3023197    0.1884867 -30.90  0.002095335    1.222    0.182
        88  -9.5217      1.8211     30.1838   1.2054541573e+02   6.8089627212e+01    0.4947004    0.1722087 -53.22  0.002534955    2.611    0.617
        89  -9.5233     70.0371     27.0687   9.1961729954e+01   6.0837366903e+01    0.3259306     0.156634 -37.75  0.001634176    2.267    0.559
        90  -9.3866     41.8398     27.0817   1.0229180777e+02   6.4907246672e+01    0.3274467    0.2001743 -43.05  0.001580086    1.888    0.470
        91  -9.0520     62.2339     26.0621   9.4245508980e+01   6.2207947046e+01    0.3581359    0.1790321 -14.16  0.001104504    2.640    0.621
        92  -7.9787    105.7560    249.7819   1.3174506331e+02   8.3593211664e+00    0.1739153    0.1224448  65.12 0.0005480037    1.297    0.229
        93  -8.8404     25.6253     22.8086   1.0734011029e+02   6.7313943717e+01    0.3740618    0.1265433 -40.28  0.001839355    2.609    0.617
        94  -8.6953     28.8705     21.1436   1.0528500564e+02   6.7209089226e+01    0.2642076    0.1782486 -22.60  0.001627369    1.219    0.180
        95  -8.7638    229.1154     23.7004   6.0474362042e+01   2.5869724195e+01    0.2656143    0.2191362 -30.88 0.0008733559    1.539    0.350
        96  -8.5515    144.8982     23.2023   7.1746914031e+01   4.5842142927e+01    0.1920572    0.1860843  58.39 0.0003756615    1.107    0.096
        97  -7.8060    128.9904     22.4568   7.4606520544e+01   4.9597872741e+01    0.2044183    0.1119988  55.30 0.0007494064    1.563    0.360
        98  -7.2091    124.5101    106.9940   1.0117667895e+02   3.6696580712e+01    0.2125144    0.1337453 -21.85 0.0008075905    2.359    0.576
        99  -8.2713     92.2650     20.8667   8.2852646283e+01   5.7546827649e+01    0.2492767    0.1288756  30.46  0.001203481    2.047    0.511
       100  -8.4148    140.2695     19.9363   7.1621247124e+01   4.7270318269e+01    0.2234391    0.1606354  58.88 0.0004071221    1.200    0.167
       101  -8.4633      9.7016     19.8778   1.1331596372e+02   6.9144010127e+01     0.239325    0.1222171   0.90  0.001264249    2.132    0.531
       102  -7.9181      5.1730     18.8821   1.1504035735e+02   6.9623403990e+01    0.1484582    0.1167324 -24.89 0.0003864547    1.188    0.158
       103  -8.0096    127.7959     16.9129   7.3090923425e+01   5.0434954403e+01     0.196559    0.1494057  40.56 0.0004707378    1.218    0.179
       104  -8.4394    167.6430    247.6902   1.1934043853e+02  -1.6154451672e+00    0.1307767   0.09426681  12.16 0.0002498159    1.732    0.423
       105  -8.0050    109.9160    106.4941   1.0503571573e+02   3.9757736287e+01    0.3370936    0.1485382  35.81   0.00120221    2.602    0.616
       106  -7.3092     76.6417    106.7016   1.1483555589e+02   4.5480485388e+01    0.1463387    0.1063021 -18.42 0.0005309076    1.707    0.414
       107  -8.8736    120.9177     15.3937   7.4015553816e+01   5.2118611693e+01    0.2482061    0.1603215   9.94  0.001306992    1.980    0.495
       108  -7.6670    189.3201     15.6802   6.3045296522e+01   3.6045593489e+01     0.136292   0.08653863 -72.19 0.0007043273    1.666    0.400
       109  -7.9651    111.2854    245.1578   1.3013520010e+02   8.3317594759e+00    0.2308991    0.1051463 -52.46  0.001077111    2.577    0.612
       110  -8.1794    162.3133    240.3460   1.1930474711e+02   5.3471102492e-01    0.1307853   0.09933433   5.57 0.0001344154    1.713    0.416
       111 -12.0160    249.0251    235.4304   1.0185095536e+02  -1.2706191918e+01      0.24118    0.2071799  -6.28 0.0003051431    1.161    0.139
       112  -9.8564    188.0768    234.4639   1.1321806492e+02  -2.9253250755e+00    0.3452139    0.2400997 -63.95  0.001600135    2.150    0.535
       113  -8.6799     15.0837    234.4738   1.4700100287e+02   2.3672236300e+01    0.1791244    0.1277415 -74.60 0.0009313552    1.414    0.293
       114 -10.1687    162.0283    214.0453   1.1514021347e+02   5.4099944395e+00    0.2333477    0.2215746 -58.85            0    1.154    0.134
       115  -7.2649     35.7030    212.7053   1.4159848952e+02   2.5899118611e+01    0.1076074   0.08820473 -56.31 0.0003893193    1.565    0.361
       116  -8.2330     11.5871    206.7919   1.4573557124e+02   2.9773830773e+01    0.1712536   0.08570485  89.73 0.0009500469    1.702    0.413
       117  -8.0950    164.2034    198.6107   1.1192842627e+02   8.0683281741e+00    0.2119466    0.1313742  30.65  0.000937295    1.762    0.432
       118  -7.4496     96.0071    178.7618   1.2412338712e+02   2.5177631734e+01     0.176777    0.1181067  42.48 0.0004079933    1.505    0.336
       119  -7.3456    175.5571    151.4568   9.9693890574e+01   1.5739153107e+01    0.1528149    0.1507183 -22.40 0.0002139076    1.031    0.030
       120  -9.6065    222.1025    145.8372   8.8973631134e+01   6.9967126945e+00    0.2785074    0.2652084 -74.53 0.0004499515    1.134    0.118
       121  -9.1876     67.3932    144.8396   1.2553732552e+02   3.7792597085e+01    0.4313624    0.2982589  69.37  0.002144484    1.719    0.418
       122  -7.7596    140.2210    138.7874   1.0507002350e+02   2.6230409369e+01    0.2502104    0.1848642  -4.54  0.001033226    2.084    0.520
       123  -7.5017     55.9682    135.0000   1.2687616679e+02   4.1667533108e+01     0.197067   0.07941203  31.39 0.0004495911    2.831    0.647
       124  -7.3538    113.5058    129.0052   1.0967799650e+02   3.3946064518e+01    0.2084667    0.1290368 -28.44 0.0005550197    2.261    0.558
       125  -8.3609    240.6409    127.8404   8.1795798773e+01   6.6439587339e+00    0.2005928    0.1631249 -44.61 0.0006134554    1.103    0.094
       126  -7.8751    226.4661    126.4627   8.3860494295e+01   9.7955643160e+00    0.1464665    0.1334146 -53.85 0.0001402928    1.041    0.039
       127  -7.5830     84.9893    121.5191   1.1587892018e+02   4.0765981025e+01    0.2017926    0.1312086   4.03 0.0008103235    2.626    0.619
       128  -7.3164    180.4902    120.5373   9.1290387326e+01   2.1203933033e+01    0.1546175    0.1513497 -67.00 0.0003917556    1.019    0.018
       129  -7.8297    100.8888    118.6495   1.1066770273e+02   3.8715604387e+01    0.2912354    0.1435564  30.97  0.001085469    2.520    0.603
       130  -8.0011    142.7937    111.9295   9.7773968893e+01   3.1666736757e+01    0.3110227    0.1938831  22.52  0.001146556    2.533    0.605
       131  -8.7302      2.2150    109.5842   1.3789633795e+02   5.2401459072e+01    0.3988721   0.07723106 -48.10   0.00145645    4.043    0.753
       132  -7.2762     39.2004    110.0816   1.2703216759e+02   4.9400862756e+01     0.181511   0.08727626 -58.73 0.0008107745    1.728    0.421
