#   1 NUMBER                 Running object number                                     
#   2 MAG_AUTO               Kron-like elliptical aperture magnitude                    [mag]
#   3 X_IMAGE                Object position along x                                    [pixel]
#   4 Y_IMAGE                Object position along y                                    [pixel]
#   5 X_WORLD                Barycenter position along world x axis                     [deg]
#   6 Y_WORLD                Barycenter position along world y axis                     [deg]
#   7 A_WORLD                Profile RMS along major axis (world units)                 [deg]
#   8 B_WORLD                Profile RMS along minor axis (world units)                 [deg]
#   9 THETA_WORLD            Position angle (CCW/world-x)                               [deg]
#  10 FWHM_WORLD             FWHM assuming a gaussian core                              [deg]
#  11 ELONGATION             A_IMAGE/B_IMAGE                                           
#  12 ELLIPTICITY            1 - B_IMAGE/A_IMAGE                                       
         1 -13.1727    203.4147     34.6556   5.6687958430e+01   3.0004136519e+01      1.18017     1.071529 -37.71  0.006713687    1.106    0.096
         2 -13.6888    221.8877     15.9425   4.9645425683e+01   2.7675013817e+01     1.087936    0.8962905  28.41  0.003297213    1.523    0.343
         3 -12.0849      2.2603     15.5439   1.1019811778e+02   7.1873944889e+01    0.5992681    0.1821108 -58.80  0.002532517    3.499    0.714
         4 -12.9548      2.8244      5.9513   1.0578108873e+02   7.3496542528e+01     1.027336    0.6559629 -25.38  0.007150864    1.246    0.197
         5 -11.0821    198.2580    245.7309   1.0473075456e+02  -1.8075954511e+00    0.2316698    0.1563104  28.30  0.001321257    1.176    0.149
         6 -11.3963    177.3366    249.5271   1.0891167941e+02   8.6912828951e-01    0.4910397    0.1690426  31.72  0.002033519    3.225    0.690
         7 -11.5285    150.3217    246.8532   1.1338172304e+02   5.3247482624e+00    0.3887342    0.2598813 -37.04  0.002503118    1.988    0.497
         8 -11.6461    142.2630    248.5892   1.1502619418e+02   6.2954907514e+00    0.5089213    0.1980821  51.09  0.002374691    2.616    0.618
         9 -11.8813    119.3613    236.3717   1.1781947040e+02   1.1578913617e+01    0.7446564    0.4912797 -22.09  0.003076301    3.171    0.685
        10 -13.3502    124.0953    245.6702   1.1795960730e+02   9.4297849434e+00     1.212747    0.6032546  48.90  0.006903363    1.655    0.396
        11 -10.9734    109.9330    247.5411   1.2067838467e+02   1.1198070214e+01    0.5288984    0.2346905  36.22  0.002804637    2.069    0.517
        12 -11.3945    100.0486    247.7405   1.2244410380e+02   1.2559016247e+01    0.4572259    0.3527101  31.16   0.00325896    1.475    0.322
        13 -11.9734    112.0558    231.5699   1.1865420228e+02   1.3448182220e+01    0.4524267    0.3363298  43.23  0.002178463    1.159    0.137
        14 -10.4332     97.2076    239.3038   1.2216911643e+02   1.4310447415e+01     0.297982    0.1730222  66.50  0.001187562    1.820    0.451
        15 -11.4823     87.5258    248.3884   1.2469081795e+02   1.4165642773e+01    0.4572205    0.2860793  52.54  0.001734848    1.230    0.187
        16 -10.3961     81.4639    248.3453   1.2573675956e+02   1.4976228849e+01    0.2770382    0.1782017 -78.13  0.001123052    1.726    0.421
        17 -10.5186     84.2250    230.1105   1.2368452910e+02   1.7659772977e+01    0.2272343    0.1860485 -56.58  0.001623341    1.563    0.360
        18 -12.1271     88.7432    238.6275   1.2363278085e+02   1.5592786917e+01    0.7121291    0.4003788  71.02  0.003357901    1.994    0.499
        19 -11.0504     82.5196    239.8195   1.2484993195e+02   1.6233569552e+01    0.3449493    0.1914425  63.72  0.001047034    1.711    0.416
        20 -12.3617    102.7249    238.0883   1.2105096659e+02   1.3729970424e+01    0.6339971    0.4204276  65.59  0.001709878    1.469    0.319
        21 -12.0430    102.0397    231.1082   1.2047634894e+02   1.4990340726e+01    0.5870602    0.3527073  25.86  0.002462002    2.226    0.551
        22  -9.6988     56.4748    250.4227   1.3011518062e+02   1.7773352024e+01    0.2101529    0.1879593  72.31  0.001038713    1.340    0.254
        23 -10.0773     63.6512    247.7259   1.2873399805e+02   1.7343736308e+01    0.3366514     0.136112 -66.14  0.001933299    2.702    0.630
        24 -10.1100     60.3267    247.3158   1.2926680860e+02   1.7817777556e+01    0.2066879    0.1595843  48.93  0.001066784    1.248    0.199
        25 -10.6793     58.6925    244.6601   1.2936286531e+02   1.8455745577e+01     0.237593    0.1913491 -46.72  0.001777027    1.970    0.492
        26 -13.0190      2.8547    189.8630   1.3598031198e+02   3.4431605941e+01     1.740373    0.2670574 -78.81  0.005947082    5.714    0.825
        27 -12.5907     48.8363    216.2867   1.2908331987e+02   2.4663178388e+01     2.103615    0.7405994  67.54  0.008029135    4.482    0.777
        28 -13.9994      8.2550    211.5594   1.3610578427e+02   2.9763317789e+01     2.022784     1.724294 -83.65   0.01699852    1.382    0.277
        29 -13.9704     26.7814    247.3973   1.3476694742e+02   2.1598836783e+01     1.891986     1.004225  30.96   0.01224781    2.392    0.582
        30 -11.6815    165.9845    242.8534   1.1006722247e+02   3.4807763581e+00    0.3229064    0.2119697  53.59  0.001991136    1.610    0.379
        31 -11.1727    133.7669    232.7157   1.1471962392e+02   9.9701101957e+00    0.2394927    0.1774044 -51.14  0.001066218    1.653    0.395
        32 -10.8191    115.9547    250.2440   1.1987740595e+02   9.9240407669e+00    0.5659809    0.1748825  40.39  0.002616613    2.537    0.606
        33 -11.2651     74.0432    236.2156   1.2606053173e+02   1.7958473473e+01    0.5295508    0.1922843 -56.30  0.002633573    3.352    0.702
        34  -9.0461     66.3467    239.6486   1.2768775938e+02   1.8355495092e+01    0.1216331   0.06193151  64.01 0.0007039082    1.820    0.451
        35  -9.1244     60.8953    239.0000   1.2858927567e+02   1.9141913383e+01    0.1721412   0.05086917  38.32 0.0007959553    2.898    0.655
        36 -13.2189     22.5233    224.9352   1.3432711575e+02   2.5928773382e+01    0.5034728    0.3195776 -64.73 0.0008432388    1.838    0.456
        37 -14.2067     28.1289    218.5094   1.3298899296e+02   2.6530884756e+01     1.143189    0.7734085  73.93  0.006208031    1.140    0.122
        38  -9.5071     54.6242    235.3691   1.2942329209e+02   2.0526751226e+01    0.1803136   0.09598854  63.62  0.001123951    1.610    0.379
        39 -12.1498    135.1589    236.5516   1.1491869284e+02   9.1580581767e+00    0.4177911    0.2968827 -36.87  0.002656539    1.902    0.474
        40 -11.7528    180.3309    243.7251   1.0761242999e+02   1.1583166569e+00    0.4713909    0.1877748  30.41  0.002123103    2.682    0.627
        41  -9.4896    250.3338    230.6866   9.3589903296e+01  -7.6470748825e+00   0.09585702   0.08774957  34.86 0.0007045619    1.684    0.406
        42  -9.3307    153.5135    230.0318   1.1067626271e+02   7.2814073629e+00    0.1535031    0.1223256 -47.29 0.0004163306    1.533    0.348
        43  -9.4759     56.5734    228.6505   1.2859612574e+02   2.1476042156e+01    0.2567852    0.1273563  89.70  0.001166872    2.229    0.551
        44 -11.1509     79.3498    225.5601   1.2417300850e+02   1.9120862857e+01     0.354777    0.3059307  74.48  0.002637012    1.134    0.118
        45  -9.4679     77.1737    220.8392   1.2414834387e+02   2.0264386266e+01    0.1752318    0.1261238  65.47 0.0003878871    1.181    0.153
        46 -10.4546    136.1861    224.3630   1.1322362744e+02   1.0929534270e+01    0.2972029    0.1879269 -42.31 0.0009986068    1.999    0.500
        47  -9.5389     92.4953    226.0762   1.2175684482e+02   1.7219889369e+01    0.1953195    0.1336169  62.83 0.0008512867    1.306    0.235
        48  -9.1899     87.7558    223.7787   1.2242495060e+02   1.8290182380e+01    0.2612147    0.1072739  48.36  0.001204079    2.017    0.504
        49 -10.9705     68.3292    245.6596   1.2779030389e+02   1.7101578688e+01    0.3095549    0.1688498  55.38  0.001278943    1.434    0.302
        50  -9.2080     65.0187    224.2826   1.2672027611e+02   2.1217917226e+01    0.2014519    0.1213789 -45.84   0.00114637    2.644    0.622
        51  -8.8277     45.8207    225.2445   1.3027539996e+02   2.3358094182e+01    0.1277777    0.1118071  78.36 0.0004528311    1.256    0.204
        52 -10.6746     98.8411    223.1278   1.2024935379e+02   1.6831849791e+01    0.2514359    0.2072729  39.41 0.0009698897    1.253    0.202
        53 -10.2986    141.6281    219.2995   1.1150606225e+02   1.0886226860e+01    0.2808508    0.2249448 -46.34  0.001445132    1.488    0.328
        54 -10.3582     70.9431    218.8543   1.2514773932e+02   2.1451492828e+01    0.3935345    0.2671675  81.02  0.002562854    1.409    0.290
        55  -9.9540     90.9772    220.0031   1.2143167379e+02   1.8515949351e+01    0.1843058    0.1433835  61.61 0.0004220819    1.075    0.070
        56  -9.7950    116.7295    215.8907   1.1594487543e+02   1.5426799676e+01    0.2842044    0.2142035   5.29  0.001308278    2.092    0.522
        57  -9.1624    107.1552    216.6944   1.1792491560e+02   1.6747583100e+01     0.253134    0.0829988  45.24  0.001071418    2.542    0.607
        58  -9.9202     86.8662    212.1537   1.2141589261e+02   2.0541423770e+01    0.3726563    0.1815019  68.14  0.001551247    2.790    0.642
        59 -10.0062     63.3783    208.6494   1.2568429066e+02   2.4351575750e+01    0.3102224    0.2668003  24.64  0.001718009    1.570    0.363
        60  -9.2616     63.7529    205.0480   1.2528038803e+02   2.5004194481e+01    0.1788757    0.1291622  72.82 0.0003006125    1.204    0.170
        61  -9.3802     58.5271    212.5154   1.2695843014e+02   2.4215171138e+01    0.2141499    0.1127003  49.63 0.0006905535    1.587    0.370
        62 -10.3450     55.9094    208.9158   1.2715684423e+02   2.5225659387e+01    0.4058754     0.154358 -71.79  0.001991091    2.632    0.620
        63  -8.3239    110.6583    211.3161   1.1658899661e+02   1.7186096696e+01    0.1313701   0.08375852  65.66 0.0007048393    1.710    0.415
        64  -9.8101     99.1538    209.6282   1.1869204204e+02   1.9237159898e+01    0.2918773    0.1605046  70.70  0.001081538    2.426    0.588
        65  -9.7763    246.0000    219.9596   9.2512923899e+01  -5.8512678527e+00    0.1781065   0.06082952 -31.97  0.000426443    3.015    0.668
        66  -9.6364     90.9942    204.9499   1.1980061473e+02   2.1320122472e+01    0.2821848    0.1214991  38.11  0.001333461    2.164    0.538
        67  -9.9800    106.9601    203.4994   1.1636445770e+02   1.9208463009e+01    0.2137798    0.1777101 -73.97 -0.0002118983    1.284    0.221
        68 -10.1444     74.4033    200.3716   1.2267757870e+02   2.4533714535e+01    0.2690383    0.1970973 -47.73 0.0002052486    1.776    0.437
        69  -9.1758     96.9996    199.1812   1.1788334541e+02   2.1554006802e+01    0.1723874    0.1609931  33.79 0.0004060212    1.266    0.210
        70  -9.2722     53.1168    198.1365   1.2676973073e+02   2.7686406312e+01    0.2820972    0.1919102  55.79  0.001823087    1.265    0.209
        71 -11.6420     52.8205    193.0994   1.2637226898e+02   2.8742432183e+01    0.3391487    0.2549402  34.38 0.0007440051    1.532    0.347
        72 -13.9201      5.7517    245.6250   1.3796954578e+02   2.3979286991e+01     1.121095    0.9164363  71.19   0.01019411    1.307    0.235
        73  -9.9125     31.5141    192.7276   1.3063141921e+02   3.1189079024e+01     0.258779    0.2191878  13.59 0.0009658582    1.781    0.438
        74  -9.4151     25.9772    192.7447   1.3172169732e+02   3.1747048942e+01    0.1949065    0.1473051  74.82 0.0009441149    1.028    0.027
        75  -9.6484     21.4518    192.4031   1.3257992375e+02   3.2258474810e+01    0.4217116    0.1616592  73.34  0.001750108    2.988    0.665
        76  -9.3737    191.7126    191.7100   9.7283502861e+01   6.7733418538e+00    0.1623196    0.1519396  56.19 0.0005420186    1.299    0.230
        77  -8.4224     38.6207    192.2712   1.2917971517e+02   3.0528875001e+01    0.1247709   0.06695154  62.98 0.0006996057    1.694    0.410
        78 -10.4090    250.4964    188.0113   8.5992218608e+01  -2.6419171426e+00    0.2828056    0.1091229 -25.79  0.001214543    2.742    0.635
        79  -9.5398     76.3464    187.0357   1.2079295045e+02   2.6976399097e+01    0.3211711    0.1738937 -84.81  0.001106903    2.228    0.551
        80 -10.5635      9.6050    187.0266   1.3453446298e+02   3.4428828385e+01    0.2968211    0.1376793  83.95  0.001695181    1.898    0.473
        81 -10.6940     71.0525    187.0514   1.2193156880e+02   2.7689762788e+01     0.251726    0.1626973  41.07 0.0003290377    1.504    0.335
        82 -11.7400     59.5574    185.3470   1.2420412650e+02   2.9527181433e+01    0.2432073     0.212322 -78.03 0.0003736152    1.200    0.167
        83  -8.5790    107.4230    185.5363   1.1384312127e+02   2.2655287054e+01    0.1300637    0.1172091  65.12 0.0001289877    1.012    0.012
        84 -10.1140     36.8701    180.5043   1.2855015228e+02   3.3160840599e+01    0.2947309    0.1405321 -67.13 0.0004541297    1.897    0.473
        85  -8.8422     30.2173    183.4189   1.3017547900e+02   3.3237412410e+01    0.1595557   0.08756417  50.10 0.0009042901    1.639    0.390
        86  -9.5718     27.0846    179.7414   1.3053084439e+02   3.4319579480e+01    0.2010281    0.1359618 -79.81 0.0002678662    1.269    0.212
        87  -8.5789     12.2850    178.3638   1.3346008055e+02   3.5974055908e+01    0.1065034   0.07298205 -57.94 0.0007020085    1.688    0.408
        88  -8.8141    105.7356    176.0042   1.1280795339e+02   2.4887938886e+01    0.1776818    0.1616422 -87.36 0.0001820089    1.084    0.078
        89 -11.5854    248.6307    172.5978   8.3279232364e+01  -2.9561620079e-01    0.5080149    0.3234363 -15.23  0.002806164    1.508    0.337
        90 -11.8625    245.3367    163.4812   8.1966035197e+01   1.5300476948e+00    0.5168847    0.2569475 -40.73  0.002427083    2.166    0.538
        91 -11.6517    248.8579    159.5559   8.0569208556e+01   1.4830108702e+00    0.6200006    0.3109285 -42.16  0.002893563    2.233    0.552
        92 -11.2714    243.2747    155.5510   8.0646704768e+01   3.0325338734e+00    0.2806343     0.222196  54.75   0.00161688    1.640    0.390
        93 -10.6534     71.1185    173.3317   1.2028756563e+02   3.0597438939e+01    0.2289919    0.2085835  65.23 0.0003744244    1.125    0.111
        94 -10.3121     12.3959    172.8075   1.3306040352e+02   3.7128058712e+01    0.2707379    0.1294824 -64.06   0.00155667    1.942    0.485
        95  -9.8462     55.8263    172.8107   1.2367077101e+02   3.2663388316e+01    0.2501713    0.1703877  64.10 0.0006184194    1.373    0.272
        96  -9.5358     51.6820    171.0731   1.2440815328e+02   3.3536020950e+01     0.199549    0.1609939  53.89 0.0006336158    1.215    0.177
        97 -11.1472      2.4248    172.2616   1.3506726296e+02   3.8056192016e+01     0.469837    0.1858686  88.84  0.002432923    2.256    0.557
        98 -10.3638      4.8348    167.1622   1.3425080446e+02   3.8939329894e+01    0.2379573    0.1886715  18.90  0.001481636    1.784    0.439
        99 -11.3982     13.0717    167.1365   1.3251344312e+02   3.8275292056e+01    0.3757418    0.2055217  28.62   0.00189546    2.200    0.546
       100 -11.0227      9.2627    164.7522   1.3315240533e+02   3.9100287706e+01    0.4721152    0.1884248 -48.64  0.002152523    3.696    0.729
       101 -10.0955     27.1827    171.6797   1.2985321276e+02   3.6023316348e+01    0.2537029    0.1745492 -55.16  0.000431004    1.667    0.400
       102  -9.3747     17.9246    172.1265   1.3185737161e+02   3.6789138930e+01    0.1851142    0.1225504  69.33  0.001220827    1.291    0.226
       103 -10.9595     38.9591    167.9075   1.2692782486e+02   3.5648755872e+01     0.244555    0.2191415 -75.78 0.0004487903    1.228    0.186
       104 -11.7596     79.1018    165.3651   1.1738526156e+02   3.1239118067e+01     0.465068     0.420589  31.41  0.002390651    1.298    0.230
       105 -10.1621     68.1198    166.1410   1.2006038012e+02   3.2572453509e+01    0.2216954    0.1665221 -82.90 0.0004610084    1.240    0.193
       106 -10.0990     44.7927    165.0590   1.2531771614e+02   3.5643111474e+01    0.2255042    0.1417327 -58.07  0.001155185    1.614    0.381
       107  -9.7269     29.6728    165.0186   1.2872329412e+02   3.7225492288e+01    0.1665776    0.1291736 -88.09 0.0004693086    1.058    0.055
       108  -9.7283     23.9950    161.9610   1.2971430130e+02   3.8432982324e+01    0.1744991     0.139726  86.84 0.0003542507    1.018    0.017
       109  -8.9792     66.7835    161.4088   1.1975266149e+02   3.3801221256e+01    0.1557993     0.125779  24.47 0.0002518529    1.542    0.351
       110  -9.1466     28.6526    160.8545   1.2856628614e+02   3.8238807438e+01    0.1644983    0.0928887 -86.04 0.0002215956    1.569    0.363
       111 -11.3455      9.5812    156.9083   1.3250448448e+02   4.0768232314e+01    0.3331888    0.1506296  71.19  0.001717158    2.260    0.558
       112 -10.9267     12.4835    154.0048   1.3162559825e+02   4.1172128163e+01    0.3133655    0.1199697 -68.52  0.001594306    2.086    0.521
       113  -8.3901     66.6389    157.2415   1.1922255502e+02   3.4757041312e+01    0.1333906   0.08702457  64.45 0.0002695576    1.597    0.374
       114 -10.1397     81.3686    156.4810   1.1553528566e+02   3.2894753359e+01    0.2699091    0.1264643  38.37  0.001200952    2.143    0.533
       115 -10.8308     26.2652    155.3209   1.2858824758e+02   3.9690014999e+01    0.2620318    0.1767288  55.29  0.001129919    1.437    0.304
       116  -8.6399    228.4174    155.4731   8.3175080108e+01   5.7414885136e+00     0.135856    0.1205044  -6.02 0.0001045998    1.042    0.041
       117 -10.1379     32.0691    154.0776   1.2710996537e+02   3.9416302977e+01    0.2490374    0.1807488 -57.08  0.001005047    1.445    0.308
       118 -10.9317    249.6212    150.9567   7.8628994156e+01   2.5806417050e+00    0.4272035    0.2378747 -32.65  0.002156241    1.638    0.389
       119 -11.9920    247.9160    142.2106   7.7012336101e+01   4.1607884434e+00    0.6453106    0.4882232  29.03  0.003722669    1.347    0.258
       120 -12.8616    247.9426    134.5050   7.5307357745e+01   5.2989871768e+00     1.219479    0.6111618 -26.33  0.005542173    1.914    0.478
       121 -10.5335     93.4118    149.9989   1.1150691044e+02   3.2531330714e+01    0.2842331    0.2642237 -65.41 0.0008937709    1.096    0.088
       122  -9.6694     54.1242    151.8559   1.2154617896e+02   3.7541076716e+01    0.2167967    0.1811822 -50.70  0.001360302    1.353    0.261
       123 -10.9648     22.0927    149.2623   1.2898237145e+02   4.1419090110e+01    0.4602237    0.1277939  40.57  0.002018409    3.258    0.693
       124  -9.4943     81.3625    148.5062   1.1427252803e+02   3.4703975218e+01    0.2722906    0.2135527  54.21  0.001542427    1.268    0.211
       125 -11.7432     68.3340    144.1603   1.1688470977e+02   3.7523655344e+01    0.6575962    0.4190781  78.91  0.002693485    1.888    0.470
       126  -9.7770     59.2691    146.8072   1.1958049456e+02   3.8075738212e+01    0.3241021    0.1770165 -38.60  0.001443331    2.701    0.630
       127  -8.7654     40.6679    147.3280   1.2428657325e+02   4.0076328837e+01    0.1332394   0.08156879  70.80 0.0007051623    1.715    0.417
       128 -12.8295      9.3212    143.6902   1.3149315567e+02   4.3699525952e+01    0.5954566    0.4532717 -32.82  0.004031817    1.829    0.453
       129  -8.9327     96.8469    146.1760   1.0996781056e+02   3.2845304310e+01    0.1787341     0.162738 -30.69 0.0003336892    1.275    0.216
       130  -9.9561    133.1716    141.0288   9.9927818559e+01   2.7473213341e+01    0.3179484    0.2305651 -59.86 0.0008795356    1.493    0.330
       131  -9.4347    235.7502    146.0267   7.9854388115e+01   5.8265929869e+00    0.1927976     0.162365 -12.92 0.0004319666    1.057    0.054
       132  -9.6110     37.0175    140.0334   1.2431206342e+02   4.2123659852e+01    0.1911866    0.1562617 -84.25 0.0003934621    1.022    0.021
       133  -9.6612    107.0822    135.7592   1.0533954309e+02   3.3475576820e+01    0.4020642    0.2637299 -18.74  0.001530482    2.670    0.625
       134 -13.3788     14.2244    101.6074   1.2555349863e+02   5.2941634473e+01    0.8537692    0.6460598  60.23  0.004816379    1.487    0.327
       135 -13.4416      3.6231    121.7666   1.3090202829e+02   4.9019710851e+01     1.011831    0.4869865 -82.61  0.005526012    1.733    0.423
       136  -9.1516     93.7616    133.1721   1.0829814513e+02   3.6314263152e+01    0.1820609    0.1617021 -29.34 0.0003655636    1.289    0.224
       137 -12.9850    248.1294    101.6605   6.7737246031e+01   1.0200541770e+01     1.164225    0.5438904 -27.50   0.00495914    2.071    0.517
       138 -10.5198    249.8497    117.8703   7.1253130352e+01   7.4295181853e+00     0.484766    0.2902413  -5.83  0.001905919    2.297    0.565
       139 -12.8631    247.6653    112.5976   7.0362949500e+01   8.6465752913e+00     1.113299     0.652588 -13.89  0.005041114    2.065    0.516
       140 -13.4287      3.0793    104.5547   1.2921667010e+02   5.2960452742e+01     1.201555    0.3083445 -69.32  0.005092746    2.710    0.631
       141 -10.7678    231.9140    116.4684   7.3729168047e+01   1.1210255618e+01     0.232428    0.1875022  -6.43 0.0007123201    1.263    0.208
       142 -12.2163      8.9915    113.2363   1.2854772786e+02   5.0618383528e+01    0.4284101    0.2292082 -70.03  0.002000684    1.444    0.308
       143  -9.5332    168.0051    113.0364   8.5070159273e+01   2.5867362983e+01    0.3594185    0.2512307 -79.48  0.001441718    2.379    0.580
       144 -12.1857     17.1216    121.8559   1.2732498124e+02   4.8066290356e+01    0.3924753    0.2444121  53.04  0.002345762    1.740    0.425
       145  -9.9942     44.3032    129.9689   1.2105550635e+02   4.3711385104e+01    0.1826988    0.1435767 -74.28 0.0005026882    1.088    0.081
       146  -8.6737     41.3527    123.2629   1.2086911872e+02   4.5589713561e+01    0.1237047   0.09048934 -37.54 0.0006979905    1.617    0.382
       147  -8.5575     71.7301    100.3196   1.0751138045e+02   4.7293874879e+01    0.1357352    0.1057065  88.96 0.0002465921    1.563    0.360
       148  -8.6377     50.5093    122.5097   1.1819297748e+02   4.4782620497e+01    0.1321471    0.1136756 -78.22 0.0002281597    1.035    0.033
       149 -11.7647      2.3674     76.6679   1.2563911152e+02   5.9297095510e+01    0.6211816   0.04776753 -67.71  0.001797129    5.748    0.826
       150 -10.9878    169.3465    248.6861   1.1021480199e+02   2.1862311579e+00    0.2471843    0.1682521  16.05  0.001268143    1.686    0.407
       151  -8.9590     73.3128    247.3419   1.2706112018e+02   1.6194458692e+01    0.1394472   0.09872716  34.85 0.0008595616    1.567    0.362
       152 -10.7716      2.3337     39.4663   1.1793729517e+02   6.7277631343e+01    0.2159466   0.08463068 -61.56  0.001096685    2.008    0.502
       153 -10.4753     74.4384    243.8881   1.2660215295e+02   1.6616787719e+01    0.2588692     0.197602  47.75  0.001114215    1.207    0.171
