#   1 NUMBER                 Running object number                                     
#   2 MAG_AUTO               Kron-like elliptical aperture magnitude                    [mag]
#   3 X_IMAGE                Object position along x                                    [pixel]
#   4 Y_IMAGE                Object position along y                                    [pixel]
#   5 X_WORLD                Barycenter position along world x axis                     [deg]
#   6 Y_WORLD                Barycenter position along world y axis                     [deg]
#   7 A_WORLD                Profile RMS along major axis (world units)                 [deg]
#   8 B_WORLD                Profile RMS along minor axis (world units)                 [deg]
#   9 THETA_WORLD            Position angle (CCW/world-x)                               [deg]
#  10 FWHM_WORLD             FWHM assuming a gaussian core                              [deg]
#  11 ELONGATION             A_IMAGE/B_IMAGE                                           
#  12 ELLIPTICITY            1 - B_IMAGE/A_IMAGE                                       
         1 -14.8730    159.0364     42.1931   2.9030618531e+02   6.2998563814e+00   0.06243538   0.04408536 -48.42  0.003985014    1.426    0.299
         2 -14.4526    171.1063      9.0730   2.8995606384e+02   6.6002442380e+00   0.05195662   0.04659833 -35.98  0.004022573    1.136    0.120
         3 -11.2760    189.8066     14.8102   2.8977342699e+02   6.4183947836e+00  0.009419792  0.007851477  62.25 0.0006348784    1.327    0.246
         4 -10.6305     88.7008      6.3194   2.9090420840e+02   7.1449598428e+00  0.006867961  0.005058446  63.35 0.0002382174    1.619    0.382
         5 -12.0488     21.9785    241.9538   2.9316254758e+02   4.8803436045e+00     0.015411  0.009315956 -61.76  0.001513662    1.694    0.410
         6 -13.3034    189.1358    249.4276   2.9125633033e+02   3.7581066194e+00   0.02647409   0.01882412 -30.43  0.001912364    1.595    0.373
         7 -13.4133    197.3818    245.8158   2.9113746653e+02   3.7478352323e+00   0.02277504   0.01496362  31.81  0.002352109    1.473    0.321
         8 -11.5040    176.0391    250.1775   2.9141389803e+02   3.8310531679e+00   0.01130726  0.009585552  22.34 0.0008525193    1.168    0.144
         9 -13.3882    179.1646    243.5872   2.9133614493e+02   3.8865053171e+00   0.02795056   0.01849517 -54.21  0.002901497    1.505    0.335
        10 -20.0171     80.5187    194.0081   2.9217854723e+02   5.0631167948e+00    0.7780942    0.3468018 -62.79   0.06557561    2.351    0.575
        11 -12.6426    124.8506    186.1578   2.9161093359e+02   4.8770905766e+00   0.02982563   0.01469364  49.65 0.0005208123    2.436    0.589
        12 -10.8641     29.3541    217.5714   2.9292424556e+02   5.1120986821e+00   0.01830343  0.009156946 -36.55  0.001511498    2.539    0.606
        13 -13.3961     31.0937    182.1895   2.9268293366e+02   5.5038368654e+00   0.04079266   0.02661118  76.56 0.0003701747    2.218    0.549
        14 -12.2115     28.2063    179.5942   2.9270050782e+02   5.5512304989e+00   0.01896645   0.01394376   0.09 0.0009551026    1.591    0.371
        15 -10.3900     13.6995    238.6996   2.9323905813e+02   4.9685562618e+00  0.007505624   0.00607657 -63.47 0.0004117598    1.271    0.214
        16 -12.7702    157.3286    178.0074   2.9118014638e+02   4.7677411527e+00   0.01586976   0.01264344 -67.86   0.00101817    1.323    0.244
        17 -13.8389    177.4935    169.9876   2.9089415246e+02   4.7333387871e+00   0.02576459   0.02371305 -78.77  0.003136576    1.151    0.132
        18 -11.1011      7.9339    239.0555   2.9330868324e+02   5.0001461001e+00  0.008687426  0.006667374 -51.11 0.0007753376    1.306    0.234
        19 -11.5421     26.8909    172.8660   2.9267385146e+02   5.6359069438e+00    0.0143948   0.01153176  60.66 0.0008662333    1.395    0.283
        20 -10.6954     16.0385    209.4906   2.9302957618e+02   5.2863990280e+00   0.01010753  0.008342331 -20.07 0.0006115755    1.323    0.244
        21 -12.0284    168.4492    175.8898   2.9103688956e+02   4.7225854197e+00   0.01210527  0.009538379  26.43 0.0005846303    1.248    0.199
        22 -11.4453     20.2315    167.0358   2.9271536613e+02   5.7434321795e+00   0.01348845   0.01093528 -20.59 0.0009783427    1.359    0.264
        23 -12.0661    202.1189    165.8706   2.9058060417e+02   4.6266762992e+00   0.01772171   0.01322866  72.90  0.001350976    1.665    0.399
        24 -11.3672    223.7703    163.7017   2.9031413849e+02   4.5163075925e+00   0.01234257   0.01052747  83.86 0.0004581844    1.330    0.248
        25 -10.9374     14.5159    159.4569   2.9273490902e+02   5.8649968019e+00   0.01228684  0.008120891 -48.42 2.783991e-05    1.522    0.343
        26 -11.0812     13.5216    155.8145   2.9272377959e+02   5.9125777570e+00   0.01461763   0.01019237 -21.58  0.001067345    1.751    0.429
        27 -10.6976     17.8523    153.2267   2.9265688350e+02   5.9152229732e+00   0.01555886  0.008452588 -31.51  0.001029464    2.479    0.597
        28 -10.3102     22.9406    156.3009   2.9261652456e+02   5.8487744306e+00  0.009412847   0.00842852  21.98 0.0005039548    1.101    0.092
        29 -14.0025    134.1407    146.3272   2.9125247269e+02   5.2721254089e+00   0.06088667   0.01922298 -68.93  0.003462338    5.417    0.815
        30 -12.9042    174.3002    148.6622   2.9079754430e+02   4.9955599193e+00   0.02018075    0.0157725 -79.04  0.001823958    1.447    0.309
        31 -12.0927    139.9277    148.9481   2.9120123724e+02   5.2063292240e+00   0.01477385   0.01210838 -38.82  0.001225682    1.258    0.205
        32 -13.8646    155.0996    146.9579   2.9101131380e+02   5.1345127674e+00    0.0298585   0.01694284  43.65  0.002832201    1.815    0.449
        33 -12.9256    148.2665    148.0328   2.9109796801e+02   5.1648353434e+00   0.01852164   0.01626476  10.93 0.0004034728    1.158    0.137
        34 -14.2489    143.3728    144.2766   2.9113161588e+02   5.2379850862e+00    0.0405208   0.02218364 -78.56  0.003424966    2.597    0.615
        35 -12.3011     27.3056    145.4799   2.9249770925e+02   5.9448325520e+00   0.01846871   0.01692055  10.33  0.001298907    1.095    0.086
        36 -12.9460     11.5195    206.1667   2.9306170486e+02   5.3521562631e+00   0.03033674   0.01645727  21.81  0.002189166    1.954    0.488
        37 -10.4846      7.6622    149.6402   2.9275379642e+02   6.0190393703e+00   0.01047308  0.007457897 -22.60 0.0008083815    1.676    0.403
        38 -13.0169    196.4093    236.0006   2.9108731393e+02   3.8654094613e+00   0.01908886   0.01023885 -46.36    0.0014776    1.918    0.479
        39  -9.9396     23.0301    204.5604   2.9291701595e+02   5.2992432401e+00   0.01826681  0.009315458 -31.29   0.00133593    2.853    0.650
        40 -13.5930    136.2209    129.0159   2.9111943937e+02   5.4559345208e+00   0.05308731   0.01255749 -65.26   0.00272435    6.438    0.845
        41 -11.0430    154.8846    239.8005   2.9159594105e+02   4.0805378748e+00   0.01243477  0.008604551  76.52    0.0011809    1.951    0.487
        42 -11.9188    168.9010    202.6865   2.9119970402e+02   4.4152115419e+00   0.01211277    0.0105133  74.47  0.000212872    1.287    0.223
        43 -12.7710    160.7186    127.9207   2.9082600817e+02   5.3158479274e+00   0.01798785    0.0157533 -64.08  0.001615896    1.177    0.150
        44 -10.3810     26.1902    228.3134   2.9302826152e+02   5.0094692275e+00  0.006438504   0.00464957 -39.22 0.0002674888    1.463    0.316
        45 -13.0864    138.1315    198.2443   2.9153141301e+02   4.6571126730e+00   0.03456921   0.01564229  47.93  0.002782529    2.615    0.618
        46  -9.9770     17.3981    200.2355   2.9295591165e+02   5.3832829777e+00   0.00686424  0.005000573 -11.40 0.0003831641    1.663    0.399
        47 -13.9722    167.2026    191.3737   2.9114860195e+02   4.5543623090e+00   0.03450226   0.02480593  63.02  0.003590247    1.678    0.404
        48 -13.6918    174.7958    193.4508   2.9107291663e+02   4.4834885245e+00   0.02850287   0.01990682 -76.05  0.001955864    1.661    0.398
        49 -12.9619    180.2383    192.5845   2.9100390227e+02   4.4594489953e+00    0.0212512   0.01627236  85.30  0.001204732    1.600    0.375
        50 -10.7332    205.6369    110.1092   2.9018887976e+02   5.2380940781e+00   0.01280386  0.009804404  16.63 0.0006768883    1.353    0.261
        51 -13.8992    176.7092    188.2533   2.9101795574e+02   4.5306450889e+00   0.04376712   0.02222441 -82.66  0.003189752    3.608    0.723
        52 -11.0674     22.8540    107.2405   2.9231040278e+02   6.4072059235e+00   0.01498077   0.00896619  16.62  0.001415533    1.868    0.465
        53 -12.7612    199.1013    222.7376   2.9097275127e+02   3.9993527631e+00   0.02147698   0.01101667  26.86  0.001157896    1.937    0.484
        54 -12.7214     22.6268    220.5341   2.9302141148e+02   5.1200135247e+00   0.01666292    0.0105767 -44.96  0.001274417    1.623    0.384
        55 -12.7998    147.9027    189.0998   2.9135988621e+02   4.7003021357e+00   0.02027782   0.01253536   4.84  0.001867156    2.116    0.527
        56 -14.3059    207.2052    179.4634   2.9060658172e+02   4.4405457090e+00   0.04014831   0.03713297 -60.33  0.004209748    1.105    0.095
        57 -12.2340     47.9284     92.6121   2.9192480526e+02   6.4181650972e+00   0.02457709   0.01350522  24.77  0.001970417    1.845    0.458
        58 -11.3233     41.7235     91.9890   2.9199361916e+02   6.4637059477e+00   0.01320231  0.008442046 -56.89 0.0007326597    1.561    0.359
        59 -11.4243    124.6079     90.8233   2.9101534033e+02   5.9621765033e+00    0.0125049  0.009123691  35.66 0.0007098063    1.337    0.252
        60 -13.6601    196.8317    172.5841   2.9068452909e+02   4.5833541378e+00   0.03699093   0.02117934 -71.48  0.002604496    2.066    0.516
        61 -10.0266    104.9847     82.0359   2.9118987957e+02   6.1840799666e+00  0.007767736  0.007519587  18.18            0    1.012    0.012
        62 -10.4228    142.8167     80.1603   2.9073511843e+02   5.9699211261e+00  0.009393775  0.007697381 -25.94 0.0005134788    1.318    0.241
        63 -14.1878    148.3653     56.8101   2.9052318126e+02   6.2004833213e+00   0.04436017   0.02796578 -45.96 0.0009535914    1.623    0.384
        64 -10.8240    160.0149    246.9474   2.9158076485e+02   3.9674074114e+00   0.01762749  0.007420074 -48.22  0.001443056    2.404    0.584
        65 -13.0316    162.6393     33.6413   2.9021011360e+02   6.3744201856e+00   0.02110476   0.01773138 -37.96 0.0009326477    1.225    0.184
        66 -10.9257     13.5114     59.8987   2.9212305923e+02   7.0030574662e+00   0.01007361  0.008890859  28.44 0.0004875658    1.110    0.099
        67 -12.1047    168.0979    243.1777   2.9146278527e+02   3.9599922181e+00   0.01417769  0.009530148 -67.44 0.0008098382    1.599    0.374
        68 -11.1120    150.9811    243.6939   2.9166589876e+02   4.0605466774e+00   0.01191303  0.009245006 -48.24  0.000392306    1.298    0.230
