#   1 NUMBER                 Running object number                                     
#   2 MAG_AUTO               Kron-like elliptical aperture magnitude                    [mag]
#   3 X_IMAGE                Object position along x                                    [pixel]
#   4 Y_IMAGE                Object position along y                                    [pixel]
#   5 X_WORLD                Barycenter position along world x axis                     [deg]
#   6 Y_WORLD                Barycenter position along world y axis                     [deg]
#   7 A_WORLD                Profile RMS along major axis (world units)                 [deg]
#   8 B_WORLD                Profile RMS along minor axis (world units)                 [deg]
#   9 THETA_WORLD            Position angle (CCW/world-x)                               [deg]
#  10 FWHM_WORLD             FWHM assuming a gaussian core                              [deg]
#  11 ELONGATION             A_IMAGE/B_IMAGE                                           
#  12 ELLIPTICITY            1 - B_IMAGE/A_IMAGE                                       
         1 -13.4070     27.5762     59.7843   1.2737434352e+02   6.0271005869e+01    0.9929123    0.5834022  42.73  0.005601937    2.272    0.560
         2 -12.1940     42.6342     19.7861   1.0764511117e+02   6.6163480233e+01    0.6395733    0.4511757  29.99  0.003307161    1.571    0.364
         3 -12.3035    217.2541     16.5194   6.5889176738e+01   2.8379978088e+01    0.5933669    0.3744774  69.57  0.002023809    1.531    0.347
         4 -13.3128    186.9262      6.2949   6.6505168091e+01   3.6969617087e+01    0.9473321    0.5067057 -73.03  0.003940572    2.557    0.609
         5 -11.7780     43.8157      8.3495   1.0187063365e+02   6.7674242498e+01     0.277738    0.2354114  -6.07  0.001232396    1.178    0.151
         6 -11.5833     59.6466      7.8125   9.5328586178e+01   6.5423764426e+01    0.5567944    0.2642266  49.47  0.002684819    2.617    0.618
         7 -11.7095    165.7849      1.8945   6.7888984833e+01   4.2722906595e+01    0.5369259    0.1722656  69.20  0.001912558    2.942    0.660
         8 -10.7506     12.8062    227.3153   1.5044862919e+02   2.6889375826e+01    0.1628735   0.09672416  78.40 0.0006191251    1.281    0.219
         9 -11.5649     19.6601    248.8081   1.5042328620e+02   2.2688459487e+01     0.215511    0.1897449  28.02  0.001928873    1.910    0.476
        10 -11.1806     96.0165    224.6935   1.3616130250e+02   1.7484845042e+01    0.3457536    0.1890423  63.12  0.001958194    1.873    0.466
        11 -10.3291    103.8178    225.2960   1.3481443929e+02   1.6262622509e+01    0.1591256    0.1312604  77.41  0.001135363    1.171    0.146
        12  -9.7815     76.9690    226.0000   1.3967717878e+02   1.9864965654e+01    0.1788496    0.0534099  39.79 0.0007997571    2.924    0.658
        13 -10.8977    149.6864    223.5721   1.2619546366e+02   9.4257543723e+00    0.1909447    0.1473339  88.57   0.00118771    1.759    0.432
        14 -10.5707    226.4775    221.5148   1.1207873584e+02  -2.8864984109e+00    0.1204214   0.09579954  21.72 0.0001924516    1.049    0.046
        15 -10.2020    211.3863    218.2260   1.1416815663e+02  -5.1533836898e-02    0.1511637    0.1144616 -42.38 0.0006511378    1.720    0.419
        16 -10.6794    221.6754    214.3233   1.1170730837e+02  -1.2432917110e+00    0.1088147   0.09651425  62.70 0.0006269811    1.685    0.407
        17 -10.3615    116.4022    210.2619   1.3073481485e+02   1.6934930655e+01    0.1610955    0.1122828 -77.90 0.0009530691    1.702    0.412
        18 -10.9026    186.4743    204.7435   1.1648195986e+02   6.0317678389e+00    0.2890171    0.1866189  70.14  0.001293834    3.089    0.676
        19 -11.0258     49.6044    202.6231   1.4258932965e+02   2.7482310630e+01    0.2681651   0.07559312  42.02  0.001247573    2.914    0.657
        20 -10.3361      5.5050    199.5173   1.5022059328e+02   3.2507639641e+01    0.1642433   0.06586714  48.53  0.000601404    2.073    0.518
        21 -10.2851    112.8107    198.2093   1.2988428470e+02   1.9659400966e+01    0.2192383    0.1207418  71.80 0.0009566939    2.861    0.650
        22  -9.7718     12.4721    197.4392   1.4890023179e+02   3.2280377048e+01    0.1060274   0.07533378  76.24 0.0001632159    1.047    0.045
        23 -11.9699    159.8320    192.6540   1.1962496446e+02   1.2678682297e+01     0.540804    0.4010924 -86.85  0.002850267    2.073    0.518
        24  -9.9688    158.9779    187.7680   1.1897435003e+02   1.3668471024e+01    0.2889326    0.1549821  45.32 0.0009086141    1.688    0.408
        25  -9.7091    133.2936    195.6638   1.2541873554e+02   1.6778252810e+01    0.1290432   0.09403802  73.52 0.0003230518    1.644    0.392
        26 -10.1023    109.3303    186.0202   1.2892098147e+02   2.2512604465e+01    0.1999903    0.1018636 -82.02 0.0007041673    4.252    0.765
        27 -10.5188    183.5396    183.1509   1.1325383687e+02   9.9194351119e+00    0.3220499    0.1326508 -37.94  0.001320756    2.714    0.632
        28 -10.3903    223.5382    183.5073   1.0578137223e+02   2.5306472390e+00    0.1320975    0.1123082  13.62 0.0003055478    1.018    0.017
        29  -9.7494    137.3374    178.6615   1.2189860128e+02   1.9205388810e+01    0.1394127    0.1011834  74.85 0.0007051132    1.757    0.431
        30  -9.6824     88.6692    177.3177   1.3207217704e+02   2.7392927244e+01    0.1335379   0.08710137  71.31  0.000704731    1.687    0.407
        31 -10.1413    101.0113    176.0032   1.2924260071e+02   2.5801586386e+01    0.1777345    0.1581136  71.14            0    1.014    0.014
        32  -9.8556     28.6511    176.6897   1.4442285568e+02   3.4815668342e+01    0.1032962    0.0794357 -49.03 0.0004117071    1.713    0.416
        33 -11.9073     34.7817    173.1564   1.4288630495e+02   3.4924244455e+01    0.4100645    0.1805268 -88.33  0.002004639    2.494    0.599
        34 -10.2397     44.3288    168.3167   1.4043833170e+02   3.4921080232e+01    0.1101968   0.08518265 -45.11 0.0007045939    1.679    0.405
        35 -10.0140     55.7181    167.6037   1.3793206708e+02   3.3774739690e+01    0.1681561   0.09773741  50.38 0.0009494812    1.656    0.396
        36 -10.5469     98.8164    166.2225   1.2825760505e+02   2.8148509032e+01    0.2284029    0.1291644  73.86  0.000949378    2.801    0.643
        37  -9.9341    138.8017    165.1786   1.1921443588e+02   2.1530485654e+01    0.2386657    0.1514816  80.24 0.0009557796    2.915    0.657
        38 -10.2385     79.3126    163.6324   1.3223699366e+02   3.1574088062e+01    0.1367961   0.08861483  75.74 0.0007037429    1.768    0.434
        39 -11.6079    106.0525    157.6605   1.2523033405e+02   2.8785543498e+01    0.5525331    0.3662144  83.95  0.002640805    2.071    0.517
        40 -10.8526    167.4939    157.6659   1.1155460132e+02   1.7448613147e+01    0.2910691    0.2228836  71.80  0.001446144    1.730    0.422
        41 -10.8324    121.0285    168.5797   1.2371497666e+02   2.4021655686e+01    0.2876498    0.1701472 -74.35  0.001264699    2.444    0.591
        42 -11.0404    119.5169    156.6841   1.2197285943e+02   2.6709023532e+01    0.2963157    0.2048679  67.77  0.001461994    1.743    0.426
        43 -10.2048    218.4748    156.5200   1.0118999520e+02   7.4789691207e+00    0.1395959    0.1245963   7.75 0.0001376637    1.018    0.018
        44 -10.1165      6.9807    155.9798   1.4714067437e+02   4.0965943599e+01    0.1397759   0.09659531 -84.79 0.0005668112    1.112    0.101
        45 -10.0160     81.9703    154.9703   1.3036229280e+02   3.3055082583e+01    0.2739464    0.1374152  72.77 0.0009549548    4.100    0.756
        46 -10.4102    190.1721    150.5058   1.0533879379e+02   1.4144399643e+01    0.2937618    0.2313424 -80.27  0.001428657    1.959    0.490
        47 -11.1919    107.2781    145.4915   1.2277116058e+02   3.1173107331e+01    0.4731854    0.2831451  75.69  0.001890694    2.893    0.654
        48 -10.4975     55.8013    146.2052   1.3523153967e+02   3.8378692201e+01    0.2196184    0.1122134  70.57  0.000951977    2.821    0.646
        49 -10.3461    148.4902    144.9753   1.1304881959e+02   2.3669520160e+01     0.204228    0.1281769 -70.14 0.0008103131    2.565    0.610
        50 -11.7763     83.1734    130.8957   1.2600511308e+02   3.8183794553e+01    0.6059476    0.2333689 -64.35  0.002208123    3.060    0.673
        51 -11.7338     98.6661    128.1510   1.2150531102e+02   3.6387197235e+01     0.636473    0.3547716 -78.83  0.002321524    3.347    0.701
        52 -10.7753     59.1542    124.6783   1.3111915586e+02   4.2786698201e+01    0.3807327    0.2109136  88.88   0.00163939    2.751    0.636
        53 -10.0818    117.3221    125.6522   1.1624142478e+02   3.3685390788e+01    0.1495935    0.1135885  86.65 0.0007049316    1.741    0.425
        54 -11.2638     43.3937    123.1006   1.3498531034e+02   4.4896621869e+01    0.4983766     0.236475 -88.25   0.00198391    3.354    0.702
        55 -11.3766     27.5368    121.2767   1.3883207961e+02   4.6798602181e+01    0.7111224    0.3004406  83.27  0.002369025    5.339    0.813
        56 -11.5147    193.5001    118.8423   9.7255755523e+01   1.9014442203e+01    0.5808545    0.4240608 -63.50  0.002481921    1.880    0.468
        57 -10.9023     71.3881    120.1193   1.2705732422e+02   4.2259658542e+01    0.4330378    0.2344712 -86.64  0.001613809    3.515    0.715
        58 -10.4415     37.7048    121.1484   1.3617807343e+02   4.5900927192e+01     0.176307    0.1519327  72.69 0.0003347411    1.206    0.171
        59 -11.9743    141.2872    115.0043   1.0779175605e+02   3.1207766450e+01     0.776379    0.2485176 -39.34  0.002386149    3.394    0.705
        60 -10.7244    108.4122    112.8570   1.1558427620e+02   3.8069483666e+01    0.5303093    0.2609945 -66.42  0.001740708    3.665    0.727
        61 -10.8006     78.3558    112.0580   1.2353929470e+02   4.3104490611e+01    0.4805841    0.2378664 -76.52   0.00155656    4.326    0.769
        62 -11.8309    160.4174    112.2310   1.0260744193e+02   2.7636295250e+01     0.444931    0.2925807  51.36  0.001992596    1.573    0.364
        63 -10.3760     92.0084    111.9954   1.1978249871e+02   4.1043479314e+01    0.3365412    0.1761975 -65.67   0.00135401    2.420    0.587
        64 -10.7889    174.6031    111.2674   9.9233315270e+01   2.4640107112e+01     0.375989    0.2583873 -41.67  0.001727212    1.466    0.318
        65 -11.5174     14.7114    109.9420   1.4070046883e+02   5.0318102142e+01    0.5525106     0.284674 -88.23  0.002928249    2.045    0.511
        66 -10.4789      2.0000    115.9651   1.4468999166e+02   4.9835132110e+01    0.1947915    0.0498013 -73.10 0.0008069796    2.974    0.664
        67 -12.1401     44.3026    100.7423   1.3094441736e+02   4.9835536011e+01    0.6517742    0.3650032 -86.45  0.002983124    2.565    0.610
        68 -11.7212    150.6072    103.2336   1.0250384766e+02   3.1558433138e+01     0.367952    0.1884883 -52.44  0.001363801    2.374    0.579
        69 -11.9388    128.0510    101.5343   1.0759453679e+02   3.6702901794e+01    0.5129215    0.2773163 -55.26  0.002018991    2.205    0.546
        70  -9.8385     59.5917    109.8197   1.2830980760e+02   4.6088586099e+01    0.1822755    0.1142311 -72.11 0.0005062171    1.631    0.387
        71 -12.2105    108.6247     99.1504   1.1210074752e+02   4.0975349486e+01    0.6430591    0.4315014  79.11  0.002616698    2.685    0.628
        72 -10.7049     19.9594     98.2905   1.3759202992e+02   5.2517871018e+01    0.4585781    0.1763425 -82.39  0.001681142    4.083    0.755
        73 -10.4436     81.6783    100.1563   1.1992366580e+02   4.5265654947e+01    0.2242513    0.1694984 -72.49  0.001180093    1.487    0.327
        74 -11.0349     62.9933     95.6193   1.2435068371e+02   4.8851814161e+01    0.4234887    0.2197252 -79.97   0.00143932    4.301    0.767
        75 -13.0407    170.1449     90.8656   9.4685571673e+01   2.9410605414e+01    0.4100744    0.3738037  89.31 0.0009057948    1.272    0.214
        76 -11.3348    173.2429     86.3049   9.2740482831e+01   2.9485793329e+01     0.259218    0.2519625 -38.87 0.0004496384    1.067    0.063
        77 -10.9177     34.3220     88.9728   1.3167035407e+02   5.3414950956e+01    0.4697874    0.1822005 -71.15  0.001865197    3.065    0.674
        78 -10.3876    151.2354     89.2494   9.8468038592e+01   3.4101232691e+01    0.2509207    0.1153906 -47.58 0.0008871811    2.428    0.588
        79  -9.7769    137.6485     89.1906   1.0173493431e+02   3.7145912974e+01    0.2139667    0.1390904 -29.03  0.000403244    1.644    0.392
        80 -11.1416     41.4133     87.9079   1.2925413156e+02   5.2984345030e+01    0.2634963    0.1856776   8.53   0.00110678    1.848    0.459
        81 -11.1735     46.9660     82.5360   1.2631273874e+02   5.3597156815e+01     0.560437    0.3237307 -76.63  0.002642812    2.344    0.573
        82 -11.1084    104.3811     83.1725   1.0887019848e+02   4.5086355415e+01    0.3837361      0.24366 -68.67  0.001558991    2.549    0.608
        83 -11.1837     86.8091     87.4493   1.1519524995e+02   4.7228279440e+01    0.4363883    0.2946377  87.63  0.001823556    2.840    0.648
        84 -10.8504     23.8528     79.4960   1.3310624137e+02   5.6363422871e+01    0.4501979    0.1588528 -74.26  0.001523229    4.576    0.781
        85 -10.6127     62.9984     75.2685   1.1928977003e+02   5.3272150135e+01    0.4365463    0.1790618 -63.95  0.001408131    4.316    0.768
        86 -11.0875     82.2342     73.0990   1.1251516371e+02   5.0948233102e+01    0.3397666    0.2438382 -69.41  0.001673738    1.907    0.476
        87 -11.2617    223.4180     70.9428   7.9517319093e+01   1.9911654595e+01    0.3209373    0.2657289 -68.97 0.0005302255    1.375    0.273
        88 -10.1472     95.0000     71.9791   1.0825651056e+02   4.9030842883e+01     0.238755   0.07631369 -43.97 0.0006933176    2.921    0.658
        89 -10.7558     51.6256     69.9077   1.2160608155e+02   5.5791910337e+01    0.2740081     0.144993 -58.94  0.001087416    1.845    0.458
        90 -10.0431    195.3363     68.7038   8.3462876820e+01   2.7012913201e+01    0.1533558     0.116104 -69.08 0.0007030235    1.650    0.394
        91 -10.1722    219.7259     65.9140   7.8741863894e+01   2.1516079803e+01     0.272736    0.1956153  31.22   0.00132009    1.628    0.386
        92 -12.2296     20.6632     51.0823   1.2766741960e+02   6.2593195605e+01    0.5342568    0.2590221 -56.49  0.002915522    1.649    0.394
        93 -11.7152    220.0666    248.5818   1.1735294278e+02  -4.9340888850e+00     0.313284    0.2082318  58.33   0.00184779    2.515    0.602
        94 -11.5100    231.8927     60.8650   7.5691404344e+01   1.9374112297e+01    0.2577533    0.2029977  71.44  0.001384264    1.382    0.277
        95 -11.0197     39.5330     52.7703   1.2099537849e+02   6.0602718274e+01    0.2420684    0.1472819 -29.49 0.0008806945    1.626    0.385
        96 -10.7523    149.7919     52.5921   8.7486041958e+01   4.0739307609e+01    0.2098562    0.1459937  68.07 0.0009474789    1.687    0.407
        97 -10.2110     72.5100     58.4989   1.1109107764e+02   5.5339590034e+01    0.2478181     0.121366 -54.00  0.001037745    2.390    0.582
        98 -10.9684     93.8064     50.2710   1.0137149415e+02   5.3274441608e+01    0.4097417    0.2283498  29.49  0.001812811    2.086    0.521
        99 -11.3808     82.1407     44.7533   1.0306750721e+02   5.6294284570e+01    0.4069669    0.2840395 -49.74  0.001641264    1.670    0.401
       100 -11.8937      9.3191     57.1065   1.3340281927e+02   6.2105078168e+01    0.5459637    0.3552951  80.06  0.003169381    2.329    0.571
       101 -10.2841    157.0161     44.9476   8.3456972831e+01   4.0089925818e+01      0.22704    0.2123004  37.27 0.0005045669    1.031    0.030
       102 -10.8899      5.4615     42.6582   1.3142124821e+02   6.5258809562e+01    0.3005967    0.1996267 -82.69  0.001855312    1.993    0.498
       103 -11.3825     70.8380     42.1756   1.0592996769e+02   5.8577044665e+01    0.4926767    0.3351644  56.91  0.002499328    2.264    0.558
       104 -11.3041     42.8787     38.9968   1.1516254811e+02   6.2877857333e+01    0.2871757    0.2653591 -54.47  0.001445585    1.381    0.276
       105 -11.2103     30.3050     36.0074   1.1918340623e+02   6.4718886239e+01    0.1769716    0.1270852 -38.92 0.0003828486    1.104    0.094
       106 -10.7482    119.6816     33.5490   8.7903806607e+01   5.0535778180e+01    0.2965685    0.2382133 -53.12  0.001565704    1.542    0.351
       107 -11.0497    103.1854     30.0489   9.0951775171e+01   5.4568731037e+01    0.4623173    0.3526394  78.65  0.002341018    2.027    0.507
       108 -11.5030     25.5160    242.0142   1.4922212124e+02   2.3183294323e+01    0.1922074   0.09374009  81.41  0.001223877    1.819    0.450
       109 -10.4393    239.9035     20.8988   6.4709290568e+01   2.2524310343e+01    0.1972181    0.1759394 -63.98 0.0005447363    1.024    0.024
       110 -10.3394     33.3485    242.2704   1.4803653683e+02   2.2321184770e+01   0.07894404   0.07576568  66.66 0.0003867037    1.623    0.384
       111 -10.4910      8.9042    240.4868   1.5163776274e+02   2.5066523761e+01    0.1351848   0.07497261  45.67  0.001034989    1.598    0.374
       112 -11.6032     29.6087    233.2209   1.4811841612e+02   2.4212842609e+01    0.4143664     0.160626  64.12  0.002071965    2.321    0.569
       113  -9.3997    177.6693    235.6663   1.2278880971e+02   3.1715783673e+00    0.1198521   0.08122355  16.28 0.0007052135    1.726    0.421
