#   1 NUMBER                 Running object number                                     
#   2 MAG_AUTO               Kron-like elliptical aperture magnitude                    [mag]
#   3 X_IMAGE                Object position along x                                    [pixel]
#   4 Y_IMAGE                Object position along y                                    [pixel]
#   5 X_WORLD                Barycenter position along world x axis                     [deg]
#   6 Y_WORLD                Barycenter position along world y axis                     [deg]
#   7 A_WORLD                Profile RMS along major axis (world units)                 [deg]
#   8 B_WORLD                Profile RMS along minor axis (world units)                 [deg]
#   9 THETA_WORLD            Position angle (CCW/world-x)                               [deg]
#  10 FWHM_WORLD             FWHM assuming a gaussian core                              [deg]
#  11 ELONGATION             A_IMAGE/B_IMAGE                                           
#  12 ELLIPTICITY            1 - B_IMAGE/A_IMAGE                                       
         1 -17.5491    142.6234     67.4894   3.7187042081e+01   4.0173066935e+01     13.82346     7.092239  76.51   0.04020179    4.220    0.763
         2 -16.1924     78.9516      6.8837   2.8727862676e+01   6.4567207519e+01     5.706373     1.065984  57.68    0.0167414    4.788    0.791
         3 -11.1731     10.4838     23.0196   7.1166550512e+01   7.2563741951e+01     0.276211    0.1950637 -87.50  0.001318828    2.051    0.512
         4 -11.9866     21.6001      7.1856   5.5788601445e+01   7.4529225136e+01    0.3314229     0.238904 -54.02  0.001098074    1.687    0.407
         5 -11.6528     18.6111      2.0587   5.4485422988e+01   7.5720029556e+01    0.2339799    0.1958452 -24.61  0.000918358    1.117    0.105
         6 -11.0384     23.8654     13.3224   5.7964254368e+01   7.3202909207e+01    0.2641769    0.1438786 -43.97 0.0006284671    1.582    0.368
         7 -11.1412     16.9085     11.9932   6.1719862619e+01   7.4183628205e+01    0.2393587    0.1587306 -44.54 0.0008217742    1.285    0.222
         8 -11.2941      2.0669     11.8825   7.2061557368e+01   7.5392088017e+01    0.2816726    0.1487888 -60.31  0.001126808    1.685    0.406
         9 -10.7935     27.1881      9.9040   5.3907723070e+01   7.3396533490e+01    0.1784266     0.154261 -33.65  0.000686376    1.201    0.167
        10 -11.2222    117.2838     14.8044   2.2832298739e+01   5.4522776598e+01    0.2554477    0.1689264 -27.10  0.001149422    1.528    0.345
        11 -16.1105     77.5999     19.2134   3.5711617317e+01   6.3333280833e+01      4.30865    0.9533213  48.40   0.01334364    4.116    0.757
        12 -10.4893      5.8802      1.4676   6.3566548329e+01   7.7088197654e+01    0.1514924    0.1072874  12.72 0.0007859706    1.518    0.341
        13 -11.9684     11.9572    228.4837   9.5856126817e+01   2.6102736139e+01    0.2262359    0.1516508  37.58  0.001194329    1.521    0.343
        14 -11.8833      3.6493    247.4390   9.7845905204e+01   2.3652696064e+01    0.3672148    0.1493188  49.49  0.002489737    1.587    0.370
        15 -10.9174     40.0772    233.4015   9.1003841628e+01   2.2332760331e+01    0.1835995     0.136027 -66.53  0.001366715    1.719    0.418
        16 -12.9211     26.0549    230.7724   9.3419877617e+01   2.4294217781e+01    0.4631118    0.2485116 -81.69  0.002741359    1.845    0.458
        17 -11.4586     18.6547    223.9261   9.4474938816e+01   2.6267619293e+01    0.2067985    0.1163663  50.51  0.001004936    1.312    0.238
        18 -10.7371     36.7952    216.5145   9.0698249106e+01   2.5740814283e+01    0.1975021    0.1342601  87.19 0.0008743649    1.349    0.259
        19 -12.2913     21.4438    212.6169   9.3458400942e+01   2.8087630422e+01     0.279846     0.166112 -76.24  0.001426886    1.700    0.412
        20 -11.0326     28.4828    212.9077   9.2113037700e+01   2.7311538748e+01    0.2631017   0.09558116 -79.54  0.001349007    2.677    0.626
        21 -13.6274     13.0057    205.7265   9.4785301167e+01   3.0232928118e+01    0.3734792    0.3042752  78.98  0.002036314    1.209    0.173
        22 -11.5915      1.8482    207.2983   9.6989507359e+01   3.0944131462e+01    0.1923947    0.1077691  74.82   0.00129997    1.361    0.265
        23 -10.8920     26.4781    203.9821   9.2036389148e+01   2.9245613869e+01     0.164717   0.09453978 -86.28  0.001031883    1.590    0.371
        24 -12.9696      3.5651    198.7011   9.6357280901e+01   3.2468853708e+01    0.4311531     0.192532  76.69  0.002289849    1.835    0.455
        25 -12.2138     14.7921    197.8569   9.4081543406e+01   3.1616865486e+01    0.2560913    0.1198292  84.32  0.001461523    1.873    0.466
        26 -11.8399     20.1673    195.8906   9.2889310152e+01   3.1495335439e+01    0.1848416    0.1167089  67.25  0.000881259    1.222    0.182
        27 -10.8382     29.3999    193.2133   9.0815027892e+01   3.1107486141e+01    0.1667511   0.08951999  83.49 0.0009554802    1.678    0.404
        28 -13.0522      4.1699    189.6490   9.5887330401e+01   3.4237654833e+01    0.4057705    0.1824045  76.70  0.002308202    1.837    0.456
        29 -12.4412     17.5133    190.6714   9.3168861257e+01   3.2817751635e+01    0.3229955    0.1264616  69.36  0.001596711    2.352    0.575
        30 -11.2313     24.4221    187.2100   9.1510338159e+01   3.2860881830e+01    0.1710496   0.08827663  82.26 0.0009551417    1.727    0.421
        31 -12.2913     12.4515    183.2296   9.3860865707e+01   3.4838468809e+01    0.2712669   0.09473439 -85.08  0.001287282    2.574    0.611
        32 -12.1966     10.1360    187.8661   9.4574775603e+01   3.4080141065e+01     0.187393    0.1149883  65.29 0.0009214247    1.245    0.197
        33 -10.9825     23.6357    180.7755   9.1288252052e+01   3.4300813460e+01    0.1721202   0.08954372  85.22 0.0009521251    1.706    0.414
        34 -12.6810      2.2063    178.7851   9.5851806132e+01   3.6660873246e+01    0.3479132    0.1690588  89.01  0.002029978    1.691    0.409
        35 -11.5822      1.5868    170.6707   9.5635025227e+01   3.8445843775e+01    0.2197375   0.08676005 -77.98  0.001138704    2.136    0.532
        36 -13.0252    152.3152    104.0501   4.5875726569e+01   3.0766343280e+01    0.3809307    0.3007506  57.74   0.00111831    1.336    0.251
        37 -12.7064    143.2395    104.1708   4.8036198985e+01   3.2786578609e+01    0.4134026     0.277155  51.35    0.0013827    1.535    0.348
        38 -11.7717    131.5941    103.3759   5.0704479558e+01   3.5529793278e+01    0.2891547    0.2459653  60.18  0.001041795    1.225    0.184
        39 -11.0843     13.4869    247.9972   9.6240046430e+01   2.2628731433e+01    0.1815972    0.1275047  60.39 0.0007380341    1.070    0.065
        40 -11.4616     49.1003     50.7962   6.1618500582e+01   6.2582484592e+01    0.2022824    0.1826574 -79.88 0.0006678702    1.280    0.219
        41 -12.5941    125.8545     89.3761   4.8236387659e+01   3.9793635518e+01    0.3306854     0.240486 -71.98  0.001230695    1.746    0.427
        42 -10.1987     54.6724     66.2947   6.4468355716e+01   5.8318262585e+01    0.1375386     0.107763  80.25 0.0007022847    1.628    0.386
        43 -13.4537    120.5861     80.0603   4.6807382104e+01   4.2934806665e+01    0.4795662    0.3429326  71.85  0.001380981    1.778    0.438
        44 -11.2086    121.9689     92.6812   5.0241839836e+01   3.9942556495e+01    0.2243625    0.2034796  58.67   0.00111722    1.135    0.119
        45 -12.5825    104.7783     79.3580   5.1113799565e+01   4.6519254459e+01    0.3542213    0.2615523  76.86  0.001583544    1.802    0.445
        46 -12.0148     52.8987     45.5505   5.7948118253e+01   6.3163886095e+01    0.2769544    0.2422235  81.05 0.0008962179    1.483    0.326
        47 -11.9419     46.6646     42.1869   5.9420712727e+01   6.4752353081e+01    0.2146821    0.1868695  47.84 0.0007879069    1.375    0.272
        48 -12.0777     80.9122     62.1942   5.3146055294e+01   5.4959003811e+01    0.2220291    0.2021931 -89.75 0.0006956523    1.251    0.200
        49 -13.5797    113.1670     32.6864   3.1425391448e+01   5.3261412744e+01     0.544916    0.2688464 -33.55  0.001678479    1.971    0.493
        50 -12.4818     41.2705     38.2365   6.0369861377e+01   6.6289610023e+01    0.3247477    0.2674619  82.21  0.001403488    1.745    0.427
        51 -11.1331     31.0193     34.0033   6.3822607286e+01   6.8395757759e+01    0.1915127    0.1575232  86.92  0.001058202    1.718    0.418
        52 -11.9507     73.2387     61.5056   5.5687221138e+01   5.6489537907e+01    0.2702996     0.243232  80.72 0.0008253073    1.295    0.228
        53 -12.2851     34.9869     30.8194   6.0356436749e+01   6.8582409179e+01    0.3259729    0.2220092 -72.17  0.001649151    2.202    0.546
        54 -12.4140     27.1728     27.0705   6.2927510324e+01   7.0228566140e+01    0.2935808    0.2391008 -79.81  0.001340505    1.692    0.409
        55 -12.0269     16.6556    244.3946   9.5590895836e+01   2.2912307380e+01    0.3207052    0.1383759  40.24  0.001711401    1.772    0.436
        56 -12.1647     88.0951     69.0729   5.3052109434e+01   5.2115826910e+01    0.3458775    0.2210253  51.51  0.001373658    1.739    0.425
        57 -12.4825     34.6898     23.6382   5.7118990361e+01   7.0008464842e+01    0.3505522    0.2542459 -54.10  0.001315436    1.491    0.330
        58 -10.0151     46.4846    247.4703   9.0593626967e+01   1.9254731362e+01    0.1057505   0.07602224  56.43 0.0002670023    1.037    0.035
        59 -11.7230     63.6511     56.1883   5.7476862892e+01   5.9246819172e+01    0.2607754    0.2446069  49.89 0.0008392633    1.197    0.164
        60 -11.6872    112.8628     99.0820   5.4551409427e+01   4.0457460763e+01    0.3829688    0.2154917  55.29  0.001526144    2.032    0.508
        61 -10.6033      2.3303     19.4783   7.5064195716e+01   7.3826408845e+01    0.1902338    0.1309698 -81.28  0.001007568    1.780    0.438
        62 -11.3622     29.6788    244.6284   9.3375471755e+01   2.1548264245e+01    0.1995578    0.1759129  64.87  0.001182726    1.371    0.271
        63 -12.0491      3.4238    241.1230   9.7716907616e+01   2.4720726630e+01    0.3706918    0.1079318  47.03  0.001661947    2.065    0.516
        64 -11.8107      5.6723    238.6879   9.7270940941e+01   2.4923950119e+01    0.2155173    0.1449006  30.09  0.001631823    1.800    0.444
        65 -10.8635     17.2215     21.7689   6.6408614291e+01   7.2272247644e+01    0.2165137    0.1441415 -59.29 0.0009954334    1.494    0.331
        66 -11.6980     28.8398     15.5667   5.6192855081e+01   7.2213752387e+01    0.2396465    0.1605165 -46.57 0.0008133601    1.431    0.301
        67 -12.0890     14.4284    235.2859   9.5658835081e+01   2.4673335103e+01    0.2694317    0.1495508  71.37  0.001435246    1.399    0.285
        68 -10.5322     10.5239     12.9492   6.6568087738e+01   7.4578658977e+01    0.1833363    0.0988809 -51.83 0.0007666271    1.558    0.358
        69 -13.5091     12.2234    220.0330   9.5502422838e+01   2.7603343113e+01    0.4531472    0.2508289 -80.42  0.003079198    1.750    0.428
        70 -11.6612     69.5094     55.6281   5.4973284011e+01   5.8394728364e+01    0.2427516    0.2348544  52.82 0.0006926843    1.148    0.129
        71 -12.5064      3.4493    223.5639   9.7211032659e+01   2.7775982819e+01    0.3553293    0.2699716  55.94  0.002821483    1.204    0.169
        72 -10.2909     60.7239     69.5632   6.3097639002e+01   5.6690033340e+01    0.1871583    0.1343736  49.44 0.0009419897    1.593    0.372
        73 -12.3122      2.4152    215.2424   9.7140528522e+01   2.9393591286e+01     0.335759    0.1698515  75.64  0.002085813    1.547    0.354
        74 -11.2692     23.2750     17.8204   6.0754458614e+01   7.2443281378e+01    0.2139591    0.1545547 -52.48 0.0006690327    1.396    0.284
        75 -12.9020      4.9506    231.9168   9.7197467148e+01   2.6156622860e+01    0.4144647    0.3299556  17.67  0.003276996    1.966    0.491
