#   1 NUMBER                 Running object number                                     
#   2 MAG_AUTO               Kron-like elliptical aperture magnitude                    [mag]
#   3 X_IMAGE                Object position along x                                    [pixel]
#   4 Y_IMAGE                Object position along y                                    [pixel]
#   5 X_WORLD                Barycenter position along world x axis                     [deg]
#   6 Y_WORLD                Barycenter position along world y axis                     [deg]
#   7 A_WORLD                Profile RMS along major axis (world units)                 [deg]
#   8 B_WORLD                Profile RMS along minor axis (world units)                 [deg]
#   9 THETA_WORLD            Position angle (CCW/world-x)                               [deg]
#  10 FWHM_WORLD             FWHM assuming a gaussian core                              [deg]
#  11 ELONGATION             A_IMAGE/B_IMAGE                                           
#  12 ELLIPTICITY            1 - B_IMAGE/A_IMAGE                                       
         1 -12.2533     52.4638    108.1393   1.0671793088e+02   4.7895282755e+01     3.582808     1.965783  72.78   0.01394336    3.311    0.698
         2 -12.5379     79.4157    103.4419   9.7376309305e+01   4.5426357318e+01     4.599308     3.455644  51.35   0.02376569    1.505    0.335
         3 -12.7754     39.2776    114.0234   1.1176437213e+02   4.7873973602e+01     2.487044     1.412357  77.24   0.01135979    2.443    0.591
         4  -9.2159    134.1371     14.7785   5.2511609385e+01   5.0050612909e+01    0.2290431    0.2105293  59.25 0.0007083198    1.057    0.054
         5  -9.2376     80.3534     12.4601   6.5131243205e+01   6.2231995911e+01    0.2546762    0.2102093 -44.95 0.0009132901    1.569    0.363
         6  -9.1967     16.8764      2.5226   8.7496893205e+01   7.2813321314e+01    0.1666946    0.1336752 -27.05 0.0006089646    1.292    0.226
         7  -8.6395    107.2407      1.7725   5.3130110196e+01   5.7603697815e+01    0.2228747   0.07242882  51.00 0.0008848794    2.441    0.590
         8 -10.2286    219.4745    207.5015   8.6065189726e+01  -1.9344885038e+00    0.5130214    0.4106641 -49.66  0.002166251    1.712    0.416
         9  -8.6855    211.2743    250.2344   9.4509489056e+01  -6.3248583630e+00    0.2280576    0.1307297  40.99 0.0008564196    1.572    0.364
        10  -9.2825    204.8370    250.3619   9.5664102181e+01  -5.3956980567e+00    0.3146504    0.1160232  40.04  0.001524138    2.227    0.551
        11  -8.5087    188.8714    249.1023   9.8340330559e+01  -2.8404228041e+00     0.267258    0.1603569  22.55  0.001551481    1.665    0.399
        12  -9.3533    164.8960    249.1033   1.0270240328e+02   8.4966312388e-01    0.2863024    0.2328021   6.13  0.001963449    1.418    0.295
        13  -9.6562    157.8516    249.7360   1.0407306212e+02   1.8508412768e+00    0.5025001    0.1286235  36.99  0.001852635    3.593    0.722
        14  -8.4834    139.3776    248.8898   1.0736197802e+02   4.8305191146e+00    0.2584134     0.171752 -26.57  0.001473182    2.471    0.595
        15 -11.3921    217.4364    219.3690   8.8515278358e+01  -3.2821736865e+00     0.953819    0.9168143 -81.59  0.006596031    1.592    0.372
        16 -11.8598    183.9906    238.2435   9.7687374172e+01  -6.0947511721e-01      1.69373    0.8503104  19.34   0.00725519    3.166    0.684
        17 -10.3822    176.6992    233.8484   9.8412302021e+01   1.1885866624e+00    0.6714793    0.3315896 -54.06  0.003239684    2.964    0.663
        18  -8.1080    216.8901    240.8983   9.2111106243e+01  -6.0119122532e+00     0.231524    0.1692327 -39.23  0.001527669    1.742    0.426
        19  -7.6327    114.7760    241.9222   1.1113666332e+02   9.6977527217e+00    0.1285925   0.09719919 -63.98 0.0004041632    1.562    0.360
        20  -7.7686    214.4467    247.4642   9.3541340025e+01  -6.4544351066e+00     0.116395   0.09070636  22.17 0.0001271019    1.034    0.033
        21  -8.6867    224.5990    240.2503   9.0651574671e+01  -7.0629478501e+00    0.2843381    0.1340375  26.15  0.001471254    2.016    0.504
        22  -8.8485    145.5144    238.5388   1.0495987769e+02   5.4793342187e+00    0.1854727    0.1190603 -69.90 0.0008597372    2.251    0.556
        23  -8.3188     90.4908    237.4977   1.1520340615e+02   1.4021770401e+01    0.1194131   0.09373759  60.04 -0.0001229897    1.002    0.002
        24  -8.9100    169.5005    233.5074   9.9726024475e+01   2.4030815455e+00    0.2565362    0.1875185  25.36  0.001576489    1.300    0.231
        25  -9.1981    159.7947    232.5129   1.0143778473e+02   4.1319566025e+00    0.2754301    0.2069839  78.33   0.00160875    1.922    0.480
        26  -8.0577    115.0652    231.4673   1.0992792310e+02   1.1444869877e+01    0.1731701    0.1033984  20.66 0.0002913545    2.778    0.640
        27  -8.1018    137.8582    232.2144   1.0562003640e+02   7.7281515479e+00    0.1812369    0.1437286  56.57 0.0004979686    1.180    0.153
        28  -8.3803     52.6648    232.6703   1.2169756200e+02   1.9922401311e+01   0.09596547   0.08834677 -42.40 0.0007052067    1.727    0.421
        29 -10.3767    182.1742    224.2804   9.5930839656e+01   1.7284705557e+00    0.3915352     0.259602  41.99  0.002259315    1.339    0.253
        30 -10.2754    212.3740    216.0876   8.8884746445e+01  -2.0145295052e+00    0.3670928    0.2543028 -23.61  0.001487911    1.507    0.336
        31  -7.6625    148.3295    220.3006   1.0195890551e+02   8.0294215278e+00    0.1254405   0.09636419  10.96 0.0002551982    1.644    0.392
        32  -7.5941    105.6912    218.6214   1.1028064285e+02   1.5234226189e+01    0.1171747   0.09923315 -13.64 0.0001741911    1.788    0.441
        33  -9.5325    153.0990    217.1347   1.0054652361e+02   7.7708075845e+00    0.2903145    0.1689026  37.31 0.0004295482    1.527    0.345
        34 -10.8090    185.2250    214.2601   9.3737165648e+01   2.7703876576e+00     0.431531     0.306648  45.13  0.002479193    1.358    0.264
        35 -10.1630    189.8384    209.0848   9.1969393305e+01   2.8026247612e+00    0.3719545    0.2961868 -25.94  0.002244827    1.349    0.259
        36  -8.8003    174.4525    215.0304   9.5973806322e+01   4.4834427667e+00    0.2686095    0.1549265  45.94 0.0006462428    1.618    0.382
        37 -10.2175    195.9411    228.3272   9.3959653969e+01  -1.1101046688e+00    0.4221014     0.249496 -47.57  0.001715675    2.186    0.543
        38 -10.2995    167.1979    204.6506   9.5737711225e+01   7.4966496164e+00    0.3829599    0.3225012 -14.01 0.0006354175    1.349    0.259
        39 -10.2412    230.6928    203.3968   8.3277775068e+01  -3.1592858874e+00    0.6551909    0.3168919  31.96  0.002624647    1.970    0.492
        40 -10.3715    227.4211    197.0555   8.2687776297e+01  -1.7146540500e+00    0.4229512    0.3725759   7.99  0.001955082    1.102    0.093
        41  -8.1519    129.0246    203.6953   1.0351741975e+02   1.4322560061e+01    0.1890868    0.1537723  42.22  0.000429546    1.134    0.118
        42  -7.4301    136.5295    203.5274   1.0191394535e+02   1.3073290808e+01     0.133983    0.1191857  50.01 1.755887e-05    1.000    0.000
        43  -8.6110    182.4921    202.5309   9.2290411882e+01   5.1551568546e+00    0.1352313    0.1177666  22.14 0.0008094802    1.041    0.039
        44 -10.5068    203.2974    198.5372   8.7486230739e+01   2.1528423769e+00    0.3988723    0.3210455  -0.14  0.002365281    1.230    0.187
        45  -9.8428    210.9574    197.3534   8.5802207187e+01   1.0138767790e+00     0.308054    0.2169371 -44.17  0.001590805    1.658    0.397
        46  -8.0598     63.0055    198.7515   1.1681312066e+02   2.5362080940e+01    0.1569591   0.09574079  42.40 0.0008813793    1.569    0.363
        47  -8.4470    187.8517    194.1773   8.9725692961e+01   5.6126002604e+00     0.195828    0.1818274  50.78 0.0007084219    1.221    0.181
        48  -9.6087    224.4259    187.4280   8.1389441873e+01   2.3808431689e-01    0.3866681    0.2229003  -1.02  0.001657901    2.642    0.622
        49 -11.3753    207.7457    185.9303   8.4243500433e+01   3.4068947480e+00    0.5869333     0.462803  23.34  0.002683355    1.179    0.152
        50  -9.9836    178.4742    183.1380   8.9580084916e+01   9.2975502156e+00    0.3078104    0.1690625  40.06  0.001250641    1.710    0.415
        51 -10.9475    183.2053    185.4202   8.9036297662e+01   7.9974879867e+00    0.5738501     0.319751 -28.76  0.002105216    2.218    0.549
        52 -10.4505    186.8309    179.2970   8.7109916736e+01   8.4186645891e+00    0.3250737    0.2857282  77.97  0.001739944    1.476    0.322
        53 -11.8321    186.3490    172.8474   8.5923190021e+01   9.6901921715e+00    0.4755659    0.4187534  86.20  0.002613981    1.484    0.326
        54 -10.9357    207.0453    177.2444   8.2657686298e+01   4.9872704295e+00    0.5371025     0.248156 -37.72  0.002291977    2.186    0.543
        55 -10.2204    172.8605    187.2463   9.1521064337e+01   9.5936389805e+00    0.3405223    0.2056495 -50.57  0.001615818    1.883    0.469
        56  -9.8203    211.3920    176.1941   8.1604552361e+01   4.3630254389e+00    0.2917955    0.2876944  86.36  0.001803889    1.294    0.227
        57  -9.8606    198.8152    182.1271   8.5247819774e+01   5.6748737624e+00    0.1998044    0.1980936  73.30 0.0008938222    1.235    0.190
        58  -9.0488    193.5026    182.4850   8.6378979766e+01   6.5984519551e+00    0.1400931    0.1262726  13.69 0.0001362302    1.015    0.014
        59  -8.0326     17.0684    178.5454   1.2458056668e+02   3.4853034506e+01    0.2643775   0.09347822  69.76  0.001052081    3.581    0.721
        60 -11.2810    194.4670    171.2293   8.3930722123e+01   8.4183835224e+00    0.3911077    0.3552622  77.12  0.001027088    1.398    0.285
        61 -10.2533    180.7674    175.2785   8.7572401798e+01   1.0316067858e+01    0.2976641    0.1957321 -31.80  0.001427157    1.653    0.395
        62 -11.5600    201.9523    165.9798   8.1335671578e+01   7.9159276743e+00    0.6845152    0.5330288  71.80  0.003419528    1.879    0.468
        63 -11.4743    180.1731    169.1215   8.6455919341e+01   1.1593447796e+01    0.8105626    0.4207596  25.46  0.003000173    2.810    0.644
        64 -12.3492    190.6300    156.2644   8.1544195567e+01   1.1952466141e+01     1.440629    0.7918465  40.40  0.006217886    1.815    0.449
        65 -10.8665      9.8478    159.0040   1.2464300036e+02   3.9821515284e+01    0.5265208    0.3484033  12.30  0.002231198    2.321    0.569
        66  -9.7907    163.7969    165.2285   8.9200216039e+01   1.5595608491e+01    0.3777535    0.1662155  47.58  0.001426408    2.305    0.566
        67  -9.7224     24.5124    164.5054   1.2183474427e+02   3.7298850411e+01    0.2322765    0.1489169 -79.03  0.001186662    1.270    0.212
        68  -9.5009     26.4342    161.4938   1.2112240401e+02   3.7806138892e+01     0.223369    0.1483038 -85.07 0.0007401975    1.229    0.186
        69  -8.9134     34.5260    161.0648   1.1921574886e+02   3.7108665600e+01     0.191836    0.1037375 -74.09 0.0005267496    1.556    0.357
        70  -9.9329     29.6842    158.3463   1.2006585538e+02   3.8220539692e+01     0.230893    0.1756072 -71.26 0.0006723663    1.195    0.163
        71 -10.3412     22.3016    156.8719   1.2163707687e+02   3.9251225517e+01    0.3460242    0.2387267  62.20  0.002182801    1.378    0.274
        72  -9.3712     19.4842    169.7405   1.2338978983e+02   3.6581472137e+01    0.2110725    0.1638922 -46.22 0.0006939276    1.709    0.415
        73  -9.7417      1.4910    148.3996   1.2570128058e+02   4.2846378521e+01    0.2599805     0.109317 -69.14  0.000832646    1.835    0.455
        74 -10.9885     10.3306    139.5265   1.2285493237e+02   4.4250882742e+01     0.697351    0.6046279 -62.13   0.00347489    1.287    0.223
        75 -13.2415     57.1696    130.4779   1.0938993009e+02   4.1906202663e+01     3.044462     1.881215 -35.79   0.01457751    2.127    0.530
        76 -10.5969      3.6022    126.8301   1.2333045213e+02   4.7663083157e+01    0.4573383    0.2012242 -75.92  0.000422709    1.739    0.425
        77 -12.0235     66.2488    106.8548   1.0221198859e+02   4.6494114116e+01      1.96473    0.9822019 -65.34  0.006731365    2.032    0.508
        78  -8.6291    198.1476    246.4232   9.6288203732e+01  -3.9011504565e+00    0.2557734    0.2000842  72.63  0.001567839    2.279    0.561
        79  -9.6240    107.2846    246.5218   1.1299089278e+02   1.0046011618e+01    0.3639645    0.1922728  32.92   0.00196425    2.019    0.505
        80 -12.0096     93.2848    108.1981   9.4368780243e+01   4.2062317902e+01     1.628614    0.6293358  50.92  0.001490203    3.649    0.726
        81 -11.9221    105.7121    105.0892   8.9960677311e+01   4.0569082594e+01     1.843831    0.9273678 -53.87  0.007256501    1.987    0.497
        82  -8.6254     36.6817    247.3512   1.2537697202e+02   1.9157823060e+01    0.1177072   0.05546098  65.27 0.0007047573    1.739    0.425
        83 -10.4667      6.8050    167.2673   1.2591750879e+02   3.8217556403e+01    0.3879028     0.315451  60.67  0.002049562    1.270    0.213
        84  -9.9496     57.2744    150.1278   1.1236209363e+02   3.7137427544e+01    0.3485551    0.1946325  25.43  0.001662267    2.321    0.569
        85  -9.7118      4.2165    155.6095   1.2563342810e+02   4.1021226055e+01    0.5060574    0.1737861 -60.47  0.002099155    2.547    0.607
        86  -8.8723     90.1131    142.5226   1.0261729168e+02   3.4345135224e+01    0.2226697    0.1812364 -64.66 0.0005720285    1.150    0.130
        87 -11.9698      7.6478    131.3156   1.2273453471e+02   4.6352761183e+01     1.337256    0.6052604 -50.01  0.002543777    2.302    0.566
        88  -8.2869    137.1418    134.1646   8.8707145980e+01   2.7685902601e+01    0.2108189    0.1816448  85.51 0.0004087266    1.316    0.240
        89  -8.5294    112.5182    134.4958   9.5092598761e+01   3.2411962567e+01    0.1502043    0.1428389 -76.93 0.0001244326    1.008    0.008
        90 -10.0244     46.5357     93.6701   1.0560820857e+02   5.2008876953e+01     0.245241    0.2039704 -51.24 0.0004485094    1.060    0.056
        91  -8.8780    141.4113    126.2328   8.5759105814e+01   2.8575393121e+01    0.2168955    0.1475369 -55.92 0.0004761594    1.549    0.354
        92 -13.1064     32.2024    123.7897   1.1529645793e+02   4.6186367998e+01     3.132709      1.10798 -57.08   0.01359317    2.278    0.561
        93 -10.4672    125.8407    117.1287   8.7496977166e+01   3.3864590723e+01    0.3916561    0.2761957 -68.61  0.001152205    1.725    0.420
        94  -8.6977    205.7350    117.0043   6.9293687425e+01   1.6171679872e+01    0.2329158    0.2157369  38.11 0.0005086063    1.131    0.116
        95 -12.2954     16.0641    114.8969   1.1862662324e+02   4.9627554391e+01     1.479447    0.8531023  30.22  0.008501425    2.078    0.519
        96 -10.5547    132.3253    107.2487   8.3216725454e+01   3.4730390323e+01    0.8940266    0.5874329  40.02  0.003907511    1.596    0.374
        97  -8.1562    137.7560    105.0175   8.1204418751e+01   3.4043825832e+01    0.2148276    0.1990683 -43.54  0.001098117    1.051    0.049
        98 -10.3212    144.9808    110.4837   8.0853144091e+01   3.1267403259e+01    0.2791011    0.2651492 -57.81  0.001448886    1.056    0.053
        99 -10.4489     16.9056    162.2260   1.2333570418e+02   3.8504069844e+01     0.400586     0.206143 -75.71  0.001296375    1.559    0.358
       100  -8.7880     94.5633     94.8254   9.0512876528e+01   4.4944377358e+01    0.2790658    0.2170987  47.00 0.0009079055    1.401    0.286
       101  -8.4552     62.9655     91.0566   9.9571434628e+01   5.0671955846e+01    0.2121867    0.1832302 -44.03 0.0004634889    1.061    0.058
       102  -8.6749    110.1600     74.4994   7.9755865250e+01   4.6357459747e+01    0.2461725    0.1983394 -38.43 0.0003088463    1.190    0.160
       103  -8.0416    206.4364     69.2381   5.6698613296e+01   2.4429398350e+01    0.2878105    0.1446496 -29.62  0.001137436    2.070    0.517
       104  -7.9558     94.4864     52.2719   7.6942865860e+01   5.3691570547e+01    0.1872702    0.1319847 -46.76 0.0007071125    1.521    0.342
       105  -9.2543     90.0856    150.3925   1.0404098157e+02   3.2467229996e+01     0.248673    0.1886354 -61.21 0.0002117539    1.251    0.201
       106  -9.0811     84.8338     21.2851   6.7631605246e+01   6.0303302652e+01    0.3247632    0.1737316 -36.54   0.00156275    1.961    0.490
       107  -8.3741     30.2277     22.0172   8.9952447916e+01   6.8469366073e+01    0.1554607   0.08253897 -40.68 0.0008597198    1.590    0.371
       108  -9.7415     75.1382     17.8854   6.9348952817e+01   6.2563504627e+01    0.2626415     0.239037 -14.06 0.0007091997    1.209    0.173
       109  -8.4364    166.9759     17.2983   4.7751808250e+01   4.1556417568e+01    0.1953156    0.1699275  64.82 0.0003484056    1.070    0.065
       110  -9.8111    200.3049    208.0150   8.9759832716e+01   1.1819253652e+00    0.5645034    0.3927116  55.24  0.001797416    1.841    0.457
       111 -10.6636    233.8881    211.7662   8.4225933047e+01  -4.8152317028e+00     1.568328    0.6592755  33.19  0.007379864    2.229    0.551
       112 -11.9467    206.7825    217.7658   9.0210168224e+01  -1.3491480174e+00    0.9827903    0.7179873  39.94  0.005972159    1.321    0.243
