#   1 NUMBER                 Running object number                                     
#   2 MAG_AUTO               Kron-like elliptical aperture magnitude                    [mag]
#   3 X_IMAGE                Object position along x                                    [pixel]
#   4 Y_IMAGE                Object position along y                                    [pixel]
#   5 X_WORLD                Barycenter position along world x axis                     [deg]
#   6 Y_WORLD                Barycenter position along world y axis                     [deg]
#   7 A_WORLD                Profile RMS along major axis (world units)                 [deg]
#   8 B_WORLD                Profile RMS along minor axis (world units)                 [deg]
#   9 THETA_WORLD            Position angle (CCW/world-x)                               [deg]
#  10 FWHM_WORLD             FWHM assuming a gaussian core                              [deg]
#  11 ELONGATION             A_IMAGE/B_IMAGE                                           
#  12 ELLIPTICITY            1 - B_IMAGE/A_IMAGE                                       
         1 -14.5968      2.4414     87.4967   1.3629370120e+02   5.7317942106e+01     4.044693    0.6949009 -68.41   0.01161042    6.477    0.846
         2 -14.2874      2.4760    133.0602   1.4265982013e+02   4.7317696523e+01     5.291393    0.4371172 -72.03  0.009982849   13.943    0.928
         3 -13.6426    199.3973     27.6767   6.6721752865e+01   3.2394201001e+01     1.458686     1.304094  34.15  0.007281542    1.414    0.293
         4 -13.5468    215.1660      9.1984   6.0586293905e+01   3.0762451591e+01     0.978121    0.7965395  73.79  0.002852973    1.184    0.156
         5 -14.5370      7.5786    151.5676   1.4343732837e+02   4.2776820328e+01     4.267612     1.594914  85.81   0.01569133    4.206    0.762
         6 -12.7466      3.5762      3.5215   1.1193794264e+02   7.2114867507e+01    0.7850611    0.4209774 -33.65  0.005530756    1.465    0.317
         7 -10.4540    162.1882    249.1936   1.2300093944e+02  -3.5469356353e-01    0.1798555    0.1378958  61.15  0.001089333    1.360    0.265
         8 -12.0806    238.9808    248.0106   1.0853690624e+02  -1.2675767889e+01    0.7016153    0.2604495  27.53  0.002864168    3.314    0.698
         9 -11.5941    249.2423    249.2384   1.0693847468e+02  -1.4305799374e+01    0.3917293    0.3233147  73.42  0.002423627    2.580    0.612
        10 -11.9724     99.6324    248.4514   1.3474783783e+02   1.0242865494e+01    0.3896209    0.3592021  36.77   0.00270962    1.441    0.306
        11 -13.7622      9.9913    243.0443   1.4982501557e+02   2.3197262798e+01     1.645691     1.169998  76.16   0.01274616    1.071    0.066
        12 -13.1501     45.3918    214.9551   1.4165320296e+02   2.4759442597e+01    0.9982023    0.6717963 -81.20  0.004859848    1.279    0.218
        13 -12.9703     29.9330    232.5613   1.4587401572e+02   2.3014262991e+01    0.2998051    0.2314328 -75.85 0.0007660402    1.403    0.287
        14 -14.0798     34.9768    226.1633   1.4451523475e+02   2.3705527010e+01     0.767471    0.5407341  72.60  0.002383984    1.085    0.078
        15  -9.8023    190.6455    246.3178   1.1715764683e+02  -4.7635727216e+00    0.1240652   0.09351095  64.54 9.129201e-05    1.747    0.428
        16 -11.8415    140.6722    250.2169   1.2723890000e+02   3.1587553166e+00     0.572135     0.167108  42.51  0.002218724    2.822    0.646
        17 -10.0338     66.2265    250.0590   1.4092364448e+02   1.4934994373e+01     0.206884    0.1365067  55.51 0.0005667365    1.228    0.185
        18  -9.5630    120.2943    239.3385   1.2977602258e+02   8.5497461957e+00    0.1157729    0.1023723   3.36 0.0002425075    1.651    0.394
        19 -11.3211     50.0967    236.2994   1.4262307498e+02   1.9777129049e+01    0.2418894    0.2240895  67.22  0.001446959    1.455    0.313
        20 -12.4182     91.6802    227.5023   1.3395174890e+02   1.5544202952e+01     1.423317    0.1692068  48.24  0.003406511    7.650    0.869
        21 -12.6959    114.5051    232.0191   1.2999198684e+02   1.0914362346e+01     1.071551      0.17295  42.74  0.003092436    4.955    0.798
        22 -11.7890     58.1776    212.6366   1.3894846870e+02   2.3587496194e+01     1.133614    0.2872333  56.31  0.003162971    6.458    0.845
        23  -8.7594    152.5306    213.0692   1.1946579500e+02   7.8035098391e+00    0.1816255    0.1391611 -54.01 0.0003642182    1.440    0.305
        24 -12.5315      9.5636    207.1405   1.4769243296e+02   3.0403729106e+01    0.6392099    0.4531759  34.11   0.00304698    1.860    0.462
        25 -11.0815     55.2946    205.3870   1.3877866617e+02   2.5545273420e+01    0.4348556    0.1830647  59.32  0.001929066    2.496    0.599
        26 -11.8121     57.6739    198.9006   1.3759421177e+02   2.6662429387e+01    0.3030554    0.2350651 -84.07 0.0005416814    1.115    0.103
        27 -13.3279     12.1330    121.6360   1.3875869724e+02   4.9227887069e+01     0.845221    0.6147748  55.77  0.003597995    1.603    0.376
        28 -11.7786    173.0610    248.3700   1.2080884897e+02  -2.0882664742e+00    0.4830882     0.251948  56.20  0.002261693    2.305    0.566
        29 -12.0536     64.3459    190.3783   1.3518036743e+02   2.7676969577e+01    0.2776742    0.2429061 -75.90 0.0004861791    1.197    0.165
        30 -10.7204      9.0846    193.7860   1.4682076170e+02   3.3284184186e+01    0.2430173    0.1537458  63.00 0.0005270846    1.403    0.287
        31 -13.2061     61.5474    175.4955   1.3389154503e+02   3.1505862832e+01    0.5220025    0.2799634 -47.93  0.002127612    2.229    0.551
        32 -10.8706     75.1617    177.3882   1.3102009930e+02   2.9135776394e+01    0.2460697    0.2206445  84.22  0.000349126    1.080    0.074
        33 -10.8138    156.4890    249.5102   1.2413242482e+02   5.7217314337e-01    0.2349674    0.1059117  42.90  0.001110752    1.831    0.454
        34  -8.9412     95.1446    172.2065   1.2551826819e+02   2.7204052447e+01    0.1980095    0.1518946  74.65 0.0003751129    1.316    0.240
        35 -11.8817     82.8417    168.2093   1.2780860231e+02   3.0140198155e+01    0.6913283    0.5289476 -54.64  0.003756543    1.339    0.253
        36 -10.5368     95.9816    152.6931   1.2183687425e+02   3.1715608394e+01    0.3215147     0.297796 -43.04 0.0007568375    1.216    0.178
        37 -11.9840     84.4824    151.4972   1.2454193338e+02   3.3889048250e+01    0.3153357    0.2517675 -48.77 0.0006124193    1.307    0.235
        38  -9.3049     99.1088    148.2320   1.2017220162e+02   3.2247411529e+01    0.2058434    0.1986498 -35.85 0.0004198024    1.185    0.156
        39 -12.2002     67.3144    143.5860   1.2756390566e+02   3.8331930309e+01     0.665562    0.4284727  65.23   0.00317026    1.846    0.458
        40  -9.9121    108.4269    137.5096   1.1551602306e+02   3.3129431263e+01    0.4192223    0.2848056 -20.99  0.001585544    2.376    0.579
        41 -10.5167     95.4588    134.6591   1.1833681751e+02   3.6124565135e+01    0.2585691    0.2320902 -33.27 0.0003328781    1.242    0.195
        42 -11.2401     26.0847    128.8566   1.3607455172e+02   4.6463306532e+01    0.2968895    0.2093544  65.89 0.0008023272    1.605    0.377
        43  -9.2226     75.0826    128.7594   1.2265704480e+02   4.0775348426e+01    0.2108409    0.1782334  78.98 0.0007541503    1.271    0.213
        44  -8.8272    106.0145    123.9832   1.1308506581e+02   3.6756221522e+01     0.206918    0.2007345 -66.55  0.001144844    1.032    0.031
        45  -9.7998     79.9120    123.4183   1.2018450506e+02   4.1314796591e+01    0.2877621    0.2125113  71.36 0.0008939731    1.668    0.400
        46  -9.6315     66.3201    121.7789   1.2368309224e+02   4.3661023829e+01    0.2453555    0.1955617  74.37 0.0008505586    1.446    0.309
        47  -8.9744    167.8081    112.8541   9.4809376523e+01   2.5903602254e+01    0.2199466    0.1835806 -78.39 0.0005287222    1.336    0.251
        48 -11.2449    243.0049     94.1371   7.6499922299e+01   1.1958987163e+01    0.4012032    0.1474997 -32.05  0.001330215    3.412    0.707
        49  -8.9500     64.8817     81.0935   1.1433623282e+02   5.2877792031e+01    0.1861181    0.1764113 -84.65 0.0008402548    1.272    0.214
        50 -10.4124    158.9598     77.0046   8.7051255764e+01   3.5021978785e+01     0.239092    0.2280224  88.04 0.0006771013    1.036    0.034
        51  -8.8751     55.8139     74.8361   1.1559843888e+02   5.5322150798e+01     0.158225    0.1487705 -72.31 0.0003630166    1.292    0.226
        52  -9.1252     35.9505     63.7734   1.1943288604e+02   5.9679528492e+01    0.1597386    0.1390627 -22.77 0.0003233991    1.097    0.089
        53 -12.3716      4.1083     51.6387   1.2811680310e+02   6.4380544361e+01    0.5123443    0.3780429  69.99  0.003352027    2.350    0.574
        54 -11.6539    125.6819    250.0023   1.3005103998e+02   5.7232376987e+00     0.449773    0.1785377  41.58  0.002031528    2.160    0.537
        55 -10.6373     81.1879    249.1311   1.3818430769e+02   1.2946319204e+01    0.2330894    0.1448011  59.42  0.001095731    1.295    0.228
        56 -13.5979     33.6874    245.8416   1.4615537298e+02   1.9984228414e+01     1.392437       1.1095  57.46   0.01053623    1.352    0.260
