#   1 NUMBER                 Running object number                                     
#   2 MAG_AUTO               Kron-like elliptical aperture magnitude                    [mag]
#   3 X_IMAGE                Object position along x                                    [pixel]
#   4 Y_IMAGE                Object position along y                                    [pixel]
#   5 X_WORLD                Barycenter position along world x axis                     [deg]
#   6 Y_WORLD                Barycenter position along world y axis                     [deg]
#   7 A_WORLD                Profile RMS along major axis (world units)                 [deg]
#   8 B_WORLD                Profile RMS along minor axis (world units)                 [deg]
#   9 THETA_WORLD            Position angle (CCW/world-x)                               [deg]
#  10 FWHM_WORLD             FWHM assuming a gaussian core                              [deg]
#  11 ELONGATION             A_IMAGE/B_IMAGE                                           
#  12 ELLIPTICITY            1 - B_IMAGE/A_IMAGE                                       
         1 -13.8442     68.5346    144.5968   9.4059496223e+01   3.7267092227e+01     4.113064     2.056117  70.21  0.006323237    5.024    0.801
         2 -13.5308    207.9040     43.3474   3.5992300077e+01   2.8373961949e+01     1.770457     1.270893  26.39  0.008366072    2.277    0.561
         3 -13.4317    221.9937     30.7612   3.1802475006e+01   2.6991827439e+01     1.546137     1.116746  32.44  0.008961524    2.261    0.558
         4 -12.3749    247.1656      6.5112   2.5149568444e+01   2.4786932379e+01    0.7033733     0.417515 -45.88   0.00472593    1.355    0.262
         5 -10.4823      2.1350     10.4341   8.4631898644e+01   7.4747299467e+01    0.3332971   0.06320411 -48.52  0.001199808    4.609    0.783
         6  -8.2863    168.9646    235.9602   8.4151154629e+01   1.7863636914e+00    0.1474793     0.126117  -4.22 0.0004813285    1.105    0.095
         7 -15.0223      6.1735    186.2457   1.1645803837e+02   3.3479383041e+01     9.121249     1.311919 -76.31  0.002054234    5.622    0.822
         8 -12.7526     33.3460    197.1003   1.1064168068e+02   2.8374215605e+01    0.6855319    0.5139781 -19.51  0.001767496    1.926    0.481
         9  -8.9888    123.4594    200.9390   8.8780367517e+01   1.5175270858e+01    0.1841856    0.1260849 -89.90 0.0006548815    2.403    0.584
        10 -10.3752    194.5033    197.4994   7.2513851682e+01   4.5530198873e+00    0.4039328    0.2538489 -64.91  0.001662233    3.556    0.719
        11  -9.5313    191.8306    192.6353   7.2142344751e+01   5.8133658309e+00    0.3587403    0.2265625 -62.20  0.001574167    2.872    0.652
        12  -7.9385    149.3214    192.6649   8.1290773450e+01   1.2683267851e+01    0.1392922    0.1133593  71.54 0.0007050119    1.706    0.414
        13 -10.8667    109.1481    215.5791   9.4349667394e+01   1.4305287493e+01    0.3252583    0.2478793  75.04  0.001757525    1.647    0.393
        14 -11.1499    119.6817    213.3008   9.1561973648e+01   1.3191125917e+01    0.3643483    0.3120216 -65.43  0.001985711    1.339    0.253
        15  -7.9690    195.7108    190.2933   7.0932417518e+01   5.6255435006e+00    0.1167277    0.1096714 -83.91 0.0002116585    1.548    0.354
        16  -8.0409    224.2459    206.6906   6.8612623995e+01  -1.1470572635e+00    0.1053282   0.09311475 -39.27  0.000233515    1.506    0.336
        17  -9.2662     99.4959    180.9498   9.1546210975e+01   2.3481661574e+01    0.2600096    0.2033729  12.32 0.0005584296    1.470    0.320
        18 -14.1601     43.5201    187.4404   1.0716898357e+02   2.9574673649e+01     2.644323     1.547669  61.17  0.009759644    1.761    0.432
        19 -11.4226     61.0907    172.4681   1.0065843060e+02   3.1146594001e+01    0.4999539    0.3216695 -31.33  0.002021532    2.122    0.529
        20 -11.2221     65.9814    167.5773   9.8590361888e+01   3.1730194891e+01    0.3406782    0.2648521 -38.72 0.0007985056    1.454    0.312
        21  -8.6541    186.6686    173.3424   6.9437472886e+01   1.0181181516e+01    0.1340201    0.1146879 -85.03 0.0007051082    1.751    0.429
        22 -12.0238     83.5078    152.4783   9.1006656792e+01   3.3005863455e+01     1.700958    0.6937063 -59.85  0.002192534    2.460    0.593
        23 -12.8746     63.0370    154.4270   9.7410740934e+01   3.5488192989e+01    0.5276376    0.3825386 -35.34  0.001084044    1.600    0.375
        24 -11.8743     75.7239    158.3438   9.4325606760e+01   3.2697919373e+01    0.6712934    0.5430613 -86.77 0.0005550859    1.319    0.242
        25 -10.5254    119.7559    244.8814   9.5749684467e+01   7.1547352795e+00    0.2759289     0.167212 -51.98  0.001117196    1.925    0.480
        26  -9.0976    111.1785    167.9709   8.6176104364e+01   2.4632983604e+01    0.3732313     0.235528  74.03  0.001408796    2.749    0.636
        27  -8.3696     43.5315    164.4709   1.0454621263e+02   3.5307740509e+01    0.1406262    0.1255003  82.37 0.0008088006    1.040    0.038
        28  -9.8362     85.7825    172.1873   9.3790614877e+01   2.7726852748e+01    0.4300314    0.3229634  -2.94  0.002054327    1.767    0.434
        29 -10.6124     32.5680    156.4397   1.0672809579e+02   3.8535080213e+01    0.4185135    0.2974899  87.67 0.0008501824    1.378    0.274
        30  -8.5716    127.4311    152.1544   7.8698335439e+01   2.5437366983e+01    0.2204043    0.1476626 -64.70 0.0009367005    1.809    0.447
        31  -8.5028    175.2994    149.6003   6.6796163926e+01   1.6854825786e+01      0.14907    0.1167843 -75.75  0.000699901    1.821    0.451
        32 -10.0403    134.3009    147.0027   7.5796754686e+01   2.5317075581e+01     0.635596    0.2237955 -52.70  0.001979493    3.159    0.683
        33 -10.1412     47.7614    169.4568   1.0397690794e+02   3.3553509099e+01      0.35882    0.3161169 -88.94 0.0009039039    1.051    0.048
        34  -9.9422     29.2912    142.9980   1.0604142284e+02   4.2339288286e+01    0.4116317    0.2696886  10.00  0.002053956    1.900    0.474
        35 -10.2756     98.6906    138.9662   8.3801779645e+01   3.3869828563e+01    0.5918592    0.3855566 -18.26   0.00231492    2.360    0.576
        36 -11.6159     85.7383    137.9897   8.7476210830e+01   3.6320749142e+01    0.3217709    0.2856943 -47.44 0.0004207318    1.106    0.096
        37 -10.1998    107.3894    130.2415   7.9274533766e+01   3.4417182699e+01    0.5661128    0.3674048  22.45  0.002354336    1.891    0.471
        38  -9.2918    135.7033    129.4791   7.1350221002e+01   2.9009021915e+01    0.2940438    0.1381167 -46.15  0.001081745    2.083    0.520
        39  -8.5611     82.5279    129.1315   8.6566733174e+01   3.9086484050e+01    0.2254917    0.1479679 -57.21 0.0004077228    1.487    0.328
        40  -9.7936     67.4536    125.1926   9.0594050959e+01   4.2429253316e+01    0.2926229    0.1861264 -50.33  0.001318805    1.486    0.327
        41  -9.0577     96.9216    124.8309   8.1101515028e+01   3.7667711285e+01    0.2383794    0.2041933 -15.50 0.0006089965    1.303    0.233
        42  -8.5901    115.8185    123.9737   7.5340926286e+01   3.4279197585e+01    0.2646243    0.1783081 -21.41  0.001067511    2.018    0.505
        43  -9.8441    161.4686    118.4703   6.2477538884e+01   2.5978988272e+01    0.5654743    0.3277071 -67.27  0.001962408    3.132    0.681
        44 -11.2909    241.3428    169.2465   5.8771306219e+01   2.3555697600e+00    0.3826903    0.1954988  30.06  0.001926975    2.341    0.573
        45  -9.1669    106.1863    118.4341   7.6735230738e+01   3.7468845190e+01    0.2459558    0.2022068 -36.52  0.000435315    1.228    0.186
        46  -9.9616    231.2641    113.7244   4.8949040561e+01   1.3040206953e+01    0.2453985    0.2287786 -47.37 0.0007463819    1.123    0.109
        47  -8.5314     77.4798    112.5207   8.4332743681e+01   4.4067811749e+01    0.1513381    0.1461371 -75.78 0.0008086635    1.082    0.076
        48  -8.1833    156.2779    111.6555   6.1903552308e+01   2.8480313829e+01    0.1543686     0.119191 -73.02 0.0005453562    1.629    0.386
        49 -10.5662     53.4178    110.3245   9.2216681862e+01   4.8163934456e+01    0.3471923    0.2731319  83.57  0.001742726    1.545    0.353
        50  -9.2371    205.5018    110.2050   5.2076085389e+01   1.8454881700e+01    0.2847553    0.2015094  41.44 0.0008993957    1.628    0.386
        51  -8.5144    115.6459    108.6839   7.1424406938e+01   3.7825537765e+01    0.1632699    0.1244603  -2.44 0.0007045977    1.741    0.426
        52 -11.0977    242.8371    102.2460   4.4982472592e+01   1.2859395020e+01    0.3650039    0.2151165 -71.77  0.001679666    2.858    0.650
        53 -10.7379     53.0011    101.8921   9.0422425059e+01   5.0334554193e+01    0.4981532    0.1431871 -53.68  0.001633254    2.943    0.660
        54 -10.1329    242.6125     96.2095   4.3746772388e+01   1.3836678826e+01    0.1844057    0.1052847 -31.03 0.0009527355    1.674    0.403
        55  -9.7064    250.0000     93.0455   4.2227886258e+01   1.3041990784e+01    0.2139725   0.05829502 -37.42  0.000805385    2.963    0.662
        56 -10.0415     52.8864     91.3978   8.7818714897e+01   5.2910733508e+01    0.3173117    0.1629718 -41.21 0.0007580039    1.930    0.482
        57 -11.2490      6.6104     86.0590   1.0556865676e+02   5.8615851254e+01    0.4673062    0.2145674 -77.46  0.002046753    2.276    0.561
        58  -9.1681    161.2560     83.9941   5.3472270309e+01   3.2672139619e+01    0.2120467    0.1869721 -43.63 0.0004177465    1.102    0.093
        59 -16.3372     16.7671    242.1476   1.1728713453e+02   2.0274931968e+01     7.523704     4.926219  24.69   0.04804557    1.725    0.420
        60 -10.9802     13.4449     60.0953   9.6668662755e+01   6.4272521133e+01    0.3014684    0.2155717 -56.07 0.0004487348    1.269    0.212
        61 -11.9239    199.2880     48.9274   3.8297565804e+01   2.9504849579e+01    0.6639322    0.4410866  70.41 0.0009977047    1.524    0.344
        62 -10.4384     89.6251    244.2816   1.0217642130e+02   1.1356652702e+01    0.3299159    0.1921714 -77.09   0.00173232    2.264    0.558
        63 -10.5121    101.5997    242.6153   9.9405138079e+01   1.0061616634e+01    0.4673839    0.1490444 -60.28  0.001861164    3.745    0.733
        64  -9.6888     42.7694     59.7482   8.2490255588e+01   6.1345329608e+01    0.2839378    0.2092963  43.89 0.0006804147    1.630    0.387
        65  -9.4685    197.8941     23.8452   3.2387565297e+01   3.2953102330e+01    0.2307565    0.1739355 -17.24 0.0008469621    1.720    0.419
        66  -8.2880     24.5961     57.8168   9.0465131101e+01   6.3828153334e+01     0.167045    0.1207672 -63.91 0.0003180207    1.555    0.357
        67 -14.4932      9.4380    207.7895   1.1699936906e+02   2.8226073528e+01     1.545621     1.310895 -61.94  0.005440913    1.381    0.276
