#   1 NUMBER                 Running object number                                     
#   2 MAG_AUTO               Kron-like elliptical aperture magnitude                    [mag]
#   3 X_IMAGE                Object position along x                                    [pixel]
#   4 Y_IMAGE                Object position along y                                    [pixel]
#   5 X_WORLD                Barycenter position along world x axis                     [deg]
#   6 Y_WORLD                Barycenter position along world y axis                     [deg]
#   7 A_WORLD                Profile RMS along major axis (world units)                 [deg]
#   8 B_WORLD                Profile RMS along minor axis (world units)                 [deg]
#   9 THETA_WORLD            Position angle (CCW/world-x)                               [deg]
#  10 FWHM_WORLD             FWHM assuming a gaussian core                              [deg]
#  11 ELONGATION             A_IMAGE/B_IMAGE                                           
#  12 ELLIPTICITY            1 - B_IMAGE/A_IMAGE                                       
         1 -14.4225    152.4423     57.4748   8.5525284805e+01   3.9669339464e+01      1.32671     1.089357  12.62 0.0009660583    1.282    0.220
         2 -14.9205    164.0085     42.8056   7.8073082285e+01   3.9007031600e+01     1.490847     1.092801 -11.89  0.003866692    1.408    0.290
         3 -14.6960    178.2707     10.0259   6.4265603023e+01   3.9119594778e+01     1.194265     1.145348  12.93  0.004010045    1.025    0.025
         4 -13.7845    196.5192      6.6407   6.0876167822e+01   3.4613951994e+01    0.7623823    0.5148062 -85.24  0.003650633    1.705    0.414
         5  -9.9284    150.6450    243.4759   1.2317900126e+02   9.6061381817e+00    0.1013629   0.07750472  39.65 0.0001855464    1.053    0.050
         6 -19.9176     74.0827    169.2698   1.2931929247e+02   3.1666824169e+01     14.95121     6.556643 -69.46    0.0761802    2.381    0.580
         7 -11.8677     30.7100    182.9889   1.3909475114e+02   3.3859023585e+01    0.2128304    0.1388957  37.52 0.0006104704    1.600    0.375
         8 -11.8636    115.5771    179.2513   1.2199895460e+02   2.4057244855e+01    0.6459448    0.2904697  63.42  0.002290514    4.701    0.787
         9 -12.2608      5.0616    178.0885   1.4357716694e+02   3.6966858128e+01    0.2531578    0.1834553  59.92  0.001068411    1.174    0.148
        10 -11.0012    218.3170    179.3100   1.0247636024e+02   6.8164147357e+00    0.1302252   0.08134829  15.20 0.0003246869    1.637    0.389
        11 -12.5611    199.1737    178.8654   1.0577747215e+02   1.0159524310e+01    0.4518512    0.3199278 -65.37  0.002303315    2.874    0.652
        12 -13.3793    195.2560    168.7357   1.0465826407e+02   1.2223963412e+01    0.4309601    0.3752854 -17.67 0.0007164066    1.233    0.189
        13 -10.7854     28.2605    179.3241   1.3932885508e+02   3.4759974824e+01    0.1994837    0.1415174  26.07  0.001451726    1.847    0.459
        14 -11.1235     35.0389    177.4779   1.3791178787e+02   3.4456962992e+01     0.376011    0.1797978  18.70  0.001660301    4.172    0.760
        15 -12.6826    192.9824    164.2749   1.0424453695e+02   1.3264698120e+01    0.4501626    0.2570464  36.74  0.001947931    1.555    0.357
        16 -14.2568    145.1180    169.1682   1.1450965191e+02   2.1024596763e+01    0.8542852    0.4914808  64.59  0.003832156    2.723    0.633
        17 -13.5321    138.2834    171.3638   1.1625086001e+02   2.1804745140e+01    0.6757069    0.4721801  61.04   0.00384534    1.588    0.370
        18 -11.9128    125.7466    171.8208   1.1888595082e+02   2.3771114838e+01    0.2577696     0.214786 -73.45  0.001114372    1.354    0.262
        19  99.0000     12.9102    242.7334   1.4468645244e+02   2.5801691645e+01    0.2121825   0.08863702 -60.12  0.001392351    3.656    0.726
        20 -11.5650    165.3372    171.8942   1.1093072730e+02   1.7084640125e+01    0.2248389    0.1616976 -61.78  0.001246699    1.945    0.486
        21 -10.8928     34.6705    169.8080   1.3744224062e+02   3.5938081293e+01    0.1825122    0.1516792  16.15  0.001131101    1.746    0.427
        22 -12.1356    230.0950    166.7219   9.8097672248e+01   6.3113836473e+00    0.2691459    0.1718063 -40.31  0.001476558    2.020    0.505
        23 -10.7735    109.0036    240.4583   1.2967492465e+02   1.5599084637e+01    0.1471364    0.1336283 -11.05  0.001064849    1.662    0.398
        24 -10.3920     22.4667    221.1055   1.4246041696e+02   2.8180672078e+01    0.1085725   0.07584686 -84.20  0.000451062    1.433    0.302
        25 -11.0236     25.2971    165.0635   1.3898819576e+02   3.7719508049e+01    0.1637043    0.1465108  47.00  0.000773256    1.364    0.267
        26  -9.8847     28.6990    240.8530   1.4230573860e+02   2.4620691900e+01    0.1068061   0.06106025  77.45 0.0003403737    1.469    0.319
        27 -11.2053     21.6720    239.5546   1.4329988868e+02   2.5468584255e+01   0.08436173   0.06251883  68.76 0.0004446323    1.147    0.128
        28 -11.2572    112.0477    214.2960   1.2674364056e+02   1.8894225868e+01     0.142808    0.1189031  61.33  0.000594135    1.108    0.098
        29 -11.5139    190.4288    157.8810   1.0349450828e+02   1.4663859886e+01     0.429023    0.2160852  27.03  0.001827696    2.413    0.586
        30 -12.2222    134.6598    109.7670   1.0501092782e+02   3.3939681580e+01     1.050473     0.151772 -45.02  0.002355548    6.972    0.857
        31 -14.8785    135.5213    128.7503   1.0909460546e+02   3.0062578088e+01     1.776461    0.5675648 -46.38  0.006217368    3.230    0.690
        32 -13.1883    128.2969    143.1488   1.1359160946e+02   2.8598524960e+01    0.4679129     0.246376  50.09  0.002157653    1.923    0.480
        33 -14.2893    143.5213    143.2092   1.1021971570e+02   2.5863530213e+01     0.927134    0.4969141 -60.68  0.003907895    2.699    0.629
        34 -12.9576    108.2727    208.3886   1.2681779916e+02   2.0317484124e+01    0.3938342    0.2721355  81.98  0.002631027    1.716    0.417
        35 -11.5960     23.0124    155.0248   1.3876493054e+02   3.9885898552e+01    0.3521149    0.1905202 -75.31  0.002216001    1.589    0.371
        36 -12.2657    174.1786    148.6082   1.0483784390e+02   1.9167062041e+01    0.3173587    0.2837424 -60.27  0.001229039    1.392    0.282
        37 -13.0719    161.5818    153.0993   1.0828922647e+02   2.0796255748e+01    0.3861065    0.3169008  60.28  0.002143703    1.372    0.271
        38 -10.1702    130.7267    213.5542   1.2333154893e+02   1.6353044587e+01    0.1524649    0.1140171  80.47  0.000662897    1.683    0.406
        39 -14.4451    133.7612    145.5998   1.1282451420e+02   2.7177802166e+01     1.408808    0.4630621 -55.90  0.004565988    4.454    0.775
        40 -10.6591      1.6187    140.0473   1.4235892812e+02   4.4531834467e+01    0.1467189    0.1016289 -89.37 0.0004150207    1.108    0.098
        41 -12.0972      6.5651    138.4976   1.4118565656e+02   4.4507700111e+01    0.3071474    0.2250882  52.47  0.001895241    1.351    0.260
        42 -10.9086    171.6871    137.9665   1.0313586759e+02   2.1406097418e+01    0.1899749    0.1796502  -7.01 0.0005636773    1.087    0.080
        43 -12.5399    160.5926    127.9955   1.0330186622e+02   2.5338714221e+01    0.3702415    0.3244466 -55.01  0.001611812    1.299    0.230
        44  99.0000    116.3847    212.0297   1.2573327884e+02   1.8630300076e+01    0.2769302    0.1317856 -65.43  0.001099668    2.837    0.647
        45 -10.6684    131.3124    237.0934   1.2570583545e+02   1.3064734083e+01     0.111473   0.09676813 -70.75 0.0003380475    1.494    0.331
        46 -13.1585     11.6961    205.8989   1.4358237809e+02   3.1591630572e+01    0.3475269    0.2346957  28.31  0.002770657    1.935    0.483
        47 -10.9797    167.5134    112.5198   9.8148194624e+01   2.6654865725e+01    0.3185335    0.2309674 -81.63   0.00136929    2.420    0.587
        48 -10.1101    153.4114    202.2369   1.1782036641e+02   1.4543087177e+01    0.1422043     0.113037 -69.61 0.0009450945    1.709    0.415
        49 -10.4191      7.5990    237.4395   1.4529431323e+02   2.7031499654e+01   0.09237647   0.05452086  63.23 0.0002745203    1.132    0.117
        50 -10.3324    139.8116    200.3635   1.2007956685e+02   1.6931224199e+01    0.2669799   0.09502072  38.07 0.0009628261    2.490    0.598
        51 -10.9259    205.3222    110.2514   9.0012676446e+01   1.8856173130e+01    0.3066653    0.1912234  41.24 0.0009705327    1.558    0.358
        52 -10.6164     10.9797    101.6734   1.3712978089e+02   5.2059821077e+01    0.2116088    0.1280438  77.94  0.001050088    1.570    0.363
        53  -9.5890     13.5150    233.6214   1.4430382662e+02   2.7078565801e+01   0.08538792    0.0641806  63.43 0.0007925507    1.171    0.146
        54 -10.4943    138.9460    250.4324   1.2574232977e+02   1.0388503410e+01    0.1472563   0.09081472  39.37  0.001078974    1.216    0.178
        55 -10.9627     36.2117    186.6481   1.3829998077e+02   3.2664538269e+01    0.2257172     0.184366 -26.88  0.001467221    2.120    0.528
        56 -12.2400    151.9586    182.9400   1.1532379797e+02   1.7649665938e+01    0.2796146     0.210718 -71.90  0.001508966    1.853    0.460
        57 -11.3380     25.8611    184.9131   1.4011006021e+02   3.3963204031e+01    0.1421134    0.1132339  73.00  0.000436581    1.094    0.086
        58 -10.8799    133.8430    245.6365   1.2610974193e+02   1.1650362689e+01   0.07800162   0.06992496  -7.44 0.0002291892    1.556    0.357
        59 -13.0511    168.0359     34.7202   7.4502550257e+01   3.9057353815e+01     0.486335    0.3885044 -11.99  0.000922252    1.247    0.198
        60 -11.0739     13.4947     59.9421   1.3064268067e+02   6.1257939056e+01    0.1850008    0.1531163  65.18 0.0004984673    1.419    0.295
        61 -10.4849    142.1171     32.9083   7.9053414159e+01   4.5908035693e+01     0.220926    0.2026076 -59.25 0.0003461616    1.261    0.207
        62 -11.4384    125.0786    243.8996   1.2736542176e+02   1.3041292520e+01    0.1662827    0.1268346 -60.61  0.001025172    1.740    0.425
