#   1 NUMBER                 Running object number                                     
#   2 MAG_AUTO               Kron-like elliptical aperture magnitude                    [mag]
#   3 X_IMAGE                Object position along x                                    [pixel]
#   4 Y_IMAGE                Object position along y                                    [pixel]
#   5 X_WORLD                Barycenter position along world x axis                     [deg]
#   6 Y_WORLD                Barycenter position along world y axis                     [deg]
#   7 A_WORLD                Profile RMS along major axis (world units)                 [deg]
#   8 B_WORLD                Profile RMS along minor axis (world units)                 [deg]
#   9 THETA_WORLD            Position angle (CCW/world-x)                               [deg]
#  10 FWHM_WORLD             FWHM assuming a gaussian core                              [deg]
#  11 ELONGATION             A_IMAGE/B_IMAGE                                           
#  12 ELLIPTICITY            1 - B_IMAGE/A_IMAGE                                       
         1 -13.6565     67.5817    143.9650   1.1776345731e+02   3.7977525532e+01      2.70477     1.152896 -89.60  0.005100641    5.716    0.825
         2 -13.8786    195.6611     27.9363   5.9079132328e+01   3.2694887234e+01     2.085145     1.280073   2.49  0.007058887    2.100    0.524
         3 -13.8531    203.0069     22.2991   5.6332440112e+01   3.1397490316e+01     1.819898     1.092625 -17.53  0.006670881    1.742    0.426
         4 -13.1060    209.3257     15.6988   5.3554345053e+01   3.0443897142e+01    0.8900723    0.5793577  19.63  0.001492864    1.917    0.478
         5 -11.0759    189.9664     14.8470   5.5675952110e+01   3.5652476331e+01    0.2562884    0.2180793 -17.90 0.0007510054    1.201    0.167
         6 -11.7917      2.2962      4.4297   1.1019720384e+02   7.3433807743e+01    0.6295823     0.153299 -56.04  0.002835122    2.805    0.643
         7 -12.5013    222.4669      2.7368   4.8412299400e+01   2.8310236291e+01    0.7101671    0.3874896  75.39  0.003270141    1.848    0.459
         8 -10.8108     63.1911    250.2202   1.2757539685e+02   2.0246913206e+01    0.2233553    0.1017377  42.81 0.0006386733    1.738    0.425
         9 -11.9286    176.9783    249.5510   1.0999300013e+02   5.0353733135e+00    0.4491159    0.1287994  38.09  0.002080116    2.972    0.664
        10 -13.2964    123.1894    247.7541   1.1821558074e+02   1.2944816333e+01    0.7662289    0.3735855  42.26  0.004228828    1.556    0.357
        11 -12.6392    162.0520    248.3976   1.1219107751e+02   7.3379651366e+00    0.7068356    0.1702747  40.54   0.00308895    3.268    0.694
        12 -13.3402     14.6309    240.0379   1.3421908245e+02   2.6776605494e+01     1.068897    0.3869938  57.14  0.003361733    1.821    0.451
        13 -14.7896     94.2622    231.1247   1.2144378653e+02   1.9109933623e+01     2.571792     1.244733  46.23  0.007448672    1.551    0.355
        14 -10.0593     64.3204    222.9814   1.2573646608e+02   2.4093784774e+01    0.1968726   0.09650058  60.52 0.0009287372    1.656    0.396
        15 -12.3941     55.4357    239.1356   1.2812846739e+02   2.2699033566e+01    0.4570429    0.2279422  68.20   0.00081046    1.711    0.416
        16 -10.9226     42.6650    231.4124   1.2967845697e+02   2.5248845407e+01    0.3430194    0.2210595 -44.44  0.002283702    3.494    0.714
        17 -10.2919     47.1918    231.0151   1.2895574487e+02   2.4818719719e+01    0.2303445    0.1114872  63.85  0.001616236    1.625    0.385
        18 -10.4482    192.1211    192.9971   9.9964693334e+01   9.2362804569e+00    0.4072457    0.2352754 -63.50  0.001721007    4.423    0.774
        19 -11.8259     65.9620    189.2125   1.2286940758e+02   2.9500924593e+01    0.3134211     0.233628 -41.47  0.002105422    2.191    0.543
        20 -11.8196     71.0401    182.5470   1.2130024683e+02   3.0061443063e+01    0.2378201    0.2034208 -64.63 0.0007163413    1.434    0.303
        21 -12.9623     86.3312    163.7619   1.1617759705e+02   3.1521408936e+01      2.28685    0.5794051  52.27  0.001148568    5.182    0.807
        22 -11.0420    199.1742    248.9705   1.0650950958e+02   1.8490990663e+00    0.2023372    0.1157514  39.94  0.001416359    1.239    0.193
        23 -10.8510     53.5346    228.6894   1.2782986361e+02   2.4466617471e+01    0.3313794    0.1564467  89.99  0.001743561    2.252    0.556
        24 -11.7737     32.5685    156.0684   1.2663052936e+02   3.9450367837e+01    0.3140225    0.1518692 -71.22  0.001881402    1.812    0.448
        25 -10.2185     99.9969    147.9315   1.1103816223e+02   3.2584290527e+01    0.2723192    0.2389238 -49.71 0.0008938958    1.328    0.247
        26  -9.6144    102.7830    143.8280   1.0976998778e+02   3.2961004661e+01     0.260223    0.1918849 -16.77  0.001330266    2.397    0.583
        27 -12.1256     88.4615    146.8570   1.1345102771e+02   3.4537499765e+01    0.2329171    0.2120325 -63.92 0.0005691255    1.232    0.188
        28 -11.0280     39.2105    146.6940   1.2439138375e+02   4.0663729044e+01    0.2504648    0.1332676  44.95  0.001512536    1.788    0.441
        29  -9.2672    134.0000    144.0598   1.0289795306e+02   2.7560873154e+01    0.2107761   0.07651519 -49.40 0.0008031054    2.947    0.661
        30  -9.9097    110.7028    134.3514   1.0634335799e+02   3.3560681008e+01     0.274329    0.2344523   1.65  0.001210554    1.608    0.378
        31  -9.0797    106.0022    130.8162   1.0679940407e+02   3.5064334802e+01    0.1990632    0.1426227 -83.59   0.00105238    1.615    0.381
        32 -11.2713     80.1899    171.4378   1.1834554123e+02   3.0913023365e+01    0.2094402    0.1812795  65.30 0.0004068071    1.114    0.103
        33 -10.8527     98.1531    131.0642   1.0869968496e+02   3.6286447598e+01    0.2589755    0.2229523 -33.96 0.0006383115    1.445    0.308
        34 -13.0403     40.2436    220.9467   1.2951064323e+02   2.7121845167e+01     0.398567    0.2549582 -59.47  0.002286276    2.175    0.540
        35  -9.5682    107.5328    121.9685   1.0475761277e+02   3.6624090945e+01    0.1839889    0.1706287  68.63 0.0003242248    1.044    0.043
        36  -9.5325    135.0000    120.0062   9.7832492934e+01   3.1981000789e+01    0.2309074   0.07985861 -46.60 0.0008067168    2.972    0.664
        37 -13.3839     67.6077    168.4304   1.2057450392e+02   3.3123335621e+01    0.3843269    0.2507178 -47.69  0.001826314    2.098    0.523
        38 -11.2692    167.9748    112.6498   8.8816787195e+01   2.6489427529e+01    0.3414029    0.2903315 -75.18 0.0007632071    1.439    0.305
        39  -9.8470    205.0532    110.5217   8.1010210634e+01   1.8601631440e+01    0.3782695     0.212841  36.97   0.00164812    1.846    0.458
        40 -10.9792     42.3410    104.3904   1.1856407909e+02   4.9330546748e+01     0.268589    0.1804001  58.22  0.001390058    1.573    0.364
        41 -10.5843      1.8899     89.1000   1.2787550973e+02   5.5818210369e+01    0.2419888    0.1142315 -79.48  0.001245101    1.648    0.393
        42 -15.4590     50.2812    209.0885   1.2715759923e+02   2.7939335401e+01     5.301591    0.8255498  45.61   0.01315714    3.674    0.728
        43  -9.7836    157.4912     78.0156   8.1826029543e+01   3.5030589608e+01     0.230989    0.1484418 -35.09 0.0005369031    1.553    0.356
        44 -13.1607    140.0765    248.1546   1.1560704201e+02   1.0530053349e+01    0.7514154    0.3706059  49.47   0.00492111    1.517    0.341
        45 -14.0810     35.2178    246.1346   1.3148351881e+02   2.3872323530e+01     1.994701     0.567218  41.80  0.008643247    2.556    0.609
        46 -15.9411      7.9136    198.5869   1.3370326931e+02   3.3920454084e+01     6.163028     1.157852 -77.81   0.02153721    4.436    0.775
        47 -13.3901      6.1844    246.4906   1.3560988664e+02   2.6622429019e+01     1.056517    0.4577573  64.31  0.008368418    1.549    0.355
        48 -11.3078    165.6631    224.8161   1.0894645812e+02   9.5613682528e+00    0.2720707    0.1211577  44.31  0.001522834    1.706    0.414
