#   1 NUMBER                 Running object number                                     
#   2 MAG_AUTO               Kron-like elliptical aperture magnitude                    [mag]
#   3 X_IMAGE                Object position along x                                    [pixel]
#   4 Y_IMAGE                Object position along y                                    [pixel]
#   5 X_WORLD                Barycenter position along world x axis                     [deg]
#   6 Y_WORLD                Barycenter position along world y axis                     [deg]
#   7 A_WORLD                Profile RMS along major axis (world units)                 [deg]
#   8 B_WORLD                Profile RMS along minor axis (world units)                 [deg]
#   9 THETA_WORLD            Position angle (CCW/world-x)                               [deg]
#  10 FWHM_WORLD             FWHM assuming a gaussian core                              [deg]
#  11 ELONGATION             A_IMAGE/B_IMAGE                                           
#  12 ELLIPTICITY            1 - B_IMAGE/A_IMAGE                                       
         1 -11.2103    110.8649     39.5900   2.2100597161e+01   5.1214914095e+01    0.9672857     0.393948 -44.68  0.004651431    2.600    0.615
         2 -12.4359    119.3232     39.1499   2.0433280459e+01   4.9551801814e+01     1.101954    0.4928305 -38.36  0.002875821    2.786    0.641
         3 -11.4498     79.0597     35.5020   2.8275306779e+01   5.8281755857e+01    0.6150519    0.4513887 -45.31  0.003242126    1.599    0.374
         4 -10.2031     11.0059     30.3958   5.5914040523e+01   7.0683535846e+01    0.4838272    0.3019938  20.39  0.002839343    1.425    0.298
         5 -12.0879    164.6558     18.0382   9.8557533978e+00   4.3346197741e+01    0.3740584    0.2423296  52.51   0.00245316    2.345    0.574
         6 -12.9037    163.3514     27.5081   1.1876355082e+01   4.2455759951e+01    0.5823125    0.2800722  68.74  0.001271457    1.902    0.474
         7 -11.9386    104.7053     12.8300   1.6107442468e+01   5.5778804168e+01    0.9961993    0.4742619 -24.10   0.00460831    4.249    0.765
         8 -12.7590    105.9776     20.1689   1.7886403886e+01   5.4693684175e+01    0.4483562    0.2672761 -79.00 0.0005352736    1.785    0.440
         9 -12.4027    107.9377     30.1591   2.0200716160e+01   5.3070891944e+01    0.6933141    0.4861333  28.33  0.003119919    2.830    0.647
        10 -12.2232     58.3996     28.9761   3.2535494152e+01   6.3256380959e+01    0.6894611    0.3625138 -30.64 0.0004954232    2.924    0.658
        11 -11.4309     20.5197     21.6278   4.6828956821e+01   7.0805557833e+01    0.4807098    0.3499169 -20.90  0.001925156    1.706    0.414
        12 -11.1535    134.7020     21.8449   1.3962144256e+01   4.8659226821e+01     0.728072    0.3138544 -61.40  0.003743974    2.422    0.587
        13 -11.7542    127.7497     16.4198   1.3595943644e+01   5.0676868250e+01    0.4150318    0.3304185 -61.67  0.001584255    1.302    0.232
        14 -11.1775    135.8045     14.7265   1.2183802874e+01   4.9258076875e+01    0.4496695    0.2012071  70.67  0.002009658    1.860    0.462
        15 -11.5634     36.2080     17.9454   3.7275108830e+01   6.8792122740e+01    0.4872821    0.3959341 -54.86  0.002001994    1.558    0.358
        16 -12.3158     48.7691     12.7819   3.0087747248e+01   6.7130031908e+01    0.6341665    0.2135389  52.03  0.002911036    2.330    0.571
        17  99.0000      5.6286      9.9988   5.1478585471e+01   7.4488069951e+01     0.482804    0.3011305 -26.72   0.00299445    1.960    0.490
        18  -9.4811     12.6971      8.3933   4.5946491738e+01   7.3771178967e+01    0.3571571    0.3048483  54.42  0.002634263    1.408    0.290
        19 -10.8853      9.4324     19.3803   5.2801316145e+01   7.2638494288e+01    0.3841281    0.2362609   9.25  0.001194459    1.827    0.453
        20 -11.5936     16.1006     14.3724   4.6452541347e+01   7.2478053193e+01    0.5417206    0.3492087 -19.72  0.003217262    2.135    0.532
        21 -11.9667     22.6452     10.9802   4.1164630933e+01   7.1943383487e+01    0.4753726     0.330139  17.79  0.002173746    1.654    0.396
        22 -10.6250     68.5253     20.3366   2.6397743671e+01   6.2369336296e+01    0.2956664    0.2482709 -47.25  0.001426019    1.441    0.306
        23 -11.2457     86.0652     14.5068   2.0141623740e+01   5.9454381729e+01    0.4062878     0.325664   0.77  0.002538915    2.117    0.528
        24 -10.9138     88.7957      8.0255   1.7602404656e+01   5.9576350002e+01    0.2997138    0.2333288 -77.88  0.001221543    1.251    0.201
        25 -11.5743    227.8271     14.8729   4.8586626360e+00   3.3150484858e+01    0.3403004    0.1442565 -79.32  0.001271862    2.103    0.525
        26 -10.1457    186.7749     14.8291   7.4192696352e+00   3.9758266147e+01    0.1719565    0.1224383 -75.25 0.0007531125    1.068    0.064
        27 -10.2449    218.8865     13.3714   5.1135387907e+00   3.4674976065e+01     0.173684    0.1147819 -54.58  0.001444949    1.372    0.271
        28 -11.1555    191.7805      9.8992   6.1920795608e+00   3.9453207507e+01    0.4181412    0.2327572 -29.21  0.002451454    3.543    0.718
        29 -10.1061    120.3104     11.5339   1.3401426343e+01   5.2718755157e+01     0.228497     0.125127  88.26 0.0009009751    1.644    0.392
        30 -10.4327    223.5942      2.4836   3.1794222272e+00   3.5143563673e+01    0.1978323    0.1245343 -84.69  0.000764253    1.276    0.216
        31 -11.4799    211.9917      9.4307   4.8728404338e+00   3.6190514415e+01    0.3489032    0.2438008 -35.54  0.002129232    2.248    0.555
        32 -10.7955    218.5811      3.3833   3.5625754098e+00   3.5815436816e+01    0.2180693    0.1380063  89.44 0.0009335628    1.374    0.272
        33 -11.5527    168.8003      9.4548   7.8044584373e+00   4.3549151374e+01    0.3977591    0.1677686  68.52  0.002408901    2.163    0.538
        34 -11.7189     63.8736      9.1778   2.3867189054e+01   6.4564874743e+01    0.3287125    0.2582021 -64.70 0.0004917213    1.477    0.323
        35  -9.9234    144.9896      9.7386   1.0043949169e+01   4.8002726265e+01    0.1574899    0.1408665  68.38 0.0005576473    1.565    0.361
        36  -9.7291      1.1027      7.6438   5.3777559283e+01   7.5360247398e+01    0.2202506   0.06324999 -49.25 0.0009769553    4.015    0.751
        37 -11.0795    155.5292      6.4374   8.3291077717e+00   4.6336796888e+01    0.3695363    0.1861286  79.85  0.002377303    1.620    0.383
        38 -10.5679    243.7722      3.6582   2.4563815878e+00   3.2069649084e+01    0.1698861   0.09200533 -76.67 0.0006934478    1.323    0.244
        39  -9.4649    232.7809      6.7977   3.3975535111e+00   3.3310893413e+01    0.1392329   0.06831457 -67.26  0.001075756    1.365    0.267
        40 -11.1431    185.0635      6.1754   5.9812585667e+00   4.1011209298e+01    0.2955357    0.1456583 -72.57  0.001394343    1.589    0.371
        41  -9.5408     77.9265      7.2256   1.9639820201e+01   6.1903155170e+01    0.1764657    0.1268038  84.17 0.0006122489    1.256    0.204
        42 -11.7110    241.7286     15.1721   4.1993079049e+00   3.1100022652e+01    0.2540453    0.1425488  74.12 0.0005403098    1.984    0.496
        43 -10.3388    247.1778      5.8512   2.6248007611e+00   3.1359711022e+01    0.1547993     0.107062 -57.45  0.001236365    1.386    0.279
        44 -10.7171     41.2912      3.9691   2.9370691654e+01   6.9510669267e+01    0.3357314    0.1893913  35.86  0.001927359    1.983    0.496
        45  -9.8207    128.9810      4.9464   1.0695889235e+01   5.1658472577e+01    0.1834359    0.1121711 -68.79  0.001223213    1.436    0.304
        46 -11.1735    137.8987      3.9973   9.4967879357e+00   4.9987837041e+01    0.2458394    0.1668403  87.86 0.0003728704    1.112    0.100
        47 -11.4869    133.4978      2.4980   9.6162290674e+00   5.1006594002e+01    0.5104621    0.1827472  73.91  0.002686571    2.263    0.558
        48  -9.5716     70.5632      5.1401   2.0681843742e+01   6.3622032463e+01    0.2079808    0.1292248  56.16 0.0007942945    1.356    0.262
        49  -9.5281     75.1121      3.0316   1.8890934143e+01   6.2895933283e+01    0.3465033    0.1343337  70.75  0.001646919    2.391    0.582
        50 -10.0658    235.7901      4.3145   2.8941559761e+00   3.3139458372e+01    0.1467529   0.07469566 -73.57 0.0008155896    1.380    0.275
        51  -9.8899    165.2223      4.0636   7.0342267636e+00   4.4780103460e+01    0.1470287     0.118945 -85.96 0.0005916603    1.288    0.224
        52 -10.2632     29.0207      1.9924   3.3825270782e+01   7.1942244265e+01    0.2543077    0.1957978 -89.89   0.00108994    1.908    0.476
        53  -9.0017      5.2552      4.6460   4.9292995963e+01   7.5271246101e+01    0.1000417   0.08075844  54.96 0.0006962002    1.606    0.377
        54 -11.1300    205.8674      2.0666   4.0119407334e+00   3.7964688222e+01     0.343117    0.1317743  86.59  0.001071504    2.316    0.568
        55 -10.7346    113.4687      1.9346   1.1874381817e+01   5.5092167650e+01    0.4096435    0.1485105  77.05  0.001721468    2.455    0.593
        56 -10.1698    105.5414      1.9574   1.2994440481e+01   5.6714215550e+01    0.2405403    0.1473187 -82.26   0.00116052    1.492    0.330
        57 -10.1480      1.8910      2.1788   5.0619541507e+01   7.6020723311e+01    0.1913882    0.1449544 -14.25 0.0009373249    1.455    0.312
        58  -9.2770     12.2755      1.9990   4.3195826543e+01   7.4644087705e+01     0.155581    0.1234748  28.46  0.000976058    1.056    0.053
        59  -9.7432    122.1696      6.5691   1.1917893993e+01   5.2862452751e+01    0.1884559   0.07138374 -40.59  0.000995502    2.746    0.636
        60  -9.5639    152.4458      1.3068   7.5289004297e+00   4.7450758352e+01    0.1687917   0.07534825  78.18 0.0004921716    1.818    0.450
        61  -9.8341    124.2622      1.3621   1.0378678867e+01   5.2961155745e+01    0.1912965    0.0792725  70.29 0.0006354377    1.913    0.477
        62  -9.5932     82.3752      1.2497   1.6764392131e+01   6.1567879257e+01    0.1849966   0.07745425  68.10 0.0004687103    1.884    0.469
        63 -10.1721    142.3937      2.7366   8.7613075006e+00   4.9237345643e+01    0.2313293    0.1737033 -53.49  0.001115288    1.432    0.301
        64 -10.6314     12.4162    110.8384   7.3761197075e+01   5.2898082930e+01    0.5589939    0.2963926 -77.43  0.002175538    2.037    0.509
        65 -11.0208     16.5676    109.3197   7.1689489930e+01   5.2939413435e+01    0.5393539    0.4256218  85.50  0.002598624    1.407    0.289
        66 -10.8520     35.6909    102.6971   6.2191537229e+01   5.2568872973e+01    0.8940034    0.3339805  16.30   0.00274651    3.877    0.742
        67 -11.6635     22.2391    114.0298   6.9973121076e+01   5.1172810278e+01    0.5776628    0.3130279   4.09  0.001977557    2.195    0.544
        68 -12.4276     27.4696    111.4366   6.7309681598e+01   5.1310423469e+01      1.34496     0.676573 -88.83   0.00438488    2.960    0.662
        69 -11.1061      7.7003    114.9456   7.6415570465e+01   5.2174720469e+01    0.3961369    0.2777455 -43.89 0.0008515054    1.410    0.291
        70 -12.2047      2.7755    111.6802   7.8175789709e+01   5.3380027127e+01     0.500674    0.3894247  83.85  0.001906616    1.395    0.283
        71 -11.5140      5.0602    107.1926   7.6554112666e+01   5.4408122660e+01     0.643213    0.4360691  75.05  0.003123775    1.728    0.421
        72  -9.8318     79.1107    114.7530   4.8686431065e+01   4.3139591424e+01    0.2690585    0.2077463 -52.62 0.0007487747    1.328    0.247
        73 -10.1479     48.8950    111.8913   5.8701191888e+01   4.8527378252e+01    0.3096018     0.197689  34.86 0.0007249332    1.493    0.330
        74 -11.9641     79.3113    107.9448   4.7164157700e+01   4.4697725693e+01     0.633894    0.3492617  35.71   0.00139408    1.853    0.460
        75  -9.0557    120.2301    108.9984   3.6239152315e+01   3.7174759427e+01    0.1836091    0.1072265 -55.02  0.000526387    1.631    0.387
        76 -10.0768    101.7807    109.1010   4.0855209850e+01   4.0477575381e+01    0.2456524    0.1893863  10.75 0.0007715382    1.998    0.500
        77  -8.9739    175.3767    108.5372   2.5805652159e+01   2.7817871023e+01    0.1220206   0.09710044 -63.46 7.185301e-05    1.049    0.047
        78  -8.8162     45.5009    105.4718   5.8729364424e+01   5.0592432006e+01    0.1436341    0.1393131  34.19 0.0008099523    1.018    0.017
        79 -11.2555     50.2618    101.1216   5.5930980242e+01   5.0967950507e+01    0.7410728     0.461608 -27.12  0.002676877    2.299    0.565
        80 -10.5566     91.6990    102.2113   4.2145536081e+01   4.3800610672e+01    0.4025851    0.3391987 -40.79   0.00222421    1.372    0.271
        81 -10.0693     86.0194    103.3088   4.4064134986e+01   4.4576376150e+01    0.2650664    0.2425054  34.61 0.0006758756    1.201    0.167
        82  -9.6250     57.1565    102.8654   5.3680643147e+01   4.9514057642e+01    0.2695637    0.1754183 -71.45  0.001243661    1.740    0.425
        83 -11.9165     68.0013     95.6152   4.8134672077e+01   4.9426041865e+01    0.6652893    0.5378108  -1.44  0.002491805    1.657    0.396
        84  -9.9642     67.4404     81.4948   4.4897330860e+01   5.2557215980e+01     0.361801    0.2935703   5.02  0.001934566    1.668    0.401
        85 -11.0350     81.5212     70.2946   3.7414400768e+01   5.2154578498e+01    0.8146822    0.5112341  47.58  0.003910193    1.479    0.324
        86 -11.8918     79.9434     93.6248   4.3716038342e+01   4.7777010904e+01    0.7749524    0.6889375  49.38  0.003417911    1.101    0.092
        87 -10.4176     81.2469     83.7800   4.0934586759e+01   4.9592864597e+01    0.5147404    0.3300655  30.64  0.002444323    1.937    0.484
        88 -11.9984     75.3788     78.6052   4.1491354087e+01   5.1712602213e+01    0.5411834    0.4219086  69.66  0.001350355    1.317    0.241
        89 -11.6881      9.2444     96.9832   7.3079026807e+01   5.6715145343e+01     0.468144    0.3887432  36.52 0.0003569611    1.224    0.183
        90  -9.1632    133.1000    100.1302   3.1601243479e+01   3.6635785570e+01    0.1880122    0.1412671  80.91  0.001058944    1.357    0.263
        91 -12.4196    210.4846     98.1354   1.9474602769e+01   2.4306199059e+01    0.2082431    0.1607373 -66.55 0.0003141984    1.067    0.063
        92 -10.4119     30.1908     96.0848   6.3239676194e+01   5.4859614114e+01    0.4814844    0.3457747  57.96  0.002407966    1.575    0.365
        93 -11.2020     23.1676     94.4151   6.6081352805e+01   5.6057394870e+01    0.4698108    0.3331688 -18.19  0.001776918    1.595    0.373
        94 -10.7542     19.3032     88.2335   6.6677541679e+01   5.7951931596e+01    0.6696819    0.3840714 -57.05  0.003185649    1.737    0.424
        95 -10.3016     35.6030     91.7813   5.9948372741e+01   5.5216894961e+01    0.4351861    0.2816263  84.53  0.001472855    2.195    0.544
        96 -10.6095     43.2915     90.4156   5.6357115764e+01   5.4487473127e+01    0.3193882    0.2360317 -80.35 0.0004008942    1.604    0.376
        97 -10.8103     39.3503     89.9538   5.7919815006e+01   5.5144314968e+01    0.8811882    0.5077385  75.10  0.002873575    3.066    0.674
        98  -8.8898    140.4417     96.0524   2.9320010538e+01   3.6085110651e+01    0.1651635    0.1106452 -31.42 0.0007424649    2.365    0.577
        99 -11.5564     28.3297     85.0304   6.1735019259e+01   5.7701461080e+01    0.6298543    0.4720913  33.51 0.0008728878    1.257    0.204
       100  -9.0847    125.7243     93.9863   3.1847938877e+01   3.9187186313e+01    0.1823443    0.1534489 -72.47 0.0002353851    1.080    0.074
       101  -9.5884    121.8077     93.5808   3.2609292227e+01   3.9997796164e+01    0.1799682    0.1187866  64.66  0.000469984    1.539    0.350
       102  -9.3649    103.6616     92.3167   3.6646910502e+01   4.3665124667e+01    0.1449999    0.1005804  83.20 0.0003521226    1.703    0.413
       103 -10.1082     37.7637     85.3179   5.7541072081e+01   5.6422892153e+01    0.3833887    0.2038013  20.02  0.001462244    2.095    0.523
       104 -11.4467     44.9028     83.9452   5.4155877940e+01   5.5713152503e+01    0.6353474    0.4497504  71.46  0.002031119    1.810    0.448
       105 -10.0003     50.9715     91.0682   5.3385582419e+01   5.3203045793e+01    0.3804159    0.2870448  20.80   0.00121196    1.417    0.294
       106  -9.9281     52.1414     86.8779   5.1926145642e+01   5.3960377492e+01      0.26414    0.2206663  71.95 0.0003865263    1.306    0.234
       107 -10.2492     98.1645     90.6563   3.7708527901e+01   4.5035993556e+01    0.2495629    0.2070917  67.49 0.0005841699    1.128    0.114
       108 -11.5953      6.9975     88.4772   7.2756409890e+01   5.8992982491e+01    0.8392048    0.3738202  21.43  0.003592729    2.081    0.519
       109 -11.3587      2.3493     81.3429   7.3902986910e+01   6.1045641755e+01    0.4878163    0.3178718 -77.98 0.0005111957    1.726    0.421
       110 -10.1832      1.8979     71.2286   7.2295513657e+01   6.3421799655e+01     2.077838    0.3835183 -50.33  0.006745658    4.151    0.759
       111 -12.6196      7.2734     63.3437   6.7618158576e+01   6.4736013218e+01    0.7968084    0.3216655 -31.83 0.0004027857    3.387    0.705
       112 -12.4491      4.3277     61.2687   6.8832609865e+01   6.5428571014e+01    0.4667089    0.2684923 -24.32  0.000237369    1.903    0.475
       113 -10.1784     66.5333     88.3405   4.6914967065e+01   5.1271902572e+01    0.3542635    0.2787728  -8.58  0.001130809    1.801    0.445
       114  -9.1856    112.7532     87.9873   3.3428675493e+01   4.2794129744e+01    0.1984826    0.1333533  74.59 0.0003200352    1.634    0.388
       115 -10.1955    119.2511     86.0834   3.1522751281e+01   4.1916554952e+01    0.2823845    0.2279321 -66.18  0.001681462    1.169    0.145
       116  -9.8041    104.6264     86.8705   3.5148018554e+01   4.4562650846e+01    0.2252588    0.1811669  45.94 0.0005897798    1.337    0.252
       117 -10.2088     90.6749     85.6422   3.8592877471e+01   4.7456500184e+01    0.3358589    0.2564245  76.37  0.001819411    1.371    0.270
       118 -12.2229     60.9442     83.3802   4.7703101614e+01   5.3283819256e+01    0.2820455    0.2611473  61.38 0.0003592562    1.033    0.032
       119  -9.8878    143.3325     84.2669   2.6367634700e+01   3.7711130503e+01    0.1913841    0.1700119 -71.85 0.0005021875    1.173    0.147
       120  -9.2414    139.0239     85.4622   2.7395970587e+01   3.8296586153e+01    0.1784349    0.1181616  60.97  0.000405659    1.500    0.333
       121 -10.7920    112.9494     83.0657   3.2261144798e+01   4.3692967568e+01    0.4108406    0.2333886  66.08  0.001948133    1.934    0.483
       122  -8.5756    151.2875     83.3496   2.4820965100e+01   3.6414253869e+01    0.1101607    0.1000669 -27.10 0.0007023361    1.661    0.398
       123  -8.9836    162.3271     81.2297   2.2672507995e+01   3.4797274198e+01    0.1000934   0.09401819  55.99 0.0002641277    1.516    0.341
       124  -9.7934    119.4391     79.1966   2.9930243722e+01   4.3152079470e+01    0.3794889    0.1935281 -68.49  0.001358813    2.638    0.621
       125  -9.7944    103.0958     79.6126   3.3822566827e+01   4.6247339355e+01    0.2220382    0.1718398 -72.94 0.0005821429    1.286    0.223
       126 -11.0940     89.1678     77.1058   3.6924561590e+01   4.9410702109e+01     0.494964     0.280539  52.64  0.001537492    1.650    0.394
       127 -10.8228     94.6135     74.9319   3.4878617643e+01   4.8768307510e+01    0.5130735    0.3400395 -89.70   0.00211295    1.940    0.484
       128 -10.9943     53.3571     76.3389   4.8796955199e+01   5.6020617477e+01     0.470879    0.3643804  89.26   0.00253219    1.586    0.370
       129 -10.4979     58.0338     77.8274   4.7376275608e+01   5.4936036587e+01    0.2583467    0.2015865 -42.70 0.0005129731    1.446    0.308
       130  -9.2647     38.1702     77.2273   5.5403579716e+01   5.8157782014e+01    0.1951573     0.153584  58.72  0.001063104    1.389    0.280
       131  -9.8928     46.6705     75.0377   5.1173118462e+01   5.7359133783e+01     0.336785    0.2088831 -35.51  0.001090438    2.049    0.512
       132 -10.8626     14.1783     74.1566   6.6293988642e+01   6.1723682714e+01    0.4308911    0.2829923 -69.86  0.002013143    1.720    0.419
       133  -9.6501     13.8349     67.3392   6.4926862347e+01   6.3260525524e+01     0.466003    0.1463224  19.80  0.001661758    3.190    0.686
       134  -9.6461    103.1290     74.4948   3.2580491577e+01   4.7186560732e+01    0.2693112    0.1945658 -89.60  0.001465189    1.501    0.334
       135 -10.4481     17.0689    100.1936   6.9954274879e+01   5.5233220467e+01    0.2737441      0.20347 -73.86 0.0006841086    1.428    0.300
       136 -11.2556     27.7545     73.2509   5.9249228713e+01   6.0408848051e+01    0.4257136    0.3172777  -8.14 0.0002701939    1.537    0.350
       137 -11.7287     40.4593     69.5835   5.2402123955e+01   5.9433163328e+01    0.6109578    0.4501596  39.34  0.002715177    1.238    0.192
       138 -10.5789     35.4825     71.7532   5.5222749632e+01   5.9703063910e+01    0.4913126     0.217807  44.36  0.001804672    2.267    0.559
       139 -12.3708     43.6899     60.8223   4.8537644926e+01   6.0665541903e+01    0.8843226    0.4307659  29.43   0.00249736    2.189    0.543
       140  -9.4025    152.9978     72.2949   2.2308382852e+01   3.7965881281e+01    0.3099686   0.09765908  54.91  0.001294215    3.266    0.694
       141  -8.5873     19.6494     71.6782   6.2902523550e+01   6.1705645836e+01    0.1433124    0.0954147 -20.96 0.0007048331    1.747    0.428
       142 -11.2833    122.6881     68.4010   2.6783770919e+01   4.4405061986e+01    0.3886735    0.2149796  55.80 0.0009988961    1.741    0.425
       143  -9.5246    102.1076     66.8621   3.0949212654e+01   4.8742532926e+01    0.2209239    0.1749849 -61.43 0.0003893102    1.280    0.219
       144 -10.5500    105.0510     63.6688   2.9451742909e+01   4.8701713359e+01     0.376855    0.2396756  44.37  0.001702725    1.796    0.443
       145 -11.5278     92.8393     62.6122   3.2204201918e+01   5.1313374126e+01     0.494851    0.2605024  65.22 0.0008995275    2.086    0.521
       146 -10.8892     88.3535     53.0960   3.0839687036e+01   5.3782009804e+01    0.6980296    0.2247832 -43.32  0.002695179    3.616    0.723
       147 -10.3261    159.0656     62.6989   1.9479333982e+01   3.8372693472e+01    0.2425254    0.1816532  56.28 0.0008287628    1.644    0.392
       148 -10.0112     58.4212     62.1316   4.2952613013e+01   5.7937137239e+01    0.3262118    0.2818765  71.64  0.001986034    1.191    0.160
       149  -9.9015     65.0088     60.8440   4.0192896303e+01   5.6981945772e+01    0.3199247    0.2659392  73.72  0.001336823    1.235    0.190
       150  -9.4115    150.9007     60.7857   2.0254955576e+01   4.0185648165e+01    0.1659876    0.1454329 -88.55 0.0005133471    1.223    0.182
       151  -9.9946    113.7415     60.7149   2.6799026356e+01   4.7452440734e+01    0.2782993    0.2019965  89.58  0.001325181    1.343    0.255
       152 -10.9224     39.9718     56.5167   4.8921384152e+01   6.2062732678e+01    0.3568084    0.2014077  36.69 0.0009728099    1.572    0.364
       153 -10.1297     80.0567     57.6317   3.4427162915e+01   5.4679000720e+01    0.6770293    0.4257129  18.88  0.002602312    4.179    0.761
       154 -11.2082     75.6699     57.6882   3.5774008144e+01   5.5521613664e+01    0.3475572    0.2673361 -40.42  0.001964593    1.574    0.365
       155 -11.7922     72.5569     46.3638   3.3450677706e+01   5.7974954308e+01     1.008233    0.4446674 -59.23  0.003367241    3.419    0.708
       156 -10.5084    124.8569     56.8214   2.3677474332e+01   4.5852314494e+01    0.6565336    0.3008479  54.04  0.003213069    2.155    0.536
       157 -10.7596     51.5937    249.2837   7.5527072861e+01   1.1899520306e+01    0.3701451    0.1225752  11.76  0.001209648    3.653    0.726
       158 -11.7987    116.7562     48.0503   2.3095294804e+01   4.8806941580e+01    0.5258273    0.3726375  44.06  0.001770574    1.870    0.465
       159  -9.0671    113.3235    248.6773   6.0158301143e+01   6.2543703947e+00    0.1258266   0.09473135  51.98 0.0007046982    1.681    0.405
       160 -10.7370     31.9029     52.7156   5.1578063038e+01   6.3985207755e+01    0.4705385    0.2146832  26.05  0.002025399    2.366    0.577
       161 -11.2235     26.3170     57.2559   5.5716359632e+01   6.3892380975e+01    0.5583614    0.4326766  61.19  0.002114421    1.550    0.355
       162  -9.5129     21.1032     56.3903   5.8197141717e+01   6.4723823837e+01    0.2677176    0.2197073  82.60  0.001597432    1.588    0.370
       163 -10.3333    106.5190     58.0750   2.7714172470e+01   4.9329184795e+01    0.2406647    0.1552755  73.97 0.0005399482    1.532    0.347
       164  -9.8396    238.2413     55.6924   1.0359065158e+01   2.6625661602e+01    0.1697772    0.1011027 -67.73 0.0007036971    1.208    0.172
       165 -10.4298    156.8328     54.5725   1.8137986822e+01   4.0010415946e+01    0.4394605    0.2415572 -81.52  0.002008877    2.010    0.502
       166 -10.2155    155.1259     48.6145   1.7140630172e+01   4.1193365513e+01    0.2310327    0.1529127 -44.49 0.0008865846    1.691    0.408
       167  -9.2427     33.9200     56.5580   5.1749569202e+01   6.2969790783e+01    0.2070843    0.1147819  34.98  0.001025354    1.594    0.373
       168  -9.3645     67.3066     55.0436   3.7725519635e+01   5.7568217075e+01    0.1713522    0.1577417 -75.32 0.0006028807    1.176    0.149
       169 -10.9374     60.2433     48.9303   3.8360867234e+01   5.9910949746e+01    0.6620544    0.3862991 -49.92   0.00348578    1.958    0.489
       170 -10.3693     56.7126     42.1095   3.7506024871e+01   6.1657441494e+01    0.2838984     0.226016  87.95 0.0009656351    1.498    0.333
       171  -8.6800      3.2953     54.3271   6.7815932624e+01   6.6968344992e+01    0.1329561   0.08461837 -25.81 0.0003573655    1.628    0.386
       172  -9.0675    201.5530     52.9375   1.2872707302e+01   3.2467833294e+01    0.1246523   0.08997546 -31.49 0.0008071209    2.452    0.592
       173  -8.7126    225.4175     64.4873   1.2680967497e+01   2.7229812300e+01    0.1041021    0.0712837 -64.47 9.637877e-05    1.029    0.028
       174  -9.5880    202.0060     63.7127   1.4661162365e+01   3.0868979911e+01    0.1785379    0.1235459 -47.29 0.0009901014    1.539    0.350
       175 -10.5634    243.1510     50.6513   9.2796655793e+00   2.6614724417e+01     0.270473    0.1293084 -81.44  0.001381376    2.200    0.546
       176  -9.6380     54.9753     50.4528   4.0794125084e+01   6.0616512008e+01    0.2127413    0.1768814  -0.09 0.0008035874    1.610    0.379
       177  -9.8518     52.0114     48.0393   4.1199275844e+01   6.1550196649e+01    0.2334909    0.1667204  27.30 0.0005473535    1.583    0.368
       178 -10.5505    145.6142     48.8662   1.8499832101e+01   4.2969522621e+01     0.409374    0.2284542 -32.05  0.002036277    3.060    0.673
       179  -9.6235    145.6746     42.7086   1.7161020728e+01   4.3825975740e+01    0.1727813    0.1267416 -64.91  0.000245786    1.206    0.171
       180  -9.5663     97.6722     49.9361   2.7641839897e+01   5.2398016299e+01    0.1705572    0.1455298 -85.95 0.0004076391    1.103    0.093
       181  -9.7302    188.7874     49.0699   1.3405071408e+01   3.5106531991e+01     0.193877    0.1121901 -76.69 0.0007205697    1.515    0.340
       182 -10.3661     83.0397     47.0500   3.0583203879e+01   5.5793503776e+01    0.3327837    0.2504031 -13.82  0.001807633    2.351    0.575
       183 -12.7827     41.3226     44.5252   4.4568416033e+01   6.3969537613e+01    0.8056759    0.2944638  40.58  0.003413263    2.360    0.576
       184 -10.8640     20.3430     45.8890   5.5509008982e+01   6.6820100912e+01    0.3736835    0.2606781 -18.26  0.002102544    1.727    0.421
       185 -11.0333     26.3783     42.6445   5.1206916531e+01   6.6589977937e+01    0.3899348    0.2411015  44.99 0.0008454319    1.562    0.360
       186 -10.3947     22.9710     37.0908   5.1175134880e+01   6.8019694562e+01    0.4404016    0.1569735  42.25  0.001387331    2.612    0.617
       187  -9.3323    220.4867     48.4690   1.0557433057e+01   3.0134937748e+01    0.1036141   0.07033997 -67.66 0.0001188633    1.012    0.012
       188  -8.8738    161.4590     47.1919   1.6047265338e+01   4.0212104406e+01     0.155527   0.08592991 -60.89 0.0007057491    1.563    0.360
       189  -9.4310     27.2962     47.4570   5.2274425297e+01   6.5605522760e+01    0.2366114    0.1140608  27.93 0.0008873106    1.978    0.494
       190  -9.9814     13.2875     46.3056   5.9668117785e+01   6.7584159367e+01    0.2695794    0.1806712 -18.16 0.0009973474    1.717    0.417
       191  -9.5143    199.2523     44.9698   1.1715048192e+01   3.3923703846e+01    0.2731294     0.109594  86.51  0.001309345    3.477    0.712
       192 -10.1581    138.5175     44.2929   1.8535141557e+01   4.5000510559e+01    0.2800729    0.1714546  40.54  0.001411369    3.091    0.677
       193  -8.8073    131.6503     45.6770   1.9914738074e+01   4.6161335005e+01    0.1100545   0.09217352  43.88 0.0007048792    1.748    0.428
       194 -10.2455    155.9218     42.5192   1.5778928038e+01   4.1894306765e+01    0.2125646    0.1674114 -60.86  0.000978858    1.271    0.213
       195  -9.5533     99.1890     41.4582   2.5014245937e+01   5.3343047650e+01    0.2295972    0.1380604 -82.80  0.001163571    2.122    0.529
       196  -9.0870     91.1216     41.1281   2.6802772538e+01   5.5038803830e+01    0.1694558    0.1275614  85.83 0.0003594368    1.283    0.221
       197 -10.5433    131.7534    240.6918   5.5055250425e+01   6.1752425823e+00    0.2171373     0.148352  11.50  0.001121958    1.433    0.302
       198 -10.2723    126.8667     50.4240   2.1820048263e+01   4.6423688765e+01    0.3410776    0.1987962 -38.26  0.001836866    2.198    0.545
       199 -10.1668     18.0766     40.4673   5.5060952555e+01   6.8084323690e+01    0.2117604    0.1794031 -35.45  0.000654632    1.300    0.231
       200 -10.6143     76.4947    239.4021   6.8147278531e+01   1.1841075357e+01    0.3910876    0.2817814   5.44  0.002087883    1.379    0.275
       201 -10.8244      4.0208     35.3181   6.2096402262e+01   7.0576053774e+01    0.4236063    0.3175388 -29.45  0.002721766    1.369    0.269
       202  -9.5429    249.8459     39.0491   7.1942164184e+00   2.7173796539e+01    0.1496137   0.07897792 -65.46 0.0003411885    1.290    0.225
       203 -10.5585     61.3269     35.7496   3.3792512644e+01   6.1744899722e+01    0.3851167    0.2746616 -26.19  0.001634713    2.016    0.504
       204  -9.8377     68.5740     32.6904   3.0442544843e+01   6.0765870790e+01    0.4066096    0.2242573  61.73  0.002154622    1.663    0.398
       205 -10.7167    153.4042     35.8437   1.4698576794e+01   4.3265773625e+01    0.2295864    0.1613468 -73.59 0.0006026262    1.141    0.124
       206  -9.8509      3.8737     39.6584   6.3515317126e+01   6.9794297129e+01    0.3578619    0.1335333  41.33  0.001501637    3.033    0.670
       207  -9.5511    219.9766     35.4748   8.5360982877e+00   3.1884265284e+01    0.1321104   0.07967214  85.85 0.0004477265    1.525    0.344
       208 -10.2992    169.5209     23.0012   1.0381277709e+01   4.1868653599e+01     0.213472    0.1249594  79.25 0.0006620985    1.471    0.320
       209 -10.9947     67.8445    240.2877   7.0481357271e+01   1.2478230299e+01    0.3692935    0.2403015 -13.46  0.001229369    1.762    0.433
       210 -10.0995     72.1943    237.6082   6.9079988971e+01   1.2683145171e+01    0.2789807    0.2393923 -11.51  0.001618415    1.165    0.142
       211 -10.4067    175.2566     34.0022   1.1950926757e+01   3.9468794834e+01    0.4654483    0.1813176 -63.25  0.001965214    2.530    0.605
       212 -10.3053    177.4104     28.7287   1.0749616617e+01   3.9749689403e+01     0.203781    0.1869779  79.06  0.001015644    1.635    0.388
       213  -9.7137    216.9815     32.0198   8.1917425866e+00   3.2771631334e+01    0.1518264     0.103958 -68.84 0.0004221014    1.056    0.053
       214  -9.1226     15.5026    233.5197   8.4103171296e+01   1.8842765094e+01    0.1367492    0.1277104  37.88 0.0002296093    1.038    0.036
       215  -9.1238    189.9643    229.5283   4.2238804040e+01   3.1498046195e+00     0.148346   0.08032123 -15.70 0.0005307875    2.240    0.554
       216 -10.7335    147.0194    237.9615   5.1459549911e+01   5.3091987753e+00    0.3661455    0.3184139  71.78  0.002386155    1.634    0.388
       217 -11.5466    115.4561     24.5235   1.7419876313e+01   5.2227916567e+01      0.40617    0.2026456  55.40  0.001518943    2.004    0.501
       218 -10.5081    239.4904     32.3355   6.8216531816e+00   2.9415235487e+01     0.256294    0.1229625  61.59  0.001788483    2.908    0.656
       219  -9.6975     49.0072    222.6675   7.3915775862e+01   1.8639050104e+01    0.2395623    0.1060379  -9.44 0.0007051012    4.342    0.770
       220 -11.5602     49.1958     29.8689   3.6248700836e+01   6.4859361534e+01    0.6647172    0.2855077  41.34   0.00281538    2.178    0.541
       221  -9.5722    135.8290     30.2049   1.5733872042e+01   4.7411842847e+01    0.2061303    0.1411047 -86.86 0.0005882843    1.210    0.174
       222 -12.1529    127.1320     28.5217   1.6585393962e+01   4.9363041005e+01    0.6072685    0.2844409  76.56  0.001631382    2.028    0.507
       223  -9.2354     36.2823     30.9828   4.2209214925e+01   6.6956190058e+01     0.155129    0.1465971  40.37 0.0005443371    1.131    0.116
       224 -10.1616     13.7998     22.7125   5.1295975576e+01   7.1572452766e+01    0.2143268    0.1750749  33.11 0.0004830233    1.118    0.105
       225 -11.6752     26.4895     27.7461   4.5900839617e+01   6.9004157305e+01    0.4099828    0.3174244 -68.35  0.001919248    1.798    0.444
       226 -10.3211      9.8917    217.8906   8.4761784980e+01   2.3319423798e+01    0.2173837    0.1900385 -44.17 0.0006049441    1.256    0.204
       227  -8.9144     22.3061     31.2886   4.9493695645e+01   6.9066766714e+01    0.1187309   0.08699568   4.84  0.000238698    1.571    0.363
       228 -10.5742    188.9790     27.3711   9.4987140588e+00   3.7898515371e+01    0.2603709    0.2302401  63.07   0.00165726    1.840    0.457
       229 -11.0338    183.3417     25.7756   9.6789039956e+00   3.9067458419e+01    0.3274896    0.1586358 -63.21   0.00164758    1.660    0.398
       230 -10.4712    229.7337     27.2789   6.6389155644e+00   3.1427406760e+01    0.1790247    0.1379726  84.82 0.0008225816    1.535    0.349
       231  -9.3669    199.7182     28.5268   8.8553761501e+00   3.5953398675e+01     0.173235    0.0685861  58.65 0.0009496027    3.368    0.703
       232 -10.5663    155.2944     23.7400   1.1951626059e+01   4.4427554150e+01    0.3709648    0.2304452 -68.75  0.001654663    1.321    0.243
       233  -9.7538    149.6814     22.3394   1.2269879593e+01   4.5667980278e+01    0.1857163    0.1228161 -77.80 0.0007819362    1.206    0.171
       234 -10.0711    151.1434     27.3127   1.3164894964e+01   4.4783923475e+01    0.2531291    0.1627889  59.13  0.001317667    1.797    0.444
       235 -11.0279    144.4388     25.6901   1.3607301877e+01   4.6279488570e+01    0.5128179    0.2521673  83.23  0.002869825    1.920    0.479
       236 -10.0616    146.6483     22.7054   1.2693393253e+01   4.6210247432e+01    0.2029869     0.113375  64.34  0.001264328    1.726    0.421
       237  -9.4452    201.9881     32.4820   9.3561299802e+00   3.5091529687e+01    0.1369782   0.08247935  84.49 -5.188121e-06    1.485    0.326
       238  -9.1476     97.8217     25.8282   2.0994109942e+01   5.5701382747e+01    0.1680958    0.1181614  89.34 0.0005038897    1.330    0.248
       239  -9.9874     45.6063     24.7017   3.5820010366e+01   6.6227106808e+01    0.2296837    0.1734919 -25.62 0.0009356665    1.763    0.433
       240  -8.9485     44.6775    214.7090   7.4407727830e+01   2.1122606273e+01    0.1496356    0.1057023 -29.28 0.0007012801    1.609    0.379
       241 -10.6721      8.8829    211.3478   8.4662755811e+01   2.5140697012e+01    0.2590685    0.1913856  73.39  0.001329646    1.343    0.256
       242  -8.5698    164.3232    211.2916   4.4392246814e+01   8.9286218036e+00    0.1272342   0.08178023 -25.95  0.000625894    1.612    0.380
       243  -9.0879     86.0851     23.5278   2.2877359847e+01   5.8405522506e+01    0.1701993   0.09796564  62.13 -5.520888e-06    1.426    0.299
       244  -9.0925    171.5039    208.5015   4.2640359320e+01   8.7523916079e+00    0.1236197    0.1005276 -35.84 0.0008103904    1.038    0.036
       245  -9.4338     40.2418    207.2597   7.5007534345e+01   2.3532336119e+01    0.2305229    0.1192198  87.92  0.000884466    2.408    0.585
       246 -11.6220      5.8836    199.3509   8.4822780250e+01   2.8630925157e+01    0.6408215    0.1716846 -62.04  0.002088727    3.288    0.696
       247  -9.8774      1.7773    199.2006   8.6074382895e+01   2.8961422882e+01    0.2072975    0.1643722 -43.16 0.0009059982    1.373    0.272
       248 -10.3247      4.8307     22.5100   5.7149130565e+01   7.2683143852e+01    0.3776405    0.1640448  29.08  0.001842803    1.890    0.471
       249  -8.9402    233.6723    196.2997   3.1160969336e+01   5.2172507324e+00   0.09444636   0.07296833 -68.92 0.0003854072    1.638    0.390
       250  -8.8330    135.3140    196.6654   4.8265765275e+01   1.5225940911e+01    0.1315749    0.1037755  75.25 0.0006549785    1.687    0.407
       251 -10.1661     15.9620    190.3033   8.1020482519e+01   3.0378931449e+01    0.3449386    0.1952644  76.00  0.001298201    1.949    0.487
       252 -10.7156    178.5019     20.8892   9.1826687545e+00   4.0504419919e+01     0.304388    0.1964304  56.72  0.002038316    2.207    0.547
       253 -12.5519      4.5421    183.9678   8.4234211245e+01   3.3021146194e+01    0.8882508    0.5786396  87.27  0.004164913    1.540    0.351
       254  -9.6597    216.5578     20.0070   6.3005785140e+00   3.4276756480e+01    0.1451624   0.09429702 -75.28 0.0003772567    1.093    0.085
       255  -9.5839     46.4957     19.9455   3.3689285451e+01   6.6687767036e+01    0.2289684    0.1419987  59.72  0.001308406    1.506    0.336
       256  -9.7094     74.8385     19.0047   2.4229459873e+01   6.1250023685e+01     0.174244    0.1402066  45.48 0.0008220123    1.380    0.275
       257  -8.4851     23.9680    182.0000   7.7707766392e+01   3.2039221786e+01    0.2438805   0.08464147  18.07 0.0007949388    2.891    0.654
       258  -9.4508     28.1808    175.8213   7.5700846273e+01   3.3403879920e+01    0.2188355      0.17037 -44.65 0.0007404347    1.343    0.255
       259 -10.5177     15.9963    173.9471   7.9628818318e+01   3.5003628935e+01    0.3648997    0.2181231  88.31  0.001314494    1.773    0.436
       260  -9.5896    211.0719     15.9941   5.9896596520e+00   3.5600216021e+01    0.1470648   0.09453677 -69.09  0.001190646    1.029    0.028
       261  -8.9159     39.3030    173.3365   7.1715065151e+01   3.2999211293e+01    0.1625057    0.1091371 -36.28   0.00070379    1.666    0.400
       262  -9.5532    201.6299     23.6994   7.8925590485e+00   3.6223384929e+01   0.08487496   0.07372146  74.06 0.0006483553    1.742    0.426
       263  -8.9744    170.4918    171.5389   3.7279611059e+01   1.6255342114e+01    0.1263554    0.1060745 -48.35  0.000132073    1.026    0.025
       264  -9.2390    196.1756     14.1020   6.6287364305e+00   3.8242867090e+01    0.1459564   0.08131802 -72.94 0.0006026294    1.323    0.244
       265 -10.8347      9.5961    155.1716   8.0154608849e+01   4.0859069698e+01    0.4041496    0.2957822  89.63   0.00125639    1.382    0.276
       266 -10.4786     16.6846    147.7520   7.6755165040e+01   4.2411254865e+01    0.3468742    0.2532245 -65.64  0.001275133    1.328    0.247
       267 -12.3417      8.9157    166.7171   8.1434858206e+01   3.7613257766e+01     1.167399    0.3990788  21.80  0.004069074    2.711    0.631
       268 -12.8909     12.6272    160.6461   7.9575790016e+01   3.9067870622e+01     1.239126    0.5398728 -43.92  0.004541083    2.504    0.601
       269 -11.3099     21.2081    150.5760   7.5388145289e+01   4.1220248948e+01    0.4069756     0.271271   7.98 0.0004276415    1.616    0.381
       270 -11.5550     24.0025    147.9822   7.4040478048e+01   4.1698454459e+01    0.3737406    0.3549723  84.53 0.0008917596    1.043    0.042
       271 -10.6935     18.3486    165.2701   7.7997489670e+01   3.7284387603e+01    0.4740208    0.2431055 -59.63  0.001942951    1.854    0.460
       272 -10.7943    205.2498    163.1064   3.0348971719e+01   1.3728090344e+01    0.2389545    0.1586513 -56.06 0.0008371602    1.236    0.191
       273 -10.7797     28.1543    161.1651   7.4105240826e+01   3.7568939230e+01    0.4631932    0.2631574 -76.97  0.001934784    1.795    0.443
       274 -10.3680    215.0571    161.3856   2.8722454310e+01   1.2943216488e+01    0.1917396    0.1189571 -46.10 0.0005362714    1.262    0.207
       275  -9.2414    104.5409    154.4968   4.8931189626e+01   2.9370437099e+01    0.1450489    0.1367601 -78.62 0.0001452778    1.023    0.022
       276 -10.9525      4.1212    153.1583   8.1985259376e+01   4.1815783416e+01    0.4445316     0.240886  23.70  0.001503529    1.809    0.447
       277  -9.0894     55.4872    152.5084   6.3440241021e+01   3.6913322409e+01    0.1504806    0.1486461 -85.18  0.000212557    1.021    0.021
       278  -9.3788     61.7767    151.4323   6.1168937608e+01   3.6381375457e+01    0.2169216    0.1501962   9.98 0.0009578424    1.699    0.412
       279 -11.0392     47.1848    147.3011   6.5509408558e+01   3.9380992055e+01     0.723214     0.430168 -40.27  0.003018953    1.894    0.472
       280 -10.9671     11.4099    124.8879   7.6117940971e+01   4.9210572983e+01    0.6793039    0.3348607 -47.70   0.00279025    2.006    0.502
       281 -12.3675      3.4525    142.2433   8.1240571629e+01   4.4951398239e+01    0.9738099    0.6833898  40.50   0.00475957    1.435    0.303
       282 -11.7766     12.3892    135.6262   7.7028739872e+01   4.6168815092e+01    0.8128178    0.5693817 -57.32  0.003578283    1.380    0.275
       283 -10.9183    104.1204    147.1618   4.7738000370e+01   3.1225410772e+01    0.2473903    0.2179047 -72.66  0.001358435    1.096    0.087
       284 -10.4774     33.1194    143.9316   7.0114922652e+01   4.1924314267e+01    0.3196655          0.3 -84.29 0.0007899012    1.061    0.058
       285 -10.5309     41.1069    138.4308   6.6341355551e+01   4.2546907708e+01    0.4398109    0.4109048  68.69  0.001777623    1.073    0.068
       286 -11.8946     22.6354    135.2527   7.2931131556e+01   4.5390013468e+01    0.7923708    0.5351849  31.92  0.003731736    1.446    0.308
       287 -10.9761     30.4388    132.5627   6.9497368346e+01   4.5351931855e+01    0.3766838    0.2983963 -27.88 0.0008863929    1.373    0.271
       288  -9.0746     79.7644    138.5538   5.3168557115e+01   3.7169147554e+01    0.2027676    0.1344142  46.83 0.0005199379    1.521    0.343
       289  -9.7064     26.4230    131.4741   7.0913098775e+01   4.6064540633e+01    0.2625743    0.2158006 -55.68 0.0005353172    1.206    0.171
       290 -10.1316     22.8657    125.9223   7.1534013846e+01   4.7930292200e+01    0.4133172    0.2619635  80.95  0.001630745    1.898    0.473
       291  -9.2427     19.2096    123.0575   7.2622710378e+01   4.9049617363e+01    0.2368486    0.1876704 -41.33  0.001097558    1.280    0.219
       292  -9.6525     26.7036    127.0603   7.0150969667e+01   4.7240825113e+01    0.2412234    0.1950522  35.49 0.0003016896    1.220    0.180
       293  -9.2771     27.3130    123.7102   6.9392420553e+01   4.8083610111e+01    0.2216373    0.2005759  57.23 0.0002726906    1.129    0.114
       294  -9.7053      1.9921    125.5002   8.0128206933e+01   4.9702566869e+01    0.2890641    0.1942657  77.24  0.001365327    1.640    0.390
       295  -8.8139     97.8375    124.3774   4.5105095014e+01   3.7701694615e+01    0.1847192    0.1391539  28.61  0.000367312    1.530    0.347
       296 -10.7390    104.9017    122.2205   4.2755106217e+01   3.6990886781e+01    0.3721912    0.3020806 -72.03  0.001080228    1.201    0.167
       297  -9.6235     49.0216    122.6810   6.0719049559e+01   4.5754641626e+01    0.3458813    0.2300338  -1.05  0.001488704    2.002    0.500
       298 -10.6078     43.7574    117.2464   6.1723938247e+01   4.7859802616e+01    0.5580377    0.3121987 -62.02   0.00152614    1.786    0.440
       299 -10.4844     58.5899    115.3711   5.5781222781e+01   4.6254928243e+01    0.3079333     0.251637 -66.93  0.000226281    1.248    0.199
