#   1 NUMBER                 Running object number                                     
#   2 MAG_AUTO               Kron-like elliptical aperture magnitude                    [mag]
#   3 X_IMAGE                Object position along x                                    [pixel]
#   4 Y_IMAGE                Object position along y                                    [pixel]
#   5 X_WORLD                Barycenter position along world x axis                     [deg]
#   6 Y_WORLD                Barycenter position along world y axis                     [deg]
#   7 A_WORLD                Profile RMS along major axis (world units)                 [deg]
#   8 B_WORLD                Profile RMS along minor axis (world units)                 [deg]
#   9 THETA_WORLD            Position angle (CCW/world-x)                               [deg]
#  10 FWHM_WORLD             FWHM assuming a gaussian core                              [deg]
#  11 ELONGATION             A_IMAGE/B_IMAGE                                           
#  12 ELLIPTICITY            1 - B_IMAGE/A_IMAGE                                       
         1 -11.6710    220.0681     10.3460   5.6051004793e+01   2.9240902637e+01    0.8000186    0.4744157 -82.42  0.002708097    1.620    0.383
         2 -12.4398    229.2443      3.6880   5.4003340481e+01   2.8027219415e+01     1.778074    0.6847994  76.60  0.007596825    2.366    0.577
         3  -7.6104    162.6833      7.6237   6.1665926701e+01   4.2046543166e+01    0.1272878   0.07953174  39.37  0.000702904    1.804    0.446
         4  -8.6723     87.1404      5.7805   7.4805397289e+01   5.8321568483e+01    0.2466688     0.158988 -19.98  0.001103209    1.727    0.421
         5  -9.1252      6.5894      3.4511   1.0215961452e+02   7.0461424522e+01    0.2453452    0.1587032  33.02  0.001178017    2.000    0.500
         6  -8.1408     63.7698      1.6244   7.9561828167e+01   6.2902393842e+01    0.1558174   0.09699558  53.21 0.0009545896    1.691    0.408
         7 -10.1705    242.9877    244.2548   1.0050977819e+02  -1.1540750770e+01    0.4544625    0.2519352   6.34  0.002349651    2.127    0.530
         8  -9.3832    248.8918    249.4029   1.0034534761e+02  -1.3009794091e+01    0.3827236    0.2117976  18.67  0.002185011    1.727    0.421
         9  -8.7147    249.2477    244.7424   9.9476426918e+01  -1.2430066470e+01    0.3066998    0.1739951 -16.43  0.001728184    1.739    0.425
        10  -9.3327    234.1368    249.8389   1.0307969887e+02  -1.1120484448e+01    0.3516551    0.1354902  29.88  0.001614992    2.501    0.600
        11  -8.0403    210.9173    249.5291   1.0737690680e+02  -7.7865529960e+00    0.1780847    0.1472875 -11.93 0.0003120533    1.158    0.136
        12  -7.7917    160.2249    250.6299   1.1755183401e+02  -9.7090675320e-02    0.1818057    0.1078041  29.60 0.0004787039    1.583    0.368
        13  -8.1440    106.3888    250.6907   1.2839316709e+02   8.3954915986e+00    0.2008939    0.1030561  37.82 0.0001820304    1.764    0.433
        14 -10.3244     52.8320    248.8557   1.3851518426e+02   1.6247506825e+01    0.2292216    0.1917084  86.59 0.0004094729    1.115    0.103
        15  -9.8951      4.7775    250.0587   1.4699077191e+02   2.1400522581e+01    0.1730304    0.1342774  69.31 0.0004034296    1.119    0.106
        16  -8.1615    129.0293    246.4954   1.2328490823e+02   5.6370767430e+00    0.1956518    0.1138173  39.12  -0.00020605    1.515    0.340
        17  -9.7735    235.2829    243.7201   1.0181599035e+02  -1.0422535728e+01    0.3296219    0.2114326  23.45  0.001489204    1.401    0.286
        18  -9.1934     46.0440    243.0629   1.3926046936e+02   1.8227908209e+01    0.2229523    0.1752146  36.77 0.0003445302    1.449    0.310
        19  -7.5392    137.4347    243.5195   1.2114325624e+02   4.8279917209e+00    0.1294067    0.1159076  30.91 5.083293e-05    1.057    0.054
        20  -8.4295    117.1806    242.9375   1.2522391824e+02   8.1802304413e+00    0.1993801    0.1600705  64.86 0.0006206522    1.280    0.219
        21  -8.4543     99.5257    242.8583   1.2881065488e+02   1.0924378352e+01     0.211257    0.1600896  44.63 0.0004309459    1.185    0.156
        22  -8.3863     85.8214    242.1922   1.3148659139e+02   1.3083277461e+01    0.1783671    0.1467844  67.01 0.0003266711    1.100    0.091
        23 -10.0704      3.2796    241.4033   1.4671682766e+02   2.3207374928e+01    0.2092734    0.1612102  65.25 0.0004948688    1.159    0.137
        24  -8.6770     58.7315    240.5226   1.3662514210e+02   1.7138849018e+01     0.200093    0.1650278  66.10 0.0004431286    1.039    0.038
        25  -9.2659    226.8989    239.4419   1.0262092012e+02  -8.6253216658e+00    0.2431715    0.2010698  -6.37  0.001290111    1.078    0.073
        26  -9.8580     17.4450    238.6002   1.4409062689e+02   2.2345551896e+01    0.2916188    0.2015428  55.97 0.0005387792    1.286    0.222
        27  -7.1322    157.4984    239.4957   1.1639722685e+02   2.2673712735e+00    0.1324306    0.1175805  30.41 0.0008105892    1.021    0.021
        28 -11.0161     30.6885    236.8948   1.4157705135e+02   2.1259065312e+01      0.58683    0.3756783 -62.47  0.001815647    1.622    0.384
        29 -12.9265     38.5848    215.4054   1.3813298978e+02   2.4854139222e+01     1.131761    0.8403571 -64.02  0.002662961    1.338    0.253
        30  -9.7176     69.0972    188.8504   1.2824827680e+02   2.6993500493e+01    0.3268321    0.2714328  56.51  0.000466549    1.205    0.170
        31 -10.7905     51.0683    204.5431   1.3435641024e+02   2.5759654858e+01    0.5003648    0.3026336  55.14 0.0005287527    1.657    0.396
        32 -12.6122     56.4407    194.5261   1.3194307158e+02   2.7355047203e+01     1.541919     1.354954 -54.74  0.009751759    1.225    0.184
        33  -8.9992    241.4648    237.4784   9.9594569009e+01  -1.0382857428e+01    0.2191746    0.1007863  24.22  0.001038207    2.324    0.570
        34  -9.7578    109.1644    239.2019   1.2637628312e+02   1.0154775887e+01    0.2368997    0.2220124  42.76 0.0003226445    1.102    0.093
        35  -8.8950    130.2086    238.9235   1.2197513289e+02   6.8524603630e+00     0.230975    0.1915205  52.88 0.0003537906    1.162    0.139
        36  -7.8796     82.7177    234.7823   1.3125231193e+02   1.5013955837e+01    0.1696144    0.1276672  68.18 0.0004577658    1.282    0.220
        37  -8.0150    132.6757    233.8826   1.2071952931e+02   7.4062897526e+00     0.178576    0.1633606  48.96  0.000482249    1.050    0.047
        38  -7.6926     96.2125    234.4467   1.2843840970e+02   1.3087374428e+01    0.1748948    0.1081708  49.98 0.0002739412    1.493    0.330
        39  -8.4660      6.8733    234.0283   1.4562939563e+02   2.4314773057e+01    0.1610663    0.1222845  83.30 0.0003484226    1.024    0.024
        40  -9.0875     38.7714    239.1526   1.4027289475e+02   1.9878718319e+01    0.1913036    0.1659246  80.98 0.0003476957    1.127    0.113
        41  -8.1278    143.3548    233.2985   1.1837956289e+02   5.7465655197e+00      0.22614     0.173011  40.47 0.0008485587    1.188    0.158
        42  -7.7018     67.7074    232.9552   1.3408171925e+02   1.7486766967e+01    0.1371929    0.1039849 -72.38  0.000353796    1.301    0.232
        43  -9.2404    249.9615    230.7997   9.6880662404e+01  -1.0577229725e+01    0.2550435    0.1670676  -9.69  0.001515489    1.428    0.299
        44  -8.0723    205.8486    232.1465   1.0536967866e+02  -4.3345727160e+00     0.183711    0.1375285  -0.87 0.0003983689    1.314    0.239
        45  -7.6840    168.5305    231.0457   1.1273808667e+02   1.9394113123e+00    0.1741228    0.1331677 -44.70 0.0003302901    1.439    0.305
        46  -7.2940    111.6804    231.7013   1.2483804255e+02   1.1237307235e+01    0.1260653    0.1037709  -4.25 0.0003210796    1.619    0.382
        47  -8.2584    104.3036    229.4449   1.2608760643e+02   1.2854590233e+01    0.2157518    0.1748709 -67.40 0.0006107488    1.303    0.233
        48  -8.3231     88.3510    229.8516   1.2949334072e+02   1.5199757386e+01    0.2065098    0.1544106  54.89 0.0003841136    1.231    0.188
        49  -9.7063     15.2652    229.7995   1.4384066907e+02   2.4339448900e+01    0.2525226    0.1676384  60.13 0.0006818541    1.323    0.244
        50  -8.7138     12.4619    225.0839   1.4400143933e+02   2.5584139570e+01    0.3632418    0.1203733  48.24  0.001773054    2.693    0.629
        51  -8.3573    217.0979    229.1117   1.0264283901e+02  -5.5923462480e+00    0.1967411    0.1698059   2.39 0.0007155826    1.058    0.055
        52  -7.8304     48.9708    228.2571   1.3732424182e+02   2.0885881474e+01    0.1626415     0.134894  65.72 0.0003583675    1.080    0.074
        53  -7.1626    149.3054    227.6935   1.1623009455e+02   5.8044802624e+00    0.1328478    0.1043699  68.29 0.0003132555    1.605    0.377
        54  -7.6025    118.4795    227.5476   1.2280082800e+02   1.0976133039e+01    0.1327808    0.1225757  45.23 0.0001177451    1.030    0.029
        55  -8.5060     96.0861    226.1373   1.2738601973e+02   1.4804172367e+01    0.2027232    0.1779966 -78.46 0.0003568129    1.156    0.135
        56  -9.6320      5.6506    226.1131   1.4530772685e+02   2.6027553942e+01    0.2156824    0.1544595  88.45 0.0003582725    1.097    0.089
        57  -7.7017    141.7123    225.9414   1.1756950573e+02   7.4276083239e+00    0.1782217    0.1764652 -24.97 0.0004238649    1.095    0.087
        58  -9.3028    247.8268    223.5848   9.5947550827e+01  -9.2318985109e+00     0.306424    0.1426023 -23.99  0.001056603    2.340    0.573
        59  -7.8272    239.0412    225.4454   9.7868024800e+01  -8.2748953329e+00    0.1788483    0.0948894  12.86 0.0006504834    2.486    0.598
        60  -7.2880    177.7076    225.2810   1.0984413906e+02   1.4270355524e+00    0.1245411    0.1065418  65.62 0.0002662111    1.531    0.347
        61  -8.4317    107.1293    222.7798   1.2455470078e+02   1.3777687164e+01    0.1961789    0.1661672  63.97 0.0004106654    1.154    0.134
        62  -7.6795    158.9780    221.9876   1.1321768867e+02   5.2334682049e+00    0.1596883    0.1516939   2.24 0.0004679727    1.063    0.059
        63  -8.2769    138.1748    221.7528   1.1765875472e+02   8.8503261641e+00    0.2018025    0.1746873  53.67  0.000499907    1.165    0.142
        64  -7.5604    172.9582    222.0097   1.1026162673e+02   2.8267137659e+00    0.1636535     0.147509  17.03 0.0003905842    1.003    0.003
        65  -8.8729    101.4748    220.9508   1.2551983301e+02   1.5052734469e+01    0.2381075    0.1831422  43.81 0.0003752199    1.222    0.182
        66  -8.4092     19.3202    220.3488   1.4235493912e+02   2.5883254988e+01    0.1850259    0.1551668  68.41 0.0005681043    1.145    0.127
        67  -7.2481    117.6960    220.6249   1.2194155694e+02   1.2513251883e+01    0.1370463      0.10617 -15.33  0.000702939    1.765    0.433
        68  -7.6375    178.2321    219.5899   1.0872806200e+02   2.3662080073e+00     0.184676    0.1225586  27.10   0.00032557    1.476    0.322
        69  -7.8877    143.8577    218.8800   1.1595251441e+02   8.4458868397e+00    0.1985969    0.1792067   1.76 0.0003739978    1.174    0.148
        70  -8.1561     63.4495    219.3674   1.3343707211e+02   2.0918871038e+01    0.1580306    0.1128248 -84.05 0.0009102921    1.367    0.268
        71  -7.6147    127.4859    229.4317   1.2115465484e+02   9.1255582479e+00    0.1337391    0.1215756  42.24 0.0001185972    1.013    0.013
        72  -8.8772      1.6469    217.8625   1.4545584728e+02   2.8090592744e+01     0.158445    0.1172303 -82.26 0.0005198437    1.134    0.118
        73  -8.5080    122.9887    215.8354   1.2003780373e+02   1.2625157844e+01    0.2115376    0.1944907 -62.47 0.0003409932    1.147    0.128
        74  -7.7332    241.5047    215.4448   9.5570393987e+01  -7.0956086693e+00    0.1294694    0.1050478  -6.45 8.692929e-05    1.026    0.025
        75  -7.8756    229.5363    215.5446   9.7785739018e+01  -5.3268283811e+00     0.131519    0.1099791  -4.55 2.891746e-05    1.006    0.006
        76  -8.7489     24.7884    215.0793   1.4085250189e+02   2.6436132001e+01    0.1748888    0.1549943 -87.35 0.0004018417    1.165    0.142
        77  -7.4920    114.2961    211.7214   1.2132290464e+02   1.4941111063e+01    0.1370372    0.1028004  69.08 0.0001711651    1.534    0.348
        78  -8.3265      2.8000    210.5634   1.4471424425e+02   2.9515184233e+01    0.1670762    0.1214906 -78.14 0.0004045588    1.165    0.142
        79  -9.7767    248.2512    237.6719   9.8411901118e+01  -1.1324295870e+01    0.2829343    0.2166023  -4.71  0.001886775    1.045    0.043
        80  -7.4621    127.4222    214.4351   1.1883219095e+02   1.2166568172e+01    0.1367807    0.1283347  51.68 6.020328e-05    1.030    0.029
        81  -7.5677    189.7310    209.3320   1.0444888228e+02   2.2605686885e+00    0.1271465    0.1129149 -87.40 0.0004771523    1.586    0.369
        82  -8.1219     82.1006    206.1381   1.2771677840e+02   2.1210908011e+01    0.1813371    0.1738729 -57.39 0.0003089852    1.159    0.137
        83  -7.5461    117.5346    205.5500   1.1960356674e+02   1.5724470238e+01    0.1386191    0.1321174  55.97 0.0001679938    1.005    0.005
        84  -7.3032    106.6698    204.2871   1.2187545847e+02   1.7804595027e+01     0.143028    0.1033556  68.72 0.0003903141    1.618    0.382
        85  -8.0502    136.0845    206.8479   1.1562751829e+02   1.2249973338e+01     0.209656     0.181972  63.85 0.0002697843    1.246    0.198
        86  -8.5052     73.0396    200.2577   1.2894514584e+02   2.3832627166e+01    0.2121592    0.1787386 -77.90 0.0004305962    1.118    0.106
        87  -8.5519    139.0936    238.0190   1.1999149274e+02   5.5696197965e+00    0.2026106    0.1803827  44.74 0.0004697207    1.058    0.055
        88  -7.9184    102.2442    200.0559   1.2221992189e+02   1.9459976064e+01    0.1848394    0.1691706 -78.39 0.0003184048    1.086    0.079
        89  -8.7415     37.0445    200.0264   1.3686636168e+02   2.8412843556e+01    0.1870779    0.1597728 -82.85 0.0003549237    1.055    0.052
        90  -9.2370    107.3708    197.0891   1.2054937380e+02   1.9284097770e+01    0.2457173    0.2117981  44.77  0.000316475    1.137    0.120
        91  -7.9559     83.9555    198.5427   1.2620749043e+02   2.2642416730e+01    0.1866842    0.1309545  38.71  0.000119373    1.441    0.306
        92  -7.7781    128.4582    194.9454   1.1526960572e+02   1.6139822177e+01    0.2074592    0.1417006 -51.36 0.0003277698    1.498    0.333
        93  -7.9047     92.9144    195.0923   1.2360294073e+02   2.2059496678e+01     0.202813    0.1750788  75.94 0.0003487374    1.174    0.148
        94  -9.0535      3.8565    194.2912   1.4322047015e+02   3.2921922015e+01    0.1903562    0.1436639 -80.81 0.0003533598    1.069    0.064
        95  -8.1417    193.8043    193.8492   1.0060210002e+02   4.4290540737e+00    0.1861356    0.1759529  89.13  0.001069546    1.351    0.260
        96  -7.7112    179.2332    194.0081   1.0369790037e+02   7.0476908390e+00     0.183223    0.1180366 -41.94 0.0003962961    1.560    0.359
        97  -8.0291    135.9987    192.2876   1.1303532838e+02   1.5367773414e+01    0.1986618    0.1813049  40.53 0.0003102471    1.072    0.067
        98  -7.1584    122.4662    192.4660   1.1622246164e+02   1.7740620795e+01    0.1427564    0.1379703  63.69   5.5278e-05    1.030    0.029
        99  -7.2329     85.3003    192.7238   1.2501898652e+02   2.3767162728e+01      0.13808      0.10103  71.05 0.0002701072    1.537    0.350
       100  -8.4783    121.9477    237.9374   1.2355469435e+02   8.3747016687e+00    0.1994567    0.1740295  54.79 0.0003863508    1.082    0.076
       101  -8.1064    190.7729    188.0563   1.0006621976e+02   6.0883196195e+00    0.2862678    0.1836701  64.38  0.001173245    2.664    0.625
       102  -7.7292     92.7739    187.1786   1.2236256048e+02   2.3893204753e+01    0.1830065    0.1619088 -25.78 0.0003203893    1.312    0.238
       103  -7.8811      4.8740    186.7087   1.4235394648e+02   3.4505642161e+01     0.152647    0.1282411  82.80 0.0004692543    1.111    0.100
       104  -7.6845    148.6905    183.3147   1.0837024760e+02   1.4962818280e+01    0.1473079     0.119019  80.51 0.0007029888    1.631    0.387
       105  -8.3007    106.1034    182.3643   1.1831818114e+02   2.2835509845e+01    0.2249039    0.1867891 -46.17 0.0002722811    1.224    0.183
       106  -8.1114     39.0187    183.0930   1.3447649193e+02   3.2050500790e+01    0.1876249    0.1628204 -79.30 0.0003897776    1.028    0.027
       107  -7.6047    170.2165    182.4342   1.0332931226e+02   1.1062677066e+01    0.1943581    0.1395151  50.27 0.0004014842    1.521    0.342
       108  -8.0919    115.8577    179.9508   1.1550837879e+02   2.1714362525e+01    0.2123973    0.1921642 -13.35  0.000360407    1.230    0.187
       109  -7.8766     79.0458    179.7033   1.2446444205e+02   2.7717488856e+01    0.1873516     0.173346  42.93 0.0004718765    1.144    0.126
       110  -8.3435     23.3596    178.2911   1.3748422437e+02   3.4763338363e+01    0.1926351    0.1543104 -64.04 0.0005461159    1.161    0.138
       111  -8.8214    207.0738    175.6811   9.4199314656e+01   5.4597279045e+00    0.2747813    0.1987979 -28.71 0.0007134877    1.339    0.253
       112 -10.5781    100.9925    175.9554   1.1841393720e+02   2.5170491717e+01    0.2119568    0.1961351 -68.01            0    1.058    0.055
       113  -7.8243     29.8968    176.4849   1.3577653788e+02   3.4539279531e+01    0.1582606    0.1249449  34.63 0.0003140325    1.462    0.316
       114  -7.2675      1.6465    175.2854   1.4199066972e+02   3.7307365243e+01    0.1200558   0.07437362  69.20 0.0004143889    1.665    0.400
       115  -7.3619    154.2877    174.7037   1.0532698478e+02   1.5749081348e+01    0.1445227    0.1206091  84.54 0.0001839292    1.550    0.355
       116  -8.3023    186.1535    172.8376   9.7877059297e+01   9.9560727268e+00    0.2014786    0.1684273  -3.87 0.0003679272    1.270    0.213
       117  -7.2061     87.7048    173.3026   1.2124545216e+02   2.7919730158e+01    0.1428575    0.1080179  76.66 0.0003355966    1.577    0.366
       118  -8.1296     53.4245    173.0674   1.2971306194e+02   3.2723580268e+01    0.2083554    0.1861908  -0.53 0.0007421942    1.389    0.280
       119  -8.1425     40.9410    173.2716   1.3276527624e+02   3.4124318131e+01    0.1698127     0.155951 -77.79 0.0003589515    1.077    0.072
       120  -8.0104     65.6158    170.4026   1.2628909070e+02   3.1794625556e+01    0.2363889     0.162614 -30.78  0.000913989    1.872    0.466
       121  -7.5431     93.0136    170.3176   1.1937870609e+02   2.7787859842e+01    0.1908733    0.1828594  70.19 0.0005391006    1.058    0.055
       122  -7.3995    105.3071    169.7072   1.1617138505e+02   2.5901824965e+01    0.1466049    0.1138703  76.09 0.0001727372    1.581    0.368
       123  -8.2404    138.2049    167.1315   1.0753444144e+02   2.0508290490e+01    0.2166491    0.1976937 -19.47 0.0002887243    1.135    0.119
       124  -8.8967     88.1127    166.9506   1.2000621724e+02   2.9354867487e+01    0.2218868    0.2026263  52.59 0.0003019427    1.133    0.117
       125  -8.0356     57.9807    167.0561   1.2767486067e+02   3.3580261570e+01    0.1961109    0.1768372 -81.16 0.0003126187    1.046    0.044
       126  -7.5887    102.6633    165.2877   1.1598559457e+02   2.7382354488e+01    0.1515788    0.1443827 -34.03   0.00051216    1.076    0.070
       127  -9.6342     99.6106    162.9189   1.1630300206e+02   2.8450228397e+01    0.3373328     0.258913  19.46 0.0008374071    1.524    0.344
       128  -8.9266     77.0056    164.5253   1.2241267260e+02   3.1601469378e+01    0.2527373    0.1813816 -44.31 0.0006156274    1.410    0.291
       129  -8.5398     83.0306    162.9590   1.2057988894e+02   3.1080172516e+01    0.1668084    0.1612729 -75.12 0.0003563518    1.031    0.030
       130  -9.0409    245.0446    162.2262   8.4475987970e+01   1.2058709943e+00    0.1991844    0.1641003 -12.53 0.0003974395    1.197    0.164
       131  -7.4083     65.3019    238.2662   1.3512176774e+02   1.6727839783e+01    0.1051712   0.09664381 -20.42 0.0002430935    1.523    0.344
       132  -7.9556    127.1026    158.7616   1.0847771921e+02   2.4507824544e+01    0.2037512    0.1912421  27.28 0.0003756263    1.083    0.076
       133  -9.6575     87.7616    159.0728   1.1862441738e+02   3.1273367612e+01    0.2396136    0.2119552  32.12 0.0006201292    1.204    0.169
       134  -7.2544     11.5759    159.4999   1.3807257692e+02   4.0112819923e+01    0.1233165   0.09825736 -71.73 0.0001601009    1.021    0.020
       135  -8.5084    245.0811    157.3958   8.3480702997e+01   2.0393642560e+00    0.2436928     0.184471 -14.92 0.0003295162    1.389    0.280
       136 -10.6873     92.3069    157.0729   1.1704814823e+02   3.1024583852e+01    0.4699188    0.3634585 -27.91    0.0023713    1.485    0.327
       137  -8.2761     71.6795    157.7086   1.2258164422e+02   3.3982071813e+01    0.1403194    0.1051257 -27.29 0.0002941709    1.606    0.377
       138  -9.2175     50.2502    236.7827   1.3789540790e+02   1.8971098994e+01    0.3182647     0.257812  69.21  0.001592257    1.045    0.043
       139  -9.8815    212.9646    155.4080   8.8736373268e+01   8.1990640924e+00    0.2517139    0.2408638 -40.77 0.0004175424    1.107    0.097
       140  -8.0304    109.4730    155.5526   1.1227121472e+02   2.8476141014e+01    0.1471971     0.143835 -62.50 8.476604e-05    1.027    0.026
       141  -8.6513    102.7372    155.2301   1.1395131309e+02   2.9724148013e+01    0.1999086    0.1689251 -23.04 0.0004216836    1.311    0.237
       142  -7.9421     64.4716    155.3169   1.2405286250e+02   3.5533042561e+01    0.1797018    0.1272479 -71.63  0.000916392    1.427    0.299
       143  -7.1000    116.2924    154.3208   1.1025632183e+02   2.7534326381e+01    0.1525751    0.1174293 -16.40 0.0003564963    1.608    0.378
       144  -9.5263     77.0115    153.8165   1.2045606004e+02   3.4145257150e+01    0.2640703    0.1781767 -71.76 0.0008959843    1.634    0.388
       145  -7.7787     36.0886    154.1550   1.3127765724e+02   3.9133790857e+01    0.1726337    0.1389531  85.73 0.0003600288    1.290    0.225
       146  -9.4184     94.0521    148.0285   1.1474986444e+02   3.2868894068e+01    0.2506409    0.2191659  35.50 0.0006588643    1.200    0.167
       147  -9.3521     97.7874    152.7807   1.1474375491e+02   3.1135286431e+01    0.2515431    0.1971475 -49.54  0.000690206    1.220    0.180
       148 -10.9354     98.0011    147.5099   1.1358521012e+02   3.2333356201e+01    0.5523512    0.3760857 -70.80  0.002500771    1.796    0.443
       149  -9.1493    101.9343    145.3064   1.1206251285e+02   3.2175924603e+01    0.2042319    0.1917972  31.83 0.0004864893    1.107    0.096
       150 -10.1165     88.3932    151.6656   1.1700646582e+02   3.2925228528e+01    0.3270106    0.2511415 -49.07 0.0007816134    1.233    0.189
       151  -7.7087     52.1442    150.8205   1.2654356853e+02   3.8150091678e+01    0.1827134    0.1454252 -39.77 0.0003644873    1.291    0.225
       152  -7.1363    140.4776    149.4861   1.0312394613e+02   2.3992713286e+01     0.154209    0.1466605 -12.36 0.0001488758    1.053    0.050
       153  -7.1278     26.6464    149.3067   1.3300454132e+02   4.1185279930e+01    0.1293577    0.0892823  71.65 0.0007042162    1.716    0.417
       154  -8.4444     45.8126    235.1490   1.3859276405e+02   1.9849103123e+01    0.2107691    0.1648901  85.69 0.0006090972    1.108    0.098
       155  -9.1569    133.1177    139.7974   1.0270663160e+02   2.7604704996e+01    0.4692769    0.3297434 -34.67  0.002146518    1.482    0.325
       156  -7.2755    108.7015    143.3247   1.0982709994e+02   3.1442510525e+01     0.149817    0.1198788  85.45 0.0007008712    1.629    0.386
       157  -8.8302     82.9628    142.9714   1.1669996320e+02   3.5818301564e+01    0.1759184     0.163628 -48.73 0.0004954686    1.005    0.005
       158  -7.3812     47.6298    142.2497   1.2628709773e+02   4.0699917895e+01    0.1309111   0.09778344  66.10 0.0006953031    1.630    0.386
       159  -7.3019    122.6639    141.7486   1.0581989253e+02   2.9210543227e+01    0.1504747    0.1188473   0.37 0.0001616477    1.564    0.361
       160  -7.4952      2.7141    141.3514   1.3807184648e+02   4.4909514704e+01     0.120312   0.08049858  79.30 0.0004376578    1.662    0.398
       161  -7.8853    143.2617    140.0686   1.0026403928e+02   2.5499117257e+01    0.2091645    0.1958936 -45.77 0.0003607937    1.069    0.064
       162  -8.8523     85.1381    137.8497   1.1501678358e+02   3.6678989169e+01    0.2119821    0.1975145  84.10  0.000599338    1.188    0.158
       163  -7.6811    232.2043    137.6248   8.1471631875e+01   7.8395340347e+00     0.170305    0.1306596  34.91 0.0003395472    1.478    0.323
       164  -8.8163     88.7757    146.7889   1.1591018937e+02   3.4013149972e+01     0.203256     0.173137  85.85  0.001069449    1.365    0.267
       165  -7.8650     59.8985    136.8358   1.2187500307e+02   4.0499684446e+01    0.1783721    0.1575945  76.92 0.0002925741    1.291    0.225
       166  -9.1203     87.1272    133.5207   1.1351348894e+02   3.7368099982e+01    0.2627401    0.2223935 -56.14 0.0002957181    1.156    0.135
       167  -7.7440     64.7928    133.8749   1.1989989824e+02   4.0555241308e+01    0.1855569    0.1609443  89.93 0.0004850128    1.320    0.242
       168  -7.6705     68.2774    133.6707   1.1886766177e+02   4.0131675447e+01    0.1370882    0.1086431  85.93 0.0006994762    1.596    0.374
       169  -7.6653     78.0074    132.7484   1.1591094258e+02   3.8953061816e+01    0.1725092    0.1241134  32.61 0.0003424741    1.493    0.330
       170  -7.3455    122.6830    131.7388   1.0345478302e+02   3.1442458240e+01    0.1501175    0.1187288  -1.06 0.0002020998    1.543    0.352
       171  -8.6295    135.1550    145.6199   1.0355102477e+02   2.5908435389e+01    0.3872579    0.2638177 -23.37  0.001068564    1.851    0.460
       172  -7.1962     76.6863    126.7260   1.1495899563e+02   4.0535972204e+01    0.1424791    0.1060518 -19.66 0.0006969071    1.559    0.358
       173  -8.5408     38.8035    125.7406   1.2578595958e+02   4.5494531191e+01    0.2020219    0.1552081 -40.51 0.0006185826    1.213    0.176
       174  -7.8790     65.3893    123.8002   1.1759765952e+02   4.2802583196e+01    0.1994225    0.1157496 -45.23 0.0002822582    1.568    0.362
       175  -8.3076    111.7996    122.2141   1.0401094848e+02   3.5619434101e+01    0.2058837    0.1740476  -9.12 0.0005469202    1.292    0.226
       176  -7.4843     76.5241    120.5395   1.1359064873e+02   4.1964177588e+01     0.141022    0.1322967 -45.69  2.41116e-05    1.065    0.061
       177  -7.6512     92.8108    119.1998   1.0855131892e+02   3.9674778365e+01    0.1911756    0.1615436  -4.14 0.0002991272    1.280    0.219
       178  -7.9477     67.0345    117.5075   1.1569772745e+02   4.4004050450e+01     0.189489    0.1379723  32.23 0.0003959444    1.489    0.328
       179  -9.6913    247.6334    112.1283   7.3711895453e+01   9.3895901294e+00    0.3091897    0.2515955  25.91  0.001572163    1.586    0.369
       180  -7.7283    117.9640    110.9940   9.9481500505e+01   3.6824990233e+01     0.178748    0.1698593  15.41 0.0005431478    1.044    0.042
       181  -9.3739    134.9958    106.0745   9.3785033412e+01   3.4342570114e+01    0.4378158    0.2724269 -31.24  0.001321846    1.750    0.429
       182  -8.1262     16.0660    104.5567   1.2862400485e+02   5.2235107711e+01    0.1532137   0.09338123  51.28 0.0005816172    2.360    0.576
       183 -10.0352    141.7162     97.6921   8.9908832920e+01   3.4522179543e+01    0.6691887    0.4036611   3.31  0.002164781    3.923    0.745
       184  -9.3860    144.6565     94.6983   8.8409975468e+01   3.4437875329e+01    0.3326165    0.2462856  -5.63 0.0009608822    1.763    0.433
       185  -7.9408     37.7902     99.7662   1.2071426328e+02   5.1387579972e+01       0.1657    0.1482529 -75.04 0.0005898964    1.333    0.250
       186  -7.3637      4.5695     97.5025   1.3091224000e+02   5.4522123672e+01    0.1213919   0.09299246 -50.48 0.0001210109    1.011    0.011
       187  -7.5695     72.6277     92.8103   1.0776500007e+02   4.8487623620e+01    0.1817922    0.1254332 -53.45 0.0003219105    1.557    0.358
       188  -7.3242     32.4847     92.5111   1.2077117352e+02   5.3442549667e+01    0.1274033    0.1075076 -39.60 0.0008099915    1.044    0.042
       189  -8.9291    173.0833     90.3790   8.1160423816e+01   2.8842631853e+01    0.2625247     0.202923 -46.58 0.0004675902    1.305    0.234
       190 -10.7040    152.3837     86.5322   8.4460760426e+01   3.4186535956e+01      0.69749    0.5699108   2.25  0.002484081    1.462    0.316
       191  -7.5260     15.6744     90.3276   1.2587769888e+02   5.5302738333e+01     0.112249   0.09246234  79.34 0.0004258044    1.698    0.411
       192  -9.3329    229.4019     82.8008   7.0057575452e+01   1.7765519420e+01    0.3248557    0.2410947 -27.61  0.001496003    1.534    0.348
       193  -8.6057    233.9638     78.4900   6.8529214615e+01   1.7504217209e+01    0.1892523    0.1251004  60.89 0.0006726999    1.592    0.372
       194  -9.4644    245.4620     83.9185   6.8187933844e+01   1.4373822879e+01    0.2611286    0.1858882  63.55  0.001093775    1.520    0.342
       195  -8.5373    185.8869     75.6804   7.5105785794e+01   2.8374908207e+01    0.3174487    0.1934035  39.26  0.001451921    1.949    0.487
       196  -9.2217    161.4781     75.4393   7.9584034651e+01   3.3984061954e+01    0.2654636    0.2565248 -77.51 0.0004716703    1.064    0.060
       197 -11.3258    165.6629     70.8144   7.7542702089e+01   3.3757484383e+01    0.7638326    0.6269984 -60.46   0.00220106    1.326    0.246
       198  -9.2990    145.4394     73.3226   8.2373611615e+01   3.7955712186e+01    0.2402735    0.2297948  17.05 0.0005991734    1.051    0.048
       199  -8.3145    115.9532     72.9462   8.9342388307e+01   4.4381069572e+01    0.2054543       0.1918  16.46  0.001196428    1.015    0.015
       200  -8.5334     15.3024     71.5958   1.2164126646e+02   5.9102017702e+01      0.19414    0.1797573 -39.85 0.0006448207    1.269    0.212
       201 -11.7516    179.2536     55.4377   7.1191474647e+01   3.2892245125e+01     0.744587    0.7404338  53.72  0.001731574    1.113    0.102
       202  -7.4698     19.9530     59.2377   1.1655587698e+02   6.1040608215e+01    0.1339451   0.09216573  13.72 0.0003051045    1.516    0.340
       203  -9.7512    186.5911     46.8910   6.7958249418e+01   3.2362821321e+01    0.2700222     0.240616 -53.65 0.0004189232    1.155    0.134
       204  -8.4454    104.1661     44.1379   8.3478875400e+01   5.1019777474e+01    0.2188787    0.1846378  42.73 0.0007417829    1.141    0.123
       205  -8.1990     42.7865     39.9129   1.0149028756e+02   6.1798236968e+01    0.1945672    0.1640551  20.32 0.0009277719    1.320    0.243
       206  -9.3266    224.3282     33.7043   6.0328675909e+01   2.5721343729e+01    0.3302468    0.2069601 -33.35  0.001513338    1.774    0.436
       207 -10.0601    179.6263     34.7900   6.6034122784e+01   3.5442882744e+01    0.2616906    0.2359375  82.53 0.0005160177    1.024    0.024
       208 -10.8674    181.0640     30.9662   6.4906617479e+01   3.5557303884e+01    0.2798735    0.2600024 -38.97 0.0003867469    1.224    0.183
       209 -11.2692    198.9831     32.8930   6.3025769409e+01   3.1308716329e+01    0.3118864    0.2615056  68.89 0.0004481977    1.130    0.115
       210  -7.7636      2.0000     35.9978   1.1669269733e+02   6.6337664963e+01    0.1702158   0.05071193 -49.30 0.0005525718    2.842    0.648
       211  -7.6568     96.3761     29.1786   8.0558133807e+01   5.4342527906e+01    0.1626749    0.1137882 -35.50 0.0006386283    1.657    0.397
       212  -8.7567    129.7579     26.9749   7.2296832114e+01   4.7581904606e+01    0.2259198    0.1685291  61.81  0.000395346    1.252    0.201
       213 -11.2407    206.8635     24.3229   6.0229913693e+01   3.0559590556e+01    0.3054119    0.2645103  46.59   0.00074332    1.396    0.284
       214  -7.9558    110.0921     23.8743   7.5488829100e+01   5.2113338329e+01    0.1774616    0.1258494  33.69 0.0004028182    1.289    0.224
       215  -8.0130     99.0318     23.5104   7.7979884232e+01   5.4408718306e+01    0.1773742    0.1543142  11.00 0.0003550814    1.132    0.117
       216  -7.5628    140.4913     19.5069   6.8163456278e+01   4.5943327787e+01    0.1260616    0.1092575  60.61 0.0008103421    1.035    0.034
       217  -7.6886    185.7847    248.6698   1.1213368791e+02  -3.8327647542e+00    0.1761028    0.1038778  40.73 0.0003175963    1.595    0.373
       218  -9.8916     66.9568    247.3461   1.3572108394e+02   1.4703717054e+01    0.2012446    0.1764576  83.88  0.000264571    1.111    0.100
       219  -7.7468    140.4464     11.5019   6.5936275067e+01   4.6679727412e+01    0.1247846    0.1031009  53.62 6.619477e-06    1.053    0.050
       220  -7.5701    109.2898     11.3375   7.1643562982e+01   5.3428100440e+01    0.1282974   0.07758442  31.23 0.0004594352    1.639    0.390
       221  -9.7367     37.3269    246.7146   1.4116193142e+02   1.8549118405e+01    0.2257702    0.1668265  82.79   0.00043793    1.145    0.127
       222  -9.6274     20.9456    247.5630   1.4411256248e+02   2.0218822306e+01    0.1987875    0.1508335  75.98 0.0003531674    1.013    0.013
       223  -9.3136     12.8112    247.3890   1.4548917358e+02   2.1104680319e+01    0.1857687    0.1405431  83.68 0.0003321261    1.066    0.062
