#   1 NUMBER                 Running object number                                     
#   2 MAG_AUTO               Kron-like elliptical aperture magnitude                    [mag]
#   3 X_IMAGE                Object position along x                                    [pixel]
#   4 Y_IMAGE                Object position along y                                    [pixel]
#   5 X_WORLD                Barycenter position along world x axis                     [deg]
#   6 Y_WORLD                Barycenter position along world y axis                     [deg]
#   7 A_WORLD                Profile RMS along major axis (world units)                 [deg]
#   8 B_WORLD                Profile RMS along minor axis (world units)                 [deg]
#   9 THETA_WORLD            Position angle (CCW/world-x)                               [deg]
#  10 FWHM_WORLD             FWHM assuming a gaussian core                              [deg]
#  11 ELONGATION             A_IMAGE/B_IMAGE                                           
#  12 ELLIPTICITY            1 - B_IMAGE/A_IMAGE                                       
         1 -13.0604    194.9738     31.1413   6.6940230733e+01   3.2778095001e+01     1.131535     1.015671  76.22   0.00694214    1.093    0.085
         2 -13.6704    209.0833     13.7124   6.1070878284e+01   3.1387058653e+01      1.37037    0.9803193  39.60  0.007725453    1.888    0.470
         3 -11.8003      2.1752     15.6407   1.1850875190e+02   7.0589971937e+01     1.212003          nan -44.61  0.003956961    6.376    0.843
         4 -11.1535      2.1834      5.2265   1.1433593691e+02   7.2074368639e+01    0.7279731    0.1311744 -41.60   0.00318672    3.830    0.739
         5  -9.9312     14.8054     12.6107   1.1111896363e+02   7.0110379983e+01    0.1321504   0.08849559  23.60 0.0004621769    1.640    0.390
         6 -11.0889    140.1617    250.1937   1.2668137653e+02   3.0837871121e+00    0.5015165     0.134839  41.16  0.001819016    3.042    0.671
         7 -10.8406    125.8136    249.8093   1.2947052503e+02   5.5916595804e+00    0.4147098    0.1455359  35.13  0.001541715    3.219    0.689
         8 -11.5033    128.1847    245.2854   1.2843465807e+02   5.9967969901e+00    0.3488985    0.2479621  87.65  0.001954625    1.757    0.431
         9 -12.0934     98.7895    248.2345   1.3456189424e+02   1.0307245966e+01    0.5190672     0.369706  55.26  0.003205732    1.125    0.111
        10 -11.1621     46.3607    248.6172   1.4426292643e+02   1.7776336763e+01    0.3992387    0.2208391  75.61  0.001514175    1.608    0.378
        11 -13.4409     33.0269    246.9492   1.4644706955e+02   1.9742925160e+01     1.598587    0.7210801  50.03   0.00937684    1.767    0.434
        12 -13.6025      8.9740    207.2930   1.4807160037e+02   3.0316962867e+01     1.061717    0.7587744 -74.56  0.003774417    1.322    0.243
        13 -14.7015     52.8217    210.6001   1.3979712613e+02   2.4697409414e+01     7.604388    0.6028243  46.39   0.02050849    6.816    0.853
        14 -15.3381      6.2596    154.3286   1.4436957019e+02   4.2178432903e+01     6.433712     1.884331 -77.80   0.02579771    3.134    0.681
        15  -9.9189    193.6435    196.3639   1.0667054365e+02   2.9509382493e+00     0.632173    0.2939675 -61.78  0.001565123    7.330    0.864
        16 -13.8175     42.5093    220.4621   1.4274401751e+02   2.3895031436e+01    0.9824331    0.6581482  58.76   0.00367154    1.268    0.211
        17 -11.3092     62.4754    195.7142   1.3614262989e+02   2.6720415388e+01    0.3481968    0.2384375 -48.32  0.001107894    1.810    0.447
        18 -11.2752    111.0516    242.7487   1.3154213713e+02   9.3462064472e+00    0.3035664    0.1464167  37.27  0.001423808    2.002    0.500
        19 -11.5915     68.3162    188.0033   1.3387945201e+02   2.7677376605e+01    0.3036143    0.2535742 -57.75 0.0005268222    1.326    0.246
        20  -8.6524    119.8651    188.3940   1.2186410333e+02   1.9105285711e+01    0.2096564     0.136961  29.24 0.0009368762    1.803    0.446
        21  -8.2144    125.9840    186.0000   1.2000096408e+02   1.8496840168e+01     0.252765   0.08069324  40.67 0.0007797397    2.972    0.664
        22 -10.7340     78.1210    175.8139   1.2986734890e+02   2.9107470702e+01    0.2625363    0.2355775 -54.35 0.0003948546    1.248    0.199
        23 -12.9462     65.0698    173.5931   1.3270432579e+02   3.1510518634e+01    0.5256051    0.2814102 -45.33  0.001570698    2.312    0.567
        24  -8.9262    114.6707    175.3149   1.2082499384e+02   2.3073509550e+01    0.1571909     0.111281  74.28 0.0006538128    1.676    0.404
        25 -11.6617     85.5983    166.8454   1.2659968570e+02   3.0095667124e+01    0.6407137    0.5659713  66.06  0.003658229    1.093    0.085
        26 -12.8019     66.3302    142.7486   1.2752185986e+02   3.8759042457e+01     1.713261    0.9122162  86.70   0.00351738    3.662    0.727
        27 -11.5548     50.7962    235.3986   1.4243403831e+02   1.9783453891e+01    0.3824543    0.2131178 -73.87 0.0009199254    1.708    0.415
        28  -9.7962     98.3990    151.0704   1.2042087557e+02   3.1778457097e+01    0.3131599    0.2612013 -63.22 0.0007875426    1.157    0.136
        29 -11.8354     86.8945    150.1587   1.2331346064e+02   3.3920534851e+01    0.2985539     0.256662 -44.64 0.0005037606    1.238    0.192
        30  -8.5938    134.3710    148.2455   1.1040975567e+02   2.5539130240e+01    0.2216947    0.1483296 -60.76 0.0005993152    1.636    0.389
        31  -8.8345    101.3196    146.9760   1.1882107748e+02   3.2253102900e+01    0.2141351      0.18298 -52.00 0.0005042875    1.165    0.141
        32 -11.3383     55.1746    230.1319   1.4116071983e+02   2.0271078083e+01    0.3355922    0.2171864  69.81   0.00140963    1.307    0.235
        33 -11.2406    142.1097    230.9318   1.2362220094e+02   6.1902952035e+00     0.399292    0.2027079  27.81  0.001609696    2.682    0.627
        34 -12.4837     35.8912    229.0176   1.4467217889e+02   2.2930744753e+01     0.315465    0.2593057 -72.35 0.0007302361    1.421    0.296
        35  -9.4888    109.8676    136.5791   1.1427956166e+02   3.3176583702e+01    0.3217898    0.2305006 -26.71  0.001172545    1.805    0.446
        36 -10.0366    250.0000    242.9834   1.0422328436e+02  -1.3866811340e+01    0.1811633   0.06286664 -35.32 0.0008063912    2.970    0.663
        37 -10.3157     97.0923    133.6349   1.1716220129e+02   3.6198855235e+01    0.2768507    0.2309174 -28.29 0.0003701742    1.364    0.267
        38 -10.7365     50.1231    129.8538   1.2976133890e+02   4.3868341017e+01    0.2639396     0.212839  43.60 0.0005554689    1.381    0.276
        39  -8.9582    106.9160    123.3516   1.1203433464e+02   3.6845684008e+01    0.2004414    0.1876223  36.14 0.0003211701    1.102    0.092
        40  -8.7506    152.6785    213.0028   1.1855965921e+02   7.6791279318e+00    0.1822402    0.1763403  55.49 0.0003367629    1.091    0.083
        41 -10.4686    168.0275    113.0778   9.3555789388e+01   2.5754837983e+01    0.3799772    0.2960722 -83.70  0.001050424    1.622    0.383
        42  -8.8694    203.4844    111.5101   8.5683958916e+01   1.7596283395e+01    0.1513156    0.1484584 -63.38 2.024968e-06    1.032    0.031
        43 -10.1234    241.5045     95.5008   7.5489100311e+01   1.1884836540e+01    0.1415109    0.1269353 -60.18 0.0008106812    1.001    0.001
        44  -9.9596    248.3438    249.8030   1.0568739038e+02  -1.4491132775e+01    0.2244821   0.07923824  38.63  0.001029574    2.583    0.613
        45 -13.6291      5.1457    246.0302   1.5097725288e+02   2.2997297736e+01      1.83476    0.9981982 -80.83   0.01262756    1.556    0.357
        46 -10.4335    109.9990    248.0128   1.3236198452e+02   8.5431277635e+00    0.1759041    0.1561887   7.31 0.0005536248    1.632    0.387
        47 -10.7186     65.6829    249.1118   1.4085554873e+02   1.5092849803e+01    0.2684928    0.1746302  74.79 0.0006320703    1.339    0.253
