#   1 NUMBER                 Running object number                                     
#   2 MAG_AUTO               Kron-like elliptical aperture magnitude                    [mag]
#   3 X_IMAGE                Object position along x                                    [pixel]
#   4 Y_IMAGE                Object position along y                                    [pixel]
#   5 X_WORLD                Barycenter position along world x axis                     [deg]
#   6 Y_WORLD                Barycenter position along world y axis                     [deg]
#   7 A_WORLD                Profile RMS along major axis (world units)                 [deg]
#   8 B_WORLD                Profile RMS along minor axis (world units)                 [deg]
#   9 THETA_WORLD            Position angle (CCW/world-x)                               [deg]
#  10 FWHM_WORLD             FWHM assuming a gaussian core                              [deg]
#  11 ELONGATION             A_IMAGE/B_IMAGE                                           
#  12 ELLIPTICITY            1 - B_IMAGE/A_IMAGE                                       
         1 -14.0033    221.2565     27.8910   4.0133799934e+01   2.7068179892e+01     1.163806    0.7950149  40.69  0.006261071    1.941    0.485
         2 -13.3107    245.7287      5.5100   3.3108672726e+01   2.4251300235e+01    0.6659657    0.4700877 -66.62  0.002604258    1.174    0.148
         3 -11.6034     12.8476      2.1669   8.5325307327e+01   7.3296985682e+01    0.2742137    0.1669059 -10.31  0.001787746    1.413    0.292
         4 -11.4965    132.4670    247.0064   1.0472640656e+02   5.8450674713e+00    0.2441156    0.1422175  48.79  0.000800785    1.545    0.353
         5 -12.8927    243.7102    217.7150   7.8767885709e+01  -6.7565277885e+00    0.9208811     0.531825   4.35  0.004926397    1.918    0.479
         6 -14.8710    232.1163    240.3743   8.4707676132e+01  -8.0910773892e+00     2.093206     1.420278  26.55   0.01018678    1.267    0.211
         7 -13.0102    157.9285    248.8028   9.9971454242e+01   1.6724718496e+00     1.085974    0.3409157  39.41   0.00457058    2.567    0.610
         8 -12.3202    145.1880    249.1248   1.0249658671e+02   3.5683387590e+00    0.7902743    0.2109277  37.14  0.003012271    3.127    0.680
         9 -11.9773    114.0904    250.0995   1.0866448482e+02   8.0760287793e+00    0.4288372    0.2243075  35.66  0.001963062    1.668    0.401
        10 -11.2645     98.8320    250.1487   1.1160538832e+02   1.0268207747e+01    0.2529489    0.2033876  44.91  0.001021859    1.099    0.090
        11 -15.6169      4.0524    174.7244   1.2457668221e+02   3.6799391106e+01      8.64753     1.011003 -75.60   0.02517337    6.217    0.839
        12 -14.8331     36.5548    194.2119   1.1904861734e+02   2.9450075112e+01     4.119316     1.545814  70.81   0.01444765    4.417    0.774
        13 -14.2798     29.5904    203.4650   1.2125593281e+02   2.8175797912e+01     1.216432    0.7442505  78.96  0.004715257    1.445    0.308
        14 -13.4079    117.1431    237.0970   1.0659198282e+02   9.8683849236e+00    0.5751424    0.3452013  41.99  0.002650662    1.388    0.280
        15 -11.9672     78.5209    239.2202   1.1448349168e+02   1.5042564121e+01    0.2785612    0.2363737  83.29  0.001759361    1.174    0.148
        16  -9.4949     63.0141    238.0621   1.1736865342e+02   1.7291242046e+01    0.1886022    0.1093022  66.03 0.0004961574    1.614    0.380
        17 -14.0974    147.4415    240.7342   1.0096252907e+02   4.5642385139e+00     1.500738    0.5217662  32.83  0.005957014    2.876    0.652
        18 -14.0050    137.8198    230.2576   1.0150039169e+02   7.8575445245e+00     1.627376    0.4352112  33.42   0.00510768    4.376    0.771
        19 -14.1057    134.3523    225.2616   1.0153468622e+02   9.3046297061e+00     2.534165    0.6584859  32.19   0.00683922    5.899    0.830
        20 -11.1859    102.5919    222.7788   1.0788424804e+02   1.4737542235e+01    0.3696995    0.2857812 -80.44  0.002253067    1.422    0.297
        21 -11.6979     83.2385    224.8779   1.1214247726e+02   1.7138576415e+01    0.3190371    0.2813596  23.71  0.002121306    1.393    0.282
        22 -11.8415     82.7804    230.7775   1.1283579960e+02   1.6054768086e+01    0.2776305    0.2127891  82.75  0.001339794    1.293    0.226
        23 -12.5473    108.9325    241.2090   1.0870538799e+02   1.0368400867e+01    0.4982242    0.2642238  39.52  0.002243365    1.578    0.366
        24 -12.7041    100.4829    228.3035   1.0896691556e+02   1.3989394961e+01    0.6544264    0.2567078  40.27  0.002962111    2.143    0.533
        25 -13.7861      9.4946    207.0476   1.2547425857e+02   2.9366052341e+01    0.9413812    0.8104566  -0.38  0.004583742    1.849    0.459
        26 -13.1934    209.0356    247.7558   9.0080398399e+01  -5.8065100917e+00     1.280507    0.4494765  31.98  0.005662955    2.513    0.602
        27 -10.7934    192.4439    193.7014   8.4073169454e+01   5.0690303264e+00    0.5091236    0.2386194 -58.11  0.001551405    5.387    0.814
        28 -11.4203     52.1904    183.0877   1.1446060599e+02   3.0185291798e+01    0.3307474    0.2478507 -38.38 0.0008445617    1.783    0.439
        29 -11.4835     58.8546    176.6002   1.1213435979e+02   3.0874591987e+01    0.2707733    0.2314481 -49.77 0.0006517482    1.345    0.256
        30 -10.8758     70.1123    166.3245   1.0798407026e+02   3.1839515067e+01    0.2438994    0.2361094  71.48 0.0003699518    1.126    0.112
        31 -13.0911     56.2922    162.8732   1.1102155430e+02   3.4445838466e+01    0.5086396    0.2883105 -44.94  0.001541458    2.080    0.519
        32 -11.7500     32.5087    156.9488   1.1633096797e+02   3.8466307632e+01    0.3859785    0.2148791  88.53  0.001857055    1.841    0.457
        33 -11.2597     39.7637    163.1600   1.1521685909e+02   3.6250988022e+01    0.5183383    0.2131569  65.03  0.001863695    3.815    0.738
        34 -12.2762     78.1768    159.2183   1.0482065687e+02   3.2418924162e+01     0.510235    0.5059916 -72.58  0.001859113    1.130    0.115
        35 -13.0102     67.9596    144.1335   1.0509058235e+02   3.7523202517e+01     0.756674    0.5083296  69.75  0.003009105    1.788    0.441
        36 -10.3664     93.7760    145.0010   9.8102049734e+01   3.3471426989e+01    0.2945447     0.277502 -21.96 0.0008785195    1.171    0.146
        37  -9.6221     96.6781    141.7012   9.6647221430e+01   3.3791930917e+01    0.2425142    0.1435842 -51.73 0.0004847014    1.622    0.384
        38 -11.8229     81.4007    143.2902   1.0119834057e+02   3.5823482869e+01    0.3084826    0.2540266 -54.29 0.0006536301    1.168    0.144
        39  -9.9637     44.3185    144.6486   1.1169124095e+02   4.0243639154e+01    0.1419427   0.09183904  72.48 0.0007047533    1.740    0.425
        40 -12.1442     56.4187    127.7154   1.0554953645e+02   4.3042813924e+01    0.6172454     0.268176 -78.79  0.001983865    3.951    0.747
        41 -13.1771     20.7712    211.9359   1.2359585606e+02   2.7289741990e+01    0.5799271    0.4257519  28.37  0.001155487    1.713    0.416
        42 -10.5375    106.5365    131.9805   9.1825226468e+01   3.4419021421e+01    0.3571896    0.3310156 -35.83  0.001105209    1.095    0.087
        43 -10.5612     93.3695    129.1395   9.4938424527e+01   3.7385994257e+01    0.2642417    0.2554686 -11.47 0.0005891934    1.100    0.091
        44  -9.3812    104.8274    120.6332   8.9664134360e+01   3.7423725042e+01    0.2017932    0.1878282  45.45 0.0004496166    1.118    0.105
        45 -11.2220     23.0087    147.5093   1.1771537326e+02   4.1590754322e+01    0.2868494    0.1257456  25.06   0.00135748    2.707    0.631
        46  -9.3949    203.9890    111.1763   6.3429431860e+01   1.8112120230e+01    0.2537805    0.1719609  20.18  0.001091165    2.059    0.514
        47 -10.5749     52.5273     89.7758   9.8805648697e+01   5.2648927237e+01    0.2352799    0.1963054  18.34 0.0007453778    1.331    0.249
        48 -14.8172      6.4846    238.8604   1.2761038071e+02   2.3394312097e+01     2.459579     1.667568  62.97   0.01877912    1.103    0.094
        49 -11.6585      1.8558     60.6149   1.1144338762e+02   6.3254306959e+01    0.4600211    0.1145128 -63.84  0.001868667    2.941    0.660
        50 -11.2407     13.1510     60.6449   1.0675081137e+02   6.2657830983e+01    0.2112276    0.1502127 -65.19 0.0008034298    1.352    0.260
        51 -12.3275    105.4613    250.1355   1.1033267371e+02   9.3237727895e+00     0.648836    0.2238777  34.24  0.002765744    2.802    0.643
        52  -9.8417    189.5951     15.1932   4.0391533769e+01   3.5988832641e+01    0.1693821    0.1301221  -9.13 0.0009499509    1.658    0.397
        53 -12.2394     80.3755    247.7093   1.1488889064e+02   1.3247250099e+01     0.389015    0.3218507  83.23   0.00279884    1.212    0.175
