#   1 NUMBER                 Running object number                                     
#   2 MAG_AUTO               Kron-like elliptical aperture magnitude                    [mag]
#   3 X_IMAGE                Object position along x                                    [pixel]
#   4 Y_IMAGE                Object position along y                                    [pixel]
#   5 X_WORLD                Barycenter position along world x axis                     [deg]
#   6 Y_WORLD                Barycenter position along world y axis                     [deg]
#   7 A_WORLD                Profile RMS along major axis (world units)                 [deg]
#   8 B_WORLD                Profile RMS along minor axis (world units)                 [deg]
#   9 THETA_WORLD            Position angle (CCW/world-x)                               [deg]
#  10 FWHM_WORLD             FWHM assuming a gaussian core                              [deg]
#  11 ELONGATION             A_IMAGE/B_IMAGE                                           
#  12 ELLIPTICITY            1 - B_IMAGE/A_IMAGE                                       
         1 -15.1464      6.2347     71.0613   9.0848281785e+01   5.9645446984e+01     1.121014    0.6258051 -62.58  0.006405962    1.314    0.239
         2 -14.1309    188.2113     25.1327   2.5454752382e+01   3.4947167639e+01     3.294534     1.367427 -62.73  0.008294435    6.196    0.839
         3 -14.8058    166.2231     28.1860   2.9993094290e+01   4.0380250255e+01     1.874717     1.141163  76.57  0.008144272    1.872    0.466
         4 -13.5233    120.5037     26.5750   3.9113373655e+01   5.1891290139e+01     1.183363    0.7708904  18.03  0.005572949    1.815    0.449
         5 -14.6165    146.9123     30.1070   3.4368473549e+01   4.5097705520e+01     1.536546    0.8336671  63.27  0.006529861    1.877    0.467
         6 -13.5978    131.9273     32.2143   3.8441051762e+01   4.8488567596e+01     0.858958    0.6573094 -47.57   0.00339136    1.492    0.330
         7 -13.2818      7.9102      2.7164   7.0700908903e+01   7.2426116560e+01    0.5549566    0.3794079  36.07  0.003947991    2.170    0.539
         8 -13.6138      2.7864     10.2757   7.6429187389e+01   7.1534170604e+01    0.7074172    0.3863164 -53.24   0.00465284    1.594    0.373
         9 -16.0627     13.2339     20.8486   7.5404146816e+01   6.9067087346e+01     1.839939    0.8186914 -35.80   0.00887356    1.853    0.460
        10 -13.8643    216.3985     27.7721   2.2385384747e+01   2.7236282784e+01      1.22616    0.4039573 -40.26  0.004399621    2.799    0.643
        11 -13.8316    215.0595     10.1616   1.7793960045e+01   2.9601454957e+01    0.8986371    0.5150427 -38.64  0.003244899    1.708    0.415
        12 -11.8748     46.4316     20.6066   6.0848070056e+01   6.5937025731e+01    0.3551556    0.2495026 -13.37  0.002246067    1.306    0.234
        13 -13.8379    222.9956      9.2917   1.6741549970e+01   2.7673345343e+01     1.077632    0.5146833 -14.26  0.004342526    2.943    0.660
        14 -13.2919     86.2891     14.7042   4.3819049251e+01   6.0516309203e+01    0.6880423    0.4608323 -51.96  0.003515068    2.251    0.556
        15 -15.2869     98.8374     11.1512   3.8599134813e+01   5.8443994668e+01     1.530008     0.886202  52.95  0.006885692    1.710    0.415
        16 -12.3854     70.1755     15.9890   4.9741371200e+01   6.3195474596e+01    0.3502899     0.331401 -14.56  0.001943229    1.309    0.236
        17 -12.0210     59.1153     16.0724   5.3842592947e+01   6.4900684699e+01    0.3268374    0.2852776  12.18  0.002248037    1.197    0.165
        18 -11.8768     46.6505     12.8009   5.7313306377e+01   6.7075093119e+01    0.2470618    0.2170857  -8.49  0.001526355    1.216    0.177
        19 -13.8291     42.0288      4.2522   5.5201904905e+01   6.8835946133e+01    0.6101543    0.4582357   0.42   0.00349916    1.132    0.116
        20 -12.3939    153.1019      8.5676   2.5711554432e+01   4.5946512382e+01    0.3022455    0.2646295  51.33 0.0008061838    1.036    0.035
        21 -10.7455     59.4673      7.4860   4.9737054578e+01   6.5984736337e+01    0.2077926    0.0975626  30.78  0.001019138    2.239    0.553
        22 -12.3439    119.4758      3.1342   3.0192815701e+01   5.4699310025e+01    0.5238045    0.3154626  84.20  0.002322003    2.545    0.607
        23 -10.6946     66.8161      3.8036   4.5283586010e+01   6.5249110983e+01    0.1499287    0.1405847  -5.95 0.0005667916    1.331    0.249
        24 -11.3274     74.8964      8.4377   4.4688654793e+01   6.3337003062e+01    0.4104256    0.1607577 -22.23   0.00125421    2.710    0.631
        25 -13.0695    219.1302     15.8641   1.8869063779e+01   2.7935125722e+01    0.3998918    0.3778814  31.32  0.001748731    1.228    0.186
        26 -13.8059    187.6956     12.1932   2.1647325607e+01   3.6532916265e+01     1.390731    0.7342861 -44.49  0.006137914    1.994    0.499
        27 -11.3599     81.2894      1.3650   3.9353249831e+01   6.2938485867e+01    0.4574031   0.06699126  48.65  0.001437421    4.798    0.792
        28 -11.4308     61.3139      1.4561   4.6121411507e+01   6.6409283745e+01    0.2966034    0.1093253  45.30  0.001302774    2.728    0.633
        29 -14.3190     25.0544     13.6122   6.7132612226e+01   6.9328528423e+01    0.6824275    0.3697335  27.33  0.004209478    2.088    0.521
        30 -11.8618     76.8723    156.8318   8.5400838163e+01   3.3660357495e+01    0.3037314    0.2764242  50.98  0.001267337    1.258    0.205
        31 -12.1944     60.2495    246.1692   9.7335935455e+01   1.8853198843e+01    0.2213441    0.1217647  33.04  0.001308171    2.680    0.627
        32 -12.2058     51.4923    248.3611   9.8827179420e+01   1.9589954124e+01    0.3159945    0.2262039 -82.65  0.002549116    1.442    0.307
        33 -13.3423     28.3147    246.1304   1.0217628603e+02   2.2631407730e+01    0.3888269    0.2306729  72.34  0.003045854    1.188    0.158
        34 -12.7227      2.8673    248.8035   1.0591343025e+02   2.4821876878e+01    0.3876599    0.2076024  80.03  0.003076557    1.331    0.249
        35 -13.6878      9.4243    245.3038   1.0486370694e+02   2.4737861151e+01    0.6615049    0.2774516  67.61  0.003469543    1.733    0.423
        36 -13.2915     73.3569    153.2814   8.5693816062e+01   3.4929189990e+01    0.5840289    0.4664095  31.51  0.002885702    1.556    0.357
        37 -11.9945      7.2990    146.1222   9.9527296367e+01   4.3515178645e+01    0.5228902     0.228963 -62.27  0.003023217    1.981    0.495
        38 -11.5232    244.9998    148.2033   4.8337701502e+01   2.4041191171e+00    0.2124856    0.1467534  -3.18   0.00106671    1.621    0.383
        39 -12.3976     60.7864    147.0682   8.7718702104e+01   3.7959001370e+01    0.3714838     0.284585  23.16  0.002239804    1.791    0.442
        40 -11.3651    103.2026    150.1778   7.8296816777e+01   3.1016812949e+01    0.3057882    0.2048282 -38.53  0.001497201    1.951    0.487
        41 -12.0211     40.5940    137.1416   9.1141883578e+01   4.2472437412e+01     0.267784    0.1584719  66.73  0.001496903    1.804    0.446
        42 -11.9583    247.1873    135.7899   4.5201960018e+01   3.8217614433e+00    0.2285916    0.1548196 -70.26 0.0009609149    2.889    0.654
        43 -12.1981     45.1310    132.9198   8.9499971629e+01   4.2929570292e+01    0.4913351    0.2828862  89.05  0.002595439    1.861    0.463
        44 -11.7870    135.9801    132.7793   6.7101624906e+01   2.8651351965e+01    0.3751455     0.213271  49.64  0.001010634    1.743    0.426
        45 -11.8778    134.7938    125.6457   6.5778288331e+01   3.0412085317e+01    0.3036081    0.2804399 -20.61 0.0009741535    1.222    0.182
        46 -14.0027    108.8992    120.9173   7.1157258928e+01   3.6475931415e+01     1.269439     1.033758   9.81  0.006558002    1.656    0.396
        47 -12.7441     84.2197    115.0523   7.6370462683e+01   4.1917001578e+01      0.76028    0.4247614  29.89  0.003463111    2.259    0.557
        48 -12.3786     78.2710    110.2096   7.6970514018e+01   4.3895192902e+01    0.4105457    0.3025537  84.34  0.001608349    1.622    0.384
        49 -14.5565    106.2051    105.9234   6.8383041469e+01   4.0276243343e+01     1.854937     1.143183 -38.19  0.008405698    1.776    0.437
        50 -13.0405     28.6754    121.7631   9.2073386633e+01   4.7022773175e+01    0.4162224    0.2541108 -61.98  0.002543105    1.378    0.274
        51 -12.0141      4.1221    119.5737   9.7843032727e+01   4.9380131718e+01    0.3782011    0.1446283  24.19  0.002004175    3.405    0.706
        52 -12.5240     49.8652     98.7308   8.2648978677e+01   5.0089573541e+01    0.6350039    0.4072326  16.87  0.003457808    2.159    0.537
        53 -12.5432     49.1151     93.3961   8.1804246232e+01   5.1358437184e+01    0.4341146     0.366147  57.24  0.002558029    1.363    0.266
        54 -12.9603     42.5025     90.6766   8.3230295392e+01   5.2644615145e+01    0.4063329    0.2974397 -69.88 0.0006363931    1.223    0.182
        55 -11.7007     35.3992     86.5319   8.4561682196e+01   5.4227753896e+01     0.257396      0.20896 -34.32 0.0006970086    1.338    0.252
        56 -14.9395     24.4917     92.9231   8.8973663045e+01   5.3741502849e+01     1.124481     1.089652  21.33  0.008658287    1.315    0.239
        57 -15.0749     15.3417    107.1784   9.3605827523e+01   5.1299859080e+01     1.281453    0.9000839  79.16  0.008424252    1.430    0.301
        58 -11.0462    121.8448    112.3320   6.5844878823e+01   3.5899649890e+01    0.2467228    0.1982121 -60.42 0.0005738587    1.259    0.206
        59 -12.2608     62.8554    109.2022   8.1011865114e+01   4.6212054273e+01    0.5450665    0.3367372 -72.07  0.002825763    1.609    0.378
        60 -11.6527     42.1713    106.9193   8.6313533507e+01   4.9061530003e+01    0.2416242    0.1821933  19.16  0.001111647    1.737    0.424
        61 -13.5504      2.3249     97.1471   9.5815895181e+01   5.4305752709e+01    0.7285948    0.2224694 -73.13   0.00338454    2.531    0.605
        62 -12.1157    136.3527    103.1025   5.9821583296e+01   3.4847023079e+01    0.6506705    0.2444415  47.17  0.002211215    2.682    0.627
        63 -13.3974     95.6806    110.2935   7.2249815297e+01   4.1149760025e+01    0.9112907    0.7750625  69.75  0.005114744    1.260    0.207
        64 -12.0808     60.8230     97.4748   7.9209226477e+01   4.9098974837e+01    0.3878245    0.2727522  83.12  0.002069164    1.826    0.452
        65 -13.1213    136.0866     94.9231   5.7672671633e+01   3.6591078085e+01    0.5194776    0.4026177  49.95  0.002530698    1.307    0.235
        66 -11.0584     81.3743     93.4997   7.2289681471e+01   4.7160282055e+01    0.2706423    0.1896117 -11.46  0.001283478    2.185    0.542
        67 -12.6501    188.4118     84.2612   4.2856734778e+01   2.6036114115e+01    0.6584474    0.2542437  43.18  0.002100127    2.949    0.661
        68 -13.9137    163.8339     71.5724   4.4254008854e+01   3.4466443696e+01     1.598472    0.9890231  55.17  0.006826773    1.608    0.378
        69 -14.4243    169.5582     76.9966   4.4638448529e+01   3.2074632170e+01     1.472821    0.5563964  51.42  0.004944912    2.550    0.608
        70 -11.8733    158.0093     83.5034   4.9113774900e+01   3.3743158011e+01    0.3725251    0.2689461  56.92 0.0007678155    1.420    0.296
        71 -13.0450    162.0151     79.6321   4.7068222342e+01   3.3478669118e+01    0.7605329    0.4337147  36.19  0.002517946    2.072    0.517
        72 -12.8435    135.5851     79.9855   5.3487180657e+01   3.9676154354e+01    0.6775296    0.4495872  43.38  0.002472428    1.529    0.346
        73 -12.6551     31.3910     62.6994   8.0622809778e+01   5.9665978400e+01    0.8074809    0.5005727  84.78  0.003970603    2.959    0.662
        74 -11.9442     24.9850     58.9843   8.1969789569e+01   6.0947633192e+01    0.5022382    0.2161054 -53.41  0.002243326    1.738    0.425
        75 -13.1150     65.6069     51.1276   6.5137702104e+01   5.8174819704e+01     1.180853    0.6288363 -33.43  0.005712369    1.856    0.461
        76 -13.4435     87.2214     65.3107   6.2621129989e+01   5.2135901431e+01    0.9789161    0.6279336   4.74   0.00425433    2.538    0.606
        77 -13.1592     91.8211     57.8984   5.8769895751e+01   5.2763603881e+01    0.5178112    0.4795407 -10.28  0.002823994    1.037    0.035
        78 -13.5249     54.4600     67.5035   7.3962362926e+01   5.6346148420e+01     1.369681    0.7490931  25.78  0.006989514    2.225    0.551
        79 -12.9139     54.8215     81.8002   7.7498124214e+01   5.3267685538e+01    0.5599307    0.3590088 -63.68  0.003063618    1.471    0.320
        80 -14.1062     61.1764     75.6310   7.3933938953e+01   5.3825808857e+01     0.684902    0.4548863 -36.35  0.001272318    1.496    0.331
        81 -13.1625     71.3260     74.9133   7.0497116334e+01   5.2626939480e+01    0.6129895    0.4214754  -8.80  0.002560783    2.072    0.517
        82 -12.2425     77.1670     73.1123   6.8140213664e+01   5.2154200882e+01    0.4032996    0.2555907 -33.59  0.001241141    1.637    0.389
        83 -11.8285     42.5064     79.4959   8.0864420416e+01   5.5088208496e+01     0.355306    0.2382971 -61.70   0.00210418    1.278    0.217
        84 -11.2208     41.6121     76.2153   8.0406749241e+01   5.5882761612e+01    0.2538029    0.1521211 -59.95 0.0007529337    1.410    0.291
        85 -12.8340    211.3948     77.4336   3.6751569927e+01   2.1382237458e+01    0.6186884    0.4106774 -87.88   0.00254291    2.198    0.545
        86 -11.9479    113.8969     79.8761   5.9222699046e+01   4.4321819666e+01    0.3981056    0.3287375 -44.53  0.001288614    1.173    0.148
        87 -12.6100    171.2134    242.8725   7.8472627280e+01   2.5540359935e+00    0.2361298    0.1666763 -79.09  0.001418835    2.350    0.574
        88 -14.2096      5.0497     63.3327   8.9845034043e+01   6.1320759762e+01    0.5288378    0.4967049 -15.68  0.003873541    1.338    0.253
        89 -11.9090     26.6434     75.0990   8.5017468119e+01   5.7439611458e+01    0.3944312    0.2521302  83.46  0.002193007    2.175    0.540
        90 -13.6298    199.2359     69.8736   3.6770338318e+01   2.5694599339e+01    0.8245701    0.4549611  47.54  0.002775772    1.843    0.457
        91 -11.4639    117.7408     72.2546   5.5836845735e+01   4.5041133002e+01    0.2582179    0.2352257  27.23 0.0005298492    1.122    0.109
        92 -12.9792    133.1528     66.0804   4.9785448607e+01   4.2829919401e+01    0.8767225    0.6980858  -0.79  0.004268391    1.477    0.323
        93 -12.1516    214.0520     71.3124   3.4645064308e+01   2.1691195939e+01    0.2171595    0.2009378  68.02 0.0006757459    1.095    0.086
        94 -11.0417     99.7194     64.9384   5.8679471029e+01   4.9999992041e+01    0.2829274    0.2205118 -77.23  0.001405193    1.833    0.455
        95 -12.5275    200.1776     61.4461   3.4213233219e+01   2.6781853527e+01    0.3027893    0.2436021  20.56 0.0009487826    1.475    0.322
        96 -12.7795     78.9606     60.6547   6.3773326730e+01   5.4382204536e+01    0.5674732    0.4119357 -46.78  0.002995927    1.297    0.229
        97 -13.0148     82.2596     54.3955   6.0629684989e+01   5.5043999983e+01    0.6589706    0.4886179 -12.75  0.003500093    1.494    0.331
        98 -13.5869    177.7130     56.6843   3.6866534400e+01   3.3373438657e+01     1.003958    0.6499912 -47.34  0.003808506    1.647    0.393
        99 -11.1570    111.5130     58.9906   5.3276627161e+01   4.8801286065e+01     0.258112    0.1969494  16.31 0.0006518259    1.507    0.337
       100 -14.5870    120.4224     54.4825   4.9275498389e+01   4.7709138740e+01    0.9915138    0.7057762  42.40  0.002082404    1.403    0.287
       101 -10.9578     39.1645     60.2970   7.7273624224e+01   5.9458537756e+01     0.244055    0.1722984  81.59   0.00133706    2.310    0.567
       102 -11.5742     17.6234     55.5119   8.3778558131e+01   6.2184016917e+01    0.3235605    0.1490603 -60.61  0.001770773    1.718    0.418
       103 -13.6007    103.0403     50.2745   5.2721685590e+01   5.2034439092e+01     1.090719    0.5620045 -51.74   0.00274191    2.557    0.609
       104 -13.1093     97.8733     50.1336   5.4221964812e+01   5.3054693638e+01    0.6596822     0.358739 -47.57   0.00235906    2.016    0.504
       105 -12.0299     37.5041     52.0666   7.5570171204e+01   6.1273197718e+01    0.4313358    0.2350377 -26.06  0.002218552    2.205    0.546
       106 -11.6725    136.2619     49.4858   4.3497120487e+01   4.4922561235e+01     0.283501    0.2656814  10.83 0.0006666842    1.044    0.042
       107 -10.6268     23.5315     50.0048   8.0203707855e+01   6.2872241342e+01    0.1732349   0.09121244 -54.41  0.000467382    1.478    0.323
       108 -13.0506    157.0362     44.4943   3.7132999487e+01   4.0557304916e+01    0.9781497    0.5610269  32.93   0.00391682    2.143    0.533
       109 -12.9188      3.9717     43.1782   8.5947912640e+01   6.5446379391e+01     0.456657    0.3132129 -23.64  0.003272258    1.535    0.349
       110 -12.1817     11.7741     43.5344   8.2996900300e+01   6.4945808650e+01    0.3845017    0.1953294 -24.79  0.001886587    2.288    0.563
       111 -13.4111     97.5399    239.1426   9.0721198679e+01   1.4878155785e+01    0.5865946    0.2652278  49.26  0.003345288    1.692    0.409
       112 -13.6185    219.5239     41.5854   2.5728937106e+01   2.4653490113e+01    0.7379935    0.4759991 -87.09  0.002436562    1.860    0.462
       113 -10.9628     25.6423     44.3266   7.7803623205e+01   6.3823920334e+01    0.1655622    0.1362539 -88.05  0.001117737    1.685    0.407
       114 -13.3274     91.2695    231.8516   9.1121217828e+01   1.6990406290e+01    0.4157443    0.2125575 -88.43  0.002211389    2.578    0.612
       115 -12.5046     24.4607    217.0359   1.0121382051e+02   2.8003598682e+01    0.4865033    0.2359574  65.55   0.00319284    1.618    0.382
       116 -11.4253     13.5518    222.2684   1.0322272248e+02   2.8190831944e+01    0.2382746    0.1128123  83.44  0.001228682    1.696    0.410
       117 -13.1084    139.3299     21.5504   3.2919730599e+01   4.8033539603e+01    0.8917464     0.296106  56.34  0.001939944    2.623    0.619
       118 -14.2630    122.2365     36.8570   4.2523952898e+01   5.0091046447e+01     1.259118    0.5407583  42.07  0.004853931    2.371    0.578
       119 -12.3065     75.9573     37.0361   5.6454110667e+01   5.9114119785e+01    0.3635017    0.2436223  36.98  0.001099185    1.573    0.364
       120 -11.6540     70.4855     36.0032   5.7958470315e+01   6.0146042659e+01    0.3129404    0.2180924 -34.88 0.0009074874    1.295    0.228
       121 -12.5380    242.2135     35.9621   2.1484343252e+01   1.9743955137e+01     0.591006    0.3022802  74.65  0.002122492    2.112    0.526
       122 -13.8188     26.1922    226.7281   1.0148400388e+02   2.6111387574e+01    0.5720848    0.3333012 -61.12  0.003982337    2.233    0.552
       123 -13.7722     20.2890    223.9467   1.0225897328e+02   2.7216162583e+01    0.4614261    0.3543898  83.28  0.002696574    1.236    0.191
       124 -13.2100     65.2696    223.3790   9.4847389391e+01   2.2050290446e+01     0.678342    0.4897571  61.36  0.004943555    1.106    0.095
       125 -13.6892     64.3361    214.4919   9.4276139784e+01   2.3768282533e+01    0.5236193    0.2755858  64.66  0.003118723    1.660    0.398
       126 -11.0170     34.9825     34.7312   7.1009596524e+01   6.4803985030e+01    0.1671925    0.1473301 -40.97 0.0004817433    1.215    0.177
       127 -12.1623     45.8369     33.3122   6.6155754571e+01   6.3908520095e+01    0.4892987    0.3494503 -30.06   0.00286659    1.166    0.142
       128 -12.4624     41.3643     30.6135   6.6929045083e+01   6.4876978450e+01    0.6353651    0.3110779 -21.41  0.002886828    2.832    0.647
       129 -11.9392    223.3835     20.9052   1.9728203827e+01   2.6273860983e+01    0.4848044    0.3496289  83.15  0.001841151    1.353    0.261
       130 -12.7860     59.2926    212.9594   9.5036797050e+01   2.4700944905e+01    0.2857004    0.2450805 -50.50  0.001343911    1.812    0.448
       131 -11.7493     94.2754    218.0119   8.9250482925e+01   1.8927684162e+01    0.1688344    0.1328567  70.60  0.001165459    1.050    0.048
       132 -13.0383     55.5342     27.0093   5.9902108307e+01   6.3758224996e+01    0.5391656    0.3459976  37.58  0.002646815    1.768    0.434
       133 -12.1262     63.2761     24.9757   5.6133654747e+01   6.2986096978e+01     0.450377     0.287928   6.04  0.001998553    1.850    0.459
       134 -11.2406     88.6755     26.3753   4.8004908424e+01   5.8532878179e+01    0.2697527    0.1539825 -27.79  0.001332983    1.681    0.405
       135 -11.6513     31.0544     25.4669   6.9259246780e+01   6.6812240958e+01    0.3162644    0.1856088   4.20  0.001560022    2.090    0.522
       136 -11.3371     36.2701     23.1639   6.6139326649e+01   6.6680616724e+01    0.3049904    0.1484956 -40.84  0.001677058    1.679    0.404
       137 -11.7559      4.2273    213.4042   1.0425059097e+02   3.0646685449e+01    0.1756186    0.1113351  69.04  0.001391645    1.123    0.110
       138 -10.9091     51.2826     20.4415   5.8820065701e+01   6.5347335192e+01    0.2150445    0.1516949  34.95 0.0008162573    1.605    0.377
       139 -11.7386     72.2890    206.8581   9.2159421742e+01   2.4117565234e+01    0.2803417     0.202632  77.48    0.0018998    1.149    0.129
       140 -11.7456     41.1544    206.2686   9.7698668541e+01   2.8144250415e+01    0.2202113    0.1046656  75.76  0.001238912    2.026    0.507
       141 -12.1868     57.5247    203.1483   9.4524835174e+01   2.6761088234e+01    0.4204648    0.1905879 -89.02  0.002107525    2.532    0.605
       142 -12.8535     16.4011    196.8146   1.0136208593e+02   3.2547840779e+01    0.4949718    0.1612946 -62.29  0.002552843    3.127    0.680
       143 -12.3370     21.8185    166.1802   9.8195148973e+01   3.8100519229e+01    0.3003661    0.2513877   9.98  0.002206159    1.949    0.487
       144 -13.5051     30.2229    169.1681   9.6772608857e+01   3.6664784761e+01    0.7196415    0.4455512 -43.73  0.003520504    2.544    0.607
       145 -12.2589    109.8695     41.9756   4.7743365864e+01   5.2014179590e+01    0.5237898    0.1934725  46.94  0.001590234    2.655    0.623
       146 -13.7112     22.1392    181.2096   9.9293854539e+01   3.5023483128e+01    0.6955993    0.3357896 -63.29  0.004188882    2.025    0.506
       147 -15.1657      8.0249    183.6083   1.0202656557e+02   3.5859073773e+01     1.176713    0.7818728 -86.70  0.008873896    1.168    0.144
       148 -15.0297     15.7882    174.6679   1.0001261419e+02   3.6930770299e+01     1.755865     0.804782  68.88   0.01010552    2.026    0.506
       149 -12.0249    248.3257    196.1921   5.7523105164e+01  -4.7473878069e+00    0.4187761    0.2080914 -39.17  0.002086724    2.395    0.582
       150 -10.9543    200.8175    191.8388   6.5223941165e+01   4.4989803429e+00    0.1759299    0.1563101  63.05 0.0007841169    1.327    0.247
       151 -11.6646     49.1098    181.8414   9.4186731282e+01   3.1988527503e+01    0.2579474    0.1433605 -69.76  0.001535543    1.631    0.387
       152 -10.1965    100.9878    176.0063   8.2852250522e+01   2.5916001668e+01    0.1504033    0.1290047  74.32 0.0009303063    1.003    0.003
       153 -13.3307    213.0275     42.9810   2.7007257199e+01   2.6134133543e+01    0.8215382    0.3175623  63.96  0.002984962    2.531    0.605
       154 -12.3731    124.1680    166.3741   7.6344465413e+01   2.3893847441e+01    0.5361872      0.35258 -79.33  0.002583774    1.918    0.479
       155 -11.8195     24.8109    159.3315   9.7003431721e+01   3.9243796317e+01    0.2641776    0.2122682  10.31  0.001850118    2.010    0.503
       156 -13.0311     40.2642    194.8434   9.6986753699e+01   3.0427779402e+01    0.3991165    0.1986215  78.60  0.002267409    1.933    0.483
