#   1 NUMBER                 Running object number                                     
#   2 MAG_AUTO               Kron-like elliptical aperture magnitude                    [mag]
#   3 X_IMAGE                Object position along x                                    [pixel]
#   4 Y_IMAGE                Object position along y                                    [pixel]
#   5 X_WORLD                Barycenter position along world x axis                     [deg]
#   6 Y_WORLD                Barycenter position along world y axis                     [deg]
#   7 A_WORLD                Profile RMS along major axis (world units)                 [deg]
#   8 B_WORLD                Profile RMS along minor axis (world units)                 [deg]
#   9 THETA_WORLD            Position angle (CCW/world-x)                               [deg]
#  10 FWHM_WORLD             FWHM assuming a gaussian core                              [deg]
#  11 ELONGATION             A_IMAGE/B_IMAGE                                           
#  12 ELLIPTICITY            1 - B_IMAGE/A_IMAGE                                       
         1 -14.4474      4.7699    134.4508   1.1621631150e+02   4.6314367964e+01     6.646626     1.786236 -84.80    0.0179762    6.167    0.838
         2 -13.2259      4.0615     33.9682   9.7470324130e+01   6.9109386058e+01     1.739181    0.5594313 -56.04  0.007948869    2.716    0.632
         3 -13.5646     14.3301     69.6633   1.0251848925e+02   6.1211829072e+01     1.596902     0.928013 -33.15  0.008436556    1.570    0.363
         4 -10.8957     74.6487     22.6612   6.0365799712e+01   6.1680743477e+01    0.4702175    0.3230695  40.87   0.00270902    1.289    0.224
         5 -12.8462     75.1626     33.2494   6.4531020494e+01   6.0224180256e+01     1.095926     0.845816  58.74  0.006226897    1.629    0.386
         6 -12.3306     59.7105     31.8323   6.9757400973e+01   6.3148927558e+01     1.000485    0.6700024  -7.55   0.00550581    1.598    0.374
         7 -12.6136     54.5282     25.4659   6.9156161714e+01   6.4884307806e+01    0.8837751    0.5632554  14.88  0.004506662    1.608    0.378
         8 -12.8883    231.8277     29.8048   3.4450619133e+01   2.5301859874e+01    0.7014177    0.5841479  62.23  0.004754387    1.427    0.299
         9 -11.6024     22.6359     16.7708   8.0393140484e+01   7.0438007856e+01    0.4826128    0.3321375 -11.20  0.003172715    1.219    0.180
        10 -12.4082     36.8469     23.9648   7.6420106558e+01   6.7678780049e+01    0.7314906    0.3828633  32.31  0.003747722    1.838    0.456
        11 -11.6384     29.1210     19.6592   7.8313664735e+01   6.9274579795e+01     0.369583    0.2289205 -28.34  0.001660398    1.448    0.309
        12 -11.5052     31.8207     15.0798   7.4791618437e+01   6.9581177479e+01    0.3306113    0.2475837   3.24  0.001361234    1.078    0.073
        13 -12.5896    192.2299     19.1807   3.5948068883e+01   3.5217662303e+01    0.8025196    0.5643034  72.05  0.004788622    1.290    0.225
        14 -11.0499     10.1569     20.0757   8.8840674179e+01   7.1113894531e+01    0.3061002    0.1895024 -38.89  0.001784873    1.391    0.281
        15 -11.3955     43.2705     14.3949   6.8984683965e+01   6.8071094948e+01    0.5047374    0.3284976  -9.27  0.003033482    1.498    0.332
        16 -11.6067     93.4236     12.8345   5.0737947856e+01   5.8890889142e+01    0.5178198    0.3502896 -19.96  0.002978822    1.646    0.392
        17 -12.0430    126.0867     11.9143   4.3228804409e+01   5.1583069243e+01     0.475117    0.2518783  67.58  0.002340445    1.719    0.418
        18 -11.5261    135.9222      4.6716   3.9252574201e+01   4.9903396277e+01    0.4601677    0.3054071 -65.46  0.002540302    1.784    0.440
        19 -12.5367    110.1177      4.8428   4.3880936274e+01   5.5889569203e+01    0.6137971    0.3711767  52.95  0.003415858    1.365    0.267
        20 -10.0265    163.9858      7.0000   3.6081283390e+01   4.3051607158e+01    0.2144624   0.06265202  69.93  0.000626116    2.948    0.661
        21 -12.5090    108.0348    214.8116   9.9303098563e+01   1.4599012498e+01    0.8024555     0.552542  79.66   0.00396577    1.919    0.479
        22  -9.7806     64.0912    248.9587   1.1262855890e+02   1.3788667787e+01    0.2205751    0.2080108  41.24  0.001595259    1.273    0.215
        23  -9.2744     52.8264    249.8239   1.1494261890e+02   1.5018572892e+01    0.1725666    0.1110042  58.53  0.001016914    1.303    0.233
        24  -9.6941     15.5273    249.2436   1.2200532093e+02   1.9276872517e+01    0.1729196    0.1160838  73.39 0.0004959835    1.190    0.160
        25 -11.3481    142.8935    230.2623   9.3643062703e+01   6.0359407648e+00    0.2733361    0.1582301  30.01  0.001350863    1.595    0.373
        26 -11.3241     76.0544    201.8397   1.0518289736e+02   2.2235301873e+01    0.6038182    0.4190805 -19.14  0.002867191    2.338    0.572
        27  -9.9455    137.2621    200.1529   9.0178864528e+01   1.2972287458e+01     0.292345    0.2279893 -79.78  0.001482938    1.672    0.402
        28 -11.3872     51.6689    174.2977   1.0788123997e+02   3.2055322108e+01    0.2649128    0.2383628 -48.48 0.0004436488    1.239    0.193
        29 -10.4738     64.4168    164.1109   1.0304124417e+02   3.3010312204e+01     0.234876    0.2282161  31.38 0.0004171289    1.143    0.125
        30  -9.8422    134.4178    161.8931   8.3707356996e+01   2.2051008516e+01      0.30786    0.2385148 -82.61   0.00141634    1.687    0.407
        31 -12.7431     49.6645    160.6338   1.0662971892e+02   3.5724431255e+01     0.551321    0.3182262 -38.11  0.001808316    2.206    0.547
        32 -11.5821     73.3763    157.2750   9.9443452736e+01   3.3513966982e+01    0.5297197    0.4517099 -23.90   0.00191335    1.377    0.274
        33 -12.5030     67.8568    143.3160   9.8621357190e+01   3.7845104514e+01    0.7515543    0.4910084  67.23   0.00264466    1.964    0.491
        34 -12.1978     70.5871    135.4041   9.6304666424e+01   3.9481717991e+01    0.6393806    0.4227722  26.34  0.003001527    1.673    0.402
        35 -13.5788     22.9748    138.3666   1.1133257822e+02   4.4032976537e+01     1.054106    0.9549427  84.12  0.004026748    1.114    0.102
        36  -9.6635     89.5182    144.0378   9.2333951109e+01   3.4410360372e+01    0.2337317    0.2099969  35.88 0.0009085498    1.153    0.133
        37 -11.6251     77.2019    142.0564   9.5587835902e+01   3.6828829473e+01    0.3115447    0.2740261 -53.40 0.0004499899    1.092    0.084
        38 -10.2001    105.2034    131.4715   8.5017171613e+01   3.4821644641e+01    0.3583157    0.2970532   7.99  0.001163702    1.403    0.287
        39 -10.0455     90.6118    128.1303   8.8608568942e+01   3.8205964985e+01    0.2597685    0.2212805  19.27 0.0004554751    1.275    0.216
        40 -11.8192     73.4070    126.2122   9.3546086838e+01   4.1398921628e+01     0.474655    0.3506147  24.82  0.002336608    1.485    0.327
        41  -9.0694    102.9955    119.9981   8.2929624763e+01   3.7998479139e+01    0.1785012    0.1758318 -12.60 0.0009520591    1.023    0.022
        42 -13.1003     67.1077    115.8036   9.3314950644e+01   4.4899998977e+01    0.8612158    0.8097402 -38.79  0.004905821    1.032    0.031
        43 -11.9129     67.2639    104.7755   9.0676445084e+01   4.7566789540e+01    0.4264654    0.3267837 -24.84  0.002021505    1.404    0.288
        44 -12.2438     55.2187    113.5251   9.6809607329e+01   4.7033138750e+01    0.7975507    0.3658375 -57.55  0.003297246    1.947    0.486
        45 -12.0598     10.2038    102.4127   1.1039802441e+02   5.3854102908e+01    0.5437901    0.3410147   2.76  0.002305022    1.948    0.487
        46 -11.3904      3.0299    100.8601   1.1266853206e+02   5.4617060721e+01    0.4930858    0.2860717 -73.65  0.002697685    1.485    0.327
        47 -11.3161     60.0942    101.3280   9.2336158609e+01   4.9382144747e+01    0.3900859    0.2918108 -28.30  0.002003472    1.391    0.281
        48 -11.6535     54.0793    100.0756   9.4177413818e+01   5.0454174755e+01    0.4562627    0.2483022 -57.62   0.00205264    1.711    0.415
        49 -10.6032     20.4604     96.9306   1.0578702089e+02   5.4502349706e+01    0.4926006    0.3082109  87.00   0.00243435    2.100    0.524
        50 -12.3051      3.9001     85.5064   1.0994722003e+02   5.8201363659e+01    0.9232047    0.5247516 -76.04   0.00495042    1.704    0.413
        51 -12.0414      9.3500     93.9649   1.0934179273e+02   5.5927995153e+01    0.5535887     0.495638  -4.86  0.003206732    1.284    0.221
        52 -11.9648     12.8159     86.7624   1.0675135609e+02   5.7421092149e+01    0.7965255    0.4297301   7.80  0.004113512    2.205    0.546
        53 -11.0561     16.5289     82.2843   1.0440710634e+02   5.8222615228e+01    0.4432235    0.2804335  -9.78  0.001866914    1.797    0.444
        54 -11.1692     29.6102     84.0328   9.9607402598e+01   5.6812459374e+01    0.4700881    0.3962449  17.26  0.002145118    1.321    0.243
        55 -11.9023     62.3061     78.0672   8.5235910745e+01   5.4367939082e+01    0.7799637    0.4394162 -37.86  0.003581927    1.723    0.420
        56 -10.8069     33.8770     75.3699   9.5738914329e+01   5.8378580252e+01    0.4438489    0.3098274 -21.24  0.001872647    1.445    0.308
        57 -10.7447    132.7745    247.2101   9.8143040834e+01   4.4980579559e+00     0.177472    0.1409254  11.30   0.00107606    1.353    0.261
        58 -10.6680     82.4557    246.3849   1.0863686561e+02   1.1873644356e+01     0.314662    0.1833888  58.21  0.001706478    1.680    0.405
        59 -12.6539     13.1984     56.2532   9.9621828173e+01   6.4155358467e+01    0.7601204    0.6356698  57.73  0.004036624    1.708    0.415
        60 -12.1178    109.9999     45.0127   5.8200544956e+01   5.1405208120e+01    0.6502616    0.3949824 -37.84  0.003141992    1.759    0.431
        61 -11.8225    109.8577     37.7193   5.5690034790e+01   5.2445190832e+01    0.4362116    0.4025902  46.78   0.00231987    1.058    0.055
        62 -10.5131     38.2377     39.0714   8.2058011839e+01   6.5099798086e+01    0.3335002    0.2455918  11.54  0.001672409    1.268    0.211
        63 -11.8904    152.0750    243.4393   9.3571025938e+01   2.2721476407e+00    0.3515482    0.2437246  14.61  0.001971075    1.511    0.338
        64 -11.7250     70.3480    240.9427   1.1064573245e+02   1.4559027935e+01    0.7339327    0.4462693  54.58  0.003335635    1.456    0.313
        65 -14.2145     86.0344    218.5286   1.0486310116e+02   1.7081726798e+01     2.371424     1.441089  41.48   0.01229126    1.470    0.320
        66 -10.8138    140.2706    249.0042   9.6802877978e+01   3.0748626955e+00    0.1778164    0.1606441  27.14  0.001184739    1.078    0.073
        67 -12.1629     23.5882     36.6499   8.8231891619e+01   6.7115859462e+01     0.725232    0.3583513  27.45  0.003343299    2.087    0.521
        68 -12.9117     12.3115    121.4480   1.1240931230e+02   4.9056826642e+01    0.9305284    0.5651291 -64.69  0.003489544    1.337    0.252
        69 -13.0472     64.9323    217.0857   1.0950573910e+02   2.0287021833e+01     1.048669     0.757699  81.76   0.00524719    1.380    0.275
        70 -13.8883     49.0962    215.4634   1.1289779023e+02   2.2625495660e+01      1.89733     1.203848 -77.14   0.01030072    1.526    0.345
        71 -14.1920     42.3264    192.2191   1.1224754076e+02   2.8769966323e+01      1.77078     1.110038  87.33  0.009326642    1.580    0.367
        72 -12.5119      9.5124    218.8681   1.2154564209e+02   2.6061113296e+01      1.34591    0.5062949  74.91  0.005954123    2.904    0.656
        73 -14.0553      4.8093    192.8628   1.2097598151e+02   3.2250634349e+01     1.504545    0.6252704  89.52  0.006457449    2.258    0.557
        74 -13.8329     30.3450    193.5528   1.1521812959e+02   2.9741101635e+01     1.612657    0.5487685 -73.45  0.006640698    2.676    0.626
        75 -12.9204     10.6327    207.7820   1.2065916970e+02   2.8379129330e+01    0.3781236    0.3117019 -59.22 0.0009325444    1.449    0.310
        76 -13.8468     18.0828    201.6586   1.1864638526e+02   2.9068816935e+01    0.8475336    0.7033005 -65.33  0.003373409    1.328    0.247
        77 -11.1205    101.0604     16.5658   5.0226738673e+01   5.6860673735e+01    0.4046427    0.1448445  39.64   0.00153008    3.042    0.671
        78  -9.3934     31.9514    229.1313   1.1764058590e+02   2.1619639535e+01    0.2180147    0.1250529  78.45  0.001133826    1.648    0.393
        79 -10.6556     27.0267    225.7499   1.1841637892e+02   2.2861466406e+01    0.2819703    0.1827815  74.22 0.0009122215    1.338    0.253
        80 -10.5155    239.7146    221.4293   7.2706988918e+01  -6.7408312234e+00    0.2269629    0.1260515 -17.72  0.001152625    1.816    0.449
