#   1 NUMBER                 Running object number                                     
#   2 MAG_AUTO               Kron-like elliptical aperture magnitude                    [mag]
#   3 X_IMAGE                Object position along x                                    [pixel]
#   4 Y_IMAGE                Object position along y                                    [pixel]
#   5 X_WORLD                Barycenter position along world x axis                     [deg]
#   6 Y_WORLD                Barycenter position along world y axis                     [deg]
#   7 A_WORLD                Profile RMS along major axis (world units)                 [deg]
#   8 B_WORLD                Profile RMS along minor axis (world units)                 [deg]
#   9 THETA_WORLD            Position angle (CCW/world-x)                               [deg]
#  10 FWHM_WORLD             FWHM assuming a gaussian core                              [deg]
#  11 ELONGATION             A_IMAGE/B_IMAGE                                           
#  12 ELLIPTICITY            1 - B_IMAGE/A_IMAGE                                       
         1 -15.5757      7.0572     69.7920   1.3672506128e+02   6.0067888646e+01     1.382137    0.6781688 -64.50  0.004076595    1.546    0.353
         2 -15.2621    119.2521     54.7861   9.6004371510e+01   4.7531740372e+01     1.519243    0.8335051  34.30  0.001917195    2.109    0.526
         3 -15.0543    122.6259     36.8154   8.8674956355e+01   4.9524862307e+01      1.42193    0.5949689  41.63   0.00444907    2.496    0.599
         4 -15.0139     42.4255      8.3172   1.0188425004e+02   6.8127673439e+01     1.606693     0.874438 -23.01  0.007396953    1.632    0.387
         5 -13.2789      8.0668      3.3880   1.1555799390e+02   7.2546221298e+01    0.4920912    0.4337649  25.00  0.003937868    1.645    0.392
         6 -14.2168     25.3289     31.9557   1.1948924155e+02   6.6302558255e+01     0.938781     0.741465 -88.02  0.005831689    2.257    0.557
         7 -14.9806     22.5483     13.5018   1.1318682039e+02   6.9688150003e+01    0.9536457    0.5725901  31.86    0.0060457    1.994    0.499
         8 -14.6903     13.7580     20.4950   1.2025812698e+02   6.9308001767e+01    0.7382799    0.4734572 -15.04  0.003152072    1.556    0.357
         9 -14.6332    166.1268     30.3254   7.7497020187e+01   3.9692009619e+01     1.281395    0.7063005  64.43  0.003872534    1.791    0.442
        10 -12.6700    139.4722     21.8229   7.9445187766e+01   4.7393593881e+01    0.6514462     0.528281  73.72  0.001968392    1.345    0.257
        11 -12.2892    186.7550     13.4852   6.9178778974e+01   3.6225798271e+01    0.5540148    0.3034659  30.80  0.001903568    2.424    0.587
        12 -13.7583    189.0500     26.1691   7.2674032206e+01   3.4271602215e+01     1.356129     0.594847 -56.29  0.004147302    3.350    0.702
        13 -15.6774     99.7420     12.8336   8.4896237718e+01   5.7525615772e+01     1.419956    0.7559931  51.02  0.003195663    1.776    0.437
        14 -13.2823    218.7146     14.9937   6.5986884242e+01   2.7991198616e+01    0.3907489    0.3623391  -0.96  0.001652942    1.231    0.188
        15 -12.9187    223.5934      4.6048   6.2824590135e+01   2.7849701696e+01    0.4894396    0.3084684 -14.66  0.002516206    1.867    0.464
        16 -12.7708    213.3108      9.9792   6.5195952064e+01   2.9844085592e+01    0.4887398    0.2662632  66.78  0.002344088    1.728    0.421
        17 -10.9789    162.2202      8.8282   7.1050843353e+01   4.2984104037e+01    0.2537315    0.1286847 -61.06 0.0009644128    2.922    0.658
        18 -11.2137    126.3839      8.8172   7.7179402491e+01   5.1896959068e+01    0.1939541    0.1252334   0.04 0.0009513649    1.716    0.417
        19 -10.6916    153.8317      8.1253   7.2083078654e+01   4.5184893907e+01    0.1937266    0.1475262  39.14 0.0003001364    1.279    0.218
        20 -11.6085    245.1979     16.2419   6.3830489320e+01   2.1540843385e+01    0.4253675    0.2108501 -17.64  0.001895274    2.450    0.592
        21 -15.1700      8.1489     29.4940   1.2607319304e+02   6.8098901740e+01    0.8123956     0.777399  20.75  0.006610887    1.433    0.302
        22 -11.2666     59.3817      1.8408   9.2041132722e+01   6.6351918616e+01    0.2644306    0.1658463 -18.29  0.001559631    1.424    0.298
        23 -10.5805     62.4799      1.5030   9.0784942355e+01   6.5867006747e+01    0.2024635    0.1120787  45.17 0.0007326099    1.812    0.448
        24 -11.4866    232.5227      1.5781   6.1319289993e+01   2.6003482703e+01    0.2451583    0.1430246  73.06 0.0007822011    1.640    0.390
        25 -12.0555     81.1030      1.8013   8.5048510677e+01   6.2430850354e+01    0.5169777     0.137585  50.04  0.001991112    3.162    0.684
        26 -10.7136     33.0036      1.4249   1.0240263863e+02   7.0248390569e+01    0.1534303    0.1022387  27.02 0.0003524701    1.534    0.348
        27 -11.9944    249.3426    198.5778   1.0523615542e+02  -3.8962763655e+00    0.3460084    0.2005757 -42.61  0.001849289    2.371    0.578
        28 -13.0346     58.0771    245.9167   1.4478188938e+02   1.9357960260e+01    0.3651505    0.3235754  44.41  0.003091874    1.567    0.362
        29 -11.4039     41.3990    249.8047   1.4759037844e+02   2.0700288610e+01    0.1220567   0.07981985 -72.81 0.0009501529    1.681    0.405
        30 -13.9169     27.7308    246.1960   1.4944295273e+02   2.2772004899e+01     0.497062    0.3082347  69.11  0.003987561    1.144    0.126
        31 -14.2445      9.0294    245.7146   1.5215524453e+02   2.4747348080e+01    0.6896761    0.3096296  62.01  0.003017367    1.589    0.371
        32 -11.6894    248.7609    225.6246   1.1007371482e+02  -6.8038501210e+00     0.204613    0.1304397  39.55    0.0013113    1.475    0.322
        33 -13.4334     29.9920    169.9129   1.4385784581e+02   3.6542647596e+01    0.6831114    0.4361318 -37.93   0.00375305    2.681    0.627
        34 -14.9382     13.9297    157.8890   1.4609612202e+02   4.0531456809e+01     2.011654    0.9262645 -45.26  0.009924012    3.482    0.713
        35 -15.1519      8.5407    183.3786   1.4901522292e+02   3.5853083983e+01    0.9773652    0.7619868  75.58  0.007864258    1.124    0.110
        36 -14.4741     15.6689    175.5426   1.4714211241e+02   3.6767013668e+01    0.9067563    0.3780001  59.54  0.005007187    2.275    0.560
        37 -12.6479    201.4962    191.5654   1.1225601340e+02   5.3105602739e+00    0.3842043     0.283151  21.78  0.002215576    1.320    0.242
        38 -10.4751    107.6955    192.6711   1.3070144691e+02   2.1751452759e+01    0.1143445    0.1005761  -8.53 0.0005480972    1.652    0.395
        39 -10.5343     81.5199    193.4674   1.3598951798e+02   2.5529030118e+01     0.121619   0.09993181  72.49 0.0001140553    1.015    0.015
        40 -11.0921    100.6637    185.6999   1.3117803754e+02   2.4195851901e+01    0.1153693    0.1015818  -5.14 0.0002992559    1.659    0.397
        41 -11.6640    122.7873    182.1313   1.2610869135e+02   2.1262106533e+01    0.3491231    0.2210947  86.11  0.001629057    2.398    0.583
        42 -11.5058    109.1812    183.6104   1.2913764933e+02   2.3247264619e+01    0.1786787     0.116472  34.47 0.0009486646    1.692    0.409
        43 -12.6139     48.8614    181.3427   1.4115308135e+02   3.2155170271e+01     0.409216    0.2452955 -57.79  0.002477378    1.798    0.444
        44 -12.5886    164.6403    196.2647   1.2002122162e+02   1.1317228104e+01     0.432339    0.2817422 -86.94   0.00185961    3.327    0.699
        45 -12.9376     86.1322    180.2132   1.3343825752e+02   2.7481640246e+01    0.4185085    0.2096266  58.71    0.0020149    2.136    0.532
        46 -11.3227    194.6683    177.6592   1.1091946054e+02   8.7025504527e+00    0.1427429   0.09950335  11.16 0.0007051448    1.748    0.428
        47 -13.7030    124.1313    167.1189   1.2336631846e+02   2.3958190045e+01    0.6637642    0.4139876 -68.63   0.00320779    1.945    0.486
        48 -11.5146    177.1635    168.3864   1.1251529414e+02   1.3644118656e+01    0.3063607    0.1618244 -26.01  0.001230852    2.723    0.633
        49 -10.8893    192.5070    164.5215   1.0871565786e+02   1.1251743324e+01    0.1405662    0.1269628  20.73 0.0002314252    1.023    0.023
        50 -12.9943     25.4293    156.7477   1.4357758942e+02   3.9737279325e+01    0.4588422        0.317  52.92  0.003124005    1.444    0.308
        51 -12.7239     77.5154    157.1766   1.3211779593e+02   3.3525491254e+01    0.3785233     0.294766  41.98  0.001271609    1.375    0.273
        52 -13.5099     73.9949    153.6714   1.3240240120e+02   3.4774623699e+01    0.6510325    0.4600242  36.58  0.003259977    1.583    0.368
        53 -12.6269    121.7910    155.9079   1.2187981506e+02   2.6647304185e+01    0.3224696    0.2484133 -24.19  0.001673736    1.759    0.432
        54 -13.0397    111.3236    155.4821   1.2416294646e+02   2.8578324111e+01    0.5689175     0.349489  79.71  0.002430877    2.570    0.611
        55 -11.9465     55.5806    156.1849   1.3691985948e+02   3.6617646076e+01    0.3103539    0.2198414  15.24   0.00120347    2.220    0.550
        56 -12.4044    213.3402    155.6706   1.0291080079e+02   8.5123562038e+00    0.2106883    0.1786206 -78.17   0.00113353    1.723    0.420
        57 -11.9938    188.8161    156.1499   1.0768582430e+02   1.3409165291e+01    0.2143085    0.2026971  80.55  0.001241076    1.248    0.198
        58 -12.3775    245.9698    149.4237   9.5883383123e+01   3.0938677868e+00    0.3959354    0.3004041 -45.44  0.002207303    1.591    0.372
        59 -12.2359     85.7826    153.2600   1.2963037524e+02   3.3165872888e+01    0.4702361    0.2929577 -41.25  0.002351069    2.041    0.510
        60 -12.0930    103.5639    149.6481   1.2490142285e+02   3.1127694966e+01    0.3240111    0.2893752 -27.32  0.001506725    1.375    0.273
        61 -14.0245     22.6425    181.1186   1.4623178783e+02   3.4998416998e+01    0.5303161    0.4345818 -82.18  0.003357495    1.231    0.188
        62 -11.7306     44.6841    145.2418   1.3800803337e+02   4.0255736157e+01    0.1998081     0.179535  88.74 0.0003869452    1.132    0.116
        63 -11.5571     38.3134    145.9012   1.3955924359e+02   4.0791955571e+01     0.173571    0.1313159 -74.42 0.0008125014    1.119    0.106
        64 -12.1712    148.7560    141.3697   1.1289067817e+02   2.4412372071e+01     0.408022    0.2844361 -39.19  0.001981514    1.506    0.336
        65 -11.5784     88.4928    141.0277   1.2692941996e+02   3.5419261474e+01    0.2457555    0.2002773  18.85  0.001386909    1.601    0.375
        66 -13.1640     43.5163    138.8717   1.3745155972e+02   4.1784475677e+01    0.6326144    0.3215947 -48.96  0.002946473    2.162    0.538
        67 -11.6460     39.4976    136.3226   1.3807636776e+02   4.2772836784e+01    0.2019837    0.1909189  55.79  0.001087658    1.278    0.217
        68 -12.5391    246.3390    135.8468   9.2807151987e+01   4.9667522848e+00    0.5201091    0.3553507  80.46  0.002291352    2.976    0.664
        69 -11.9928     60.9685    133.9914   1.3248333636e+02   4.0835634845e+01    0.2922932    0.1998287  52.36 0.0008239169    1.538    0.350
        70 -13.1010    133.5747    131.9718   1.1427726127e+02   2.9381238162e+01    0.5821494    0.4414706 -86.55  0.002801461    1.733    0.423
        71 -12.2332    110.7507    131.8179   1.1971666066e+02   3.3727733222e+01    0.4781381    0.3379224  15.31  0.002153925    2.124    0.529
        72 -12.2324    109.5202     88.8155   1.0945318811e+02   4.3143856775e+01    0.2717729    0.2493587 -35.65 0.0002953311    1.036    0.034
        73 -13.6863    111.0775     99.0510   1.1185323269e+02   4.0715712138e+01    0.8865461    0.4527945 -62.01  0.003196986    2.902    0.655
        74 -14.9846    104.7667    123.0963   1.1933042137e+02   3.6683785286e+01     2.087454     1.165216  40.24  0.009457045    1.891    0.471
        75 -13.5411     84.1803    115.6650   1.2306894069e+02   4.1715390359e+01     1.144558     0.550497  27.29  0.004519146    3.071    0.674
        76 -14.9750    106.9102    107.8362   1.1521385424e+02   3.9618417132e+01     1.309684     1.007955 -88.71  0.006249236    1.683    0.406
        77 -15.5325     16.2624    108.8320   1.4027724300e+02   5.0949317309e+01     1.400084     1.024244  70.67  0.006960818    1.459    0.315
        78 -14.0701      2.6362     96.8373   1.4239186326e+02   5.4494862732e+01    0.8590516    0.2874273 -70.20  0.003762822    2.217    0.549
        79 -15.6217     26.3449     94.5809   1.3522131518e+02   5.3305329073e+01     1.365686     1.268664  22.70   0.01002839    1.355    0.262
        80 -11.7052    184.9634    124.4732   1.0119992341e+02   1.9842656245e+01    0.2366385    0.1982846  73.99 0.0005519704    1.445    0.308
        81 -12.4044    180.7516    121.3934   1.0129773098e+02   2.1346672621e+01    0.4183882    0.3539011  14.75  0.001792033    1.277    0.217
        82 -12.6752      4.0665    119.8961   1.4474210831e+02   4.9391860431e+01    0.4143488    0.1940826  24.79  0.002332068    2.756    0.637
        83 -13.1458    248.6671    106.0998   8.5506075681e+01   8.8508946980e+00    0.5058118    0.2535869 -39.55  0.002238882    1.884    0.469
        84 -12.0795     46.2999    109.5235   1.3218252298e+02   4.8052180657e+01     0.403573    0.2242256 -51.33  0.001774495    1.618    0.382
        85 -12.1051    121.1608    111.8533   1.1253953229e+02   3.6061244469e+01    0.3114621    0.2056811  58.07  0.001415208    1.750    0.429
        86 -12.2772     61.8578    108.7103   1.2770664469e+02   4.6407192426e+01    0.6012537    0.2913999 -64.40  0.002739864    1.980    0.495
        87 -13.0056     62.4191     99.7269   1.2565515942e+02   4.8346639340e+01     0.644532    0.4130373  86.20  0.003017553    2.394    0.582
        88 -11.5873     85.1389    110.2104   1.2161333166e+02   4.2780907043e+01    0.2020936    0.1772333 -37.88 0.0008727355    1.190    0.160
        89 -13.1135    236.4169    108.4338   8.7941321583e+01   1.1087247758e+01    0.5503592    0.2461389 -44.28  0.002152672    2.412    0.585
        90 -12.7973    137.0466     96.3037   1.0446536273e+02   3.5966992773e+01    0.4834567    0.3478018 -51.63  0.001772327    1.453    0.312
        91 -13.1172    134.6316    103.1822   1.0693996017e+02   3.5106210822e+01    0.9820036    0.3473011  50.57  0.002708755    3.111    0.679
        92 -12.9054    123.1650    102.9407   1.0974090262e+02   3.7531321852e+01    0.4979348    0.2966961  38.56  0.002175128    1.808    0.447
        93 -12.9286     43.0074     91.2790   1.2959267980e+02   5.2477658625e+01    0.6512537    0.2438402 -65.12  0.002668529    2.638    0.621
        94 -13.0620     46.8326    100.2501   1.3028548013e+02   5.0074960253e+01    0.4730138    0.3913158  47.99  0.003039091    1.393    0.282
        95 -12.7164     52.7209     98.1298   1.2813727902e+02   4.9887558386e+01    0.4614587    0.2746294 -41.92  0.002186214    1.713    0.416
        96 -11.9280    127.8075     95.8943   1.0664743866e+02   3.8021793839e+01    0.2893299    0.2035324  75.92     0.001243    2.101    0.524
        97 -14.3962     91.8407    109.2355   1.1957389204e+02   4.1924933684e+01    0.9494688    0.8040307  31.34   0.00448974    1.322    0.244
        98 -11.2326     76.0717     95.7876   1.2077707425e+02   4.7339996384e+01    0.1898768    0.1731854 -76.68 0.0002365185    1.139    0.122
        99 -12.0366     48.6686     93.6691   1.2839266397e+02   5.1339933616e+01    0.3185825    0.2087775 -80.88  0.001015316    1.795    0.443
       100 -12.3426    178.6158     85.6944   9.2195170985e+01   2.8253643158e+01    0.6639259    0.3170447 -52.66  0.002248608    2.901    0.655
       101 -11.8397     89.5188     87.5417   1.1472400529e+02   4.7008144699e+01    0.3923369    0.2484637  53.99    0.0018517    1.938    0.484
       102 -12.2525    125.4402     86.6203   1.0460028202e+02   4.0372341851e+01    0.3820443    0.3147678 -49.49  0.001959116    1.226    0.184
       103 -12.6101    132.5465     86.3286   1.0271438522e+02   3.8904552543e+01    0.3582362    0.2280268  44.94  0.001552422    1.609    0.378
       104 -13.5889    188.3278     84.4307   8.9952915131e+01   2.6100791993e+01    0.7521582    0.3875272  48.57   0.00165723    1.946    0.486
       105 -13.6156    238.0249     80.0036   8.0613913121e+01   1.4988262066e+01    0.5046721    0.4030071 -78.44  0.002670265    1.536    0.349
       106 -14.4630    170.9230     77.1696   9.1272789674e+01   3.1592907028e+01     1.339889    0.7265247  54.22  0.005447607    1.861    0.463
       107 -14.9098     29.8304    119.0087   1.3812065915e+02   4.7562206538e+01     2.131449    0.2087073 -57.15  0.006739086    4.886    0.795
       108 -12.1095    113.9336     80.5634   1.0583130884e+02   4.3937577069e+01    0.3789979    0.3520958 -53.28  0.001349728    1.118    0.105
       109 -11.8961      2.8752    249.8970   1.5319210720e+02   2.4675103857e+01    0.2368582    0.1337975  57.73  0.001779507    1.269    0.212
       110 -11.5661    219.5194     74.9911   8.2032887675e+01   2.0027912118e+01      0.25007     0.231995 -14.30 0.0004161607    1.073    0.068
       111 -12.7755    217.1488     79.5819   8.3626946750e+01   1.9897270473e+01    0.4795063    0.3451892  35.94  0.001372622    1.540    0.351
       112 -12.7270    210.9755     77.9812   8.4188073661e+01   2.1623769376e+01    0.5133709    0.3704155 -72.71  0.002356771    1.835    0.455
       113 -13.2162    135.2777     79.6190   1.0002570932e+02   3.9579846881e+01    0.9005146    0.4176965  52.62  0.003394011    2.309    0.567
       114 -11.9831    128.3751     72.9778   9.9689031816e+01   4.2342401300e+01     0.521347    0.2844408 -21.82  0.001951929    2.502    0.600
       115 -13.0809    135.2056     66.4698   9.5906908351e+01   4.1973494665e+01     0.662176    0.4769288  35.55  0.001900228    1.460    0.315
       116 -11.8318     90.9247     80.1925   1.1222716880e+02   4.8303411895e+01    0.3896706    0.2859505  -5.38  0.001913897    1.820    0.450
       117 -12.4712     69.5354     80.2981   1.1874027024e+02   5.1629017466e+01    0.9878864    0.2172278 -44.36  0.002869118    4.535    0.780
       118 -12.9242     77.2135     73.4793   1.1439997315e+02   5.1915978070e+01    0.5022094    0.3392732  23.99  0.001969916    1.776    0.437
       119 -12.7578     81.8059     70.1912   1.1197092448e+02   5.1854330939e+01    0.4423384    0.3765327  61.96  0.002219199    1.466    0.318
       120 -13.9584     87.7772     65.4377   1.0861712369e+02   5.1788566389e+01    0.8352318    0.5547462 -31.11  0.003405269    1.479    0.324
       121 -13.5601     92.5107     58.7554   1.0493826429e+02   5.2204797969e+01     0.756502    0.4347572 -50.79  0.002981494    1.952    0.488
       122 -14.0804     38.8598     68.3913   1.2557570980e+02   5.7853325801e+01     1.703933    0.3449135  34.89  0.005982922    5.148    0.806
       123 -14.4694     61.3543     65.8493   1.1722992597e+02   5.5755299592e+01     1.537978    0.5365298  35.75  0.006162351    3.248    0.692
       124 -12.9220     56.4196     79.2739   1.2260037622e+02   5.3581545475e+01    0.4395123     0.279797 -35.44  0.001840297    1.612    0.380
       125 -14.1002     60.8167     75.3363   1.2014006432e+02   5.3862382651e+01    0.6076789    0.5469394 -44.83  0.001029174    1.049    0.047
       126 -12.4581     41.8174     77.1904   1.2679306471e+02   5.5679644660e+01    0.3099146    0.2278541 -49.51 0.0005155505    1.130    0.115
       127 -11.7548    191.8806     74.2536   8.6414291668e+01   2.6889498537e+01    0.3664711    0.2538904 -84.06  0.001168234    2.103    0.525
       128 -14.5287    160.8617     80.4026   9.4345846887e+01   3.3478755614e+01     1.420648    0.9440729  12.39  0.001417021    2.253    0.556
       129 -13.3006    200.0222     70.0248   8.3799726974e+01   2.5531754995e+01    0.7120187    0.3938197  55.21  0.002007993    1.814    0.449
       130 -11.7747    158.1703     63.9713   8.9891853356e+01   3.6924245517e+01    0.5232892    0.1754653 -42.81  0.001638036    3.181    0.686
       131 -11.5570    100.3420     64.9930   1.0471901430e+02   4.9592598666e+01    0.2671876      0.21362  29.52 0.0008837772    1.320    0.243
       132 -13.5669     79.1435     60.4170   1.0966679232e+02   5.4196417696e+01    0.5972867    0.4551175  -2.91  0.003243623    1.516    0.340
       133 -13.7742    177.7744     57.7878   8.4110781224e+01   3.2983887886e+01    0.7283303    0.6071677 -65.82  0.002163873    1.352    0.261
       134 -12.7165     63.9025     58.0534   1.1391756923e+02   5.6955409261e+01     0.330591    0.2228314  33.76  0.001554715    1.665    0.399
       135 -12.0717     38.8664     60.4467   1.2341226789e+02   5.9500871819e+01    0.2894182    0.2283279 -87.15  0.001763559    1.735    0.424
       136 -13.2657     25.7556     59.6031   1.2789465833e+02   6.0886021537e+01    0.3953164    0.2463136 -35.57  0.001647361    1.518    0.341
       137 -12.8700    105.7870    247.0710   1.3716048178e+02   1.2836604718e+01    0.2139495    0.1406451 -88.31  0.001440521    1.800    0.444
       138 -13.4952     97.4810     50.3777   1.0049028007e+02   5.2750484771e+01    0.9925931    0.3916767 -41.88  0.003818622    2.490    0.598
       139 -13.6638    103.1798     50.8538   9.9006303073e+01   5.1550497191e+01    0.4097704    0.3632711  -2.51   0.00090848    1.074    0.069
       140 -14.1061    111.9380     41.1995   9.3032169780e+01   5.1263496073e+01    0.8250688    0.5463138  11.71  0.001824093    1.908    0.476
       141 -13.4769    171.1751    241.4661   1.2546034190e+02   3.5962585458e+00    0.3937284    0.2496327  46.87  0.002509969    1.303    0.233
       142 -11.6434    248.6812     56.1613   7.3258788450e+01   1.5908485687e+01    0.1913069    0.1702568 -73.55  0.000957775    1.168    0.144
       143 -13.0126     65.3945     51.3596   1.1113980496e+02   5.8014690021e+01    0.3877821    0.3648933  56.65  0.002500989    1.367    0.269
       144 -13.0852     66.8734     43.5245   1.0778739035e+02   5.9208562563e+01    0.5217603    0.2947835 -34.12  0.002638749    1.595    0.373
       145 -11.9429      5.8030     50.9108   1.3311693569e+02   6.4068775120e+01    0.2801348    0.1651038 -45.23  0.001410188    1.342    0.255
       146 -12.7608    198.6886     37.2276   7.4585001560e+01   3.0470582784e+01    0.5749552    0.3460068 -84.12  0.002213466    2.271    0.560
       147 -13.9083    219.4962     41.6491   7.3045540285e+01   2.4687651425e+01     1.198847    0.7279264  85.82  0.003932498    2.017    0.504
       148 -13.2845    205.2106     40.2506   7.4543500730e+01   2.8431472447e+01    0.8970038    0.4767592 -76.25  0.003195951    3.217    0.689
       149 -11.4489     86.2933     49.5804   1.0360779887e+02   5.4959419857e+01    0.2234388     0.201881 -19.80 0.0006088013    1.044    0.042
       150 -11.2284    250.0040     48.9907   7.1341847913e+01   1.6547976667e+01    0.1997957    0.1872576 -43.68 0.0004201508    1.044    0.043
       151 -12.8143    152.6895     46.8645   8.5489032898e+01   4.0907123892e+01     0.613279    0.2455907  51.46  0.001081156    2.348    0.574
       152 -12.9111    159.0176     43.4959   8.3110880213e+01   3.9798838606e+01    0.7180889    0.2573595  57.75  0.002491663    2.658    0.624
       153 -13.6647     96.0059    236.6158   1.3782149995e+02   1.5847788614e+01    0.4577217    0.2565706  37.93  0.001776395    1.787    0.440
       154 -14.3236     91.4796    231.7803   1.3814075664e+02   1.7269324455e+01    0.5103205    0.3073213  68.25  0.003222768    1.603    0.376
       155 -13.5002      8.7260     42.9635   1.2991874625e+02   6.5483736845e+01    0.7388155    0.5223863  58.20  0.004748469    2.218    0.549
       156 -12.6230    146.2949    238.1040   1.2932060186e+02   8.0206051243e+00    0.3590475    0.2125273  57.15  0.001883483    1.664    0.399
       157 -12.8539     16.0108    197.7448   1.4859279948e+02   3.2414278366e+01    0.4697013    0.1677068 -60.45  0.002493178    3.002    0.667
       158 -11.4709    169.0424     43.0843   8.1106523275e+01   3.7310335164e+01    0.2363845    0.1765801 -68.41 0.0007643841    1.640    0.390
       159 -11.5389     25.8155     42.8835   1.2303239622e+02   6.4220068562e+01    0.1856672    0.1273197 -35.73 0.0004252593    1.211    0.174
       160 -12.4240    242.5936     36.3206   6.9001703942e+01   1.9827810146e+01    0.5738642    0.2207872  71.79  0.002219146    2.964    0.663
       161 -12.0462    104.7913     36.5524   9.3201979035e+01   5.3462782976e+01    0.3630241    0.1746291 -30.96  0.001553689    2.010    0.502
       162 -12.8164     75.9136     37.5469   1.0239370542e+02   5.8768876808e+01    0.3438496      0.23341  36.63 0.0009285746    1.546    0.353
       163 -12.1875     70.5181     36.4977   1.0380489341e+02   5.9825574188e+01    0.2659997    0.2069561  -3.42 0.0007483932    1.259    0.206
       164 -13.8493     10.1204    210.6945   1.5033793166e+02   3.0584182363e+01    0.5807596    0.4751275  54.94  0.004985559    1.405    0.288
       165 -11.7200     45.2157     36.5895   1.1314034261e+02   6.3370401830e+01    0.1999564    0.1455339 -36.92 0.0006388761    1.154    0.133
       166 -12.5070     47.4352     32.1238   1.1053119028e+02   6.3867311586e+01    0.3782316    0.2174109 -12.27  0.001825415    2.300    0.565
       167 -11.5575     51.8734     36.5001   1.1055040244e+02   6.2547659058e+01    0.3045519    0.1227304  35.03  0.001375735    2.781    0.640
       168 -12.7908     24.5665    217.2252   1.4833666261e+02   2.7994729942e+01    0.4756906    0.2641399  69.95  0.003324161    1.427    0.299
       169 -14.0838     25.7883    227.6255   1.4874422327e+02   2.6051837877e+01     0.588131    0.2755531 -62.79  0.003775543    2.429    0.588
       170 -12.7017    152.2847     31.3902   8.0336901320e+01   4.3080986203e+01    0.3804227    0.2720048 -21.40 0.0009585069    1.449    0.310
       171 -14.5891    146.0717     30.7653   8.1324713149e+01   4.4710680567e+01     1.168059    0.5916148  58.60  0.004113648    1.895    0.472
       172 -12.8665     34.7978     32.9883   1.1593057023e+02   6.5185692637e+01    0.3493802    0.2745517  39.93  0.001883125    1.694    0.410
       173 -11.1195    211.3219     33.1499   7.1748496661e+01   2.7776864370e+01    0.1978207    0.1712149 -43.14 0.0005173789    1.125    0.111
       174 -13.8188     20.3199    224.3661   1.4943099362e+02   2.7175428543e+01    0.3664722    0.2971012  71.32  0.001650583    1.250    0.200
       175 -13.2330     57.4433    203.7546   1.4161413646e+02   2.6748498840e+01    0.4976861    0.2420201  89.10  0.002611196    2.374    0.579
       176 -11.5532    194.9455     23.7161   7.1155390693e+01   3.3034705524e+01    0.3335108    0.2660842  -2.37  0.001141817    1.444    0.308
       177 -12.0259    121.0634     27.5197   8.5546721400e+01   5.1108178738e+01    0.3480842    0.1712579  56.24  0.001069558    2.016    0.504
       178 -12.3567    117.5920     27.2004   8.6253822634e+01   5.1939768835e+01    0.5833508    0.2727004  -6.50  0.001937214    3.790    0.736
       179 -12.1610     97.8643     27.2907   9.1455079138e+01   5.6181305501e+01    0.2879808    0.2581997 -27.03   0.00120967    1.191    0.161
       180 -11.5035    216.1811     29.1632   7.0065375917e+01   2.7039806781e+01    0.2014784    0.1541657 -61.17 0.0005734954    1.325    0.245
       181 -13.0707     56.1242     27.7138   1.0537475632e+02   6.3414005830e+01      0.43306    0.2978897  35.61   0.00173175    1.602    0.376
       182 -11.5558    222.8810     21.6790   6.7320363929e+01   2.6243605777e+01    0.2335769      0.21352 -58.67 0.0006687926    1.032    0.031
       183 -12.5905    215.4095     20.7898   6.7885178413e+01   2.8184920803e+01    0.3214298    0.2490185   9.44 0.0009675633    1.612    0.380
       184 -12.9733     53.0266    214.2740   1.4329514330e+02   2.5347694950e+01    0.2918836    0.1811465  70.92  0.001302896    1.364    0.267
       185 -11.3058     70.8806     16.9938   9.5345368424e+01   6.2615975542e+01    0.1906033     0.162065  -0.11 0.0004484927    1.036    0.035
       186 -14.0308     68.1870    222.3960   1.4132449640e+02   2.2008963688e+01    0.6170614     0.457895 -59.91  0.004426142    1.673    0.402
       187 -14.5834     62.8277    215.0011   1.4162985763e+02   2.4005412754e+01    0.8269936    0.5319588 -79.32  0.005442058    1.488    0.328
       188 -11.8708    249.0065    216.1754   1.0843422113e+02  -5.8366243334e+00     0.171294    0.1366674  58.12  0.001095971    2.021    0.505
       189 -11.5641     85.0202    215.2908   1.3767557178e+02   2.0991786342e+01    0.1711757    0.1283949  58.19 0.0009545388    1.099    0.090
       190 -11.3676    200.1977    215.4091   1.1659026149e+02   2.2159627412e+00    0.1774556    0.1022696  48.70 0.0009526194    1.694    0.410
       191 -10.8146    136.6238    210.8113   1.2755900998e+02   1.3797621172e+01    0.1568997    0.1155224 -71.65 0.0008888672    1.649    0.394
       192 -13.0740     94.4866    218.7694   1.3631834843e+02   1.9032974260e+01    0.2582946    0.2300807  63.90  0.001572996    1.178    0.151
       193 -10.8994    149.5922    206.7433   1.2453189367e+02   1.2265989230e+01    0.2359327    0.1363421  35.83  0.001120993    1.676    0.403
       194 -13.4870     99.0470    215.5181   1.3513950902e+02   1.8929708491e+01    0.4434012    0.2890905 -54.93  0.002763879    1.812    0.448
       195 -10.7689    185.9934    204.4947   1.1736331192e+02   6.2096677687e+00    0.1736197     0.103195  61.26  0.000809014    2.422    0.587
       196 -11.6781    134.0854    201.1190   1.2668459808e+02   1.5869850771e+01    0.3162035    0.1842334  53.96  0.001242962    1.621    0.383
       197 -13.5487     39.2896    195.0426   1.4421411724e+02   3.0536932238e+01    0.4511954     0.288413  70.05  0.003052542    1.309    0.236
