#   1 NUMBER                 Running object number                                     
#   2 MAG_AUTO               Kron-like elliptical aperture magnitude                    [mag]
#   3 X_IMAGE                Object position along x                                    [pixel]
#   4 Y_IMAGE                Object position along y                                    [pixel]
#   5 X_WORLD                Barycenter position along world x axis                     [deg]
#   6 Y_WORLD                Barycenter position along world y axis                     [deg]
#   7 A_WORLD                Profile RMS along major axis (world units)                 [deg]
#   8 B_WORLD                Profile RMS along minor axis (world units)                 [deg]
#   9 THETA_WORLD            Position angle (CCW/world-x)                               [deg]
#  10 FWHM_WORLD             FWHM assuming a gaussian core                              [deg]
#  11 ELONGATION             A_IMAGE/B_IMAGE                                           
#  12 ELLIPTICITY            1 - B_IMAGE/A_IMAGE                                       
         1  -9.7049    186.9552     10.8360   6.5831619860e+01   3.7238794486e+01    0.4449635     0.251186  32.86  0.002013171    2.618    0.618
         2  -9.0424    233.8640      8.2938   6.0264873065e+01   2.6317578035e+01    0.3173297    0.2151963 -39.70  0.000994376    1.527    0.345
         3  -9.9063    182.6225      4.4218   6.4698264459e+01   3.8929997357e+01    0.4958661    0.1883902  52.91  0.002102762    2.430    0.588
         4  -7.6242    206.0708      3.5289   6.1843430849e+01   3.3346203712e+01    0.1860749    0.1093787  74.02 0.0002900782    1.461    0.316
         5 -12.9039    168.1591    246.0602   1.2359010973e+02  -2.9381726021e-01     2.906898     1.581441  25.27    0.0133447    2.580    0.612
         6 -12.2740    218.8316    235.6254   1.1251647108e+02  -7.4015155067e+00     1.321168      1.13066  15.20  0.008871363    1.052    0.049
         7 -12.8143    195.4500    246.2822   1.1854359052e+02  -4.9961467557e+00     2.150014      1.11115  33.82   0.01106475    1.751    0.429
         8  -9.4860     61.5562    178.8557   1.3602528889e+02   3.0696387852e+01    0.4140268    0.2161411  39.65  0.001420811    2.025    0.506
         9  -9.8021    175.1341    202.4364   1.1521538797e+02   5.8911742307e+00    0.2258541    0.2210151  89.90 0.0002655298    1.112    0.101
        10 -11.5093     32.8118    141.5061   1.3770477641e+02   4.2625274475e+01    0.5143099    0.3729018  16.85  0.003137242    1.927    0.481
        11 -10.0113     27.6610    161.8471   1.4142132374e+02   3.8485866483e+01    0.2906333    0.2372118  47.81  0.001005862    1.413    0.292
        12 -12.3417     22.6950    154.0460   1.4164869560e+02   4.0719392467e+01     1.259317    0.5201008 -68.01  0.006325955    1.883    0.469
        13 -11.7010      4.3669    147.6229   1.4506039333e+02   4.3663587532e+01     1.148921    0.4493384 -64.41  0.006082854    1.908    0.476
        14 -12.1647      7.5776    155.9012   1.4517399192e+02   4.1591220128e+01     1.366241    0.7060736 -55.39  0.007967947    1.868    0.465
        15  -8.1487    137.3304    198.7212   1.2248922493e+02   1.3878004765e+01    0.2621991    0.1962901 -88.16 0.0008577408    1.575    0.365
        16  -7.5520    121.2644    171.4371   1.2131058955e+02   2.2800854778e+01    0.2058994    0.1295087  55.95 0.0008278724    1.631    0.387
        17  -7.8457    196.3136    170.1399   1.0450419527e+02   7.7775038849e+00    0.2366399    0.1847426 -16.19  0.001167675    1.489    0.328
        18 -17.5729     56.1330    238.7350   1.4325363939e+02   1.8846452075e+01     3.323456     2.272537  63.22   0.01323205    1.152    0.132
        19  -8.4696     49.4622    170.3492   1.3760917368e+02   3.4169397252e+01    0.4095853    0.2036864  17.20  0.001541828    4.830    0.793
        20  -8.8855     97.4999    171.5024   1.2682795974e+02   2.6996577486e+01    0.2530161     0.223544 -77.89 0.0006626067    1.066    0.061
        21  -9.5152    112.0228    194.4475   1.2723722645e+02   1.9377489424e+01    0.2804449    0.2190159  78.95 0.0005144564    1.267    0.211
        22  -8.1766      8.5354    193.6866   1.4817115653e+02   3.3355723860e+01    0.1453844    0.1176206 -56.34  0.001069652    1.639    0.390
        23  -9.4886     46.6805    158.6983   1.3673448908e+02   3.7177263911e+01    0.3902837     0.190283  28.13  0.001492206    2.719    0.632
        24  -8.9917     49.4844    156.5050   1.3578141017e+02   3.7358112450e+01    0.2500149    0.1967602  22.65  0.001509038    1.706    0.414
        25  -8.8475    104.0543    157.5533   1.2281523933e+02   2.9114184953e+01    0.4059801    0.2539848  76.94  0.001703725    2.257    0.557
        26  -9.3368    107.2442    153.8217   1.2132758119e+02   2.9421998852e+01    0.3025931    0.2410418   1.24  0.001251307    1.872    0.466
        27  -9.7349     94.1203    152.5231   1.2430941949e+02   3.1983467724e+01    0.3485085    0.3362048 -31.73 0.0008698705    1.230    0.187
        28  -8.5268     99.4931    152.4731   1.2297403405e+02   3.1092147388e+01    0.3212475    0.1729099  63.99  0.001228538    2.662    0.624
        29  -8.7368     62.9151    156.9854   1.3266710588e+02   3.5568617316e+01    0.2579252    0.1894916  31.22 0.0007717905    1.663    0.399
        30  -7.5332    191.0165    152.0140   1.0163117644e+02   1.2492098086e+01    0.1834166    0.1715078 -39.41 0.0003642008    1.070    0.065
        31  -9.4972     57.2528    148.5963   1.3275100630e+02   3.8261559123e+01    0.2449957    0.2155303 -42.27  0.001035443    1.343    0.255
        32  -9.2266    121.3125    147.4949   1.1659009126e+02   2.8278392420e+01    0.3663397    0.2351531 -47.89 0.0002494089    1.557    0.358
        33  -8.9826    109.9179    147.8400   1.1948022058e+02   3.0337098508e+01    0.2704267    0.2477516 -39.43  0.001082149    1.210    0.174
        34 -10.2478     68.5250    143.8077   1.2915138060e+02   3.7913900636e+01    0.6938467    0.3833801  72.31   0.00282788    2.845    0.648
        35  -9.7488    106.9934    188.5045   1.2741507824e+02   2.1547239387e+01    0.3341772    0.2549608  84.18   0.00134956    1.331    0.249
        36  -8.6029    103.6766    186.3200   1.2780639721e+02   2.2598855459e+01    0.2271594    0.2056304 -74.98  0.001349409    1.134    0.118
        37  -8.1597    186.6118    139.1592   9.9588176364e+01   1.6088455751e+01    0.2360432    0.2096288  65.81 0.0003446005    1.183    0.155
        38  -8.6674    105.2102    137.7160   1.1856230012e+02   3.3554633318e+01    0.2514082    0.2267384 -58.75 0.0004405584    1.067    0.063
        39 -10.8928     40.7390    136.6750   1.3503516336e+02   4.2938822686e+01    0.3551967     0.287332 -58.05  0.002269053    1.171    0.146
        40  -8.5735     99.4418    167.3648   1.2567630510e+02   2.7625500659e+01    0.4133123    0.2232502 -41.23  0.001330133    2.441    0.590
        41 -11.2447    152.6751    237.4800   1.2530485749e+02   3.8015892125e+00     0.440076    0.3556519   8.43  0.002621568    1.679    0.404
        42 -10.6121     35.1323    133.8286   1.3602847349e+02   4.4165039115e+01     0.412899    0.2424172 -17.78  0.001882835    3.384    0.704
        43  -9.9728    232.7006    132.1819   8.9067270259e+01   7.2648227054e+00    0.2739009    0.2457724  53.22  0.000520318    1.199    0.166
        44  -8.7685    119.0268    132.6046   1.1389090190e+02   3.2159470519e+01    0.2692528    0.2118189 -54.03 0.0001890321    1.227    0.185
        45 -10.5202     59.1804    131.1758   1.2933993105e+02   4.2106609868e+01    0.4617452    0.2595032 -67.52  0.002254298    1.649    0.394
        46  -9.6271     68.9417    133.8958   1.2726148662e+02   4.0191852270e+01     0.293231    0.2041991  36.54  0.001022942    1.621    0.383
        47  -9.4830     35.5358    125.9856   1.3471418443e+02   4.5928323235e+01     0.177672    0.1705873  85.50  0.001247092    1.204    0.169
        48  -8.1441     16.2953    218.1812   1.4852522580e+02   2.7587737843e+01    0.1473699    0.1110491 -84.67 0.0005339113    1.227    0.185
        49 -10.9367      7.7830    169.4739   1.4637754093e+02   3.8597744399e+01     1.192838    0.5316901 -44.71  0.005608928    3.609    0.723
        50  -7.7696     66.9460    120.1858   1.2511623898e+02   4.3662627842e+01    0.1693625    0.1061608  35.86 0.0006726183    1.799    0.444
        51  -8.7795     43.5673    116.5310   1.3091561973e+02   4.7285407313e+01    0.1886139    0.1708737  72.39 0.0006371632    1.233    0.189
        52  -7.4525    179.3746    116.8256   9.5661929234e+01   2.2340444353e+01    0.2012433    0.1489692 -31.97  0.000225127    1.444    0.307
        53  -9.4767    250.1653    113.0431   8.1856401239e+01   7.0163769319e+00    0.3656218     0.176436 -44.26 0.0008042289    1.883    0.469
        54  -9.7432    236.5903    112.9254   8.3964088817e+01   9.9137242225e+00    0.2915226    0.2482569 -52.43 0.0006668247    1.118    0.106
        55  -6.9534    135.3552    107.3061   1.0343666714e+02   3.4432383032e+01    0.1585017    0.1241321   4.59 0.0007041408    1.718    0.418
        56  -8.4742      2.7140    100.0377   1.3962970250e+02   5.4216186495e+01    0.1631451    0.1140656 -60.40 0.0004741894    1.085    0.078
        57  -8.0546      9.0391     98.4231   1.3757399509e+02   5.4185185648e+01    0.3127573    0.1613628  -1.85  0.001647638    3.089    0.676
        58  -7.2376    204.4727     91.5286   8.4234907387e+01   2.1188447657e+01    0.1497624    0.1455814 -68.13 -5.494985e-06    1.042    0.040
        59  -7.4824     14.9779     88.9979   1.3415252814e+02   5.5816525726e+01    0.1422178    0.1118326 -55.57 0.0003984886    1.020    0.020
        60  -7.6193      7.6360     88.7206   1.3634422338e+02   5.6342057203e+01    0.1192854   0.06669994 -40.30 0.0007012582    1.676    0.403
        61  -8.3453    249.9957     81.9740   7.4852302940e+01   1.2310649280e+01    0.1768523    0.1481337 -50.61  0.001003365    1.066    0.062
        62  -7.5012    150.8208     72.3742   8.9797827401e+01   3.7724251647e+01     0.205207    0.1351464  43.30 0.0002833859    1.536    0.349
        63  -8.5799    188.0482     69.3517   8.1368946846e+01   2.9092260262e+01    0.2302053    0.2044285 -44.75 0.0004480489    1.141    0.124
        64  -9.8078    243.5310     57.1515   7.0061617888e+01   1.7656423932e+01    0.2664793    0.2442555  52.62 0.0004809659    1.315    0.239
        65  -8.9340    247.8694     52.8857   6.8595564858e+01   1.7316185415e+01     0.301645    0.2036742  46.85 0.0009525348    1.871    0.465
        66  -8.1742    129.0215     56.9577   9.0232326285e+01   4.5337545043e+01    0.2031707    0.1945621  27.09  0.001172629    1.013    0.013
        67  -8.2418    156.1395     55.4006   8.3585079852e+01   3.9227565369e+01    0.2856234    0.2185309 -84.86  0.001153207    1.622    0.383
        68  -7.2814    185.3060     43.2500   7.4734710142e+01   3.3753471161e+01    0.1384935    0.1039488  39.82 0.0001436849    1.505    0.336
        69  -9.1740    172.9496     32.2747   7.3691248224e+01   3.8277730971e+01    0.3139297    0.2284383  -7.17 0.0007143624    1.805    0.446
        70 -10.3410    169.3085     39.8008   7.6461956193e+01   3.8213760409e+01    0.5599512    0.4134887 -16.47  0.002868852    1.636    0.389
        71  -8.6748    248.5152     39.0104   6.5482936335e+01   1.9148235239e+01     0.197066    0.1179991 -40.43 0.0006296905    1.578    0.366
        72 -10.2047    139.5863     33.5632   8.0284640896e+01   4.6222338599e+01    0.2486405    0.2204113  40.22 0.0003525091    1.060    0.056
        73  -7.5426    150.4451     29.4298   7.6816950343e+01   4.4142225275e+01    0.1376582    0.1241551  55.20  2.83034e-05    1.008    0.008
        74  -8.7605    125.1343    248.1221   1.3185852350e+02   6.7011142208e+00    0.2469952    0.1655065 -68.25  0.001475954    1.737    0.424
        75 -11.0180    138.0638    242.8003   1.2879701889e+02   5.4327652947e+00    0.4728711    0.3062205  32.87  0.002611806    1.683    0.406
        76  -9.0307     58.8216    183.4738   1.3719150001e+02   3.0014157368e+01    0.3694405    0.1886788  43.85  0.001497603    1.954    0.488
