#   1 NUMBER                 Running object number                                     
#   2 MAG_AUTO               Kron-like elliptical aperture magnitude                    [mag]
#   3 X_IMAGE                Object position along x                                    [pixel]
#   4 Y_IMAGE                Object position along y                                    [pixel]
#   5 X_WORLD                Barycenter position along world x axis                     [deg]
#   6 Y_WORLD                Barycenter position along world y axis                     [deg]
#   7 A_WORLD                Profile RMS along major axis (world units)                 [deg]
#   8 B_WORLD                Profile RMS along minor axis (world units)                 [deg]
#   9 THETA_WORLD            Position angle (CCW/world-x)                               [deg]
#  10 FWHM_WORLD             FWHM assuming a gaussian core                              [deg]
#  11 ELONGATION             A_IMAGE/B_IMAGE                                           
#  12 ELLIPTICITY            1 - B_IMAGE/A_IMAGE                                       
         1 -13.0071    242.4183     82.7493   6.8601096524e+01   1.4022351072e+01     2.163649    0.6697553 -31.16  0.007670319    2.833    0.647
         2 -11.4317    232.2909      3.9302   4.8488899980e+01   2.5624442849e+01     1.877988    0.6275557 -52.96  0.006142891    3.789    0.736
         3 -12.5864    246.5108     18.8638   5.1257176312e+01   2.0677070243e+01     1.944277      0.83702 -17.48   0.00782115    2.471    0.595
         4 -11.7316    248.1254      4.9640   4.7461898459e+01   2.1667375304e+01     1.190397    0.9301608  59.48  0.006901325    1.361    0.266
         5 -10.0848    224.3574      8.8690   5.0600312312e+01   2.7152875148e+01    0.7515957    0.1824109 -21.56  0.002295783    3.990    0.749
         6  -8.0399    215.3192      6.6558   5.0851699301e+01   2.9689491757e+01    0.1555562    0.0959268 -55.58  0.000704943    1.724    0.420
         7  -9.4453    176.4618    240.1278   1.0946648882e+02   6.1232995292e+00    0.2264002    0.1676418  35.30 0.0006909004    1.131    0.115
         8  -9.2455    249.3775    249.6629   9.9686756660e+01  -5.3325311085e+00     0.315401    0.1162052  35.47  0.001880569    1.925    0.481
         9 -10.1581    243.2604    247.8876   1.0033103246e+02  -4.3569758969e+00    0.2967394    0.2140776  -3.05  0.002446421    1.482    0.325
        10 -11.2724    247.8377    235.7468   9.8009709845e+01  -4.0414269521e+00    0.7653667     0.374777  -7.44  0.004511096    2.777    0.640
        11 -10.6718    247.1482    224.7038   9.6517593149e+01  -3.0260022626e+00    0.3934328    0.1875617 -17.08  0.002339517    2.542    0.607
        12 -10.2404    249.7930    220.0846   9.5431078354e+01  -3.0190154530e+00     0.367107    0.1996261 -26.67  0.002126395    2.123    0.529
        13  -8.2308    227.6450    250.3161   1.0291887979e+02  -2.3631929356e+00   0.09345554   0.06976314  53.01 0.0005414689    1.744    0.426
        14  -9.9240    240.9029    231.4101   9.8420980339e+01  -2.6840471645e+00    0.3117085    0.1756198   8.28  0.001978383    2.040    0.510
        15  -9.6806    209.3657    221.8596   1.0192807984e+02   3.0014297046e+00    0.3760283    0.2212503 -46.30  0.002329704    2.572    0.611
        16  -9.4782     24.2969    224.9987   1.3238127723e+02   2.8128051191e+01    0.2177253   0.08404075  47.93  0.001485727    1.840    0.457
        17  -8.2390    181.6547    221.5080   1.0635696201e+02   7.4251391288e+00     0.162699    0.1076803 -39.80  0.001095213    1.969    0.492
        18  -8.0630    119.9395    218.2237   1.1632450673e+02   1.7391319788e+01    0.1719721     0.115316  61.39 0.0007727228    1.318    0.242
        19  -7.5934    150.2852    217.6518   1.1110893328e+02   1.2866189620e+01    0.1094098   0.07604811  67.72 0.0007019664    1.653    0.395
        20  -8.3959    234.0809    211.6819   9.6538652438e+01   1.4148819326e-01    0.1663824    0.1492741  -1.68 0.0008036802    1.354    0.262
        21  -8.1319    185.0120    209.9668   1.0424114097e+02   8.2623046922e+00    0.1417009    0.1166535  36.15  0.001015585    1.058    0.055
        22  -8.6460    219.1809    208.8134   9.8451690964e+01   2.8028059886e+00    0.1645467    0.1101013  22.04 0.0006999442    1.360    0.265
        23  -9.9920    229.0129    204.9393   9.6280614903e+01   1.6190201131e+00    0.3304846    0.1653614 -32.91  0.001901375    2.367    0.577
        24 -10.5307    249.3380    197.8673   9.1956085939e+01  -9.2361929182e-01    0.6103801    0.2648661 -33.31  0.003278173    2.685    0.628
        25 -10.1926    232.5009    195.7458   9.4234135837e+01   2.0062422411e+00     0.631146    0.2515504 -30.28   0.00316443    2.841    0.648
        26  -9.2894    237.1580    187.8687   9.2154139963e+01   2.0678449161e+00    0.4433762    0.2822816   7.13  0.002572874    1.669    0.401
        27  -9.1256    129.7830    189.2531   1.1122416837e+02   2.0304790591e+01     0.227482    0.1661183  69.02 0.0006111109    1.407    0.289
        28  -8.1111    206.7614    189.5659   9.7444138028e+01   7.0716411458e+00    0.1684856    0.1017273  50.01 0.0007761851    1.609    0.378
        29  -8.0970    146.9987    203.4850   1.0993379060e+02   1.5354301940e+01    0.1739197   0.08178101  58.80 0.0008103419    2.606    0.616
        30  -8.8969    245.0866    177.9690   8.9137615582e+01   1.7914421928e+00     0.214828    0.1529535  -2.97  0.001364845    1.352    0.260
        31 -10.4831    220.7152    166.0316   9.0897856135e+01   7.4884734298e+00    0.5315039    0.4082218 -50.46  0.002873451    1.829    0.453
        32  -8.1994     44.0019    165.9661   1.2534669233e+02   3.6285532667e+01    0.1529257    0.1272499 -48.85  0.001101986    1.716    0.417
        33 -10.4259    248.9861    154.5751   8.4039531032e+01   3.7044786997e+00    0.4090433    0.2502577 -36.65  0.002246027    1.886    0.470
        34  -9.3362    237.4794    135.0021   8.1773065033e+01   8.2354152350e+00    0.2023092    0.1239349 -25.60  0.001038529    1.609    0.379
        35 -10.3493    206.9016    128.3636   8.5527940508e+01   1.5391236373e+01    0.4954012    0.2806998 -34.94  0.002323535    1.823    0.451
        36  -8.9612     75.3417    124.2822   1.1344250248e+02   4.0954169106e+01    0.2849973    0.1918815 -47.60  0.001603105    1.670    0.401
        37  -8.9512    155.3052    125.9827   9.5182007337e+01   2.6656154301e+01    0.1986082    0.1919378 -33.33  0.001176426    1.091    0.084
        38  -8.7408    126.0234    250.0000   1.1832167641e+02   1.2288368808e+01    0.1737234   0.04234159  43.16 5.514926e-05    2.948    0.661
        39 -10.2250    249.9736     91.3142   6.9672192156e+01   1.1279352161e+01     1.135454    0.3203932 -27.05  0.003816841    3.310    0.698
        40  -8.8411    220.3596    111.3277   7.9184642379e+01   1.4985971883e+01    0.2361824    0.1606203  16.01  0.001125875    1.700    0.412
        41 -11.0616    250.0425    110.8575   7.4353577290e+01   8.7914528256e+00    0.9306713    0.2403224 -31.76  0.003197503    3.412    0.707
        42 -11.1282    236.5567    104.8479   7.4977531584e+01   1.2381111796e+01    0.5361388    0.4049301   1.99  0.002871902    1.346    0.257
        43  -8.7404    181.7987    100.8929   8.3666789630e+01   2.5288227285e+01     0.412897    0.2281077  -6.94  0.001303284    3.979    0.749
        44  -8.7370     46.9745    102.0074   1.1720256315e+02   4.9240526104e+01    0.2987506     0.143789 -59.14  0.001472441    1.773    0.436
        45  -9.9032    213.5041     92.2684   7.5571903959e+01   1.9292124438e+01    0.5637361    0.2567363 -28.70  0.002218297    2.186    0.542
        46  -8.0417    115.9836     93.9822   9.6862600704e+01   4.0737166989e+01    0.1706929    0.1661769 -81.80 0.0007338352    1.018    0.018
        47 -10.1189    248.5102     99.0416   7.1767776107e+01   1.0605130524e+01     0.541785    0.3322309 -15.84  0.002654874    1.617    0.382
        48  -8.2684    196.1180     79.6462   7.5216251419e+01   2.5322928393e+01    0.2670144     0.198522 -38.73  0.001270839    1.357    0.263
        49  -7.5550     17.2364     77.7756   1.2205376593e+02   5.7188556457e+01    0.1954615   0.05602657 -59.97 0.0008801388    2.469    0.595
        50  -8.8322    216.8553     72.3114   6.9672450770e+01   2.1367836850e+01    0.2646018    0.1943167 -36.61  0.001304234    1.341    0.254
        51  -8.4732    183.3894     68.4061   7.4332048721e+01   3.0198756238e+01    0.3034543    0.1455764 -14.64 0.0009542592    3.380    0.704
        52  -9.1184    207.1881     66.0608   6.9472022529e+01   2.4615570637e+01    0.3966984     0.218216 -25.60  0.001658676    1.812    0.448
        53  -8.4874     47.1394     62.7031   1.0928505940e+02   5.7832929209e+01    0.2287299    0.1479242 -67.57  0.000913911    1.467    0.318
        54  -8.4258    197.6182     57.5747   6.8575745179e+01   2.8224124581e+01    0.2998443    0.1430871 -10.60 0.0009486618    3.379    0.704
        55 -10.3829    249.0526     49.2585   5.9040097184e+01   1.6695205843e+01    0.4229282    0.1966084 -28.65  0.001815438    1.909    0.476
        56  -9.9422    227.0069     42.6790   5.9929355563e+01   2.2765117768e+01    0.5629576    0.1791891 -28.88  0.001943633    2.764    0.638
        57  -8.7182    116.5146    248.9911   1.1969699534e+02   1.3715374028e+01    0.1882501    0.1172969  19.64  0.001047335    3.642    0.725
        58 -10.0554    233.9641    245.5300   1.0137552194e+02  -2.8650741430e+00     0.260333    0.1588159  31.64   0.00193308    1.152    0.132
        59 -10.3952     39.4896    242.5443   1.3089698662e+02   2.3966826053e+01     0.411228   0.08710507  51.25  0.002251693    2.834    0.647
        60  -7.7479    179.7036     34.3201   6.4274846550e+01   3.6037369797e+01     0.156185    0.1130257 -59.17 0.0007018693    1.615    0.381
        61  -9.3476    226.7301     30.5865   5.6539444829e+01   2.4256654323e+01    0.3420858    0.1959661  45.41  0.001167892    1.875    0.467
        62  -9.6263    213.3291     26.1083   5.6846451734e+01   2.8181726306e+01    0.4677486    0.2966529 -24.09  0.001728139    1.544    0.352
        63  -8.5593    195.2248     25.1768   5.8937748028e+01   3.3037771973e+01    0.2151298    0.1691835 -55.96  0.001071104    1.362    0.266
        64 -11.1458    213.4213    234.9254   1.0306906949e+02   1.0783055369e+00    0.6770495    0.4911855   9.46  0.005107073    1.460    0.315
