#   1 NUMBER                 Running object number                                     
#   2 MAG_AUTO               Kron-like elliptical aperture magnitude                    [mag]
#   3 X_IMAGE                Object position along x                                    [pixel]
#   4 Y_IMAGE                Object position along y                                    [pixel]
#   5 X_WORLD                Barycenter position along world x axis                     [deg]
#   6 Y_WORLD                Barycenter position along world y axis                     [deg]
#   7 A_WORLD                Profile RMS along major axis (world units)                 [deg]
#   8 B_WORLD                Profile RMS along minor axis (world units)                 [deg]
#   9 THETA_WORLD            Position angle (CCW/world-x)                               [deg]
#  10 FWHM_WORLD             FWHM assuming a gaussian core                              [deg]
#  11 ELONGATION             A_IMAGE/B_IMAGE                                           
#  12 ELLIPTICITY            1 - B_IMAGE/A_IMAGE                                       
         1 -14.5340    164.1812     53.0898   7.5661232242e+01   3.7585886430e+01     2.106067     1.500864  17.89  0.006899938    2.082    0.520
         2 -13.9919    177.5717     36.0392   6.8802042836e+01   3.6673947189e+01    0.8847438    0.7274995  81.79  0.002766095    1.105    0.095
         3 -13.5174    181.8074     29.3267   6.6450337939e+01   3.6486102693e+01    0.5850991    0.4941627  66.18  0.001459207    1.129    0.114
         4 -13.1545    189.4866     14.6747   6.1829049669e+01   3.6323747726e+01     0.494026    0.3366664  83.88  0.001644855    1.300    0.231
         5 -14.2395    196.8954      4.9708   5.8744239793e+01   3.5597030967e+01      1.09334    0.6334299  67.26  0.004619082    1.487    0.328
         6  -9.8900     70.5129      8.5104   8.2775996368e+01   6.2960287640e+01    0.1178825   0.09578715  23.12 -9.668921e-05    1.021    0.021
         7 -12.3148     12.5165    205.9731   1.4483315314e+02   2.9920893533e+01    0.4625885    0.2269922  38.22  0.002625589    2.171    0.539
         8 -18.5544     61.0364    241.5407   1.3863457620e+02   1.6524098304e+01     8.628479     6.558655 -80.44   0.05705526    1.271    0.213
         9 -19.1438     39.9548    100.9537   1.2380799273e+02   5.1768865942e+01      16.8005    0.9088092 -58.87   0.02691212   15.723    0.936
        10 -10.3916     50.2283    187.6770   1.3521049364e+02   2.9871609037e+01    0.2852894    0.1602563 -62.69 0.0008219809    1.613    0.380
        11 -10.7573    163.2211    203.4209   1.1212533876e+02   7.2775535077e+00    0.2834245     0.192922 -49.33 0.0003698329    1.551    0.355
        12 -10.6851    156.6881    201.7792   1.1324662839e+02   8.8598458758e+00    0.3410939    0.2377381 -88.97  0.001504376    2.200    0.545
        13 -12.2099    154.3467    195.8731   1.1268123285e+02   1.0553140511e+01     0.464692    0.3117401  75.71  0.001978171    2.233    0.552
        14 -11.3077    205.5945    179.7611   9.8591013572e+01   3.8307024890e+00    0.5269666    0.3291792 -70.94  0.001985194    3.171    0.685
        15 -10.1107    209.6997    176.3300   9.7062557271e+01   3.7060314686e+00    0.3912713     0.274718  -0.70  0.001319996    1.974    0.493
        16 -13.5395    139.7592    200.1147   1.1669273971e+02   1.2427435431e+01    0.9301475    0.4515493  39.45  0.003457244    2.017    0.504
        17 -12.1575    135.8351    179.9277   1.1389429755e+02   1.7694935608e+01    0.3397352    0.2125098  46.42  0.001041499    1.568    0.362
        18 -10.8557      1.0574    177.4318   1.4485675045e+02   3.7338818776e+01    0.1172986   0.03946804 -71.23 0.0003091206    2.209    0.547
        19 -12.0745    195.8208    169.6665   9.8443111892e+01   7.7702488831e+00    0.5109854    0.4175383 -48.44  0.001561682    1.225    0.184
        20 -11.1575    193.4982    164.6090   9.7830249583e+01   9.2814813113e+00    0.4299134    0.3585345  50.79  0.001844766    1.256    0.204
        21 -10.1819    164.1918    170.5025   1.0544641669e+02   1.4098528508e+01    0.2978022    0.1989589 -66.78  0.001141568    1.888    0.470
        22  -9.7473     17.8962    167.5827   1.4025138430e+02   3.8161515266e+01    0.1498347    0.1221741  36.73 0.0009885716    1.511    0.338
        23 -10.3074    120.0662    163.6633   1.1450065070e+02   2.4574546828e+01    0.2435666    0.2026509 -79.47 0.0004367238    1.243    0.195
        24 -11.2629    114.0137    161.1443   1.1550576763e+02   2.6326318593e+01    0.3843532    0.2824657  86.71  0.001131332    1.657    0.396
        25  -9.8748    222.7816    162.0034   9.1516533639e+01   3.9425827146e+00    0.2354106     0.156611 -62.39  0.001056533    1.999    0.500
        26 -11.4835    230.0011    165.9916   9.1043350040e+01   1.8238696640e+00    0.2858198     0.181624 -61.21  0.001266005    2.192    0.544
        27 -10.9182     12.5689    159.7367   1.4064323534e+02   4.0472886545e+01    0.2937743    0.1819607  86.48 0.0006424586    1.483    0.326
        28  -9.3429     17.3083    159.3199   1.3948470536e+02   4.0161221915e+01    0.1241856   0.08013264 -50.24 0.0005490986    1.640    0.390
        29  -9.8485    202.9775    171.6965   9.7421644737e+01   5.9282770939e+00    0.2027594    0.1940539  25.64 0.0005630843    1.068    0.064
        30 -10.8457    120.6944    156.2681   1.1282480369e+02   2.6229703522e+01    0.2630546    0.2260167  82.65 0.0006933017    1.225    0.183
        31 -12.5844    193.5899    194.1615   1.0394240504e+02   3.3299647585e+00     1.293127    0.6237832 -59.18  0.004447559    3.572    0.720
        32 -11.1017    208.1669    196.7996   1.0152147834e+02   1.2450811436e-01    0.2030384    0.1967068  56.50 0.0009252898    1.198    0.165
        33 -12.7012    134.0206    146.1790   1.0727473086e+02   2.5963004610e+01     1.482556    0.3619442 -54.75  0.003270476    6.044    0.835
        34 -10.8217    174.3364    148.7056   9.8365706599e+01   1.6737592753e+01    0.3813125    0.2851011 -67.99  0.001726481    1.573    0.364
        35 -12.2790    144.1495    145.9584   1.0473090862e+02   2.3891373491e+01    0.5507991     0.370114 -84.29  0.002134691    2.311    0.567
        36 -11.8545    136.0000    128.5160   1.0259499625e+02   2.9655655247e+01     0.622722    0.1860973 -45.64  0.001819026    3.288    0.696
        37 -12.1277    134.7645    121.4814   1.0114737050e+02   3.1518277713e+01    0.6884877    0.2359546 -46.36  0.002168297    2.852    0.649
        38 -12.1088    106.0893    130.7408   1.1099741884e+02   3.5149650689e+01    0.4034113    0.3412669 -65.69  0.001238732    1.170    0.145
        39 -11.4707    106.2088    125.6309   1.0975286411e+02   3.6337295104e+01    0.3560355    0.2646233 -30.70 0.0004879925    1.550    0.355
        40 -11.6611    117.8078    129.7970   1.0762066381e+02   3.3116997047e+01    0.3404987    0.3072294 -31.88 0.0006924605    1.179    0.152
        41 -11.7387    160.5193    127.7132   9.6474137115e+01   2.4423375184e+01    0.4697251    0.3549323 -62.98  0.001484469    1.435    0.303
        42 -11.2991    121.5449    124.1798   1.0525643939e+02   3.3674018948e+01    0.2894764    0.2652135  -4.71   0.00112115    1.241    0.194
        43 -10.6393    112.5201    118.9279   1.0636891266e+02   3.6686600282e+01    0.2767151     0.229163  39.87 0.0005303652    1.265    0.209
        44 -10.4822     90.8004    114.8521   1.1147667080e+02   4.1618766674e+01     0.283051    0.1907381  66.85  0.001231899    2.101    0.524
        45 -11.0612    168.3595    113.2423   9.1061091456e+01   2.5723876894e+01    0.4201338    0.2977864 -76.66  0.001010862    1.878    0.468
        46 -10.8733    134.7230    106.5596   9.7253165885e+01   3.4805142635e+01    0.5662974    0.1481708 -48.33  0.001503831    4.147    0.759
        47 -10.9244    205.0249    110.4437   8.3034980655e+01   1.7793089337e+01    0.3881825    0.2746632  42.63  0.001177829    1.602    0.376
        48  -9.3567    180.3158    192.6353   1.0641738300e+02   6.1782600228e+00    0.1483963    0.1167482  87.80 0.0007039939    1.769    0.435
        49 -10.5654     67.7433     99.0185   1.1447221034e+02   4.8812175036e+01    0.3207122    0.2110908  20.22  0.001190718    1.830    0.454
        50 -10.6634    149.6795     79.9592   8.6242961378e+01   3.6656926491e+01    0.2112321    0.1934015 -45.21 0.0005296239    1.109    0.098
        51 -11.1732     85.0851     76.9962   1.0276148710e+02   5.0665551115e+01    0.2395039    0.1923759  34.85   0.00043332    1.283    0.221
        52  -9.6405    177.0224     75.0361   7.9248312990e+01   3.0962915905e+01    0.1776725    0.1652754  83.93 0.0003314639    1.021    0.021
        53 -10.6549    102.0759     72.3386   9.6184323852e+01   4.8417945517e+01    0.3736496    0.2662906  64.95  0.001794974    1.885    0.470
        54 -11.7230    165.9874    188.3144   1.0866833634e+02   9.8814483015e+00     0.456111     0.372203  23.81  0.001501088    1.340    0.254
        55 -10.4844    175.8547    186.7423   1.0620710991e+02   8.2576699485e+00    0.4867397    0.2432074 -62.43  0.001641085    3.377    0.704
        56 -10.3169     13.5375     59.9448   1.2311421606e+02   6.2549457234e+01    0.1638646    0.1575691   7.54 0.0004103614    1.349    0.259
        57 -10.8909    168.9082    234.8718   1.1629125605e+02   2.5206348113e-01    0.2624153    0.1917879 -56.15 0.0004964863    1.624    0.384
        58  -9.2451    115.5132     31.4394   7.9180544019e+01   5.1740766539e+01    0.1314707    0.1171714  41.72 0.0001508654    1.015    0.015
        59  -9.2526    118.3180     23.7007   7.5964617573e+01   5.1993095163e+01    0.1236489   0.09931132 -78.89 0.0002983283    1.617    0.381
        60 -10.5759    198.9529    222.6355   1.0819091119e+02  -2.8388711752e+00    0.2170761    0.1893076 -42.50 0.0003230426    1.279    0.218
        61  -7.2346     21.1992    214.0246   1.4380057162e+02   2.7264911731e+01      0.20959     0.183017  29.65  0.001490267    1.658    0.397
