#   1 NUMBER                 Running object number                                     
#   2 MAG_AUTO               Kron-like elliptical aperture magnitude                    [mag]
#   3 X_IMAGE                Object position along x                                    [pixel]
#   4 Y_IMAGE                Object position along y                                    [pixel]
#   5 X_WORLD                Barycenter position along world x axis                     [deg]
#   6 Y_WORLD                Barycenter position along world y axis                     [deg]
#   7 A_WORLD                Profile RMS along major axis (world units)                 [deg]
#   8 B_WORLD                Profile RMS along minor axis (world units)                 [deg]
#   9 THETA_WORLD            Position angle (CCW/world-x)                               [deg]
#  10 FWHM_WORLD             FWHM assuming a gaussian core                              [deg]
#  11 ELONGATION             A_IMAGE/B_IMAGE                                           
#  12 ELLIPTICITY            1 - B_IMAGE/A_IMAGE                                       
         1 -13.8233    244.7995    110.3029   2.6264578748e+01   1.0205799311e+01     2.200731    0.9880182 -47.52  0.009833734    1.923    0.480
         2 -11.4364     81.5641     39.6441   4.1393698293e+01   5.7537943892e+01    0.6363502    0.2607502 -38.23  0.002771795    2.697    0.629
         3 -11.0633     39.5031      8.0249   4.4027155533e+01   6.8115794955e+01    0.4830008    0.2614529 -22.98  0.002955364    1.836    0.455
         4 -13.2850     43.9486     22.7659   4.8579107556e+01   6.5841157235e+01     1.310368    0.7792304 -45.25  0.007255062    2.505    0.601
         5 -11.1549    227.2715     15.9215   9.1869540023e+00   2.7857388758e+01    0.4453651    0.2400369  82.64  0.002485698    1.636    0.389
         6 -10.5461     78.1695     13.8838   3.2798676507e+01   6.1060967013e+01    0.2855661    0.1864027   5.13   0.00168311    1.686    0.407
         7 -12.7174    156.2605     11.8065   1.5985352428e+01   4.4198410374e+01    0.5675666    0.4774167 -64.99  0.003766481    1.272    0.214
         8 -12.6980    164.8284     11.9194   1.4855539357e+01   4.2201818136e+01    0.4276237    0.3177792 -66.25  0.002124813    1.400    0.286
         9 -13.2216    169.4746      9.7706   1.3735913896e+01   4.1332519213e+01    0.5342409    0.4254662 -58.15   0.00351717    1.325    0.245
        10 -13.3651    170.1912      2.6153   1.1924690437e+01   4.1819966155e+01     1.440287    0.3252787  72.98  0.004720408    4.416    0.774
        11 -11.0037    231.9296      9.4429   7.5872047527e+00   2.7619461500e+01    0.3787517     0.234856 -68.62  0.002135455    1.338    0.253
        12 -10.4200     70.6249      5.8343   3.1897297830e+01   6.3176610228e+01     0.310169    0.1338126  46.62  0.001617291    1.819    0.450
        13 -11.4110    208.1614      4.8047   8.6254853152e+00   3.3128926343e+01    0.5793793    0.2503768 -88.01  0.002720892    2.502    0.600
        14 -10.9544    223.4714      4.7979   7.3669828548e+00   2.9869992338e+01     0.395615    0.1425145 -56.96  0.001874486    2.677    0.626
        15 -11.4003     84.2592      3.5358   2.7172470260e+01   6.0739318962e+01    0.6504086    0.2152503  57.32  0.002866451    2.581    0.613
        16 -10.5970    131.6791      3.8242   1.7495179472e+01   5.0527102530e+01    0.5056278    0.1215668  55.79  0.002006436    2.838    0.648
        17 -10.5745     60.7962      2.4036   3.3594771117e+01   6.5221563532e+01    0.3074031    0.1771216  26.36  0.001859147    1.530    0.346
        18  -9.8748      1.3496      2.8406   6.0340185162e+01   7.3024777037e+01     0.268442    0.0574986 -34.02   0.00110789    4.283    0.767
        19  -9.9140    218.0846      1.8665   7.2263921804e+00   3.1303346387e+01    0.1889244    0.1227094 -77.69  0.001224935    1.263    0.208
        20 -10.0752     17.9828      1.7058   5.0931882651e+01   7.1528133762e+01    0.1568999    0.1075232  10.14   0.00115158    1.096    0.087
        21  -9.6503    219.6689    185.3506   4.6144705973e+01   6.5020839097e-01    0.1359492    0.1129216 -77.82 -7.711153e-05    1.773    0.436
        22 -10.4238     37.0994    185.4999   8.9988627704e+01   3.1543958212e+01    0.1873088    0.1314239  33.71  0.001030532    1.583    0.368
        23 -10.7430    222.3044    173.7288   4.3267325764e+01   2.4165920787e+00    0.2879089    0.1722345 -54.30  0.001296755    1.960    0.490
        24  -9.9643     14.5224    160.9609   9.2874933486e+01   3.9787142928e+01    0.2067952    0.1066733 -72.16  0.001031655    1.589    0.371
        25 -10.8727    219.2521    156.1659   4.0153211353e+01   6.3850707375e+00    0.5744991    0.2685032  51.63  0.002288342    2.633    0.620
        26 -10.0331     20.7524    155.4007   9.0587227858e+01   4.0641751429e+01    0.1578354    0.1281411  -5.74 0.0008090068    1.604    0.377
        27 -10.5493    163.2443    152.2449   5.1093041092e+01   1.8482738435e+01    0.2972417    0.2015417 -42.63  0.001299477    1.452    0.311
        28  -9.7149     53.9751    143.5114   7.9363272215e+01   4.0204622720e+01    0.2431903    0.1752446 -61.63  0.001248152    1.242    0.195
        29 -12.0779     10.9112    139.9607   9.1354270509e+01   4.5221484833e+01    0.4443698    0.2615241  72.54  0.002251962    2.063    0.515
        30 -13.4664    241.7479    125.1027   2.9771706146e+01   8.1157046339e+00     1.286526     1.091419  80.10  0.007683059    1.372    0.271
        31 -11.8448    175.3833    234.0045   6.4516462994e+01  -1.0713011184e+00    0.3539601    0.2167148 -19.07  0.001616513    2.211    0.548
        32 -11.6008    189.3560    115.9968   3.6803906533e+01   2.0591950557e+01    0.5509721    0.4064678 -18.17  0.002524875    1.788    0.441
        33 -11.1366    191.7241    109.7093   3.4838776648e+01   2.1308078929e+01    0.4830987    0.3083003 -38.39  0.002190716    1.567    0.362
        34 -11.2598    212.5951    112.9812   3.1830445437e+01   1.6143134116e+01    0.6391451    0.2880061 -42.20  0.002577195    2.042    0.510
        35  -9.8305      2.3172    116.3307   9.0714335505e+01   5.1435349607e+01    0.1347197   0.07092173 -44.87 0.0007047027    1.685    0.407
        36 -11.3554    222.8082    108.4064   2.9132317495e+01   1.4871545353e+01    0.5937862    0.4452249 -62.55  0.003168657    1.318    0.241
        37 -10.8649    148.7129    110.6683   4.4404443712e+01   3.0883830011e+01    0.4299721    0.2571872 -38.49  0.001774885    1.733    0.423
        38  -9.8414    108.1640    109.3534   5.4995488423e+01   3.9845093299e+01    0.2292751     0.140536  49.81 0.0009546551    1.782    0.439
        39 -10.7364     17.3921    104.0603   8.3787025483e+01   5.3367391940e+01    0.3425871    0.1734698  28.81  0.001735371    2.273    0.560
        40 -10.0883     30.6813    101.6705   7.8704967868e+01   5.2861356448e+01    0.2807403    0.1591197 -33.74  0.001390575    1.769    0.435
        41 -10.2135    112.5752    100.2838   5.1214297954e+01   4.0930092157e+01    0.3024319    0.1475556 -48.97  0.001146116    2.143    0.533
        42 -10.0428     91.5258    101.5055   5.7946524306e+01   4.4713488751e+01    0.1492152     0.141274 -17.08 0.0008101006    1.004    0.004
        43  -9.7799    209.0325     94.4536   2.8205388658e+01   2.0330381492e+01    0.2347425    0.1777226 -46.14 0.0008834403    1.241    0.194
        44 -10.3326    178.8969     92.6099   3.3114748708e+01   2.7491892389e+01    0.3139173    0.2573865 -77.80  0.001512582    1.306    0.234
        45 -11.1533     13.2406     90.0484   8.2506527893e+01   5.6820134510e+01    0.2496976    0.1847346 -34.70  0.001569039    1.196    0.164
        46 -13.0871     14.9687     73.1161   7.8027628694e+01   6.0327211761e+01    0.7185051    0.5702414  23.92  0.004766888    1.500    0.333
        47 -11.2817      2.4088     88.4099   8.6120226731e+01   5.7799760979e+01    0.3856718    0.2618072 -76.32  0.002334387    1.552    0.356
        48 -10.7731      2.8540     83.1539   8.4943607286e+01   5.8921683900e+01    0.2801692    0.2002696 -69.81  0.001039061    1.393    0.282
        49 -12.5674      4.5814     75.5252   8.2694186013e+01   6.0455026789e+01    0.7048915    0.4306784 -73.63  0.003996183    1.883    0.469
        50 -10.7011    191.8900     86.9693   2.9325511879e+01   2.5510027231e+01    0.5974386    0.2270286  54.80  0.002204901    2.621    0.619
        51  -9.9889    100.6838     84.0976   5.0062429208e+01   4.6599510795e+01    0.2960105    0.1308539 -49.09  0.001094908    2.552    0.608
        52 -12.2116     40.8722     82.9417   7.0480378664e+01   5.6012840618e+01    0.7295915    0.6683691 -44.85  0.004686798    1.187    0.157
        53 -12.1937     45.7993     80.9897   6.8085617699e+01   5.5873658513e+01    0.9389624    0.2972391 -44.04  0.003567779    2.756    0.637
        54  -9.8449    145.0509     81.0572   3.7245486271e+01   3.7523380909e+01    0.2474546    0.1855758 -81.76   0.00114326    1.760    0.432
        55 -10.2355    214.9747     79.0651   2.3811733600e+01   2.1687026983e+01    0.4240901     0.160523 -48.52  0.001646286    2.515    0.602
        56 -10.6137    220.5942     77.4703   2.2666211361e+01   2.0733207723e+01    0.3898613    0.2031981 -70.84   0.00154246    2.863    0.651
        57 -10.0836    169.5916     76.0393   3.0673888605e+01   3.2616080748e+01    0.2979874    0.2098198  51.38  0.001371415    1.401    0.286
        58 -10.5857    207.8756     73.1103   2.3500572514e+01   2.4232679570e+01    0.2241957    0.1736507 -73.62  0.001046589    1.248    0.199
        59  -9.9211     18.2933    127.6436   8.7478668197e+01   4.7689261383e+01    0.1311337   0.09194029  76.87  0.000703072    1.690    0.408
        60 -10.5619     74.9709     69.2039   5.3810282589e+01   5.4061529104e+01    0.3830256    0.2464475  15.44  0.001849423    1.790    0.441
        61 -11.9335    214.7174     67.0020   2.1166083931e+01   2.3687527185e+01    0.3871693    0.1985922 -37.10  0.001791142    2.018    0.504
        62 -10.7749     25.3638     65.0309   7.1632496463e+01   6.1143778877e+01    0.3454297    0.1650364 -49.59  0.001762604    1.793    0.442
        63  -9.9550    179.4997     66.3671   2.6385058542e+01   3.1852997636e+01    0.2859049    0.1668363  58.96  0.001291956    1.628    0.386
        64 -10.2792      4.1399    124.2571   9.1259676418e+01   4.9454339537e+01    0.2396064    0.1429005  79.51  0.001239921    2.047    0.511
        65 -10.1149    199.8995     63.8219   2.2528405455e+01   2.7505198226e+01    0.1981994     0.190098  57.64  0.001025527    1.243    0.196
        66  -9.4053    132.3870     63.7977   3.5250125089e+01   4.3362325501e+01    0.1910832    0.1394665 -21.39 0.0009083546    1.612    0.380
        67 -10.1657    218.6975     61.8384   1.9513871087e+01   2.3610999871e+01    0.1945019    0.1710196 -27.11  0.001185868    1.459    0.315
        68 -11.2828    210.1084     60.8867   2.0426471375e+01   2.5648053423e+01    0.2896492     0.160684 -43.90   0.00142498    1.714    0.417
        69 -11.2506     10.0908    121.7822   8.9106555874e+01   4.9678859094e+01    0.2816904    0.1481802  44.90  0.001410818    2.370    0.578
        70 -11.3782    197.6547     53.7119   2.0495656190e+01   2.9528515286e+01    0.6009655    0.4327686  -6.94  0.002980989    2.378    0.579
        71  -9.3405    138.3159     56.3242   3.1680880346e+01   4.3130849283e+01    0.1448132     0.105502  25.75 0.0007043175    1.667    0.400
        72 -10.1540    164.8098     53.5592   2.5644849532e+01   3.7266593365e+01    0.2657054    0.2209918  26.26   0.00147201    1.497    0.332
        73  -9.6368     35.2562     52.5946   6.3594557361e+01   6.2476108800e+01    0.1719346    0.1056339   9.12 0.0009524948    1.657    0.396
        74 -11.0288    215.3998     50.7077   1.7514169408e+01   2.5967176397e+01    0.3451697    0.1964969  53.55  0.001755293    1.947    0.486
        75 -10.9500     85.3299     48.2127   4.3233280455e+01   5.5647770530e+01    0.4502518    0.2860049  42.01  0.002369162    1.457    0.313
        76 -10.4782    197.0161     44.2398   1.8389598322e+01   3.0997536998e+01    0.1900413     0.157719  86.05 0.0006070544    1.053    0.050
        77 -11.3366    162.6713    230.6531   6.6720499613e+01   1.6758715405e+00    0.2820238    0.1935181  -6.22  0.001339696    1.972    0.493
        78 -11.5324      3.4490     41.5416   7.4253934487e+01   6.7076069212e+01     0.372693    0.3147593  -3.02  0.002668317    1.286    0.223
        79 -11.2954    185.9241     40.9369   1.9116613521e+01   3.4001297705e+01    0.4450968    0.2035577 -65.82  0.001633531    3.519    0.716
        80  -9.9746    181.2251     39.9640   1.9546385924e+01   3.5225841941e+01    0.2894563    0.1540244 -86.15  0.001200167    2.654    0.623
        81 -11.2926      3.7997    230.3337   1.0091948708e+02   2.4570862427e+01    0.2228359      0.19477  67.37  0.001675765    1.267    0.211
        82 -11.7411     40.0809     29.1215   5.2822790077e+01   6.5544926683e+01    0.4523564    0.2653034 -27.35  0.002047089    1.593    0.372
        83 -11.6093    240.6280    229.3062   5.0563219063e+01  -1.0124375105e+01    0.3382935    0.2032932  30.22  0.001913943    1.663    0.399
        84 -10.9489      5.4944     35.0100   7.1134507271e+01   6.8059183861e+01    0.2823727    0.1629092  23.36  0.001794457    1.899    0.473
        85 -10.2800    197.7853     34.5883   1.6089877170e+01   3.2078464177e+01      0.18534    0.1088751  82.23 0.0009500553    1.651    0.394
        86  -9.8716    144.6605     27.3399   2.2037867804e+01   4.5340147059e+01    0.2245251    0.1328896 -72.58 0.0009492073    2.493    0.599
        87  -9.4131     90.5165     28.4718   3.4634084637e+01   5.7165509527e+01    0.1299135    0.1081928  31.68 0.0008097628    1.009    0.009
        88 -11.6841    190.1413     35.8410   1.7340615006e+01   3.3674788830e+01    0.3289426     0.177399 -54.91  0.001623258    1.923    0.480
        89 -11.7850    178.2709     23.8476   1.6036153490e+01   3.7848236925e+01    0.4058312    0.3353427  74.34  0.002600963    1.071    0.066
        90 -11.2747    173.4691     20.5228   1.5854787809e+01   3.9326535559e+01    0.3531981    0.1846864  66.98  0.001425157    1.613    0.380
        91 -10.0588    168.4936     26.5318   1.8033360584e+01   3.9832519395e+01    0.1308078    0.1105567  78.26 0.0001979536    1.002    0.002
        92 -10.3026     11.6776     24.3262   6.4131031069e+01   6.9268805891e+01    0.1415295    0.1371996  18.17  0.001104692    1.762    0.432
        93  -9.8741    224.5965     22.5185   1.0707114041e+01   2.7651028871e+01    0.2301723    0.1568622  83.69  0.001454136    1.256    0.204
        94 -10.1348    187.4353     19.6284   1.3916401909e+01   3.6198749184e+01     0.243852    0.1742005  83.21   0.00140638    1.192    0.161
        95  -9.9750    128.4545     18.2337   2.2333324405e+01   5.0011449875e+01    0.2557801    0.1552212  61.08  0.001212636    1.383    0.277
        96  -9.6225    111.4075    228.7826   7.7971444478e+01   1.0707249402e+01    0.1901848    0.1286677 -47.13  0.000953257    1.679    0.404
        97  -9.7932    247.5851     15.8083   7.5711131807e+00   2.3752427948e+01    0.1667866   0.07922179 -52.50 0.0009553157    1.741    0.426
        98  -9.9406     20.4022     15.2393   5.5988708460e+01   6.9685403043e+01    0.2979899     0.132133   6.03  0.001293821    3.580    0.721
        99 -11.4038    248.5184    224.6181   4.8280121582e+01  -1.0442703110e+01    0.5092816    0.2841561 -32.78  0.002816901    1.568    0.362
       100  -9.8744     31.8043    227.3847   9.5228901893e+01   2.2278355005e+01    0.1515972    0.1173605  28.17  0.000549396    1.622    0.384
       101 -13.3043    205.1768    218.8919   5.5557634032e+01  -3.1742946925e+00      1.31632     0.832885  11.26   0.00639068    1.857    0.462
       102 -11.3413    158.2507    225.4887   6.6835096548e+01   3.4378321395e+00    0.2536197    0.2030875 -44.48  0.001004148    1.345    0.256
       103 -13.7133    183.8560    216.3883   5.9584871935e+01   8.1831045780e-01     1.075892    0.7274802 -31.93  0.005426309    1.530    0.346
       104 -11.0932     50.2783    218.0492   9.0450085858e+01   2.2163537484e+01    0.3093529    0.2483844  40.78    0.0018802    1.320    0.242
       105 -10.3483     67.5786    217.1930   8.6478489538e+01   2.0047869423e+01    0.2170991    0.1630241  35.50  0.001157039    1.404    0.288
       106 -12.9828    247.6253    184.5088   4.0864638045e+01  -3.6742497385e+00      1.37081    0.5554315 -44.97  0.005847246    2.313    0.568
       107 -12.6882    243.9249    200.7951   4.4666458054e+01  -5.9400463508e+00    0.8979335    0.6782102 -35.96  0.004344292    1.228    0.186
       108 -11.5845    247.0997    192.4878   4.2507405909e+01  -4.9819626606e+00    0.4682531     0.434221  31.21   0.00292303    1.340    0.254
       109  -9.8782    141.3731    206.8015   6.7488154057e+01   1.0341608783e+01    0.2127141    0.1353512 -41.13 0.0009546719    1.709    0.415
       110  -9.8991    202.7929    196.8336   5.1827754507e+01   1.3404657667e+00     0.187089    0.1752275 -69.20  0.001073685    1.344    0.256
       111 -10.7080    204.4850    192.5858   5.0633298426e+01   1.8721642931e+00    0.4624196    0.2641435  14.40  0.001812911    2.730    0.634
       112 -10.9717    196.1170    185.7779   5.0999240826e+01   4.7207218892e+00    0.3945726    0.2366282  50.32  0.001734482    1.982    0.496
