#   1 NUMBER                 Running object number                                     
#   2 MAG_AUTO               Kron-like elliptical aperture magnitude                    [mag]
#   3 X_IMAGE                Object position along x                                    [pixel]
#   4 Y_IMAGE                Object position along y                                    [pixel]
#   5 X_WORLD                Barycenter position along world x axis                     [deg]
#   6 Y_WORLD                Barycenter position along world y axis                     [deg]
#   7 A_WORLD                Profile RMS along major axis (world units)                 [deg]
#   8 B_WORLD                Profile RMS along minor axis (world units)                 [deg]
#   9 THETA_WORLD            Position angle (CCW/world-x)                               [deg]
#  10 FWHM_WORLD             FWHM assuming a gaussian core                              [deg]
#  11 ELONGATION             A_IMAGE/B_IMAGE                                           
#  12 ELLIPTICITY            1 - B_IMAGE/A_IMAGE                                       
         1 -14.1979    157.3834     52.9954   8.2927823585e+01   3.9169715347e+01     1.508675     1.101173  20.56  0.004379227    1.538    0.350
         2 -14.3568    169.6174     37.4951   7.5174766474e+01   3.8287322916e+01     1.269755     1.007387   8.30  0.004196412    1.325    0.245
         3 -13.9248    185.2870      7.7244   6.2566666416e+01   3.7473057228e+01      1.08663     0.889726 -68.47  0.005042388    1.345    0.257
         4 -12.4470    188.2134      2.3750   6.0440590544e+01   3.7172214324e+01    0.5245449    0.2631843  80.06  0.002140755    2.224    0.550
         5 -12.3077    168.2263    233.3767   1.1917514130e+02   8.2846508166e+00    0.2844712    0.1786075  49.93  0.001369521    1.487    0.327
         6 -19.0846     71.7865    240.8914   1.3568323403e+02   2.0086977794e+01     5.454509     4.233991  72.84   0.03961115    1.200    0.167
         7 -13.5942    137.5971    198.6382   1.2026903763e+02   1.7531684441e+01    0.6070248    0.3375807  55.21  0.003360569    1.868    0.465
         8 -11.9976    155.0654    196.8122   1.1676718038e+02   1.5060022722e+01     0.355184    0.2318149  88.42  0.001687402    3.496    0.714
         9 -10.7649    174.9874    193.6730   1.1263219953e+02   1.2263172184e+01    0.2140116    0.1548871 -79.18  0.001118049    2.722    0.633
        10 -10.6556    180.0414    192.4371   1.1151835249e+02   1.1595090522e+01    0.1927548    0.1748646 -73.28 0.0006664792    1.555    0.357
        11 -12.2310    167.4772    191.0285   1.1361225957e+02   1.3872647063e+01    0.3470758     0.210161  28.60  0.001614424    1.640    0.390
        12 -10.9461    176.6055    187.8263   1.1141903761e+02   1.2801849322e+01    0.1881444    0.1573705 -43.34 0.0007633411    1.468    0.319
        13 -10.8145    184.1664    186.8197   1.0986447601e+02   1.1664985342e+01    0.1873744    0.1557847  43.54 0.0008828322    1.209    0.173
        14 -11.0607     25.7242    232.2912   1.4241216080e+02   2.6162625499e+01    0.1036256   0.08719068  70.82 0.0006105246    1.319    0.242
        15 -11.4753    207.9355    196.1752   1.0717560656e+02   6.5264960875e+00    0.1799746     0.148098  38.30  0.001233199    1.263    0.209
        16 -12.0963    205.5048    180.4794   1.0492933981e+02   8.8588108858e+00    0.4540165    0.2403676  42.43  0.001888792    1.662    0.398
        17 -12.3044    208.5321    178.5054   1.0404063081e+02   8.5893414848e+00    0.4088136    0.2974646  27.07  0.002159298    1.147    0.128
        18 -10.0089     21.3420    226.2247   1.4284457527e+02   2.7490298927e+01   0.07371447   0.06582579  46.60 0.0002123978    1.538    0.350
        19 -12.5609    195.9337    171.2371   1.0499476094e+02   1.1756413898e+01    0.6477359    0.3669266 -43.91  0.002795565    2.197    0.545
        20 -10.7961    198.8799    222.6871   1.1270914059e+02   4.9396164227e+00    0.1610733    0.1109932  35.13 0.0004651074    1.117    0.105
        21 -10.6504    223.7502    163.9025   9.8630140754e+01   7.7673594599e+00    0.2028867     0.170033 -36.87 0.0005576557    1.530    0.346
        22 -11.1180     25.3056    165.7363   1.3903147680e+02   3.7589082464e+01    0.2253568    0.1694263  10.87 0.0009908952    2.088    0.521
        23 -18.8658     56.4726    101.6694   1.2427485910e+02   4.8056708571e+01     16.42364    0.6046407 -62.46   0.02190468   24.236    0.959
        24 -10.9122     21.5432    234.6777   1.4313922146e+02   2.6196437191e+01   0.08547825   0.06372853  58.78 0.0005988769    1.175    0.149
        25 -10.6709     30.0217    205.8389   1.4051075377e+02   2.9939627748e+01    0.1191158    0.1070696  69.58  0.001065965    1.353    0.261
        26 -11.9282    163.2075    154.9908   1.0831528356e+02   2.0180669912e+01    0.2851054    0.2673563 -44.43  0.001174376    1.209    0.173
        27 -13.9385    132.7647    145.2557   1.1298190539e+02   2.7417828891e+01    0.8669025    0.5469044 -61.93  0.003838517    1.928    0.481
        28 -11.1973     14.3229    151.1773   1.4032939460e+02   4.1368591860e+01    0.2949356    0.2080342 -50.33  0.002101384    1.832    0.454
        29 -11.9172     14.5325    146.5180   1.3997737670e+02   4.2287028622e+01    0.4123873    0.1367859  86.89  0.001781738    3.490    0.713
        30 -11.0685    174.5542    148.8777   1.0481640987e+02   1.9051784329e+01    0.2536977    0.2153885  67.62 0.0008018194    1.476    0.322
        31 -13.5885    193.6770    193.3960   1.0921819829e+02   9.2080707273e+00    0.8953844    0.5253833 -52.64  0.003305032    2.812    0.644
        32 -12.7201    144.6606    145.7694   1.1046545489e+02   2.5189473948e+01    0.4016342    0.3250641  64.77  0.002275604    1.393    0.282
        33 -12.8311      2.8040    112.5051   1.4024353553e+02   5.0206801741e+01    0.5334409    0.2355519 -89.40  0.002937046    1.942    0.485
        34 -12.1245     10.4638    111.0297   1.3816414420e+02   5.0043752800e+01    0.4228996    0.2082274   4.40  0.002095632    3.689    0.729
        35 -13.4536      2.8416    127.7573   1.4132842147e+02   4.6975621625e+01     0.953125    0.3131777 -73.72  0.004927887    2.315    0.568
        36 -12.4818     20.3525    140.9315   1.3829438306e+02   4.2963133515e+01    0.3060317     0.151141 -63.80  0.001158854    1.855    0.461
        37 -12.6402    115.4087    138.1441   1.1562713636e+02   3.1773204422e+01      0.46073    0.2665701 -44.12  0.002250294    1.886    0.470
        38 -12.7489    105.4864    138.1912   1.1796387792e+02   3.3378243767e+01     0.415006    0.2738783  61.74   0.00058146    1.708    0.414
        39 -13.0222      5.2425    139.4618   1.4153638627e+02   4.4403427877e+01    0.6617594    0.3920987 -82.54   0.00243421    1.335    0.251
        40 -11.6161    159.0310    204.8259   1.1714939105e+02   1.3298391107e+01    0.2692878    0.1704562  62.40  0.001136573    2.122    0.529
        41 -12.3627    106.0176    130.8154   1.1651403074e+02   3.4800119109e+01    0.3756823    0.3115167 -73.52  0.001289061    1.244    0.196
        42 -11.5430    108.8254    125.0228   1.1472100948e+02   3.5535550939e+01    0.2861894    0.2461184 -13.17 0.0009706231    1.435    0.303
        43 -12.2694    119.5390    129.4511   1.1299782399e+02   3.2807698261e+01    0.3576722    0.3236756  78.88   0.00117438    1.155    0.134
        44 -12.6507    135.8149    122.6091   1.0770165197e+02   3.1197722257e+01     0.573796    0.2817874 -51.95  0.002384313    2.248    0.555
        45 -10.3053    132.2744    129.3412   1.0997212008e+02   3.0549256767e+01    0.1364917     0.108372  -8.55 0.0003635829    1.615    0.381
        46 -12.5783    125.3564    126.8877   1.1109143482e+02   3.2290676158e+01    0.6155434    0.3889885  86.53  0.002388903    3.279    0.695
        47 -11.1523     98.7228    126.4449   1.1749542839e+02   3.6868879485e+01    0.2533396    0.1209906  44.04  0.001017752    2.081    0.520
        48 -11.2886    113.9834    118.4963   1.1210468555e+02   3.6008120067e+01    0.2541714    0.2040016 -52.04 0.0003971066    1.238    0.192
        49 -11.0335    115.8954    115.1395   1.1089980801e+02   3.6365845340e+01    0.2431673    0.1976162  57.15 0.0007942352    1.293    0.226
        50 -12.8773     27.6900    118.0439   1.3442661475e+02   4.7224973316e+01    0.3392847    0.2302398 -33.27  0.001393897    2.084    0.520
        51 -11.1168    167.4519    113.0471   9.8292081880e+01   2.6575071128e+01    0.3996238    0.3015472  79.93   0.00185681    2.008    0.502
        52 -12.3009     27.7898    112.8438   1.3382015103e+02   4.8358273161e+01    0.3030967    0.1570598  31.11  0.001720143    2.192    0.544
        53 -11.5722    160.4151    127.8784   1.0331415700e+02   2.5395149057e+01    0.3483582    0.2521448 -52.33  0.001758273    1.594    0.373
        54 -10.6798    205.6436    110.1109   8.9918324370e+01   1.8807997501e+01    0.2793828    0.2003337  35.97 0.0007154361    1.349    0.259
        55 -12.1638    163.4743    203.8917   1.1621858098e+02   1.2726347558e+01    0.2916561    0.2322515 -47.29  0.001364835    1.578    0.366
        56 -12.0947     95.4912    110.1639   1.1511136970e+02   4.0848259451e+01    0.3586304    0.2883155   6.19  0.001261372    1.638    0.390
        57 -11.1097     41.8155     91.9788   1.2690106351e+02   5.1791125298e+01    0.1867301    0.1802077  79.50 0.0004733042    1.181    0.153
        58 -11.0103     95.8663     80.0074   1.0768631306e+02   4.7286068791e+01     0.330384    0.1930017  40.72 0.0004755412    1.837    0.456
        59 -10.3099    117.6745     66.9839   9.7453483489e+01   4.5822562490e+01    0.2110495    0.1824329 -35.44 0.0003849484    1.102    0.092
        60 -10.8388    196.8820    247.1440   1.1619939040e+02   2.7215323529e+00    0.1645565    0.1307751  -4.05  0.001351126    1.457    0.314
        61 -11.5066     13.4787    245.0651   1.4467726029e+02   2.5418678010e+01    0.2100609   0.05747909 -71.68   0.00128439    3.695    0.729
        62 -12.6268    173.3602     30.1649   7.1984679132e+01   3.8239523605e+01    0.4764206    0.3522435  22.88  0.001007582    1.450    0.310
        63 -10.1549     13.6418     59.9068   1.3058231903e+02   6.1257128914e+01    0.1717392     0.118915 -69.26 0.0004532938    1.140    0.123
        64 -10.7550    135.1506     30.2174   7.9589691640e+01   4.7997209899e+01    0.2930364    0.2390031  72.47  0.001042578    1.457    0.314
        65 -11.2953    160.9630    198.2768   1.1588578510e+02   1.3905707205e+01    0.1854565    0.1563996  37.00 0.0005155175    1.033    0.032
