#   1 NUMBER                 Running object number                                     
#   2 MAG_AUTO               Kron-like elliptical aperture magnitude                    [mag]
#   3 X_IMAGE                Object position along x                                    [pixel]
#   4 Y_IMAGE                Object position along y                                    [pixel]
#   5 X_WORLD                Barycenter position along world x axis                     [deg]
#   6 Y_WORLD                Barycenter position along world y axis                     [deg]
#   7 A_WORLD                Profile RMS along major axis (world units)                 [deg]
#   8 B_WORLD                Profile RMS along minor axis (world units)                 [deg]
#   9 THETA_WORLD            Position angle (CCW/world-x)                               [deg]
#  10 FWHM_WORLD             FWHM assuming a gaussian core                              [deg]
#  11 ELONGATION             A_IMAGE/B_IMAGE                                           
#  12 ELLIPTICITY            1 - B_IMAGE/A_IMAGE                                       
         1 -13.0078    196.9717     32.3432   6.4669062635e+01   3.2130170992e+01    0.9163232    0.8621063  11.87  0.005842874    1.421    0.296
         2 -13.7681    211.6938     14.9975   5.9033487002e+01   3.0722986341e+01     1.158708    0.9120942  40.72  0.007154538    1.747    0.427
         3 -11.6158      2.2336      4.4173   1.0989708953e+02   7.2135281243e+01    0.4907965     0.171631 -43.33  0.002680218    2.771    0.639
         4 -11.4971    199.3351    246.3105   1.1143623333e+02  -6.9183805567e+00    0.4454385    0.2015636  46.29  0.002000082    2.321    0.569
         5 -10.4433    184.4191    250.5124   1.1506935715e+02  -5.1209266547e+00    0.3108506    0.1262018  38.99            0    2.086    0.521
         6 -10.7379    169.6319    248.6038   1.1774858844e+02  -2.3284841088e+00    0.3505211    0.2386778   4.19 0.0007399537    2.093    0.522
         7 -11.1091    149.9966    248.7544   1.2176010493e+02   1.0049862476e+00    0.3591239    0.2764969 -80.32  0.002068089    1.734    0.423
         8 -10.8485    143.2928    249.4108   1.2321582726e+02   2.0377560130e+00    0.3636425    0.2099911  53.84   0.00182806    1.716    0.417
         9 -10.7413    135.8506    248.2055   1.2456613734e+02   3.5234849338e+00    0.2387724    0.1892869 -47.66 0.0008663805    1.519    0.342
        10 -11.6487    127.0056    249.0524   1.2647407899e+02   4.8692578720e+00    0.5872158     0.302856  43.81   0.00264255    1.613    0.380
        11 -12.5042    124.8498    240.6031   1.2580696116e+02   6.8155936414e+00    0.6077555    0.5731449 -36.82   0.00391764    1.319    0.242
        12 -11.8889    109.6845    247.0037   1.2971765736e+02   8.1340846176e+00    0.5473642    0.4552357  83.26  0.003468855    1.219    0.179
        13 -10.8345     85.3647    234.9255   1.3324309015e+02   1.4414194433e+01    0.4183834    0.2262717  59.71  0.001887311    1.780    0.438
        14 -10.6763     84.8034    229.3775   1.3272774609e+02   1.5654937161e+01     0.246732    0.2112556 -76.32  0.000140613    1.234    0.190
        15 -11.5246     99.0167    232.7708   1.3017588096e+02   1.2692811073e+01    0.6770639    0.3074426 -73.67  0.002745658    3.059    0.673
        16 -11.4512    113.1875    231.0046   1.2696892804e+02   1.0696992797e+01    0.4810042    0.3889676  33.47  0.001879369    1.329    0.248
        17 -11.3505     96.9354    239.5912   1.3142105481e+02   1.1647474242e+01    0.5443287    0.3076308 -37.31  0.002338084    3.412    0.707
        18 -11.7386    104.8622    227.8054   1.2831523902e+02   1.2755849148e+01    0.5288557    0.3908513  71.29  0.001843358    1.342    0.255
        19 -10.7491     91.3741    241.7582   1.3279180041e+02   1.2095815958e+01    0.3320169    0.2302107  84.15   0.00138122    1.498    0.332
        20 -10.4446     89.8160    238.2392   1.3271133547e+02   1.3046106145e+01    0.2538389     0.224115 -56.58 0.0008341816    1.419    0.295
        21 -11.0352     87.1084    248.1209   1.3432348214e+02   1.1504694787e+01    0.3409224    0.2818971  44.68 0.0007605792    1.266    0.210
        22 -10.8952     74.1270    242.5626   1.3629016552e+02   1.4553454112e+01    0.5452347    0.3355291 -39.37   0.00264785    3.039    0.671
        23 -11.2879     60.5239    246.2970   1.3924421398e+02   1.5745494855e+01    0.5368783    0.3685536  76.30  0.002423371    1.254    0.203
        24 -11.2020     67.7395    243.9550   1.3766080654e+02   1.5198959262e+01    0.4538508    0.2344055  50.74  0.002442569    1.609    0.379
        25 -12.7658      2.9901    189.1190   1.4573621357e+02   3.4580191188e+01     1.646935    0.4005368 -70.88  0.006884898    3.008    0.668
        26 -13.4347      8.1982    214.3568   1.4654291038e+02   2.8605935144e+01     1.439297     1.138717 -83.99   0.01053882    1.207    0.171
        27 -12.7487     12.4072    205.6824   1.4512177636e+02   3.0065136547e+01     1.113261     0.638029  10.84  0.005510402    3.750    0.733
        28 -13.6063     28.1038    246.8977   1.4516087582e+02   1.9772207638e+01     1.531494    0.7255109  46.00  0.008965645    1.807    0.446
        29 -13.6488     39.7017    242.6642   1.4279430011e+02   1.9210015383e+01     1.460011    0.8728082  52.22   0.00908907    1.405    0.288
        30 -13.3635      3.8777    245.2771   1.4915741250e+02   2.2746058612e+01     1.303774    0.5456487 -87.10  0.007435637    2.030    0.507
        31 -13.0634     13.8747    238.6797   1.4709816328e+02   2.3000776015e+01    0.9981239    0.5062816  70.29  0.001331771    1.639    0.390
        32 -12.8117     33.2236    227.5114   1.4281558712e+02   2.3116013350e+01    0.4621896    0.3242303 -63.48 0.0008107895    1.586    0.370
        33 -14.2937     39.9169    218.5770   1.4076499626e+02   2.4223066244e+01     2.023469     1.396138  16.25   0.01125072    2.461    0.594
        34 -11.4203    176.5074    242.6339   1.1542880773e+02  -2.5104399914e+00    0.3869084    0.2723677  51.81  0.001732353    1.500    0.333
        35 -10.1288    152.4230    243.2329   1.2046607838e+02   1.5574097633e+00    0.1681037    0.1304791 -70.51 0.0009347969    1.638    0.389
        36 -10.8717    142.1054    221.6298   1.1936034410e+02   7.4834016710e+00    0.4632496    0.2610305  33.45 0.0003520846    1.802    0.445
        37 -11.3232    115.3742    250.3898   1.2898340207e+02   6.5621234483e+00    0.4995092    0.3622198  32.00 0.0008449982    1.479    0.324
        38 -11.6785    135.8717    225.3424   1.2129178468e+02   7.8688354041e+00    0.5246297    0.3497752  58.91  0.001660449    1.561    0.360
        39 -12.5564    135.5273    241.0227   1.2364855607e+02   4.8977097627e+00    0.5483292    0.4692331  30.10  0.002768537    1.219    0.180
        40 -10.9898    134.7822    237.0115   1.2323922593e+02   5.7839463613e+00    0.2502266    0.2190269  32.59 0.0007914777    1.177    0.151
        41 -12.0392    134.4480    232.6405   1.2268162103e+02   6.6836465930e+00    0.4427278    0.3941902 -87.17  0.001879788    1.227    0.185
        42 -10.0731    102.7880    247.4058   1.3114739072e+02   9.1773151349e+00    0.2151741     0.205092  63.99 0.0007471923    1.239    0.193
        43 -11.0237    166.0617    242.1703   1.1749549680e+02  -6.2835984010e-01    0.3441468    0.1690065  39.96  0.001603509    1.744    0.426
        44 -10.4474     84.5972    241.1180   1.3407665712e+02   1.3273598535e+01     0.353728    0.2596857 -88.77  0.002139769    1.346    0.257
        45 -10.6320    244.4913    241.0063   1.0192541423e+02  -1.3028398444e+01    0.1763774    0.1084685 -30.63  0.001033589    1.592    0.372
        46 -11.0404    116.9247    238.0672   1.2711727402e+02   8.6546129808e+00    0.4507783    0.2815436 -35.46  0.001666459    2.528    0.604
        47 -11.3596    122.3005    233.2315   1.2534099211e+02   8.6887704519e+00    0.3895647    0.3021839 -51.96  0.001773629    1.492    0.330
        48 -10.6027    105.1060    237.8557   1.2953895391e+02   1.0668662598e+01     0.305439    0.1660523  34.82  0.001462026    1.905    0.475
        49  -9.3349    173.0126    235.9964   1.1508609546e+02  -7.7156419066e-01    0.1878567    0.1554915  69.13 0.0003488249    1.514    0.340
        50  -9.1051    156.2504    236.4455   1.1864982039e+02   2.1061747672e+00    0.1927529    0.1139827  47.93 0.0005982294    1.557    0.358
        51 -10.4992    156.7923    231.7183   1.1779931663e+02   2.8777172483e+00     0.238308    0.2337866 -45.13 0.0004422909    1.162    0.140
        52  -9.3333     62.8118    232.9730   1.3756836208e+02   1.8142514983e+01    0.1679236    0.1530262  82.09 0.0002838428    1.247    0.198
        53  -8.8011    162.2927    232.6680   1.1678954605e+02   1.7195189175e+00    0.1337733    0.1033204  70.13 0.0003288958    1.633    0.388
        54  -8.4758     92.4709    232.4992   1.3150354604e+02   1.3801020153e+01    0.1320828    0.1130627  64.49 5.515695e-05    1.045    0.043
        55 -10.0324    250.3937    231.1875   9.9118208930e+01  -1.2492181225e+01    0.1671059    0.1071903 -40.81  0.000961958    1.765    0.433
        56 -11.1301    141.7330    229.5633   1.2067106797e+02   5.9866402898e+00    0.4908437    0.2145185 -48.33  0.002062156    2.601    0.616
        57  -8.4514     57.4585    231.0546   1.3844068092e+02   1.9283645262e+01    0.1742677    0.1096824 -77.17 0.0009990054    1.502    0.334
        58  -9.5204     61.9383    238.7422   1.3828919421e+02   1.7072020975e+01    0.2839392    0.1920612  26.21  0.001584664    2.102    0.524
        59 -10.4340     79.5692    225.9382   1.3342119674e+02   1.7185992269e+01     0.395521    0.2747185 -83.74  0.001148012    1.427    0.299
        60  -9.3715     77.2766    220.9615   1.3332991113e+02   1.8604821944e+01    0.2020063    0.1514796  73.52 0.0004286663    1.200    0.166
        61  -9.6377     45.6923    230.7768   1.4070712998e+02   2.0894805391e+01    0.2865665    0.1467821 -89.67  0.001476564    1.974    0.494
        62 -10.4325     91.5170    225.5883   1.3086893233e+02   1.5400477600e+01    0.4637755    0.1799579  49.26  0.001255409    2.344    0.573
        63 -10.3597    117.0288    224.3126   1.2522579919e+02   1.1410813754e+01    0.2915174    0.2332191  28.68 0.0004119442    1.409    0.291
        64  -9.4951     64.9656    224.5744   1.3628876632e+02   1.9620246736e+01     0.226073     0.163471 -58.00   0.00101546    1.588    0.370
        65  -9.8346    160.5667    223.3244   1.1563571326e+02   3.7723712961e+00     0.237457    0.1599854  22.68 0.0007500456    1.707    0.414
        66 -11.0989     98.6965    223.3701   1.2905688869e+02   1.4709482498e+01    0.4200468    0.2717077  43.00  0.001285482    1.421    0.296
        67 -10.2606     70.3547    218.9020   1.3455582175e+02   2.0079076250e+01     0.485303    0.2673758 -74.53  0.002439035    1.821    0.451
        68  -9.2774     67.7590    214.3819   1.3459596492e+02   2.1452299294e+01    0.2116852    0.1426248 -85.08 0.0005290003    1.422    0.297
        69 -10.2213    245.6016    220.7422   9.8085244983e+01  -1.0277659337e+01    0.2472837    0.1091295 -33.31  0.001155396    2.190    0.543
        70  -8.8226    118.7169    217.9435   1.2393627098e+02   1.2450978611e+01    0.1656859     0.124263 -59.44 0.0007765198    1.439    0.305
        71 -11.3311     98.8626    247.1313   1.3189841406e+02   9.8586553680e+00    0.4716782    0.3217689  72.50  0.002294262    1.481    0.325
        72  -9.1630     89.0037    218.4826   1.3052059203e+02   1.7330225483e+01    0.1991487    0.1865585 -68.03 0.0004282045    1.261    0.207
        73  -9.6090     88.3821    213.3044   1.2999148453e+02   1.8568754982e+01    0.3652387    0.2020846 -86.51   0.00157638    2.391    0.582
        74  -9.1026     62.5829    217.9668   1.3608334042e+02   2.1392260376e+01    0.1892109    0.1679482  44.29 0.0005534771    1.330    0.248
        75 -10.1626    137.3341    214.4790   1.1926704214e+02   9.8180410034e+00    0.2807001     0.216784 -86.14  0.001141645    1.572    0.364
        76  -9.4215    160.0577    213.7549   1.1412145883e+02   5.7267302369e+00    0.2055486    0.1812356  54.39 0.0005092766    1.131    0.116
        77 -10.4537    101.9463    212.0628   1.2681376983e+02   1.6620152182e+01    0.4558146    0.2309114  59.67  0.001885152    2.290    0.563
        78 -10.1088     91.2980    204.8042   1.2819321840e+02   2.0010932325e+01    0.4625934    0.3285136  35.15  0.001423681    1.516    0.340
        79  -9.5818     97.2241    210.8115   1.2769409747e+02   1.7686706984e+01    0.2157234    0.1736169  53.16 0.0003249839    1.135    0.119
        80  -9.7389     96.4708    206.7189   1.2728929591e+02   1.8728318647e+01    0.3605976    0.2166298  88.99  0.001580679    2.206    0.547
        81  -9.2967    106.8686    209.8457   1.2538959260e+02   1.6271684706e+01    0.1986741    0.1933187 -23.33 0.0005332766    1.274    0.215
        82  -9.7757    112.6208    208.4566   1.2388083151e+02   1.5577835732e+01    0.2608373    0.2302426  68.64  0.001490878    1.038    0.036
        83  -9.4093     74.9258    208.4674   1.3234074549e+02   2.1730376382e+01    0.2457406    0.1784611  49.04  0.001374218    1.294    0.227
        84  -8.6899    134.4907    208.4715   1.1892210623e+02   1.1610157797e+01    0.1443404    0.1336205  46.83 0.0001721976    1.055    0.052
        85  -9.0427     32.8537    206.9490   1.4114318577e+02   2.7619065378e+01    0.1716592    0.1403385 -72.79 0.0003686586    1.269    0.212
        86  -8.2917    148.6613    205.6695   1.1524290460e+02   9.5330170588e+00    0.1480445    0.1155677  -0.06 0.0007051874    1.739    0.425
        87  -9.2538     74.6421    203.8366   1.3182278707e+02   2.2827550135e+01    0.2590445    0.1953463  20.63 0.0008470177    1.830    0.453
        88 -10.7337    250.0443    201.1639   9.3586887790e+01  -7.9158680141e+00    0.3725556    0.1527498 -30.81  0.001563072    2.526    0.604
        89  -9.2816    103.9027    203.0822   1.2506046736e+02   1.8296113421e+01    0.2130776     0.176514 -19.43 0.0007050111    1.723    0.420
        90 -10.1948     84.2549    201.4954   1.2933942534e+02   2.1893758815e+01    0.4085985    0.2546291 -41.10   0.00153487    2.223    0.550
        91  -9.2979     85.9710    195.7393   1.2813619492e+02   2.2957754170e+01    0.2176106    0.1731508  74.39 0.0003519412    1.192    0.161
        92  -9.5252    223.2993    244.6426   1.0650502719e+02  -1.0439539776e+01    0.1097949      0.10082  69.75 0.0007036123    1.707    0.414
        93 -11.4878     41.4759    205.8880   1.3925789139e+02   2.6841832188e+01    0.6443437    0.2711681  43.99  0.002173781    2.195    0.544
        94  -8.8932    183.1381    200.2024   1.0661163600e+02   4.0083351100e+00     0.184899    0.1664123  64.27 0.0002893587    1.267    0.210
        95  -8.9776    127.9129    199.6864   1.1895751740e+02   1.4748817090e+01    0.2007453    0.1744011  51.91  0.000408366    1.069    0.064
        96  -9.7104     44.6429    198.8414   1.3786316331e+02   2.8058204568e+01    0.2977925    0.2693575  -2.00  0.001904085    1.634    0.388
        97  -8.9587    119.9552    199.2895   1.2074159395e+02   1.6306743321e+01     0.204652    0.1737233  54.67 0.0002947623    1.092    0.084
        98 -10.0515     53.9850    198.0035   1.3572218776e+02   2.7067464034e+01     0.352217    0.1887624  48.30  0.001771715    1.771    0.435
        99  -9.2171     28.0073    198.1636   1.4134233816e+02   3.0132308156e+01    0.2355919    0.1486105 -77.23  0.001388497    1.334    0.251
       100  -8.4743    145.2109    198.0161   1.1466677024e+02   1.1824286128e+01    0.1841532    0.1208299 -51.46 0.0002977732    1.620    0.383
       101  -9.7621    102.4937    196.1711   1.2432931593e+02   2.0120055183e+01    0.3921527    0.2666499 -22.22  0.001286969    2.685    0.628
       102  -9.9118     96.6107    195.9631   1.2567912636e+02   2.1167576826e+01    0.3530246     0.205533  49.67  0.001631452    1.638    0.390
       103  -9.0938     38.6921    196.0386   1.3886006493e+02   2.9414971604e+01    0.2605495    0.1291419  90.00  0.001205704    2.170    0.539
       104  -9.5711     38.5826    192.2203   1.3848615005e+02   3.0308698528e+01    0.2592154    0.1639414 -56.26 0.0006004496    1.660    0.398
       105  -9.8944     40.7483    188.4085   1.3759376820e+02   3.0943215315e+01    0.2770377    0.1916984  73.34 0.0007357475    1.351    0.260
       106 -10.7209    249.6749    194.1376   9.2287148958e+01  -6.7222174187e+00    0.3208235    0.2523529  -7.15     0.001926    1.200    0.167
       107 -11.5974     39.5968    230.3564   1.4183733790e+02   2.1748249649e+01    0.3363942    0.2365266  85.62 0.0005242762    1.176    0.150
       108 -11.6827     60.0587    194.7134   1.3397014987e+02   2.7022929668e+01     0.488814    0.4038129 -43.16  0.001755051    1.551    0.355
       109  -9.0749     72.7678    192.9369   1.3082137956e+02   2.5639330894e+01     0.193855    0.1727898 -56.64  0.000416649    1.281    0.219
       110  -9.7993     25.7559    192.3437   1.4127560759e+02   3.1695211889e+01    0.2576396    0.1589662  62.34 0.0008982125    1.525    0.344
       111  -9.7727    191.4693    191.4599   1.0311530627e+02   4.1134983929e+00    0.2509979    0.2369064   5.00 0.0006083233    1.019    0.018
       112  -9.5240     20.0120    191.2654   1.4239411206e+02   3.2527459286e+01    0.1732188    0.1365246 -89.61  0.001154675    1.027    0.027
       113  -9.8568     31.0648    189.6643   1.3986959188e+02   3.1744195021e+01    0.3095255    0.1859415  49.63  0.001175346    1.630    0.387
       114 -10.6759    249.9336    187.7791   9.0989382929e+01  -5.7135735159e+00    0.3945965    0.2156161 -26.77  0.001889041    1.868    0.465
       115  -9.6311     77.0362    188.7219   1.2923362554e+02   2.5998817016e+01    0.2226899    0.1812095 -77.88 0.0005281785    1.141    0.124
       116 -11.5689     66.6876    187.0485   1.3144943595e+02   2.7912506350e+01    0.3189442    0.2429904 -54.79 0.0007845442    1.399    0.285
       117 -10.8044     83.8154    186.8552   1.2734192034e+02   2.5395793213e+01    0.2439405    0.2094074  89.96            0    1.071    0.066
       118  -8.3923     45.2815    186.6691   1.3637171306e+02   3.0811561234e+01    0.1365628   0.08592352  74.98 0.0004145875    1.608    0.378
       119 -10.0415     28.4313    184.4858   1.3992399458e+02   3.3224674844e+01    0.3194088    0.2277713  18.48    0.0012915    1.993    0.498
       120  -9.2589     24.3097    184.2768   1.4081226701e+02   3.3697699922e+01    0.1860317    0.1505542 -79.01 0.0005108393    1.111    0.100
       121  -9.2608    140.1324    183.1719   1.1309216554e+02   1.6106359531e+01    0.2123143    0.2031216  16.30 0.0003007411    1.133    0.117
       122 -10.1527    127.7393    182.5757   1.1595716217e+02   1.8665194558e+01    0.2633659     0.243943 -86.58 0.0003726334    1.079    0.073
       123  -9.7345    107.8392    182.3826   1.2077538959e+02   2.2412952092e+01     0.248617    0.2037846 -54.31 0.0003814148    1.262    0.208
       124  -9.1848     36.6685    183.1389   1.3793194978e+02   3.2645752104e+01     0.213139    0.1412537 -89.71  0.001197994    1.361    0.265
       125 -12.5191    248.2634    172.4168   8.8193913598e+01  -2.8200361936e+00     1.079094    0.4278767 -42.57  0.004436526    2.330    0.571
       126 -11.8034    245.1040    162.3209   8.6662983103e+01  -4.9158048524e-01    0.6182813     0.244637 -44.22  0.002463321    2.373    0.579
       127 -12.1248    248.6685    159.7103   8.5513866629e+01  -6.5764310299e-01    0.9029434     0.617814 -66.62  0.004344672    2.204    0.546
       128  -9.6509     85.8533    180.2936   1.2583376657e+02   2.6644848506e+01    0.3354708    0.2132647  80.90  0.001054813    1.980    0.495
       129 -11.9341    240.0492    151.3593   8.5231554221e+01   2.4144525149e+00    0.6218349    0.4134592 -32.95  0.003097694    1.425    0.298
       130  -9.1019     11.9313    178.6393   1.4298457371e+02   3.6169064858e+01    0.1934197    0.1212269  13.99  0.001091554    2.468    0.595
       131  -8.9576    126.0812    177.1957   1.1534780346e+02   2.0237380071e+01    0.2079415    0.1711308  75.19 0.0002877666    1.309    0.236
       132  -9.9421    103.0509    176.0609   1.2085344054e+02   2.4773207843e+01    0.2175046    0.2023258  84.55            0    1.007    0.007
       133 -11.9968    107.8866    172.9364   1.1907683427e+02   2.4660952460e+01    0.2879919    0.2668196  77.06 0.0003025073    1.022    0.022
       134 -10.7636     76.7417    174.9689   1.2725216020e+02   2.9350878354e+01    0.2885895    0.2416648 -63.14 0.0004130949    1.167    0.143
       135 -11.5324     63.6117    173.2753   1.3026012767e+02   3.1655582495e+01    0.3505567    0.2680568 -73.94 0.0005706055    1.183    0.154
       136 -10.3854     19.3686    172.9360   1.4078029705e+02   3.6810994615e+01    0.3747123    0.2229794  64.28  0.001476694    1.709    0.415
       137 -11.1682     14.2591    166.9651   1.4134236267e+02   3.8660277292e+01    0.3358189    0.3240193 -68.97  0.001879216    1.303    0.233
       138 -10.7092     11.8487    173.2276   1.4250165741e+02   3.7419144630e+01    0.3636016    0.1606185 -62.13  0.001867639    1.901    0.474
       139 -11.3931     45.4923    171.5720   1.3447163331e+02   3.4381321314e+01      0.58349    0.3533846  89.68  0.001074689    1.726    0.421
       140  -9.9445     27.9015    171.5006   1.3865780226e+02   3.6321060842e+01    0.3588681    0.1764991 -59.71  0.001632865    1.793    0.442
       141 -13.2507      4.4861    142.7953   1.4112269036e+02   4.5030714378e+01     1.035864    0.5429409 -69.27  0.005840925    1.467    0.318
       142 -12.1411     16.5448    139.3403   1.3760742010e+02   4.4942816544e+01     0.609355    0.2707123  53.99  0.002755454    2.939    0.660
       143 -11.4295      6.8372    167.0128   1.4303907421e+02   3.9267035612e+01    0.4786423    0.1923044 -82.91  0.002209074    2.313    0.568
       144 -10.8093      4.3582    172.8527   1.4411836750e+02   3.8129384585e+01    0.3012002     0.215975  28.69  0.001171773    1.776    0.437
       145 -11.3756      1.8667    163.1731   1.4380488005e+02   4.0530908915e+01     1.259202   0.05448496 -70.91  0.003236828    7.334    0.864
       146  -8.5833    166.7629    170.6160   1.0428553604e+02   1.3455360362e+01    0.1550663    0.1194611 -16.62 0.0001788257    1.636    0.389
       147  -8.6452    150.9713    170.0522   1.0787038352e+02   1.6880903839e+01    0.1786029    0.1733537 -66.57            0    1.049    0.046
       148  -8.5158     52.6034    170.7642   1.3262469311e+02   3.3710379022e+01    0.1250549     0.102186 -26.64 0.0006912309    1.660    0.398
       149  -8.9443    134.0161    167.6848   1.1150845074e+02   2.0899534745e+01      0.21074    0.1954892  52.86 0.0004444975    1.053    0.050
       150 -11.7213     84.4098    166.3584   1.2389262578e+02   3.0264076587e+01    0.5810759      0.51371  35.37  0.003237444    1.251    0.201
       151  -8.1257     58.2900    167.3281   1.3071977598e+02   3.3816007068e+01    0.1354833   0.09960594 -41.20 0.0004980093    1.619    0.382
       152  -8.6653     68.4813    166.5056   1.2800867203e+02   3.2626538826e+01    0.1421444    0.1256703 -86.35 0.0008103021    1.018    0.018
       153  -9.1034     33.0000    162.9861   1.3642980936e+02   3.7824872009e+01    0.3816362   0.06322306 -67.85  0.001071102    5.115    0.805
       154  -9.4111     58.2116    162.6081   1.3003563329e+02   3.4977823170e+01    0.2242019    0.1641054 -79.64 0.0003927661    1.282    0.220
       155  -9.8192     22.4739    163.0519   1.3899160934e+02   3.8840930884e+01    0.2811219    0.1648604  -8.82  0.001065105    3.518    0.716
       156  -9.7391     45.0000    164.9635   1.3371726476e+02   3.6032493233e+01    0.2689621    0.1690654 -72.40 0.0003981834    1.400    0.286
       157 -10.5775     12.4237    161.2525   1.4118214064e+02   4.0145209002e+01     0.235953    0.1750574  71.19  0.001197908    1.314    0.239
       158  -9.9526     89.9212    160.0824   1.2133566045e+02   3.0909074659e+01    0.2166032    0.2044259 -76.31 0.0003227575    1.043    0.041
       159  -8.5895     73.5057    159.5170   1.2555968660e+02   3.3615322963e+01    0.1438853     0.129854 -82.21 0.0001277405    1.009    0.009
       160  -8.7217     47.0697    158.4564   1.3228268413e+02   3.7368144009e+01    0.1768233    0.1164383 -12.85 0.0008083924    2.664    0.625
       161  -9.1126     71.5195    156.7835   1.2561680959e+02   3.4577604716e+01    0.2565844    0.1772232   0.88  0.001146955    2.391    0.582
       162 -11.0255     31.8270    155.8461   1.3581140391e+02   3.9653376565e+01    0.3665026    0.2484074 -53.79  0.001041805    1.420    0.296
       163 -11.1808     23.9104    155.0072   1.3769292985e+02   4.0612624015e+01    0.3976691    0.2728404  15.69  0.002307438    1.982    0.495
       164 -12.1053     12.8357    153.6837   1.4026931820e+02   4.1877556702e+01    0.4697683    0.2932258 -53.39   0.00123872    1.541    0.351
       165 -10.9032     10.9989    150.0264   1.4031136139e+02   4.2876516539e+01    0.2087642    0.1839637 -24.43 0.0003120944    1.472    0.321
       166  -8.7978    228.3459    155.2721   8.8146545419e+01   3.9177224098e+00    0.2011378    0.1241173 -47.17 0.0005160351    1.588    0.370
       167  -9.5791     84.2560    155.4526   1.2198280027e+02   3.2967178041e+01    0.3736798    0.1915918  27.73 0.0009281187    2.481    0.597
       168  -9.7241    104.9179    153.4974   1.1608026150e+02   2.9913959325e+01    0.2540544    0.2019031 -78.87 0.0003322007    1.357    0.263
       169 -10.0631     90.0494    153.0419   1.1997141999e+02   3.2616349901e+01    0.3103436    0.2390752 -40.91 0.0007546404    1.413    0.292
       170 -12.9966    247.6141    101.1807   7.3293976064e+01   9.9836598498e+00     1.469178    0.6111727 -36.66  0.005937866    2.386    0.581
       171 -11.8593    248.2723    113.1046   7.5739617904e+01   7.7626656741e+00    0.8651742    0.6179446  -1.54  0.004070229    2.417    0.586
       172 -11.8062    247.7941    142.5305   8.2065161993e+01   2.5766569273e+00    0.6259602    0.5624426  34.32  0.003434047    1.250    0.200
       173 -12.8578    248.6055    133.7843   8.0085826012e+01   4.0005857929e+00     1.469311    0.6351683 -42.02  0.006186075    2.032    0.508
       174 -10.3005     97.3378    151.1591   1.1763584497e+02   3.1836249163e+01    0.3668258    0.3061746 -50.87  0.001708093    1.188    0.159
       175  -9.2793     69.9667    152.0449   1.2520823926e+02   3.5966364106e+01    0.2143476    0.1958941 -73.26 0.0003132941    1.023    0.022
       176  -9.8810     59.4344    150.0916   1.2771713629e+02   3.7883237788e+01    0.4803283    0.2211161  62.52  0.001596186    4.033    0.752
       177 -10.2016     85.0821    148.2741   1.2039380913e+02   3.4599061371e+01    0.4622295    0.2602392 -80.52  0.001722964    2.718    0.632
       178 -10.1463     23.8203    149.4278   1.3701793547e+02   4.1945289552e+01    0.2094952    0.1261847 -64.67 0.0004618946    1.360    0.265
       179 -12.1953     68.3398    144.3310   1.2426361878e+02   3.8090645298e+01      0.68427    0.4953407  86.60  0.002209431    1.613    0.380
       180  -9.0279    100.8437    146.2729   1.1567992217e+02   3.2408640370e+01    0.2981473    0.1877441 -31.47  0.001213346    2.149    0.535
       181  -8.8117     40.3212    147.6547   1.3246255016e+02   4.0744907484e+01    0.1390851   0.09234851  75.21 0.0007049753    1.732    0.422
       182 -10.2646    236.2485    145.9189   8.4724621461e+01   4.1405109347e+00    0.2590854    0.2088706  34.22 0.0007654672    1.381    0.276
       183 -10.8212     72.6958    139.8736   1.2219898122e+02   3.8557387439e+01    0.3341818    0.2620249 -38.81  0.001033198    1.365    0.267
       184  -9.4356     55.4869    150.4864   1.2884563030e+02   3.8291079175e+01     0.138989    0.1216032 -78.93 0.0003272656    1.032    0.031
       185 -10.0886    133.3719    141.2223   1.0588792001e+02   2.7249121376e+01     0.570169    0.2742342 -53.85  0.002065338    2.202    0.546
       186  -9.8514     32.3962    145.2827   1.3422363312e+02   4.2129252483e+01    0.2122635    0.1310864 -43.71  0.001073703    1.745    0.427
       187  -8.8325    105.0196    142.9687   1.1383478291e+02   3.2451793151e+01    0.1777354    0.1698185 -72.71 0.0003304483    1.008    0.008
       188 -10.3654     32.8311    140.7337   1.3344564376e+02   4.3176223231e+01     0.271653     0.186776  83.21   0.00102739    1.590    0.371
       189 -10.9979    240.4890    138.5399   8.2416741624e+01   4.6857794746e+00    0.4517388    0.2935253 -18.71  0.002065983    2.047    0.512
       190  -9.3212     37.0058    139.9972   1.3219633942e+02   4.2937024805e+01    0.2048556     0.144624  76.33 0.0008060987    1.601    0.375
       191 -10.9928     60.3645    136.6367   1.2508026121e+02   4.1047019594e+01    0.3137892    0.2398629 -77.79  0.001688278    1.319    0.242
       192  -9.7861     50.5449    138.0352   1.2811306923e+02   4.1924301934e+01    0.1947021    0.1832707  42.26 0.0005663225    1.203    0.168
       193  -9.7236    109.3750    136.2834   1.1115050163e+02   3.3243554654e+01    0.3370266    0.2534737 -15.81  0.001502375    1.822    0.451
       194 -12.9244      2.5186    127.5380   1.3984159138e+02   4.8662874435e+01     1.179474    0.2738812 -72.48  0.004183254    3.804    0.737
       195 -11.1218     67.7097    128.4855   1.2135382589e+02   4.2028017386e+01    0.3477638    0.2683173  68.48  0.001098872    1.548    0.354
       196 -10.5555     59.6183    127.8506   1.2360798933e+02   4.3264093361e+01    0.3258938    0.2126307 -40.77   0.00125636    1.576    0.366
       197 -10.6461     23.2318    126.9336   1.3402823910e+02   4.7310571342e+01    0.2990593    0.1595322 -87.55  0.001101807    2.336    0.572
       198 -10.1486    209.9976    125.7632   8.4946758584e+01   1.3441844254e+01    0.3036253    0.2087959 -43.05   0.00049962    1.384    0.278
       199 -10.9040     44.7755    130.6609   1.2846804648e+02   4.4356185075e+01     0.348044    0.2303751  88.50   0.00125934    1.848    0.459
       200  -9.3573    238.5720    122.1712   7.9183350128e+01   8.0712884627e+00    0.2048904    0.1274504 -30.42 0.0009454776    1.739    0.425
       201  -9.8133     55.3550    120.7906   1.2346143861e+02   4.5479721597e+01    0.2770336    0.1746468  -7.45  0.001234953    2.500    0.600
       202 -10.4549     23.5785    121.4242   1.3306318720e+02   4.8567107147e+01    0.1998212    0.1207331  -1.63 0.0008068944    2.396    0.583
       203  -9.3083    232.0055    116.5050   7.8994137462e+01   1.0463400998e+01    0.1891666    0.1239052  87.73 0.0004933533    2.325    0.570
       204 -12.1098     11.1220    115.8324   1.3582775205e+02   5.0781192464e+01    0.3408888    0.2681216   6.05  0.001695877    1.600    0.375
       205 -10.2529    168.0613    113.1534   9.0483772717e+01   2.5659585914e+01     0.372382    0.2903495 -83.50 0.0009938093    1.585    0.369
       206 -11.2683     33.3630    130.0504   1.3163848608e+02   4.5671601624e+01    0.4824037    0.1597848 -66.05  0.001873942    2.661    0.624
       207  -9.0733    203.4785    111.5089   8.2807590270e+01   1.7688160214e+01    0.1494829    0.1443587 -58.93 -8.264573e-06    1.048    0.045
       208  -9.0233     29.3027    109.3181   1.2922739884e+02   5.0873052961e+01    0.1337343   0.08103664 -38.74 0.0003041045    1.624    0.384
       209 -11.1708     15.2884    104.4948   1.3273324071e+02   5.3056398342e+01    0.2360011    0.1883206   6.84  0.001569489    1.516    0.340
       210  -9.4400    114.0402    150.7552   1.1308626867e+02   2.8874069310e+01    0.3107357    0.2056111 -59.16  0.000672376    1.536    0.349
       211 -10.0244     16.9984     99.2617   1.3125157239e+02   5.4099614688e+01    0.1627868    0.1432668 -48.01 0.0003801846    1.098    0.089
       212  -9.2646     28.9400     94.4686   1.2637064306e+02   5.4223176902e+01    0.1677819    0.1236729  20.69 0.0007218954    1.568    0.362
       213 -10.9900    249.5744    151.0672   8.3565501377e+01   7.1961780419e-01    0.5073998    0.3111952 -43.47  0.002553454    1.470    0.320
       214 -10.4985    249.6968    117.9116   7.6551301699e+01   6.6312010246e+00    0.4137093    0.3071658 -25.21  0.001616122    1.523    0.344
       215 -10.6539    192.6098    248.7730   1.1316555116e+02  -6.2000648901e+00    0.2216367    0.1658442  35.74 0.0008254783    1.164    0.141
       216 -10.5521     81.5632    246.6813   1.3525591700e+02   1.2629017092e+01    0.3909124     0.224271 -84.80  0.002058765    1.981    0.495
       217  -9.2142     16.5308     25.4960   1.1151831513e+02   6.8087215747e+01    0.1109039   0.08428115 -16.31  0.000345201    1.050    0.048
