#   1 NUMBER                 Running object number                                     
#   2 MAG_AUTO               Kron-like elliptical aperture magnitude                    [mag]
#   3 X_IMAGE                Object position along x                                    [pixel]
#   4 Y_IMAGE                Object position along y                                    [pixel]
#   5 X_WORLD                Barycenter position along world x axis                     [deg]
#   6 Y_WORLD                Barycenter position along world y axis                     [deg]
#   7 A_WORLD                Profile RMS along major axis (world units)                 [deg]
#   8 B_WORLD                Profile RMS along minor axis (world units)                 [deg]
#   9 THETA_WORLD            Position angle (CCW/world-x)                               [deg]
#  10 FWHM_WORLD             FWHM assuming a gaussian core                              [deg]
#  11 ELONGATION             A_IMAGE/B_IMAGE                                           
#  12 ELLIPTICITY            1 - B_IMAGE/A_IMAGE                                       
         1 -13.4424    190.6047     28.9371   7.0812879352e+01   3.4270276834e+01      1.33996     1.182416  85.52  0.006829654    1.077    0.071
         2 -13.9500    203.3550     11.6374   6.4341190040e+01   3.2968587159e+01     1.725438     1.157503  41.51  0.008748011    1.786    0.440
         3 -13.4085      5.7038     11.0022   1.1952010929e+02   7.2816781341e+01     1.908349    0.5542102 -45.07  0.009422639    2.416    0.586
         4  -9.7975     32.7118    228.3473   1.4625390536e+02   2.4744721452e+01    0.1852395    0.1308007  74.95  0.000588465    1.052    0.049
         5 -11.3290    125.6176    249.8933   1.3197574452e+02   8.4806387839e+00    0.3499695    0.1592952  37.95  0.001852794    2.010    0.503
         6 -11.8590    109.3173    249.0840   1.3471290008e+02   1.1057544796e+01    0.6299649    0.1577868  47.00  0.002670626    2.978    0.664
         7 -11.7634     97.8540    249.1100   1.3668248849e+02   1.2727501357e+01    0.4193027    0.2682266  57.63  0.001838396    1.209    0.173
         8 -11.0779    101.4907    246.4680   1.3581986367e+02   1.2621816202e+01    0.2195096    0.1539831  70.30 0.0007384978    1.295    0.228
         9 -10.5012     88.6656    249.2935   1.3826118389e+02   1.4002867122e+01    0.1888513    0.1223877  56.01 0.0007662104    1.152    0.132
        10 -11.8422     81.6118    248.7875   1.3941125511e+02   1.5062330675e+01    0.4418784     0.290694 -87.39  0.003088644    1.561    0.359
        11 -11.9027     82.3923    243.7187   1.3887034010e+02   1.5789703858e+01    0.3915151    0.2501919  67.12  0.002645624    1.310    0.237
        12 -14.2492     33.1362    247.1191   1.4722234132e+02   2.1412931374e+01     6.916715     1.738789  32.94   0.01745155   14.233    0.930
        13 -14.9187      7.0482    209.0419   1.4958248783e+02   3.0996061763e+01     4.071737    0.7386094 -72.89   0.01742462    4.117    0.757
        14 -14.6706     53.3313    209.2844   1.4125070819e+02   2.5896932191e+01     7.905848    0.5076016  48.38   0.02294558    6.765    0.852
        15 -10.5868     35.1352    224.2337   1.4559333169e+02   2.5223602948e+01     0.331847    0.1936352  65.07   0.00149711    1.298    0.230
        16 -13.2223      6.9178    243.8171   1.5112310655e+02   2.4745789741e+01     1.147565    0.6815917  87.81  0.009012608    1.354    0.262
        17 -15.2504     18.1421    168.2789   1.4493174164e+02   3.8254305026e+01     6.457523     1.821778 -86.66   0.02208893    4.831    0.793
        18  -9.4283     94.6769    216.8157   1.3412538371e+02   1.8746232415e+01     0.236646    0.1448538  71.07  0.000875062    1.651    0.394
        19  -8.8488    152.5500    212.9765   1.2248834481e+02   9.9402737559e+00     0.160811    0.1276866 -53.79 0.0003546085    1.475    0.322
        20 -11.1450     31.9510    206.9078   1.4503596914e+02   2.8873072147e+01    0.3662567    0.1282941  55.89  0.001384674    2.402    0.584
        21 -12.6332     42.0841    231.5310   1.4486436840e+02   2.3092905256e+01    0.3048999    0.2206764 -74.44 0.0007401712    1.521    0.342
        22 -10.0852    193.4508    195.9541   1.1190111806e+02   5.3640572787e+00    0.6686395    0.3212962 -61.62   0.00171654    8.953    0.888
        23 -11.4266     67.0728    197.2947   1.3749285033e+02   2.6504599698e+01    0.3240378    0.2338495 -48.93  0.001429139    1.910    0.477
        24  -9.3015     51.6080    197.3116   1.4056223143e+02   2.8499152884e+01    0.2021845    0.1327973  73.27 0.0005541558    1.274    0.215
        25  -9.7815    228.9111    228.8070   1.1111607398e+02  -5.1086734506e+00    0.1907742    0.1567766 -62.72  0.001235155    2.167    0.539
        26 -11.6007     72.3409    189.7327   1.3562065972e+02   2.7339742002e+01    0.2585065    0.2210605 -67.64 0.0004525296    1.337    0.252
        27 -10.7983     81.4769    177.2194   1.3216889177e+02   2.8684126701e+01    0.2368004    0.2042358 -82.08 0.0004375809    1.136    0.120
        28 -13.1342     68.7739    175.0284   1.3468170993e+02   3.0971182869e+01    0.4642085    0.2776944 -46.85  0.001790337    2.231    0.552
        29 -11.9054     88.2705    167.9014   1.2936841144e+02   2.9689507730e+01    0.8571186    0.5307918  64.04  0.004347133    1.668    0.401
        30 -12.6585     67.2635    144.0001   1.3080579084e+02   3.8191975095e+01     1.022524    0.5769271  86.42  0.003873629    2.264    0.558
        31 -11.9924     57.8561    132.2458   1.3137943747e+02   4.2170573967e+01     1.683534    0.5701102 -76.58   0.00432104    6.651    0.850
        32  -9.8014    100.4990    151.7111   1.2390161396e+02   3.1328270034e+01    0.2625693    0.2518886 -37.98 0.0008736236    1.265    0.209
        33  -9.1427    103.2376    147.5720   1.2249305623e+02   3.1796598230e+01    0.2557218     0.196097 -33.07  0.001121399    1.714    0.417
        34 -12.0371     89.1507    151.2192   1.2656388827e+02   3.3299597602e+01    0.2645358    0.2415045 -51.45 0.0005217587    1.267    0.210
        35 -14.0843     48.3659    223.7759   1.4325971671e+02   2.3753895710e+01     1.015871    0.6636827  88.18   0.00616777    1.321    0.243
        36  -8.5657    192.3749    144.1653   1.0170897546e+02   1.4477086415e+01    0.1973555    0.1352134 -49.58 0.0004104254    1.581    0.368
        37  -9.2311    242.2387    138.9759   9.1531686148e+01   5.0571924216e+00    0.1824667    0.1068741 -33.00 0.0004209807    1.580    0.367
        38  -9.6998    110.9829    137.0266   1.1852839161e+02   3.2812240570e+01    0.3752457    0.2540631 -16.93  0.001178367    2.852    0.649
        39 -10.4643     98.6284    134.2670   1.2109914877e+02   3.5637861058e+01    0.2691187    0.2313861 -32.88 0.0006971668    1.406    0.289
        40 -11.2009    124.9686    243.6594   1.3143533374e+02   9.5294219104e+00    0.2835661    0.1657634 -77.29   0.00160396    2.433    0.589
        41  -9.7031    186.3654    239.2162   1.2001381733e+02   3.4312405402e-01      0.13475    0.1131304 -56.43 0.0002849466    1.618    0.382
        42  -9.4547    107.9045    123.9150   1.1650646690e+02   3.6369723021e+01    0.2095694    0.1968637 -80.97 0.0003356551    1.009    0.009
        43 -10.8126    168.2024    113.3250   9.9289049727e+01   2.5845729873e+01    0.3639898    0.3004626 -77.20 0.0008344753    1.422    0.297
        44  -9.3552    203.4088    111.7294   9.1792023070e+01   1.7935182312e+01    0.2126654    0.1429247 -24.79 0.0008742051    1.620    0.383
        45 -10.7375     20.1778    229.5598   1.4840265982e+02   2.5884766465e+01    0.2133495    0.1103168  69.80 0.0009149457    1.463    0.316
        46 -11.7356    247.0150    248.1734   1.1116940876e+02  -9.8436725519e+00    0.4885725    0.2465291  42.56  0.002959905    1.890    0.471
        47  -9.8405    163.5089    249.0027   1.2528899107e+02   2.6926618422e+00    0.1457339    0.1173216 -49.14  0.001037397    1.604    0.377
