#   1 NUMBER                 Running object number                                     
#   2 MAG_AUTO               Kron-like elliptical aperture magnitude                    [mag]
#   3 X_IMAGE                Object position along x                                    [pixel]
#   4 Y_IMAGE                Object position along y                                    [pixel]
#   5 X_WORLD                Barycenter position along world x axis                     [deg]
#   6 Y_WORLD                Barycenter position along world y axis                     [deg]
#   7 A_WORLD                Profile RMS along major axis (world units)                 [deg]
#   8 B_WORLD                Profile RMS along minor axis (world units)                 [deg]
#   9 THETA_WORLD            Position angle (CCW/world-x)                               [deg]
#  10 FWHM_WORLD             FWHM assuming a gaussian core                              [deg]
#  11 ELONGATION             A_IMAGE/B_IMAGE                                           
#  12 ELLIPTICITY            1 - B_IMAGE/A_IMAGE                                       
         1 -14.7588      6.9417    146.2837   1.4284134451e+02   4.2607975967e+01     5.209393     1.438374 -87.61   0.02265841    3.676    0.728
         2 -13.1916    193.1197     28.7353   6.9275399530e+01   3.3052479902e+01     1.463909     1.328499  25.32  0.007631865    1.060    0.056
         3 -13.3502    207.7090      9.5357   6.1255804946e+01   3.1167828762e+01     1.651435     1.063449  29.56  0.007745683    1.715    0.417
         4 -12.5161      2.1538     11.9184   1.2639980382e+02   7.1655176898e+01     1.780735    0.1527387 -61.67  0.005731487    5.006    0.800
         5 -10.0100    156.2130    249.4136   1.2395605707e+02   8.5067983628e+00    0.1562302   0.07035652  45.95 0.0009600089    1.697    0.411
         6 -11.4962    139.7370    249.1097   1.2657288274e+02   1.0784597852e+01     0.296223    0.2313142  49.42  0.002490376    1.163    0.140
         7 -10.8813    125.5854    249.5749   1.2888067531e+02   1.2607730204e+01     0.267678    0.1059532  44.41  0.001630068    1.784    0.439
         8 -10.2900    110.4634    250.5203   1.3135911009e+02   1.4433351587e+01    0.2979561   0.06070904  42.56  0.001377168    3.203    0.688
         9 -10.9298     98.9906    248.7663   1.3303618593e+02   1.6077580356e+01    0.3061312    0.2145201  20.40  0.002277725    2.090    0.521
        10  -9.3125     29.2569    249.9657   1.4363334355e+02   2.3462024791e+01    0.1786487   0.07507843  51.38  0.001101803    1.564    0.361
        11 -10.4718     35.3833    243.6110   1.4249743462e+02   2.3753558356e+01    0.2223257    0.1898923  37.18  0.002093103    1.600    0.375
        12  -9.8608      2.4261    249.0074   1.4736222503e+02   2.5948299314e+01    0.1844653    0.1425738  87.59  0.001930183    1.455    0.313
        13  -9.0205      5.6723    240.9445   1.4670933116e+02   2.6792586398e+01    0.1264049   0.09069895  50.72 0.0003895525    1.292    0.226
        14  -9.9242    183.0117    238.7100   1.1841642019e+02   5.8689401496e+00    0.1599218    0.1048197  35.70 0.0005339873    1.086    0.079
        15 -10.8291    233.0862    235.9348   1.0999828336e+02  -1.0644621213e+00    0.2582947    0.2120952 -66.57  0.001683851    3.421    0.708
        16 -10.0785    229.9425    230.4212   1.0971381414e+02  -1.3960601409e-01    0.2215424    0.1414161 -37.99  0.001494933    2.409    0.585
        17 -13.8634      9.6770    206.4455   1.4503825030e+02   3.1648114241e+01     7.334035          nan  38.53   0.01289479    5.685    0.824
        18 -11.2750    246.8373    248.7271   1.0965045238e+02  -3.9598989370e+00    0.4440879    0.1452389  41.26  0.002420193    2.394    0.582
        19  -9.1567    191.8112    193.0013   1.1052027213e+02   9.7690310911e+00    0.2133775    0.1597997 -70.87  0.001174316    2.759    0.638
        20  -8.1339     51.4983    197.4491   1.3741074381e+02   2.9214050420e+01    0.1043589   0.07802906  64.04 8.939429e-05    1.034    0.033
        21  -9.7641      9.0148    195.2598   1.4473049480e+02   3.3537753099e+01    0.1346212    0.0922236  61.30 0.0005379421    1.105    0.095
        22 -10.1402    173.6228    222.5690   1.1799581856e+02   9.0503022149e+00     0.325787    0.1570085  47.63  0.001755758    1.863    0.463
        23 -11.4768     69.5488    190.5041   1.3353201389e+02   2.8383301142e+01    0.2133404     0.201908  70.84  0.000710332    1.271    0.213
        24 -12.3206     37.8665    232.8512   1.4166065481e+02   2.5044257813e+01    0.2248524    0.1886791  76.81 0.0007799953    1.304    0.233
        25 -12.9103     66.2045    175.7711   1.3286804429e+02   3.1394460411e+01     0.386234    0.2388584 -46.17  0.001701613    2.239    0.553
        26 -10.4550     79.2374    177.7053   1.3042869991e+02   2.9463061241e+01    0.1890356    0.1674906  68.29 0.0003436191    1.082    0.076
        27  -7.9306    101.2955    177.6781   1.2594304356e+02   2.6524696882e+01    0.1200783   0.08015548  67.41 0.0006077849    1.617    0.382
        28  -8.4271    250.6839    171.6886   9.6491236103e+01   2.3448731089e+00    0.1320118   0.07542776  14.90 0.0003097411    1.639    0.390
        29 -11.5348     86.7494    168.0849   1.2781589589e+02   3.0254610805e+01    0.5487674    0.4978758  49.98  0.003982656    1.143    0.125
        30  -9.6870     98.8461    152.3179   1.2310092492e+02   3.1565984294e+01    0.2439034    0.2321039  84.75 0.0009086315    1.080    0.074
        31 -11.7415     87.5249    151.5732   1.2555564176e+02   3.3310515052e+01    0.2414909     0.223696 -34.45 0.0005625194    1.321    0.243
        32 -12.2439     67.1391    144.0167   1.2925266289e+02   3.7438493036e+01    0.6922416    0.4310469  69.50  0.003938241    1.743    0.426
        33  -8.5913    101.5738    148.2262   1.2186919133e+02   3.1959267388e+01    0.1604647    0.1163606 -47.08 0.0003393308    1.529    0.346
        34 -14.2418     43.6756    224.6205   1.4035010299e+02   2.5686996712e+01     3.566033     1.123094  36.42   0.01256556    2.729    0.634
        35 -10.9321     32.7147    143.7677   1.3709006065e+02   4.1068713796e+01    0.3956294    0.1037752 -72.45  0.001699435    3.295    0.697
        36  -8.4302    181.6361    144.9042   1.0367610581e+02   1.8401067532e+01    0.1730079    0.1282595 -46.46  0.000373724    1.643    0.391
        37  -8.2721    191.9946    143.9427   1.0139682074e+02   1.6524122749e+01    0.1628534    0.1424645   6.36 0.0004442714    1.074    0.069
        38  -9.3654    110.1354    137.0965   1.1803740256e+02   3.2828704042e+01    0.3143018    0.2121383 -20.65  0.001500871    2.381    0.580
        39 -10.1281     97.4054    134.5435   1.2065898823e+02   3.5316655110e+01    0.2283907    0.2063037 -19.84 0.0007666444    1.328    0.247
        40  -9.8716    150.7972    229.3653   1.2272509039e+02   1.1603919100e+01    0.1623885   0.07943831  35.30 0.0009519043    1.681    0.405
        41  -9.9340     82.8261    133.9605   1.2411958508e+02   3.7515209565e+01    0.2372531    0.1709286  59.46 0.0005673969    1.411    0.292
        42 -11.5434     33.1987    131.3255   1.3584615550e+02   4.3590296503e+01    0.5792746    0.2041722 -82.24  0.002493554    3.152    0.683
        43  -9.2607     93.0835    132.8417   1.2142924506e+02   3.6304016833e+01    0.1955176    0.1568402  69.60 0.0006338308    1.296    0.228
        44  -8.5779    152.4870    212.9441   1.2049650776e+02   1.3459186642e+01    0.1309765    0.1152377 -42.32 0.0003349417    1.459    0.315
        45  -8.7907    107.0676    123.9997   1.1636939844e+02   3.5972215823e+01    0.1830427    0.1790455  41.84            0    1.050    0.048
        46 -11.0162     20.9426    200.2771   1.4292364017e+02   3.1696176534e+01    0.1918627    0.1249897  60.66 0.0003792502    1.144    0.126
        47 -10.1134     53.5660    119.2796   1.2936268239e+02   4.4194714331e+01    0.2390683    0.1095074 -72.71  0.001140503    2.136    0.532
        48 -11.2332     17.3170    198.0592   1.4344028926e+02   3.2379461417e+01    0.2021992    0.1345064  56.61 0.0004470503    1.171    0.146
        49 -10.0406    167.7434    112.8458   9.9349825912e+01   2.6546705890e+01    0.3031258    0.2689664 -75.61 0.0007598596    1.484    0.326
        50  -9.1451    203.5070    111.0631   9.1517163542e+01   1.9089081252e+01    0.2197191    0.1391938 -24.41  0.001020525    1.569    0.363
        51  -8.7071     72.1970     85.7178   1.1801282449e+02   4.9421942317e+01    0.1994059    0.1530574  59.83   0.00108479    1.533    0.348
        52  -9.0565    156.5136     76.4757   9.1918944422e+01   3.5433089266e+01    0.1564465    0.1445076   7.11 6.074525e-06    1.011    0.011
        53  -9.0999     12.6491     64.7157   1.3358179245e+02   5.9697016126e+01    0.1204437   0.06916748 -45.04 0.0004063736    1.657    0.397
        54 -11.2007     63.7691    198.4570   1.3525359404e+02   2.7699762829e+01    0.2477407    0.2012572 -43.79    0.0013585    1.813    0.448
        55 -11.1019     24.9238     59.2068   1.2819747030e+02   6.0172863946e+01    0.7289973    0.1829768  39.30  0.002723646    4.913    0.796
        56 -10.7406    198.9810    246.2319   1.1674637742e+02   2.8383616753e+00    0.1781329    0.1504629 -39.24  0.001481869    1.813    0.448
        57  -8.5520     23.7417    245.5930   1.4427145608e+02   2.4569520709e+01    0.1233014   0.05263216  48.70 0.0004807814    1.564    0.361
