#   1 NUMBER                 Running object number                                     
#   2 MAG_AUTO               Kron-like elliptical aperture magnitude                    [mag]
#   3 X_IMAGE                Object position along x                                    [pixel]
#   4 Y_IMAGE                Object position along y                                    [pixel]
#   5 X_WORLD                Barycenter position along world x axis                     [deg]
#   6 Y_WORLD                Barycenter position along world y axis                     [deg]
#   7 A_WORLD                Profile RMS along major axis (world units)                 [deg]
#   8 B_WORLD                Profile RMS along minor axis (world units)                 [deg]
#   9 THETA_WORLD            Position angle (CCW/world-x)                               [deg]
#  10 FWHM_WORLD             FWHM assuming a gaussian core                              [deg]
#  11 ELONGATION             A_IMAGE/B_IMAGE                                           
#  12 ELLIPTICITY            1 - B_IMAGE/A_IMAGE                                       
         1 -11.3520     58.0213     47.6838   7.0607457099e+01   6.1387433315e+01     1.101422    0.8666711 -17.17  0.004190771    1.415    0.293
         2 -11.9860    125.6189     27.9267   4.0917215584e+01   5.0593265360e+01    0.6669983    0.6219682  58.56  0.003658402    1.108    0.098
         3 -12.0076    112.1804     39.6532   4.9070402450e+01   5.2180456493e+01    0.8934519    0.5682065   8.15  0.003559254    2.378    0.579
         4 -12.7048    119.6532     37.2048   4.6148840884e+01   5.0762022177e+01     1.126685    0.5957837 -50.90  0.004317818    2.343    0.573
         5 -11.3595    105.9298     20.6123   4.2343994014e+01   5.6433986779e+01    0.5994491    0.4470976 -48.69  0.002570007    1.500    0.333
         6 -11.4127     79.4749     35.6358   5.7351088077e+01   5.9984145192e+01    0.9123822    0.5107533 -36.62  0.004144737    1.641    0.391
         7 -12.1331    241.0500     26.1757   2.4618703211e+01   2.1314562184e+01      0.49042    0.4313702 -44.20  0.001801544    1.036    0.035
         8 -12.3466    238.2036     15.9731   2.2142017759e+01   2.3027191761e+01    0.9092318    0.4922067  67.70  0.004494641    1.992    0.498
         9 -12.1352    228.0821     15.6227   2.2818540706e+01   2.5420727381e+01    0.5785071      0.37602 -71.16  0.001142438    1.644    0.392
        10 -12.7400    244.4613     15.0046   2.1441308050e+01   2.1709664806e+01     2.132529          nan -37.57  0.006130742    4.760    0.790
        11 -11.9708    247.7039      5.7831   1.8874929979e+01   2.1886469409e+01    0.6896815    0.4658129  -9.86  0.003309402    1.624    0.384
        12 -11.2556    232.9065      7.3581   2.0221446267e+01   2.5097277862e+01    0.3374358     0.241537 -49.64 0.0009854406    1.239    0.193
        13 -11.8465    235.7584      4.0756   1.9163040855e+01   2.4743952963e+01    0.7454438     0.341185 -62.53  0.003274193    2.349    0.574
        14 -11.0311    241.6435      3.2294   1.8582897335e+01   2.3478624577e+01    0.3845991     0.296751  77.72  0.001373344    1.404    0.288
        15 -13.2718    163.7589     19.2409   3.0770830635e+01   4.1560885229e+01    0.5522364    0.3613484  20.88  0.001006419    1.890    0.471
        16 -11.8560     27.2701     27.7814   7.6608404046e+01   6.9480672740e+01    0.5731568    0.4261522 -34.98  0.002330058    1.170    0.145
        17 -11.8704     36.0479     17.8526   6.7115350357e+01   7.0352556924e+01    0.8185694    0.3788389 -38.23  0.003899062    1.858    0.462
        18 -11.9796     48.7006     12.9795   5.8097323198e+01   6.9293220649e+01    0.5665988    0.3227321  43.98  0.002871827    1.978    0.494
        19 -12.2376     20.2202     21.8692   7.7839922477e+01   7.1391683970e+01    0.6721495    0.2306197 -51.13  0.002434456    2.260    0.558
        20 -10.5526     13.2104      9.2590   7.5792088824e+01   7.4509505394e+01    0.3307216    0.2050472 -45.58  0.001278798    1.284    0.221
        21 -12.5419     16.8091     13.4044   7.5726934663e+01   7.3384662989e+01    0.9171841    0.4492634 -22.45 0.0008379326    2.847    0.649
        22 -10.3660    147.8921     16.4269   3.2086913579e+01   4.6123347742e+01    0.4834598    0.2723625  35.38  0.001973511    2.052    0.513
        23 -11.1323    136.6374     23.0726   3.6673302131e+01   4.8356979419e+01    0.9946076    0.7462938  70.57  0.004879274    1.403    0.287
        24 -10.5558    121.1921     11.9047   3.4935709023e+01   5.3632926952e+01    0.9206996    0.6722739  49.17  0.003252703    1.325    0.245
        25 -10.5485    127.6829     16.1009   3.5492861944e+01   5.1502992393e+01     0.453483    0.3077916  20.48  0.001465153    1.688    0.407
        26 -10.9513    134.6469     14.9566   3.3719864425e+01   4.9803211932e+01    0.6546311    0.3373391  60.79  0.002749583    1.856    0.461
        27 -10.4735     86.8323      7.4288   4.0876952599e+01   6.2478672191e+01    0.6462006     0.373935  61.60  0.002766022    1.873    0.466
        28  -9.6293     78.4811      7.4888   4.3397171362e+01   6.4325907059e+01    0.3345388    0.2235321  75.56  0.001223566    2.135    0.532
        29 -11.0438     74.5430      3.3870   4.2299095478e+01   6.5631999099e+01    0.5685169    0.2979193  49.85   0.00269707    1.854    0.461
        30 -11.1231     90.3513     20.2732   4.6478520954e+01   6.0100993895e+01    0.8507157     0.352361 -32.20  0.003359593    2.233    0.552
        31 -11.6105     86.0433     13.9984   4.4586279051e+01   6.1883347826e+01     0.569539    0.3268624 -16.21  0.001880207    1.798    0.444
        32 -10.5075     46.9892     19.5529   6.2599897128e+01   6.8484680980e+01    0.4194463    0.2374469 -32.80  0.002005104    1.577    0.366
        33 -11.8823     68.2149     18.0571   5.2787141960e+01   6.5036683565e+01    0.5021475    0.4890256 -13.36  0.001713783    1.189    0.159
        34 -12.0455     23.0413     11.3213   7.0770868587e+01   7.3126759668e+01    0.5197572    0.3467759 -30.49  0.003138542    1.279    0.218
        35  -9.0543    188.7318      4.3131   2.2809924643e+01   3.6376796306e+01    0.2139577    0.1455608 -47.62 0.0004886928    1.409    0.290
        36 -10.6511    187.7659     15.6521   2.6566738571e+01   3.5543787654e+01    0.6236553    0.2950824 -84.16  0.002253129    2.957    0.662
        37 -11.2732    192.1251      8.8579   2.3941439534e+01   3.5071609567e+01    0.7230522    0.3528278   0.17  0.001921367    2.963    0.663
        38 -12.2881    104.7092     12.9829   3.9038794214e+01   5.7649370617e+01    0.5367828    0.3760963 -16.21  0.001362131    1.409    0.290
        39  -9.3910      5.1573      9.7354   8.1458089596e+01   7.5076114383e+01    0.4533097    0.1575647 -37.60  0.002020043    2.703    0.630
        40 -11.3124    211.5800     10.1398   2.2598780799e+01   2.9981235628e+01    0.6180114    0.3509508   8.83  0.002612182    2.538    0.606
        41  -9.4453     98.3294     11.9557   4.0122311379e+01   5.9300564014e+01    0.2087096    0.1785635 -10.78  0.001041615    1.116    0.104
        42  -9.6576    162.9569      9.2720   2.7274131497e+01   4.2790057205e+01    0.5199367    0.1864635 -13.08  0.001687558    3.390    0.705
        43 -10.3482     66.0142     10.3821   4.9331206154e+01   6.6544900453e+01    0.3403975    0.2232725  47.83  0.001793289    1.612    0.380
        44  -9.8302     62.9085      6.7129   4.8339226201e+01   6.7625931124e+01     0.297661    0.2227299   7.27  0.001677954    1.317    0.240
        45  -9.6681    168.5405      9.8002   2.6780258743e+01   4.1238349649e+01    0.3620768    0.1416983  51.50  0.001330901    2.532    0.605
        46  -9.7667    145.3854      9.6935   2.9837158927e+01   4.7477879565e+01    0.2313451    0.1745102   4.98 0.0004488331    1.449    0.310
        47  -9.4717      1.2363      7.4814   8.3080517279e+01   7.5789627491e+01    0.1997956   0.07598536 -55.89 0.0005397334    2.012    0.503
        48 -10.2690    184.3950      6.0824   2.3795611614e+01   3.7357778566e+01    0.4155419    0.2358948 -54.36   0.00185461    1.822    0.451
        49  -9.3690    157.8940      6.9022   2.7042896790e+01   4.4373852153e+01    0.2156828    0.1803038  31.16 0.0003706439    1.262    0.208
        50 -10.6511    177.1053      5.9675   2.4495878728e+01   3.9301849996e+01    0.3433453    0.2035657  83.10 0.0006852178    1.766    0.434
        51 -10.8915    115.7226      2.5274   3.1728687310e+01   5.5935550550e+01    0.5150143    0.4230944  50.49  0.002824476    1.161    0.139
        52 -10.9940    105.3332      1.7826   3.3433576982e+01   5.8621830298e+01    0.3947585    0.2545561  78.19  0.001210954    1.810    0.447
        53 -10.2892    228.3042      3.1625   1.9397039225e+01   2.6570563614e+01    0.3681599    0.2048105  -7.63  0.001710138    2.130    0.530
        54 -10.5239    218.6882      3.5139   2.0149414549e+01   2.8849827648e+01    0.3131315     0.306292  30.44  0.001276271    1.167    0.143
        55 -10.9746    223.7696      2.2255   1.9440550976e+01   2.7736982096e+01     0.335285    0.2460965  75.40 0.0008228268    1.425    0.298
        56 -10.2758    137.7023      4.3313   2.8827913413e+01   5.0024195435e+01    0.2415662    0.2391966  -1.87 0.0003422755    1.030    0.029
        57 -11.4232    133.6949      2.3641   2.8616370430e+01   5.1258581396e+01    0.4707256    0.2879067  62.72  0.002205808    1.547    0.354
        58  -9.9597     41.7570      3.6843   5.5632536834e+01   7.1798190642e+01    0.4056145    0.2286115  -8.61  0.001916894    2.246    0.555
        59  -9.8176    143.0551      3.7121   2.7797558329e+01   4.8647642936e+01    0.4040959    0.1728754  76.27  0.001505255    2.522    0.604
        60 -10.0050    207.2770      2.9868   2.0840409380e+01   3.1726650235e+01    0.2562326    0.1974859  74.62 0.0006046818    1.325    0.246
        61  -9.8222    204.5134      1.4682   2.0602076871e+01   3.2559369912e+01    0.2635442    0.1333973  78.25 0.0005663956    2.013    0.503
        62  -9.4561    157.1893      2.0920   2.5341298316e+01   4.4984509688e+01    0.2991646     0.170925 -39.93  0.001180724    1.736    0.424
        63 -10.9875      2.5677      1.9120   7.9097405773e+01   7.6772327200e+01    0.2982527    0.1838277  -6.23  0.001831718    1.866    0.464
        64  -9.7963     12.7725      1.8822   7.1665695757e+01   7.5891697319e+01     0.251887    0.1642338  14.91  0.001412248    1.739    0.425
        65  -9.1821    152.5329      1.3165   2.5613050310e+01   4.6302883370e+01    0.2332791    0.1290658  73.62 0.0005415229    1.781    0.439
        66  -9.0350    123.2276      1.1896   2.9785796409e+01   5.4110342064e+01    0.2221834    0.1116047  82.79 0.0006137067    2.467    0.595
        67  -9.4936     82.1786      1.2297   3.8773737571e+01   6.4173364932e+01    0.1735732    0.1144508  64.77 0.0003277652    1.690    0.408
        68 -10.4594    249.4962    142.9980   5.2319444607e+01   5.0394775333e+00    0.5264066    0.1845826 -21.07  0.001977812    3.346    0.701
        69 -10.1454    142.7029    249.9750   8.7531500365e+01   8.4473817384e+00    0.1448922    0.1130424  42.60 0.0008005798    1.073    0.068
        70  -9.6475     74.1814    146.0912   8.8838569550e+01   3.6345044523e+01    0.1885778    0.1728778 -51.23 0.0006248386    1.302    0.232
        71 -11.2660     33.3837    144.5945   9.8824149429e+01   4.1644909578e+01    0.3692613    0.2300525  58.63 0.0007143267    1.464    0.317
        72  -9.0724    233.6500    143.2920   5.4797265948e+01   7.7622646830e+00    0.1173825     0.104146 -62.44 0.0007029116    1.672    0.402
        73  -9.1115     58.9621    142.6724   9.2181678471e+01   3.9153821859e+01    0.1723046    0.1463001  68.49 0.0004415271    1.086    0.079
        74 -11.6075     12.2856    136.9393   1.0343110949e+02   4.5296105430e+01    0.5611135     0.302372 -70.24  0.003278667    1.605    0.377
        75  -9.1703    132.5149    140.5115   7.3778639137e+01   2.7777036538e+01    0.1395863    0.1329978  63.60 -3.330046e-05    1.024    0.023
        76 -10.1783    217.2567    138.7176   5.6472426245e+01   1.1409211725e+01    0.2432063    0.2172386 -12.00 0.0005282862    1.098    0.089
        77  -9.8925     40.2441    138.0969   9.6407484241e+01   4.2397266752e+01     0.303498    0.1620528  52.94  0.001600394    1.799    0.444
        78  -9.6512     79.6272    137.6339   8.6165714235e+01   3.7444242010e+01    0.2729979    0.1615964 -66.25  0.001354712    1.642    0.391
        79 -10.4401     46.4705    135.0060   9.4418720791e+01   4.2414086910e+01    0.4302051    0.2518927  78.44  0.002220146    1.793    0.442
        80  -9.8363     32.3396    137.8494   9.8414213174e+01   4.3277209369e+01    0.2801103    0.2039438  59.60  0.001057467    1.270    0.213
        81 -11.3451     22.7236    135.9448   1.0069736526e+02   4.4628151255e+01    0.5180816     0.378511  55.06  0.002769551    1.307    0.235
        82 -11.2990     30.0551    133.0590   9.8511307089e+01   4.4601482646e+01    0.3425882     0.268792 -50.56 0.0005091077    1.529    0.346
        83 -10.5739     92.8689    130.8362   8.1559899769e+01   3.6902368121e+01    0.5218756    0.2141296 -55.66  0.002096772    2.357    0.576
        84  -9.8316     38.6254    133.3142   9.6281152755e+01   4.3670577665e+01    0.2213018    0.1723485  64.37 0.0006081661    1.192    0.161
        85 -10.2686     73.6809    132.5146   8.6875321728e+01   3.9475674346e+01    0.2893061    0.2423356  -6.15  0.001639972    1.729    0.422
        86 -10.0447     61.7362    132.3343   9.0012272862e+01   4.1158298103e+01     0.340322    0.2731246   7.69  0.001948422    1.803    0.445
        87  -9.0187    138.0078    131.5002   7.0611122106e+01   2.8513640845e+01    0.2015482     0.123055  67.17 0.0008089316    2.419    0.587
        88  -9.7100    103.6966    130.8690   7.8792756376e+01   3.5064783881e+01    0.2148283    0.1883505  36.06    0.0003033    1.234    0.190
        89 -10.4829     10.5295    126.9769   1.0310072170e+02   4.7699632939e+01    0.2532529    0.1578106 -75.19  0.001158484    1.329    0.248
        90 -10.5179    239.4097    125.2053   4.9905142914e+01   9.0932315342e+00    0.3005125    0.1504552 -40.98  0.001372398    2.163    0.538
        91 -10.3679     81.5247    125.5313   8.3566913216e+01   3.9910687899e+01    0.6124039    0.3628523 -20.70  0.002006342    5.017    0.801
        92 -10.8468     23.1827    127.0422   9.9722272834e+01   4.6635447098e+01     0.274789    0.1980464  35.89 0.0005173997    1.570    0.363
        93 -10.1511      2.3886    126.1733   1.0518561911e+02   4.8474754193e+01    0.2540704    0.1220145  63.67  0.001197856    1.912    0.477
        94  -8.9686    223.8220    126.5840   5.2644398795e+01   1.1869384848e+01    0.1670937    0.1333464  60.78 0.0005079012    1.604    0.376
        95 -13.1227    103.7575    122.5550   7.7071467005e+01   3.6888748049e+01     0.352867    0.3369626  36.16 0.0005988682    1.151    0.131
        96 -10.2110     48.5474    112.4257   9.0610352556e+01   4.7492851812e+01    0.3473672    0.2031353 -58.84  0.001791503    1.545    0.353
        97 -10.5489     49.7129    122.8193   9.1883503993e+01   4.4882364720e+01    0.3038336     0.189941  36.96  0.001043615    1.725    0.420
        98 -10.1986     43.5255    116.4953   9.2714634093e+01   4.7092992336e+01    0.2891738    0.2187286  61.69 0.0008683652    1.313    0.238
        99 -10.1876     45.2217    120.3715   9.2793539741e+01   4.5981101680e+01    0.2889267    0.1996183  57.36  0.001384024    1.448    0.309
       100  -9.5748     53.4843    125.4680   9.1226165211e+01   4.3804648540e+01    0.2741964    0.1163972 -67.63  0.001198978    2.126    0.530
       101  -9.0362     71.4751    120.5337   8.5407815256e+01   4.2568405756e+01    0.1365335    0.1227555 -80.59  8.01916e-05    1.034    0.033
       102  -8.9350     13.9520    119.0160   1.0146813835e+02   4.9279384142e+01    0.1413718    0.1114693  88.99 0.0003672039    1.014    0.013
       103 -10.2462      7.2141    114.4492   1.0294616455e+02   5.0845334579e+01    0.2575157    0.1954713  78.80 0.0009719672    1.122    0.109
       104 -12.0342      2.4422    111.7937   1.0407881178e+02   5.1785208347e+01    0.4297471    0.2120215 -86.84 0.0007476594    1.637    0.389
       105 -11.2800      4.0091    105.1088   1.0303552395e+02   5.3251737527e+01    0.3672648    0.3079642  50.35  0.001906754    1.347    0.258
       106  -9.7208     79.1892    114.7116   8.2120032483e+01   4.2778864426e+01    0.2919551    0.2210378 -63.82  0.001572947    1.226    0.184
       107  -9.1144     67.9580    115.1161   8.5406704096e+01   4.4344214969e+01    0.3529753    0.2105206  76.77  0.001557255    2.275    0.561
       108  -9.9742     66.7439    110.6210   8.4903386861e+01   4.5580335939e+01    0.3187125    0.2229419  33.60  0.001681722    1.626    0.385
       109 -10.9146     16.7426    107.8845   9.9502491532e+01   5.1688342083e+01    0.4984777    0.3258572 -55.87  0.002983049    1.523    0.343
       110 -12.0331      7.3071     89.1354   1.0028826164e+02   5.6840418997e+01    0.5721326    0.3903436  37.81  0.001640579    1.696    0.410
       111 -11.8868      9.5120     97.4097   1.0054353867e+02   5.4716906376e+01     0.476162    0.3865303  66.22 0.0005034828    1.253    0.202
       112 -11.2068     27.0014     86.2057   9.3097425781e+01   5.6059327334e+01    0.7478753    0.6491518  20.44  0.004898752    1.449    0.310
       113 -11.6145     17.3434    100.9456   9.8490570942e+01   5.3299997646e+01    0.3098683    0.2527553 -70.39 0.0005371566    1.133    0.117
       114 -11.0150     35.3357     93.0414   9.1462711678e+01   5.3614229163e+01     1.044736     0.508307 -73.76  0.004881585    1.877    0.467
       115 -10.7712     36.7399     86.1690   8.9697244406e+01   5.5138120572e+01    0.4723378    0.2738882   6.69  0.001992475    2.847    0.649
       116 -11.5583     44.7755     84.9422   8.6646055000e+01   5.4563105620e+01    0.6077019     0.480167 -20.22  0.003472863    1.643    0.391
       117 -12.3177     24.8284    107.0763   9.6959756512e+01   5.1209065254e+01     1.177427    0.9969292 -31.02  0.007708106    1.537    0.349
       118 -11.2714     23.1748     94.7846   9.5776078662e+01   5.4312190652e+01    0.4057434    0.3141728  -3.70   0.00148436    1.812    0.448
       119 -11.7260     18.0498     90.6213   9.6871690443e+01   5.5730864630e+01    0.4689169    0.2685434 -75.28  0.000632925    1.417    0.294
       120 -11.1729     21.6848    114.4618   9.8792797120e+01   4.9720125062e+01    0.3614298    0.2663936   3.55  0.001681869    1.999    0.500
       121 -11.4069     28.2764    113.1784   9.6713772001e+01   4.9438258636e+01    0.5381776    0.2812046  16.02  0.002606615    2.854    0.650
       122  -8.8697    126.6706    113.6933   6.9192230516e+01   3.4442225692e+01    0.1482228    0.1190777  -0.46 0.0007038272    1.658    0.397
       123  -9.8634     94.1187    112.5127   7.7469183241e+01   4.0842227722e+01    0.2876908    0.2180299 -89.31 0.0009838678    1.526    0.345
       124 -10.2205    170.4701    110.6894   5.8479807872e+01   2.5636917458e+01    0.3586249    0.2663239 -25.42  0.001327101    1.392    0.282
       125 -10.3782    107.9484    111.9496   7.3586587174e+01   3.8476438006e+01    0.4909026    0.3276753  71.13  0.002167328    2.020    0.505
       126  -9.0250    103.6598    112.3413   7.4826270366e+01   3.9183598129e+01     0.234079    0.1689899  88.35  0.000585645    1.801    0.445
       127 -10.7788    102.1664    108.9288   7.4428489930e+01   4.0221986752e+01      0.63256    0.4441624 -10.15  0.002572116    2.502    0.600
       128  -9.8172    134.6254    110.1877   6.6366860548e+01   3.3529375070e+01    0.2720726    0.2195649  -6.89 0.0009288613    1.571    0.364
       129  -9.9911    120.7538    109.1094   6.9548720522e+01   3.6608152719e+01    0.3515483    0.2488692  27.08  0.001443128    1.750    0.429
       130 -11.7187     79.7309    108.1119   8.0581911643e+01   4.4238286193e+01    0.5770792    0.3155687  34.41 0.0004042994    2.079    0.519
       131  -9.6971    175.8704    106.8182   5.6378848439e+01   2.5121363299e+01    0.2359813    0.2043482   4.88 0.0009392104    1.218    0.179
       132  -9.9021    181.3633    104.6921   5.4739452027e+01   2.4256151335e+01    0.4223013    0.2855855   3.77  0.001637807    2.070    0.517
       133 -10.2259    143.1886    105.9117   6.3218576188e+01   3.2560856847e+01    0.3077424    0.2788126  89.56  0.001000681    1.229    0.186
       134 -10.6610    145.3458    100.4420   6.1243253945e+01   3.3167328323e+01       0.4731    0.2791595 -27.98 0.0008181194    2.011    0.503
       135 -10.6439     89.4179    104.5270   7.6963014799e+01   4.3482285710e+01    0.2903187    0.2512693 -38.85  0.001075661    1.253    0.202
       136 -10.2326     85.6878    103.6930   7.7849196600e+01   4.4304244328e+01    0.2665094    0.1928242 -46.45 0.0007528966    1.383    0.277
       137 -10.2551     57.2025    102.9553   8.6288660935e+01   4.8701086770e+01    0.3805972     0.156542 -61.14  0.001586471    2.115    0.527
       138 -10.6458     49.1510     91.1940   8.6491700585e+01   5.2541023292e+01    0.3692948    0.2658314  53.21  0.002039063    1.530    0.346
       139 -10.8555     52.2387     95.8225   8.6434374243e+01   5.1047504992e+01    0.4101994     0.237007 -84.73  0.001809026    2.094    0.522
       140 -10.1152     47.6796    103.2742   8.9310536644e+01   4.9795971723e+01    0.2799335     0.183832 -70.03 0.0005089454    1.325    0.245
       141  -9.9994     50.7463    101.9852   8.8115109677e+01   4.9742810623e+01    0.4518605    0.2183859 -62.85  0.001650624    1.779    0.438
       142  -9.0165    120.4833    101.4983   6.7654062651e+01   3.8290734991e+01    0.1490737    0.1444988 -35.96 5.774478e-05    1.058    0.055
       143 -12.1869     89.1207     89.6101   7.3269413299e+01   4.6958882995e+01    0.4677978    0.3376663 -40.04  0.001021308    1.422    0.297
       144 -10.9916     80.3612     98.3435   7.8165012450e+01   4.6425316605e+01     0.395688    0.2818405  55.94  0.001548906    1.540    0.351
       145 -11.2490     80.6288     92.8446   7.6723836399e+01   4.7664544459e+01    0.7353768    0.4071657  41.96  0.003300851    1.937    0.484
       146 -11.4665     68.6076     95.8315   8.1202074286e+01   4.8831698076e+01    0.3976919      0.34414   5.07 0.0008472613    1.483    0.326
       147  -9.5522    210.2135     97.6152   4.7737485345e+01   1.8947347870e+01    0.2026904    0.1295892  40.98 0.0006836954    1.654    0.395
       148 -10.7190     43.2391     94.2953   8.9073791167e+01   5.2474214498e+01    0.3333841    0.2886246 -69.46  0.001241856    1.054    0.051
       149 -11.0383    121.7355     88.8572   6.3793601115e+01   4.0698033291e+01     0.405262     0.334882  23.25  0.001673719    1.409    0.290
       150 -10.8218    122.2974     93.6603   6.5030335011e+01   3.9573096892e+01    0.2999694    0.2380025 -53.18 0.0007738257    1.249    0.199
       151 -10.7268    125.9474     94.2656   6.4257290382e+01   3.8668423490e+01    0.3544275    0.3449973 -41.63 0.0007136805    1.021    0.021
       152 -10.0144    152.3708     92.1222   5.7301703009e+01   3.3176000263e+01    0.2992076    0.2315301  60.56  0.001299924    1.408    0.290
       153 -11.1188     98.5966     91.0523   7.0845940367e+01   4.4899693641e+01     0.284907    0.2774789 -60.20 0.0003955562    1.048    0.046
       154 -10.5024    104.1613     87.9130   6.8350158277e+01   4.4521591181e+01    0.3861282    0.2543091 -40.09 0.0008204669    1.517    0.341
       155 -10.1014     66.3722     88.8058   8.0246359166e+01   5.0825855565e+01    0.3226213    0.2454257  -6.08  0.001154587    1.915    0.478
       156 -10.0511    183.8463     86.4962   4.9271601839e+01   2.6751813329e+01    0.5967391    0.2180053 -38.42  0.002050806    2.544    0.607
       157 -10.8004     80.3758     83.8972   7.4420397741e+01   4.9776102264e+01    0.4277148    0.3341044 -43.32  0.002008852    1.247    0.198
       158 -11.3929     75.4687     78.7834   7.4569364113e+01   5.1762226077e+01    0.6634649    0.5524141  84.81  0.002839894    1.388    0.279
       159 -10.8775    143.3039     84.4179   5.7100849462e+01   3.6747727210e+01    0.2755577    0.2727059  15.00 0.0005853528    1.036    0.035
       160 -11.6266    112.4862     82.9300   6.4522112374e+01   4.3902377411e+01     0.698188    0.4397923  65.61  0.002881269    2.158    0.537
       161  -9.8524    165.6123     83.7063   5.2000362561e+01   3.1586263556e+01    0.2996471    0.2613636 -51.34 0.0009145807    1.185    0.156
       162  -9.9766     66.8899     82.0488   7.8345401575e+01   5.2342915088e+01    0.3768643     0.341608 -35.44  0.002206679    1.185    0.156
       163 -11.6269     53.2168     76.5492   8.1655508116e+01   5.5543056702e+01    0.6307653    0.3743314 -66.51  0.003050006    1.615    0.381
       164 -11.0112     58.2085     77.6421   8.0165739330e+01   5.4620028710e+01    0.3558586     0.232992 -60.39 0.0008743826    1.360    0.265
       165  -9.0942    127.5085     83.4633   6.0677974374e+01   4.0541154211e+01    0.1531625    0.1479428 -37.15 0.0001935478    1.013    0.013
       166  -9.6617    102.9782     80.4528   6.6473774201e+01   4.6377078827e+01    0.2906807    0.1993634 -33.11 0.0006732474    1.569    0.363
       167  -9.9062      1.3466     80.4673   1.0128647132e+02   5.9260500934e+01    0.3829681   0.09468859 -72.44  0.001518534    2.852    0.649
       168 -10.1826     13.9221     54.1387   9.1759063732e+01   6.4762188543e+01    0.3764026    0.1383813 -57.12 0.0002805017    1.987    0.497
       169 -11.5082      2.1196     71.5689   9.9834056415e+01   6.1340737871e+01    0.6525533    0.1744272 -73.99  0.002594685    2.850    0.649
       170 -11.3236     13.8917     74.7125   9.5865827332e+01   5.9870729192e+01    0.8454736     0.324361 -73.45  0.003777917    2.169    0.539
       171  -9.1264     14.2093     67.6835   9.4487101638e+01   6.1533977294e+01    0.3964295    0.2331535  23.73  0.002235228    2.101    0.524
       172 -11.8449     10.0762     62.3265   9.5144210577e+01   6.3083554936e+01    0.3904257    0.2343075 -61.47  0.001173127    1.297    0.229
       173 -12.1572      4.5423     62.2725   9.7420292875e+01   6.3421344186e+01    0.4459645    0.3080511 -61.12  0.001361702    1.168    0.144
       174 -10.4714     95.0309     76.5005   6.7627075985e+01   4.8791491149e+01    0.7235011    0.4052912  36.03  0.002459422    2.082    0.520
       175 -11.7473     85.9846     72.9693   6.9359571052e+01   5.1255871041e+01    0.7703841    0.4808998  39.07  0.003559934    1.770    0.435
       176 -11.2648     79.4380     68.0063   6.9921748681e+01   5.3513451639e+01    0.7614968    0.5149537 -89.09  0.003185033    2.550    0.608
       177 -12.5380     74.8763     53.7065   6.6485547562e+01   5.7368144617e+01     1.014088    0.7497308 -37.20  0.001582469    1.254    0.203
       178 -11.1265     72.7966     47.2826   6.4742081010e+01   5.9041899763e+01    0.3233296    0.2851039 -52.65 0.0007958665    1.163    0.140
       179 -10.4800    233.3150     77.6142   3.9097099781e+01   1.6747400487e+01    0.2613245    0.2223153  31.62  0.001179127    1.276    0.216
       180  -9.2624    135.0239     77.5458   5.6951167194e+01   3.9995233056e+01    0.2335672    0.1552212  55.46  0.001020059    1.604    0.376
       181  -9.9440    126.9717     76.9568   5.8780500114e+01   4.1960493603e+01    0.2302909    0.2248957 -37.92 0.0003199477    1.017    0.017
       182 -11.7710    186.4429     70.6828   4.4182974894e+01   2.8663191854e+01    0.8862649    0.5567103 -38.13  0.003309824    1.500    0.333
       183 -10.2372    103.8532     74.6978   6.4406248103e+01   4.7426299840e+01    0.3456117    0.2778553  73.15  0.001704259    1.508    0.337
       184  -9.8893     60.2187     83.2184   8.0911171921e+01   5.3024759088e+01    0.2702286    0.2210471 -76.54  0.001047943    1.198    0.165
       185  -9.5118     24.7904     74.1812   9.1647614912e+01   5.9157113484e+01    0.4384246    0.2405164 -34.46  0.002138481    2.320    0.569
       186 -11.8641     40.8763     71.7825   8.4995990328e+01   5.8157607671e+01    0.5082632    0.3148994 -64.43  0.001441996    1.396    0.284
       187 -11.3634     34.5152     71.7627   8.7414859372e+01   5.8834682947e+01    0.5905869    0.2749041  29.03  0.002765654    2.529    0.605
       188  -9.6771    154.1148     72.3586   5.0916230464e+01   3.6378170960e+01    0.3277328    0.1774123  47.68  0.001303015    1.904    0.475
       189  -9.2461    161.9811     70.9755   4.8837055028e+01   3.4677193050e+01    0.2512107    0.1867532 -67.75  0.001009887    1.690    0.408
       190 -11.5621    122.8908     69.2036   5.7291378316e+01   4.4405458797e+01    0.5040916    0.3901316  44.40  0.001276794    1.352    0.260
       191 -11.7852     59.2570     63.8678   7.5784416368e+01   5.7661365886e+01    0.4865383    0.2665286 -52.82 0.0004086666    1.595    0.373
       192  -9.2490     65.0751     62.0533   7.3028040802e+01   5.7197979429e+01    0.2619489    0.2042326 -80.69 0.0004787323    1.587    0.370
       193 -11.1041    220.1881     66.7493   3.7920215418e+01   2.1152659045e+01    0.4975051    0.3194453  66.78  0.001916777    1.810    0.448
       194  -9.3217    171.8766     68.3310   4.6075042792e+01   3.2651941257e+01    0.2390807    0.2020781 -84.79 0.0008216347    1.389    0.280
       195  -9.3991    192.5678     65.7215   4.1680273192e+01   2.7908972591e+01    0.2126155    0.1313554 -39.51 0.0006390913    1.528    0.346
       196  -9.6630     84.1700     61.4037   6.6076551589e+01   5.4079229833e+01    0.2831621    0.2529016  88.33  0.001007903    1.315    0.239
       197 -11.6197     91.8225     62.6655   6.4022460383e+01   5.2353378849e+01     0.820894    0.4095826  53.87  0.003213161    2.462    0.594
       198 -10.4890     87.7478     56.4550   6.3086968281e+01   5.4418624516e+01    0.6992259    0.2067415 -38.50    0.0020952    3.569    0.720
       199 -10.4979     91.5436     57.2332   6.2141540418e+01   5.3514443694e+01    0.4042473    0.3566735  63.03  0.001261623    1.292    0.226
       200  -9.3047     52.3883     65.6920   7.8945484062e+01   5.8192127355e+01    0.2123147    0.1293572  31.79 0.0009085052    1.918    0.479
       201 -10.2883     21.0268     65.0199   9.1205407222e+01   6.1661729800e+01    0.1928181    0.1505152 -67.20 0.0004497911    1.040    0.038
       202  -9.8416    203.0612     64.2935   3.9638610640e+01   2.5550487975e+01    0.5046975    0.1794496  58.27 0.0006988612    2.886    0.653
       203  -9.6517    198.5609     62.7868   3.9870981825e+01   2.6864299315e+01     0.250405    0.2203003 -88.82  0.001327294    1.285    0.222
       204 -10.1113    101.1123     53.4672   5.7741249958e+01   5.2264415902e+01    0.6007777    0.3071459  39.93   0.00239022    2.210    0.547
       205 -10.4785    106.9247     63.4189   5.9691536102e+01   4.9087081131e+01    0.3959396    0.3098709  43.68  0.001079273    1.353    0.261
       206 -10.5135    107.0023     58.6434   5.7946686946e+01   5.0000815747e+01    0.3356944    0.2801577 -62.27 0.0009214901    1.332    0.249
       207  -9.4887    103.3109     57.3552   5.8552046375e+01   5.1049391857e+01    0.2321411    0.1559848  45.03  0.001063469    1.576    0.366
       208 -11.2847     61.1680     36.3708   6.4628433770e+01   6.3166120622e+01    0.5167166     0.356918 -40.46  0.001254376    1.283    0.220
       209 -10.3415     67.8618     32.1956   6.0050762453e+01   6.2782410063e+01    0.4667116    0.3566749 -69.92  0.002006768    1.913    0.477
       210 -11.4549     20.2235     45.3288   8.6531385630e+01   6.6322704809e+01    0.5981216    0.4589432  60.89   0.00256861    1.673    0.402
       211  99.0000     23.0246     37.3661   8.2575378999e+01   6.7860566918e+01    0.9272481    0.5550279  66.70  0.004210787    3.228    0.690
       212 -10.0883     59.8234     23.7011   5.9102726341e+01   6.5678709382e+01    0.2900717      0.17341 -28.62 0.0005870528    1.577    0.366
       213 -11.4247     26.2157     58.1878   8.7416912875e+01   6.2838376881e+01    0.7575771    0.6564434  44.50  0.004948005    1.384    0.278
       214 -10.7256     32.8360     52.9110   8.3077840237e+01   6.3426946159e+01    0.5503519    0.2429298  22.59  0.002047251    2.973    0.664
       215  -9.7862    175.0240    246.6812   8.1867005465e+01   4.3675902753e+00    0.1613059    0.1072405  35.41 0.0008877292    1.110    0.099
       216 -12.2706     43.9055     46.1240   7.5956246760e+01   6.3679644454e+01     1.155841    0.8611821  51.04  0.001424592    1.696    0.410
       217 -11.7454     57.9206     30.2431   6.3148327590e+01   6.4848242621e+01    0.4611281    0.3015114 -16.92  0.001169561    1.810    0.447
       218 -11.6781     49.1060     30.2663   6.7016282583e+01   6.6218543689e+01    0.6333799    0.3066312  32.03  0.001821634    2.465    0.594
       219 -11.3510     40.9536     57.1502   8.0917581746e+01   6.1571480175e+01     0.442702    0.2791671  41.59  0.001483546    1.873    0.466
       220 -12.2343     44.3216     61.5004   8.0855011256e+01   6.0174808284e+01    0.6419259    0.3494234 -34.11  0.001428479    2.248    0.555
       221 -11.1519     52.2504     61.8429   7.7827635569e+01   5.9093762718e+01    0.3437651    0.2647783  57.54 0.0009432865    1.585    0.369
       222 -11.5772    234.7863     60.9344   3.4509363335e+01   1.8613866854e+01    0.4407859    0.3906147 -18.16  0.001586209    1.063    0.059
       223  -8.9926    168.6611     63.2992   4.5083903037e+01   3.4269355340e+01    0.1604821    0.1180881 -65.88  0.000458178    1.663    0.399
       224  -9.7672    159.2429     62.5115   4.6655192675e+01   3.6776906137e+01    0.5019656    0.2019747  45.92  0.001699757    2.687    0.628
       225 -11.9536    117.5733     55.9376   5.4006931138e+01   4.8122082492e+01     1.439208    0.9960951 -68.19  0.006141607    2.028    0.507
       226 -11.4094    127.2166    242.4611   8.9383810178e+01   1.1525186780e+01    0.2541541    0.2338687  70.19  0.001231888    1.284    0.221
       227  -9.1695    163.4849    243.4823   8.3391138913e+01   6.3398147060e+00    0.1084456   0.08074053  35.47 0.0008102299    1.005    0.005
       228 -12.3228    118.7131     44.0384   4.9141691631e+01   4.9910761110e+01    0.9908831    0.5850711  48.44  0.003323678    1.731    0.422
       229  -9.9933     67.9940    240.6898   9.9339793761e+01   1.9447525852e+01    0.1515713    0.1026942  50.17 0.0008984559    1.102    0.093
       230 -12.1033    106.8550     31.9251   4.7209564372e+01   5.4638405483e+01    0.8094274    0.4518505   7.27  0.002726477    3.449    0.710
       231 -12.1182    114.4385     24.9885   4.2223931608e+01   5.3787205999e+01    0.6885351    0.3443002  55.89  0.001453696    1.976    0.494
       232  -9.2667    113.0012     75.3567   6.2002677074e+01   4.5370861777e+01    0.2949267    0.1405145  40.96  0.001098452    2.344    0.573
       233  -9.8151    149.6983     61.0428   4.8138839807e+01   3.9423061090e+01    0.4914089    0.1961849  60.83  0.001616481    2.892    0.654
       234  -9.7422    135.5125     58.4942   5.0435458107e+01   4.3379657304e+01      0.34391    0.2475328  -8.05  0.001510287    1.715    0.417
       235  -9.6251     66.6041     55.3936   7.0147003295e+01   5.8409320962e+01    0.5470995    0.2395581 -39.31  0.002108269    2.319    0.569
       236 -10.3965    157.4058     54.7936   4.4431560580e+01   3.8484723864e+01     0.526997    0.3825442 -69.68  0.002169759    1.742    0.426
       237  -9.8222    155.6183     48.7511   4.2691553680e+01   3.9876440955e+01    0.5051451    0.2668176  -2.25  0.001543105    3.751    0.733
       238  -9.8125      7.3073     54.0643   9.4676973331e+01   6.5201924198e+01    0.2335895    0.1307333 -55.73  0.001240602    1.413    0.292
       239 -10.8116    248.2298     53.5718   3.1110093028e+01   1.6599343542e+01    0.2768207    0.2103407  53.54  0.001462737    1.510    0.338
       240  -8.9785    212.3043     53.6578   3.5265799993e+01   2.4776152516e+01    0.1564914    0.1012178 -54.06 0.0005445036    1.682    0.406
       241  -9.3852    201.6268     53.0718   3.6531672161e+01   2.7467930515e+01    0.2166455    0.1838592 -21.79  0.001140219    1.127    0.113
       242 -10.9904    240.4188     50.9019   3.1220408172e+01   1.8616788181e+01    0.2751094    0.2279207   1.74  0.001285627    1.305    0.234
       243  -9.8540    238.0419     55.9456   3.2811579484e+01   1.8521830668e+01    0.2074442    0.1802083 -22.47   0.00121448    1.053    0.051
       244  -9.5968    144.7425     52.2490   4.6140698166e+01   4.2120715670e+01    0.3251356    0.2425708 -13.59  0.001495669    1.472    0.321
       245 -10.6728    146.1308     46.7291   4.3862590374e+01   4.2632329441e+01    0.6116095    0.2630284 -29.05  0.001759836    2.285    0.562
       246  -9.1519    135.3015     51.3212   4.7899193572e+01   4.4646410463e+01     0.158951    0.1195138  15.58 0.0006892075    1.628    0.386
       247 -10.0061    201.6932     48.9598   3.5289305845e+01   2.8003601895e+01    0.3058584    0.2021128 -23.42 0.0008362828    1.453    0.312
       248  -9.8339    199.8175     44.9967   3.4342204186e+01   2.8994272012e+01    0.4346382    0.2117138  85.72  0.001484314    3.362    0.703
       249 -10.5899    174.3577     48.4895   3.9245250754e+01   3.5048159213e+01    0.5725363    0.2861455  61.89  0.002254573    2.073    0.518
       250 -11.3051    147.7164    237.5240   8.5372377087e+01   9.2974284777e+00     0.575298    0.2255894  43.15  0.003119447    1.957    0.489
       251 -10.7980     12.7269     48.0189   9.0808015581e+01   6.6268283958e+01    0.3871173     0.169477 -43.94  0.001877249    2.102    0.524
       252  -9.5602      2.3915     49.0663   9.5860302289e+01   6.6637741484e+01    0.1995053    0.1716436  35.55  0.001058668    1.469    0.319
       253  -9.4564     90.1285     47.4319   5.8795779441e+01   5.5703899340e+01    0.2460654    0.1960669 -55.46  0.000637177    1.367    0.269
       254 -10.0829    135.5008     46.0000   4.5878077106e+01   4.5453750922e+01    0.5107141    0.2205061  63.58  0.001732499    2.739    0.635
       255  -9.7829    139.2167     43.6076   4.4164633341e+01   4.4880573433e+01     0.366224    0.2068134  37.98  0.001097377    2.063    0.515
       256 -10.2598    234.6333     44.6900   3.0163585147e+01   2.0662875804e+01    0.1466129    0.1266505 -35.69 0.0008436907    1.021    0.020
       257 -10.8520    155.5741     42.4074   4.0456801462e+01   4.0820655274e+01    0.3650582    0.3314596 -14.55 0.0009925521    1.101    0.092
       258  -9.6332      5.8387     43.3153   9.2918377082e+01   6.7782112440e+01    0.2907022    0.1861341 -70.35  0.001027994    1.290    0.225
       259 -10.1510      8.4820     30.4708   8.7857121924e+01   7.0510115082e+01    0.5371816     0.256423   2.84  0.002622741    3.042    0.671
       260  -9.4607      3.6937     39.3095   9.2979545691e+01   6.8816048438e+01    0.1632534     0.143593  53.32 0.0006392194    1.427    0.299
       261 -10.8906      4.6504     36.0273   9.1610410263e+01   6.9506401638e+01    0.3219034     0.267173  23.07 0.0008269773    1.524    0.344
       262 -10.1920    167.5384    238.0005   8.2074549983e+01   6.4100512556e+00    0.1323882    0.1082148 -35.53 0.0007748053    1.577    0.366
       263 -10.8099    230.5458     37.4931   2.8618727116e+01   2.2453717717e+01    0.4389468    0.3237288 -83.00   0.00158431    1.560    0.359
       264  -9.3675    183.5119     38.0521   3.4405631025e+01   3.4076211221e+01     0.217628    0.1407405 -29.40 0.0003565776    1.456    0.313
       265 -10.1623    176.8108     36.3070   3.4805920276e+01   3.6056089568e+01    0.3734412    0.2532695 -28.72  0.001735886    1.405    0.288
       266  -9.6660    132.9943     37.1080   4.3016959228e+01   4.7435663151e+01    0.3575893    0.2263703 -71.93  0.001396843    2.425    0.588
       267  -9.3081    206.5216     37.1231   3.1121189881e+01   2.8301664320e+01    0.2141077    0.1356288 -25.28 0.0006045166    1.480    0.324
       268 -10.5663    153.1307     36.3231   3.8705997381e+01   4.2310339455e+01      0.27738    0.2682028  53.90  0.000384849    1.056    0.053
       269 -10.6786     92.8098     41.4489   5.5454599106e+01   5.6235075157e+01    0.5380792    0.2695407  43.99  0.002217754    2.122    0.529
       270  -9.5820     94.0925     35.8688   5.2637503079e+01   5.6913022178e+01    0.2209615    0.1926509 -62.13  0.000759969    1.342    0.255
       271 -11.9692    239.7493     32.6438   2.6442781229e+01   2.0898535890e+01    0.8703041    0.3505304  70.65  0.003602596    2.809    0.644
       272  -9.7301    177.4991    236.5240   8.0232807034e+01   5.1584360459e+00     0.110272   0.08291267  31.88 8.508929e-05    1.004    0.004
       273  -9.3767     15.1916    233.6129   1.0780661986e+02   2.6249369047e+01    0.1453196   0.09610367  89.75  0.001186567    1.435    0.303
       274 -10.4562    242.6953    232.3354   6.9340376539e+01  -3.4192996051e+00    0.1910771     0.167155  37.15  0.001559861    1.723    0.420
       275 -10.3751    247.1319    231.6423   6.8580393340e+01  -3.9330527678e+00    0.1576168    0.1222593  -4.90 0.0004941461    1.315    0.240
       276  -9.5748     23.7954    231.8017   1.0631658698e+02   2.5703674794e+01    0.1439614   0.07791575  59.52 0.0006627322    1.305    0.234
       277 -10.6577    199.4184    234.7881   7.6415890712e+01   2.2337341277e+00    0.2254517    0.1548198  16.14 0.0009115048    1.334    0.250
       278 -10.4577    233.7528    222.4486   6.9220895481e+01  -1.3143634144e+00    0.2733121    0.1454675 -29.78  0.001751459    2.093    0.522
       279  -9.0336    189.7116    229.6733   7.7317273630e+01   4.1789847891e+00    0.1097534    0.0715675  14.45 0.0004245242    1.613    0.380
       280 -10.6143    158.0906     20.3511   3.1999255915e+01   4.2960609018e+01    0.4077862    0.2472402  70.69  0.001538428    1.695    0.410
       281  -9.2387    152.8164    219.3906   8.2326399428e+01   1.0948465820e+01    0.1642224   0.08980829  33.14   0.00050117    1.631    0.387
       282 -12.1589    160.0387     29.6671   3.5097592678e+01   4.1342816280e+01    0.5156509    0.4402975  10.92 0.0004013621    1.266    0.210
       283 -11.4392    164.3655     27.5646   3.3663132328e+01   4.0445356024e+01     0.288651    0.2696921  11.59 0.0005725141    1.113    0.102
       284  -9.0912    138.4640     33.4662   4.0441017762e+01   4.6541144092e+01    0.1506599    0.1464372  -5.41 0.0005216248    1.007    0.007
       285 -10.0845     87.0802     30.3796   5.2364110358e+01   5.9312474994e+01    0.4786752    0.3169284  17.00  0.002168914    1.962    0.490
       286  -9.2430     36.0232     31.9820   7.3976528423e+01   6.7632697785e+01    0.1786986    0.1530778 -81.65 0.0004583114    1.532    0.347
       287 -10.1893    164.5300    212.0581   7.9254891764e+01   1.0155845160e+01    0.2238631    0.1460865  38.87 0.0006626458    1.247    0.198
       288  -9.8326    153.3956    207.8043   8.0693796791e+01   1.2493234100e+01    0.2299701    0.1667512  57.20 0.0009278574    1.492    0.330
       289  -9.2427     61.2930    206.5624   9.8130159769e+01   2.5880612773e+01    0.1403553   0.09677149  36.03 0.0009305488    1.512    0.339
       290  -9.5715    238.5036    204.5128   6.5642644593e+01  -1.9996123299e-01    0.2110707    0.1004447 -26.27  0.001204285    2.145    0.534
       291 -11.0008      6.0307    198.9583   1.0813398353e+02   3.3080757647e+01    0.2727931    0.1264754 -71.25   0.00172494    2.162    0.538
       292  -8.9062    213.7534    204.0021   6.9520451986e+01   3.5256853702e+00    0.1335478   0.09260561 -23.63  0.000829348    1.533    0.348
       293  -9.9817    229.8844     30.8251   2.6849589795e+01   2.3370819372e+01     0.257807     0.212758 -18.03 0.0003470993    1.191    0.160
       294 -10.3424    230.4704     26.9129   2.5721013416e+01   2.3667084596e+01    0.2626555    0.2346667 -36.78 0.0007394249    1.026    0.025
       295 -10.4221    198.4541     29.2870   2.9682938123e+01   3.1275558301e+01    0.4216191    0.3212214  36.57  0.002137746    1.486    0.327
       296 -10.6411    189.1407     28.0026   3.0398446658e+01   3.3833779168e+01    0.4520389    0.3179272  -7.60  0.002150306    1.577    0.366
       297  -9.6614     99.6993     30.4545   4.8547095346e+01   5.6520463917e+01    0.2758568     0.186525  72.93  0.001026881    1.996    0.499
       298  -9.2355     97.0352     26.2750   4.7396167695e+01   5.7747700100e+01     0.359025    0.1448235 -29.30  0.001319841    2.380    0.580
       299 -10.1047     17.6533    203.2181   1.0616436545e+02   3.1232768244e+01     0.231525    0.1458072 -54.87  0.001559359    2.304    0.566
       300  -9.0004     78.4724    203.5941   9.4553560315e+01   2.4229031920e+01    0.1157395   0.09041265  58.74 0.0001316652    1.018    0.018
       301 -10.1607    143.6842     25.1080   3.6179123056e+01   4.6252770746e+01    0.4414013    0.1956645  57.57  0.001688086    2.142    0.533
       302  -9.6112    149.1229     22.2075   3.4115266136e+01   4.5151255904e+01    0.3438489    0.2653624  31.04 0.0009411846    1.394    0.283
       303 -10.2850    245.5010    200.9846   6.3978384492e+01  -8.4196476358e-01    0.1572892   0.09732121 -20.58 0.0006057504    1.563    0.360
       304 -10.1645    233.8350    196.7328   6.5063540861e+01   1.3033860708e+00    0.2361654    0.1666588 -13.20  0.000904327    1.341    0.254
       305  -9.5810     82.7338    196.1925   9.2992177451e+01   2.4990721976e+01     0.292838    0.1649675  28.10  0.001560053    2.221    0.550
       306 -10.7187    183.1021     25.7142   3.0412330237e+01   3.5681768425e+01    0.3989861    0.3208071  54.96  0.001762617    1.284    0.221
       307  -9.3221    150.2509     27.3805   3.5891106082e+01   4.4232122171e+01    0.2718586    0.1706228  47.55 0.0003101967    1.619    0.382
       308 -10.2440    152.9760     24.1754   3.4225066929e+01   4.3892594640e+01    0.5011769     0.279871  80.21  0.002008436    2.167    0.539
       309 -10.6090    246.9362    194.4390   6.2638446603e+01  -3.8043728777e-01    0.2013825    0.1507192 -31.40    0.0013871    1.658    0.397
       310  -9.6484    170.2774    191.1034   7.5080183189e+01   1.2196266681e+01    0.3402238    0.1443342  29.28  0.001361694    3.104    0.678
       311  -9.1059    162.4853    190.9805   7.6525623784e+01   1.3515313924e+01    0.1496511    0.1099948 -80.68 0.0005676957    2.310    0.567
       312  -9.3062     16.4561    191.5016   1.0583615583e+02   3.3533245563e+01    0.1082509   0.07987975  70.84 4.155927e-05    1.027    0.026
       313 -11.9911      4.4907    184.4749   1.0785005442e+02   3.5954646007e+01    0.5290838    0.3125963  72.99  0.003277187    1.270    0.213
       314  -9.5564    216.4273     20.7928   2.5270669745e+01   2.7699563265e+01    0.3163576    0.1602213  44.96  0.001334912    2.378    0.580
       315 -10.2391     13.8510     23.4098   8.2185140097e+01   7.1634561999e+01    0.2145168    0.1370918 -48.64 0.0004409321    1.214    0.176
       316 -10.6389    178.4920     21.1662   2.9479353951e+01   3.7411663275e+01     0.540186    0.2528841  36.75  0.001937063    2.875    0.652
       317  -9.3538    169.5647     23.5957   3.1501142028e+01   3.9520432741e+01    0.3025335    0.1280631  60.95  0.001139637    2.249    0.555
       318  -9.8647    239.8674    184.5074   6.1964877912e+01   1.7336499092e+00    0.1953544    0.1467129  -9.11 0.0006182645    1.194    0.162
       319  -9.2081    223.9802     22.4423   2.5057587042e+01   2.5689707640e+01     0.197116    0.1359444  79.47 0.0005933148    1.574    0.364
       320  -9.9238    125.9612     21.1932   3.8007923984e+01   5.1359596798e+01    0.3813628    0.2178397  71.81 0.0007498295    2.005    0.501
       321  -8.3985    173.3067    184.2934   7.3396461073e+01   1.2692433532e+01    0.1254625   0.09018088  13.03 0.0004992773    1.581    0.368
       322  -9.5605     74.8402     19.5272   5.1147506939e+01   6.3510973605e+01    0.2244653    0.1739226 -10.64 0.0004462828    1.248    0.199
       323 -10.0234    250.4544    177.7448   5.9099517391e+01   8.6770054670e-01    0.2769792    0.1031158 -24.82  0.001294095    2.634    0.620
       324  -9.3362     79.7995     19.2067   4.9277206378e+01   6.2535803884e+01    0.1975744    0.1543906  11.38 0.0006911196    1.326    0.246
       325 -10.4439     51.9388    173.3870   9.7235789168e+01   3.3381817589e+01    0.4781916    0.2048428  86.65  0.002048112    3.164    0.684
       326  -9.5491     27.9365    175.8383   1.0260417096e+02   3.5506416372e+01    0.1603772    0.1403484  87.47 0.0008532351    1.251    0.201
       327  -8.9734    230.4700    175.4979   6.1793182850e+01   4.2514531528e+00    0.1245496   0.09898842   9.52 8.671953e-05    1.027    0.027
       328  -9.8879    247.2299    174.1039   5.8904159889e+01   1.7615074095e+00    0.3104548    0.1185722  29.37  0.001326935    3.036    0.671
       329  -9.5321     75.3186     13.7292   4.7884265468e+01   6.4222851754e+01    0.2364945    0.1706933  66.08 0.0008308422    1.781    0.438
       330  -9.7353      6.6367     12.7002   8.1905382027e+01   7.4379202934e+01    0.2445151    0.1347227   4.13  0.001173128    2.332    0.571
       331  -9.8681     39.2441    173.4251   1.0000509478e+02   3.4817972514e+01    0.2322113    0.1379143  76.29 0.0008823063    1.506    0.336
       332 -10.8599     35.5151    170.3508   1.0057396393e+02   3.5852915799e+01    0.3494313    0.1879758 -85.50  0.002019351    1.688    0.408
       333  -9.0168    170.5042    171.9321   7.1782413635e+01   1.5084241696e+01    0.1762863    0.1285711 -37.65 0.0006349885    1.499    0.333
       334  -9.5283    214.2188     24.6214   2.6591626430e+01   2.7830933406e+01    0.2964836    0.2277917  72.36  0.001592431    1.382    0.276
       335 -11.9377     22.7027    149.1215   1.0182595552e+02   4.1676313688e+01     0.557529    0.3214403 -39.31  0.001915883    2.922    0.658
       336 -11.7959      9.3424    166.9769   1.0602883896e+02   3.9047743386e+01    0.4599151    0.3027996 -85.24  0.002577091    1.284    0.221
       337 -11.2937     14.0344    158.3473   1.0449571112e+02   4.0454910736e+01    0.4677114    0.1980287 -73.31  0.001729663    2.023    0.506
       338  -9.5220    198.1312    167.8832   6.5858788561e+01   1.0755183962e+01    0.1832606    0.1719252  27.03 0.0006118736    1.191    0.161
       339  -9.3368    187.4963    167.5282   6.7737805217e+01   1.2711434630e+01    0.1316971    0.1144142  18.97 0.0003036466    1.023    0.023
       340  -8.8871    156.5495    166.4574   7.3562660310e+01   1.8496527038e+01    0.1316736    0.1197886  34.83 0.0002180317    1.002    0.002
       341  -8.7242    152.2861    166.6782   7.4471671177e+01   1.9228324188e+01    0.1273686    0.1028579  78.86 0.0003948907    1.598    0.374
       342 -10.2397     18.7960    165.2019   1.0387369852e+02   3.8580638287e+01    0.2306217    0.2061161 -12.27  0.001707854    1.757    0.431
       343 -10.4313    205.6696    162.6709   6.3500464007e+01   1.0149485605e+01    0.4149445    0.2307618  21.38  0.001360785    2.218    0.549
       344 -10.6666     28.1588    162.2114   1.0157939871e+02   3.8317494827e+01    0.3232992    0.1879542 -76.11  0.001965189    1.529    0.346
       345 -10.1102     38.7302    161.6694   9.9131904916e+01   3.7338631327e+01    0.3487037    0.1712864  66.61   0.00180427    2.006    0.502
       346 -10.0301     78.5821    160.0865   8.9715223341e+01   3.2690871874e+01    0.2885045    0.1820998  77.91  0.001179361    1.776    0.437
       347  -9.4722    224.3140    157.8763   5.9355181332e+01   7.5002469064e+00    0.2892291     0.143819 -40.56   0.00137031    2.305    0.566
       348  -9.7011     53.7722    156.9408   9.5164428363e+01   3.6636309839e+01    0.2159154    0.1175837  74.15 0.0009972493    1.987    0.497
       349 -10.2938      9.5981    155.5274   1.0532502933e+02   4.1433571487e+01    0.2222356    0.1146742 -87.35  0.001310869    1.586    0.369
       350 -10.8094    105.1637    154.2122   8.2641413170e+01   2.9836380217e+01    0.3612297     0.343554 -26.37  0.002273902    1.270    0.212
       351 -10.8704     31.3840    152.8133   1.0006594554e+02   4.0024361652e+01    0.4356794    0.2286443  75.19  0.002342876    1.832    0.454
       352 -10.3855      3.2137    153.0677   1.0663336976e+02   4.2470276338e+01     0.316301    0.1480328  71.91  0.001618495    1.803    0.445
       353 -10.3924      3.1836    147.6381   1.0634025837e+02   4.3641996096e+01    0.2227732    0.1436132 -84.09 0.0006914038    1.259    0.206
       354 -12.0658      2.4283    141.4474   1.0615979639e+02   4.5051210742e+01    0.6778673    0.2760826  66.96  0.001178942    2.237    0.553
       355 -11.4331     47.5399    146.9173   9.5559940612e+01   3.9584295908e+01    0.5646755    0.4377056 -43.10  0.003469415    1.708    0.414
       356  -9.5861     72.1306    151.1137   9.0046772688e+01   3.5526404109e+01        0.192     0.176874 -57.86  0.001242919    1.282    0.220
       357 -10.7842     63.8025    150.3171   9.1969506720e+01   3.6823035379e+01    0.4183471     0.247533  17.44  0.001945538    2.845    0.648
       358 -11.0574     15.8876    147.9931   1.0336718976e+02   4.2535093808e+01     0.273596    0.1990227  59.60 0.0008842377    1.227    0.185
       359  -9.5376    239.6885    146.9428   5.4632626417e+01   6.2309923302e+00    0.1837833    0.1461501 -10.55 0.0007526826    1.090    0.083
