#   1 NUMBER                 Running object number                                     
#   2 MAG_AUTO               Kron-like elliptical aperture magnitude                    [mag]
#   3 X_IMAGE                Object position along x                                    [pixel]
#   4 Y_IMAGE                Object position along y                                    [pixel]
#   5 X_WORLD                Barycenter position along world x axis                     [deg]
#   6 Y_WORLD                Barycenter position along world y axis                     [deg]
#   7 A_WORLD                Profile RMS along major axis (world units)                 [deg]
#   8 B_WORLD                Profile RMS along minor axis (world units)                 [deg]
#   9 THETA_WORLD            Position angle (CCW/world-x)                               [deg]
#  10 FWHM_WORLD             FWHM assuming a gaussian core                              [deg]
#  11 ELONGATION             A_IMAGE/B_IMAGE                                           
#  12 ELLIPTICITY            1 - B_IMAGE/A_IMAGE                                       
         1 -12.6440      2.4226      4.1049   5.5602280276e+01   7.3382123706e+01    0.5442637    0.2950311 -32.45  0.003608726    1.539    0.350
         2 -14.6032      7.2765     10.9302   5.5991271053e+01   7.2023074334e+01     2.095853    0.5537636 -37.67  0.009417672    3.243    0.692
         3 -12.5732     19.9877     12.0188   4.9658028640e+01   7.0619961257e+01    0.2817329    0.1635459 -12.11  0.001710158    1.675    0.403
         4 -13.0813     13.8080     22.4194   5.7409013423e+01   6.9744843019e+01    0.4249647    0.1662155 -34.93  0.002162535    2.258    0.557
         5 -12.4576     25.5760      7.1726   4.4538770897e+01   7.0575512505e+01    0.2859561    0.1517631  -5.10  0.001537778    2.265    0.559
         6 -12.5440     22.5726      2.2881   4.3621993063e+01   7.1516261483e+01    0.3378241    0.1516578  21.62  0.001782265    2.324    0.570
         7 -11.6667    100.2243    247.4085   7.6062542186e+01   9.2225437490e+00    0.1916967   0.09692419  45.80 0.0009262969    1.686    0.407
         8 -11.5892     90.3526    249.8847   7.8364563005e+01   1.0184313139e+01    0.2391224    0.1412007  46.98  0.001304801    1.419    0.295
         9 -11.6777     74.0906    249.8994   8.1668173201e+01   1.2454297626e+01    0.3383539    0.1636411  56.48  0.001683192    1.994    0.499
        10 -12.2934     65.8517    248.9959   8.3238165980e+01   1.3736976140e+01     0.404282     0.203794  50.02  0.002162367    1.660    0.398
        11 -11.6653     51.5154    249.9933   8.6146599245e+01   1.5386350213e+01    0.3538424    0.1359586  41.36  0.001742932    2.092    0.522
        12 -12.0973     19.6170    249.5253   9.2132423584e+01   1.9178096712e+01    0.3108318    0.1509988  49.96  0.001836967    1.625    0.385
        13 -11.2631     34.0637    248.4895   8.9385767591e+01   1.7777390639e+01    0.2305266    0.1316704  77.23  0.001366373    1.624    0.384
        14 -12.2700    232.9870    244.5218   4.9040060051e+01  -9.8039255036e+00    0.2360623    0.1409165 -16.77  0.001387586    1.640    0.390
        15 -11.9053     84.0979    244.6002   7.9107310399e+01   1.2097228125e+01    0.3011298    0.1550647  54.03  0.001509219    1.828    0.453
        16 -11.2288     45.2625    244.8326   8.6970743930e+01   1.7179052897e+01    0.2947164     0.178523  60.08  0.001481877    1.397    0.284
        17 -10.2394     29.2968    243.6424   8.9969661202e+01   1.9283181827e+01    0.1275531   0.06640337  65.53 0.0007033927    1.702    0.412
        18 -12.2114     73.3424    240.6182   8.0937351435e+01   1.4390926358e+01    0.3630741    0.2120027  63.08  0.001935715    1.715    0.417
        19 -12.6245     15.4692    240.7175   9.2393786456e+01   2.1361797134e+01    0.3222092    0.1604304  68.56  0.001844075    1.755    0.430
        20 -11.2029     54.2406    239.9488   8.4792133823e+01   1.7051348758e+01    0.3174271    0.1608074  60.27  0.001635052    1.880    0.468
        21 -10.6783     38.3265    240.6891   8.8021133000e+01   1.8843929808e+01    0.2038098    0.1048506  63.71  0.001098628    1.785    0.440
        22  -9.8136     32.6778    241.3378   8.9166591245e+01   1.9365599267e+01    0.1298911   0.06758524  64.03 0.0007050611    1.715    0.417
        23 -10.8017    225.3255    241.3350   4.9906891295e+01  -8.3692013656e+00    0.1276759   0.07892671  -2.02 0.0007051351    1.716    0.417
        24 -11.9612    248.8976    238.8662   4.5310056421e+01  -1.1003815267e+01    0.1906902    0.1295066  -4.28  0.001248685    1.265    0.209
        25 -11.0109     82.1812    236.7720   7.8691139749e+01   1.3934355263e+01    0.2311106      0.10987  64.15 0.0009547889    2.826    0.646
        26 -10.6428     45.0551    237.0108   8.6404463973e+01   1.8794538563e+01    0.2128348    0.1142525  63.59  0.001140605    1.741    0.426
        27 -12.0048     63.6023    232.7668   8.2213800558e+01   1.7320466517e+01    0.4810248    0.2298446  71.24    0.0020617    2.821    0.646
        28 -11.5184      9.5167    247.5267   9.3849826746e+01   2.0618523916e+01    0.1837153    0.1344174  72.90 0.0009275757    1.035    0.034
        29 -10.0696     20.3495    233.6738   9.1043024669e+01   2.2289919020e+01    0.1305367   0.06504208  63.14 0.0007048935    1.756    0.430
        30 -10.8416     11.6032    231.7682   9.2605654594e+01   2.3581534743e+01    0.1639677   0.08739081  84.79 0.0007518838    1.648    0.393
        31 -10.1462     48.5903    229.8050   8.5085462679e+01   1.9869594838e+01    0.1764902    0.1035302  88.10 0.0009487598    1.733    0.423
        32 -11.1848      6.1084    229.8757   9.3541643629e+01   2.4510231685e+01    0.2082514    0.1251245  80.18 0.0009455362    1.363    0.266
        33 -12.0491      5.5254    225.5308   9.3411552869e+01   2.5471642206e+01    0.2547936     0.124267  75.55   0.00125087    1.827    0.453
        34 -11.8054      1.4865    219.0120   9.3827557848e+01   2.7223130911e+01    0.2940357   0.09471598 -79.16  0.001237844    2.681    0.627
        35 -11.7584     11.2910    226.3097   9.2343762726e+01   2.4751960599e+01    0.2543306    0.1130744  64.37   0.00132354    2.043    0.510
        36 -10.5737    245.6481    229.6857   4.4320238962e+01  -9.3435488660e+00    0.1264259   0.07655624  -2.96  0.000704619    1.731    0.422
        37 -11.5092    248.5161    224.0135   4.2848327418e+01  -8.9017155424e+00    0.1814526    0.1006552 -32.51  0.001036199    1.604    0.377
        38 -12.5007      2.1944    212.8066   9.3333937500e+01   2.8493499377e+01    0.3915001     0.207254 -88.91  0.002275119    1.590    0.371
        39 -11.6045    247.8581    216.6886   4.1677897959e+01  -7.7564250626e+00    0.2241221     0.140787 -23.46  0.001334073    1.396    0.284
        40 -10.9661      7.4870    216.4970   9.2498667640e+01   2.7210925521e+01    0.1194535   0.09077819  76.23 0.0008104854    1.017    0.017
        41 -10.2143     13.3172    211.3194   9.0980406036e+01   2.7786844549e+01    0.1113156   0.08475499 -52.04 0.0005203304    1.659    0.397
        42 -11.5490     13.8033    216.5901   9.1233912430e+01   2.6585176302e+01    0.2538486    0.1346845  61.26  0.001431576    1.652    0.395
        43 -11.7411      6.5710    205.3928   9.1983773608e+01   2.9729647788e+01    0.3171448    0.1407728  72.28  0.001550253    2.240    0.554
        44 -10.8601      1.5148    205.9196   9.3059848822e+01   3.0059906663e+01    0.3023531   0.09595152 -77.99  0.001345985    2.663    0.625
        45 -11.7198     13.0261    204.5045   9.0567375420e+01   2.9331649462e+01    0.2510962      0.13813  80.75  0.001380452    1.653    0.395
        46 -12.4277      3.9848    197.4741   9.2004918838e+01   3.1732215820e+01    0.4686636    0.1987867  78.27  0.002187165    2.434    0.589
        47 -10.5816      9.2929    198.6308   9.0947893261e+01   3.1002746449e+01    0.1323209   0.07122195  68.74 0.0007026648    1.720    0.419
        48 -10.3031     14.3179    196.6456   8.9708995956e+01   3.0993307881e+01    0.1351619   0.07328384  67.25 0.0007046225    1.747    0.428
        49 -12.7590      3.9039    188.3577   9.1392365712e+01   3.3818018757e+01    0.5031383    0.2162086  68.00  0.002353551    2.447    0.591
        50 -12.4320      2.1848    178.1384   9.1029509178e+01   3.6327730488e+01    0.3891892    0.1794356 -89.78  0.001921922    1.989    0.497
        51 -12.3648      5.9518    174.5077   8.9866421833e+01   3.6883275170e+01    0.2523996    0.1434429  83.79  0.001071499    1.611    0.379
        52 -12.6539      5.7278    169.0384   8.9464571179e+01   3.8198155022e+01     0.424555    0.1803077  67.31  0.001840534    2.793    0.642
        53 -12.7529      4.0059    154.0571   8.8555615422e+01   4.1914353580e+01    0.3922717    0.1523362 -79.41  0.001737155    2.270    0.559
        54 -11.3931     10.2232    154.8077   8.7015247732e+01   4.1271639651e+01    0.2262732     0.100989  64.82 0.0009568312    2.826    0.646
        55 -11.3960      4.4128    136.2230   8.6628488392e+01   4.6191787917e+01    0.1855279    0.1024489 -85.21  0.000956609    1.681    0.405
        56 -11.1236    248.0022    129.4870   2.4864394098e+01   6.4902215502e+00    0.2249833    0.1546056 -40.88  0.001262348    1.229    0.186
        57 -11.4521      2.6179    126.3057   8.6012673989e+01   4.8693487621e+01    0.2559107    0.1039634 -76.98  0.001143715    2.189    0.543
        58 -11.6289    239.6022    123.6402   2.4894166993e+01   8.9806614175e+00    0.3962004    0.1336834 -45.33  0.001503472    2.641    0.621
        59 -11.8278    247.8786    118.4525   2.2627137838e+01   8.3902283588e+00     0.321498    0.1626614 -43.39   0.00155928    1.665    0.399
        60 -10.1308    231.6597    114.6701   2.4186738817e+01   1.2025340528e+01    0.1342892    0.1058039  -2.17 -4.864111e-06    1.741    0.426
        61 -12.0209    241.2257    108.8977   2.1576439208e+01   1.1218408714e+01    0.3030545    0.1533316 -49.06   0.00142182    1.795    0.443
        62 -11.3381    248.3875    107.1714   2.0244776873e+01   1.0194438710e+01    0.1965881    0.1011804 -48.24 0.0008878775    1.701    0.412
        63 -11.2904    249.5280     87.5015   1.6078424696e+01   1.3187810398e+01    0.1296759    0.1066031 -55.50 2.597544e-05    1.012    0.012
        64 -12.0844      1.9615     39.7296   6.9611157295e+01   6.7676579045e+01    0.3165289    0.1321138 -52.31  0.001695946    1.933    0.483
        65 -12.9990    242.9624    247.4245   4.7747705119e+01  -1.1424441980e+01    0.3618399    0.1785779 -35.29  0.002069985    1.959    0.490
        66 -12.6188      6.3894    235.8713   9.3812456049e+01   2.3252981584e+01    0.3365854    0.2036744  72.27  0.002194201    1.319    0.242
        67 -11.2132      4.1205    248.6511   9.4863052650e+01   2.0935933056e+01    0.2785743     0.142134  49.77  0.001767925    1.552    0.356
        68 -12.5682      3.3170    242.2960   9.4699636174e+01   2.2260712123e+01    0.4592952    0.2117942  75.08   0.00261723    1.901    0.474
        69 -11.1738     13.8291    248.0822   9.3103201462e+01   2.0069202815e+01    0.1831214    0.1138146  66.43 0.0008876848    1.254    0.202
