#   1 NUMBER                 Running object number                                     
#   2 MAG_AUTO               Kron-like elliptical aperture magnitude                    [mag]
#   3 X_IMAGE                Object position along x                                    [pixel]
#   4 Y_IMAGE                Object position along y                                    [pixel]
#   5 X_WORLD                Barycenter position along world x axis                     [deg]
#   6 Y_WORLD                Barycenter position along world y axis                     [deg]
#   7 A_WORLD                Profile RMS along major axis (world units)                 [deg]
#   8 B_WORLD                Profile RMS along minor axis (world units)                 [deg]
#   9 THETA_WORLD            Position angle (CCW/world-x)                               [deg]
#  10 FWHM_WORLD             FWHM assuming a gaussian core                              [deg]
#  11 ELONGATION             A_IMAGE/B_IMAGE                                           
#  12 ELLIPTICITY            1 - B_IMAGE/A_IMAGE                                       
         1 -12.2441    207.5691     40.0057   7.0078816199e+01   2.8511715662e+01     1.915856    0.8261952 -49.77   0.00148827    2.432    0.589
         2 -13.6140    227.8826     37.9441   6.7022998937e+01   2.3899244154e+01     1.317023    0.5397662  79.44  0.004128821    3.204    0.688
         3 -16.9712    243.1264     12.3877   5.9881063786e+01   2.3630666683e+01     4.055698     2.456452 -40.24   0.02318557    1.638    0.390
         4 -13.6754    240.8390     33.2978   6.4548729364e+01   2.1523877862e+01    0.6460508    0.3593108 -27.34  0.001778982    2.248    0.555
         5 -13.1405    231.4816     59.9374   7.1684978730e+01   1.9859363669e+01     2.592201     1.238567  86.43  0.008844474    3.737    0.732
         6  -9.9207    192.9375     31.2267   6.9870648918e+01   3.3279308867e+01    0.6929542    0.3710116 -76.07  0.002768055    2.714    0.632
         7 -11.4298    113.2299     29.0019   8.4290533879e+01   5.2550249223e+01    0.8843176    0.6465774 -42.14  0.004165912    1.592    0.372
         8 -10.0928     96.8498     29.3475   8.8752759986e+01   5.5848527306e+01    0.6058152    0.3750131 -59.16  0.002668879    3.173    0.685
         9  -9.8159     20.2825     15.5647   1.1073310893e+02   6.8692487536e+01    0.4175417    0.2295672  42.16  0.002212035    3.073    0.675
        10  -9.5434    168.4910      8.9938   6.7365108056e+01   4.1787420313e+01    0.5147644    0.2903611 -85.35  0.002047056    2.251    0.556
        11  -8.8541    179.8591      9.3197   6.5903426842e+01   3.8978862344e+01    0.2280611    0.1643207 -58.53 0.0006434363    1.475    0.322
        12  -8.3000    152.2097      9.7626   7.0062078311e+01   4.5652980145e+01    0.2454522    0.1885565   5.11  0.001417217    1.602    0.376
        13  -9.4232    140.8134      7.6408   7.1337340381e+01   4.8547978120e+01    0.2929062    0.2459899 -75.37  0.001080185    1.376    0.273
        14  -9.7302    134.5903      7.6977   7.2474275060e+01   4.9989620394e+01    0.3287179    0.2213649 -49.68  0.001800092    1.835    0.455
        15  -9.2361    160.4399      4.5354   6.7270207106e+01   4.4152778579e+01    0.3023342    0.2366948 -32.62 0.0009046294    1.465    0.317
        16  -9.5734    175.8592      3.0645   6.4762517146e+01   4.0552224583e+01    0.2969548    0.2181377 -22.80  0.001744701    1.644    0.392
        17  -8.1527    155.9444      4.9005   6.8043347593e+01   4.5201175833e+01    0.2044347    0.1439006 -71.65 0.0009799458    1.674    0.403
        18  -9.1244    107.9871      3.5025   7.6457585465e+01   5.6235106970e+01    0.3553503    0.2607722  89.72  0.001598406    1.963    0.491
        19  -8.8614    101.5656      3.5170   7.7943892034e+01   5.7568764985e+01    0.2387209    0.1920588  83.71 0.0009588947    1.671    0.402
        20  -8.0378    181.5858      2.2638   6.3840633828e+01   3.9236177747e+01    0.2174075    0.1162747 -35.10 0.0007025889    2.029    0.507
        21  -9.1925    126.6028      2.5218   7.2278192768e+01   5.2250215450e+01     0.342607    0.2108673  89.10   0.00168019    2.324    0.570
        22  -7.7038    189.5338      2.5219   6.2969895062e+01   3.7285574253e+01    0.1299332    0.1089817  76.84 0.0008089431    1.042    0.040
        23  -8.0148    147.4895      2.4944   6.8643219396e+01   4.7422705400e+01    0.1301129    0.1100089  60.29 9.400844e-05    1.006    0.006
        24  -7.6481     78.7664      2.0143   8.3316367264e+01   6.2102610475e+01     0.145748   0.09187181 -16.42 0.0008754547    1.616    0.381
        25  -8.6458    134.9523      1.4633   7.0414389660e+01   5.0434023474e+01    0.2823574    0.1185015  70.85  0.000997577    2.506    0.601
        26  -8.3475     66.2574    144.1352   1.2933514260e+02   3.8052078740e+01     0.266225    0.1597058  64.04  0.001244863    2.066    0.516
        27 -11.1285    241.7580    137.5405   8.8073006290e+01   4.2436335741e+00    0.8200911    0.5865449 -53.08  0.003981533    1.486    0.327
        28  -9.1068    248.1670    132.2375   8.5829409996e+01   3.8981433854e+00    0.3756835    0.2927284 -50.32  0.001780495    1.271    0.213
        29  -7.9674    206.7525    141.9700   9.5496308513e+01   1.0827768289e+01    0.2084108    0.1263912 -39.75 0.0008928493    1.614    0.381
        30  -8.4076    196.3811    139.1369   9.6918393049e+01   1.3696126701e+01     0.226441    0.1390654 -52.18 0.0009410045    1.754    0.430
        31  -7.5915    160.2657    139.6339   1.0490544422e+02   2.1731201871e+01    0.1605278    0.1227001 -79.63 0.0003395588    1.652    0.395
        32  -7.7072    222.4543    136.5175   9.1247290683e+01   8.4556656932e+00    0.1474343    0.1398094 -34.83    0.0001188    1.004    0.004
        33  -8.1949    198.7531    135.6212   9.5607615962e+01   1.3866251354e+01    0.2194223    0.1463417  60.49 0.0006059833    1.698    0.411
        34  -9.5356    231.8486    133.8479   8.8948937959e+01   6.9530165913e+00    0.2681372    0.2322564 -21.54 0.0007570045    1.171    0.146
        35  -8.1943    193.5617    133.7992   9.6233125288e+01   1.5410044573e+01     0.224094    0.1431229 -52.91 0.0009444893    1.679    0.404
        36  -7.7237    225.8127    130.1545   8.9170073300e+01   8.9227634921e+00     0.199948    0.1749257   2.50 0.0006663303    1.295    0.228
        37  -9.3102    232.6790    127.1943   8.7282006877e+01   7.9963361040e+00    0.3140841    0.2594225 -61.89  0.001103462    1.304    0.233
        38  -8.0309    196.9312    126.4597   9.3780294181e+01   1.6111568246e+01    0.2235018    0.1385719  76.28  0.000808572    2.646    0.622
        39  -9.3458    166.0000    119.9757   9.8788602643e+01   2.4650189545e+01     1.026292    0.1873797 -44.46  0.002346233    5.430    0.816
        40  -8.6163    249.9766    122.7255   8.3423555541e+01   5.2035042336e+00    0.3570198    0.2356132  44.03  0.001782313    1.704    0.413
        41 -10.0302    242.7433    117.9570   8.3496371119e+01   7.5339907113e+00    0.5960374    0.2675969 -50.00  0.002303616    2.383    0.580
        42  -9.8169    247.9603    117.9596   8.2672092829e+01   6.4497305199e+00    0.4085618    0.3163953  28.39  0.002152311    1.597    0.374
        43  -9.3594    151.7574    120.5798   1.0225793793e+02   2.7789409949e+01    0.4481455    0.3297565  49.32 0.0003990796    1.367    0.268
        44  -8.0796    135.1359    120.8677   1.0640884254e+02   3.1387034021e+01    0.2366554    0.2113546 -85.40 0.0005237808    1.203    0.169
        45  -9.5861    215.0142    116.5347   8.7905557150e+01   1.3884118685e+01    0.4504228    0.3355567   5.14  0.002021156    1.953    0.488
        46  -9.1879    207.6380    117.0005   8.9387520065e+01   1.5490581456e+01    0.4046279    0.2761343   5.30   0.00158454    2.560    0.609
        47  -9.0600    227.8208    116.8168   8.5707012925e+01   1.0954574085e+01    0.2769589    0.2224517  65.82  0.000956886    1.368    0.269
        48  -9.2803    233.5074    110.9447   8.3378199174e+01   1.0771425651e+01    0.3488415    0.1223364 -43.87  0.001209062    2.652    0.623
        49 -10.1013    222.2002    111.7939   8.5488562094e+01   1.3137213686e+01    0.5476418    0.2578707  52.90  0.002160238    2.223    0.550
        50  -8.9943    204.1187    112.1259   8.8858283384e+01   1.7248102158e+01    0.2168875    0.1814816 -75.81  0.000642046    1.325    0.245
        51 -10.8119    244.6730    108.5336   8.1049249269e+01   8.7900924837e+00    0.6868694    0.4358767  47.04  0.002025404    1.762    0.433
        52  -9.3932    235.5160    101.9498   8.0955982694e+01   1.1934022126e+01    0.4319561     0.237987 -29.27  0.001304527    2.052    0.513
        53  -9.0097    213.6850    110.6277   8.6717285857e+01   1.5303267612e+01    0.2585306     0.236361   3.01 0.0009885591    1.256    0.204
        54 -10.4831    238.9350    103.3379   8.0743879826e+01   1.0937607677e+01    0.7596691    0.3866991  35.40   0.00280644    3.198    0.687
        55  -7.7282    177.5034    108.5549   9.3321950217e+01   2.4283631510e+01    0.1553211    0.1527609 -88.46 0.0001922825    1.014    0.014
        56  -7.9354    227.1905    105.6575   8.3177134965e+01   1.3131991362e+01    0.2124507    0.1750097 -52.03 0.0006799806    1.151    0.131
        57  -8.4879    217.3041    105.9263   8.4930207727e+01   1.5342040010e+01    0.2192023    0.1886584 -42.37  0.001144746    1.117    0.105
        58  -8.8743    146.6990    105.1079   9.9442921970e+01   3.2228427391e+01    0.3083138    0.2735632 -80.09  0.001550118    1.233    0.189
        59  -9.6619    197.7928    104.3195   8.8115306377e+01   2.0244469758e+01    0.3598415    0.2517996 -24.68  0.001154142    1.692    0.409
        60  -7.6461     23.2502    103.0057   1.3384080197e+02   5.2129996220e+01    0.1629841   0.08465613 -62.76 0.0006432174    1.529    0.346
        61  -7.8698    162.4652    102.4957   9.5035965241e+01   2.9091921300e+01     0.155405     0.153207 -82.53 0.0008096321    1.008    0.008
        62 -10.3092     42.5549    248.1408   1.4592128888e+02   1.8633614276e+01    0.2386455    0.1951847  46.15   0.00179158    1.572    0.364
        63 -10.0508     34.6370    248.4373   1.4722029177e+02   1.9549412866e+01      0.22058    0.1469369 -65.79  0.001542798    1.769    0.435
        64  -9.8470     28.2049    243.1915   1.4790846245e+02   2.1280457681e+01    0.3009343    0.1224127  80.60  0.001523275    2.602    0.616
        65  -8.1631    102.7485    231.6131   1.3367201730e+02   1.3130463106e+01    0.1791259   0.09899572  52.62 0.0006459241    1.545    0.353
        66  -8.7048     40.0124     99.3356   1.2814665410e+02   5.1452564032e+01    0.2553308    0.1681931 -65.65   0.00109196    1.399    0.285
        67  -8.2758    226.4074     99.2103   8.1769819256e+01   1.4469534268e+01    0.2482355    0.1880537 -60.76 0.0006167551    1.356    0.263
        68  -9.3891    229.0877     96.0578   8.0585709851e+01   1.4418229439e+01    0.4284544    0.2975753 -86.95  0.001971354    1.874    0.466
        69 -10.4581    139.9376    100.9673   9.9985416361e+01   3.4615897087e+01     0.635414    0.3656471 -17.48  0.002041744    3.545    0.718
        70  -8.5444    169.1609     97.1890   9.2119540173e+01   2.8542662219e+01    0.2222477    0.1859822 -82.33 0.0006744343    1.357    0.263
        71 -10.5393    219.5472     89.3131   8.0499264674e+01   1.7816641982e+01     1.103922    0.4508098 -36.55  0.004069592    2.420    0.587
        72  -8.5199    227.0729     82.6509   7.7698401065e+01   1.7206626189e+01    0.2382682    0.1979354 -44.34 0.0003863651    1.154    0.133
        73  -8.7487    223.5807     79.3960   7.7448010177e+01   1.8575058898e+01    0.3980432    0.2279539  66.85 0.0009413538    1.885    0.470
        74 -11.8519    218.6827     73.1860   7.6684795458e+01   2.0774847587e+01    0.6585612    0.3445192 -47.18  0.002823633    1.842    0.457
        75  -8.1240    188.3335     96.3176   8.7903078495e+01   2.4052008608e+01    0.1573846    0.1239178  15.98  0.000583173    1.693    0.409
        76  -7.5460     77.6594    103.3256   1.1776061604e+02   4.5906507971e+01    0.1404276    0.1086769  83.96 0.0007051272    1.731    0.422
        77  -9.6140    211.1311     92.7872   8.2773888772e+01   1.9193231318e+01    0.4157996    0.3296321  46.05  0.001409202    1.361    0.265
        78  -9.8113    226.8314     89.5748   7.9395133423e+01   1.6071912583e+01    0.4793543     0.349914  47.94  0.002390558    1.507    0.337
        79  -9.7450    187.5086     90.2406   8.6469790431e+01   2.5390173420e+01    0.4974598    0.2663177  69.91  0.001686606    2.541    0.606
        80  -8.1906    237.2290     90.0193   7.7910669917e+01   1.3629319362e+01    0.1965782    0.1115691 -38.81 0.0008777829    1.648    0.393
        81  -8.3171    107.4222     87.7760   1.0492138209e+02   4.4131837856e+01    0.2857093    0.1368991 -49.44  0.001120848    2.155    0.536
        82  -8.4588    188.8714     87.1200   8.5381825211e+01   2.5627897498e+01    0.2344796    0.2023123 -77.28 0.0004568647    1.213    0.176
        83  -8.1254    211.5651     83.3738   8.0349014179e+01   2.0756490247e+01    0.2663108    0.1359855 -42.16 0.0007280737    1.869    0.465
        84  -9.9418    152.0808     81.3756   9.1549344199e+01   3.5656356422e+01     0.480794    0.2766282 -17.25   0.00170059    2.928    0.658
        85  -8.7065    206.7941     82.3942   8.0907800381e+01   2.2080894533e+01    0.3392867    0.2598348 -30.83  0.001673378    1.405    0.288
        86  -9.0756    182.4774     81.5292   8.5127447690e+01   2.8213850720e+01    0.2744107    0.1811288 -59.03 0.0009060925    1.733    0.423
        87  -9.7316    157.1483     79.0939   8.9745063170e+01   3.4861285785e+01    0.4028406    0.2238161 -40.89  0.001662997    1.818    0.450
        88 -11.4142    161.4467     71.6459   8.6668580884e+01   3.5134345443e+01    0.8758473    0.6243839 -49.50   0.00413929    1.477    0.323
        89  -8.8468     61.4350     79.1814   1.1650195757e+02   5.3314830603e+01    0.2489342     0.184096 -21.19 0.0007453406    1.421    0.296
        90  -8.8134     82.1252     78.1618   1.0962349983e+02   5.0524144642e+01    0.3041463    0.2534006 -74.00  0.001052435    1.561    0.359
        91 -10.4714    233.7408     74.4184   7.4768608342e+01   1.7036179002e+01    0.4308684    0.2768585  54.83  0.001005626    1.649    0.394
        92  -9.7594    202.8743     72.1747   7.8960868525e+01   2.4783226104e+01    0.5719516    0.2261578 -41.53  0.001830566    2.423    0.587
        93  -9.4542    189.7636     67.7667   8.0064425611e+01   2.8763200003e+01     0.421663    0.3365671 -55.99  0.001853195    1.265    0.210
        94  -8.9640    191.0327     75.6962   8.1949836693e+01   2.7115118609e+01    0.2548072    0.2062447 -26.13 0.0005465819    1.385    0.278
        95  -9.4563    169.0033     75.3885   8.6144733798e+01   3.2630180503e+01    0.2997459    0.2569788 -64.33  0.001533068    1.229    0.187
        96  -9.7842    150.0237     75.2630   9.0250733497e+01   3.7255265072e+01    0.4151937    0.2617267 -17.69  0.001687147    2.211    0.548
        97  -8.4936    212.0973     73.3729   7.7759232145e+01   2.2330213217e+01    0.2349165    0.1985119 -28.31 0.0004938111    1.317    0.241
        98  -8.4577    104.9004     72.4815   1.0107119510e+02   4.7586110062e+01    0.3101562    0.1980086 -22.85  0.001195224    1.850    0.459
        99  -8.0263    228.2323     71.7489   7.4921490217e+01   1.8749719860e+01    0.1813147    0.1670513  -9.42 0.0004957916    1.339    0.253
       100  -8.7720    180.0415     72.0018   8.3006108525e+01   3.0478737429e+01    0.3998121    0.2116279  71.37  0.001481408    2.461    0.594
       101  -9.4502    161.2131     60.0435   8.3354843756e+01   3.7109903926e+01    0.3892172    0.3369225 -25.24  0.001375173    1.253    0.202
       102 -10.6046    170.1268     68.0341   8.3843311278e+01   3.3609861683e+01    0.7444839    0.4557332 -80.86  0.002748948    2.838    0.648
       103  -9.5029    165.9406     62.2861   8.3044732471e+01   3.5587206069e+01     0.378965     0.250825 -36.05  0.001296211    1.571    0.364
       104  -8.5100    185.3049     77.8453   8.3589743399e+01   2.8164085495e+01    0.2669037    0.2010079  70.28 0.0007021402    1.377    0.274
       105  -8.1724    196.0354     70.8144   7.9771919108e+01   2.6699492602e+01    0.2308244    0.1898157 -82.66 0.0006154838    1.269    0.212
       106  -8.8489    111.5827     69.7647   9.8335143260e+01   4.6761262343e+01    0.2978055    0.2452987 -55.28 0.0006448409    1.381    0.276
       107  -8.6384    232.3428     68.5576   7.3588555717e+01   1.8306697158e+01     0.248536    0.2237108 -37.23 0.0006556414    1.210    0.173
       108  -9.1507    225.2975     67.6611   7.4365125670e+01   2.0099953561e+01    0.2348263    0.2161659 -40.04 0.0002390812    1.180    0.152
       109  -7.8990     19.7070     68.3596   1.2777644158e+02   5.9690494657e+01    0.1085253   0.08662359 -88.02 0.0004971934    1.697    0.411
       110  -8.1857     15.6407     76.3020   1.3097077675e+02   5.8373816630e+01    0.1078839   0.08553647  77.70 0.0007037622    1.718    0.418
       111 -10.5519    199.8442     61.9420   7.6816566458e+01   2.7193155258e+01     0.477021    0.3603388  -3.76  0.002276897    1.910    0.476
       112  -8.8086    193.3314     61.7828   7.7853096575e+01   2.8837996095e+01    0.4337966    0.2347751 -47.25  0.001697666    1.884    0.469
       113  -8.2240    209.6131     64.9293   7.6030262006e+01   2.4312315408e+01    0.2013314    0.1707115 -48.06 0.0003936022    1.161    0.139
       114 -10.1514    174.9963     61.6325   8.1092641620e+01   3.3442412067e+01    0.4424518    0.3680028 -24.26  0.001582172    1.346    0.257
       115  -7.6941      5.3152     65.6855   1.3215681968e+02   6.1139754684e+01    0.1009035   0.08180347  86.45  0.000348355    1.643    0.392
       116  -9.5000    186.7184     59.1442   7.8279853777e+01   3.0903816353e+01    0.5332303    0.3295696  27.26  0.001097679    2.606    0.616
       117  -9.6881    182.7239     55.7594   7.8055822387e+01   3.2424607517e+01    0.5459307    0.3905385 -71.96  0.001651894    1.632    0.387
       118  -9.2779    170.8011     52.5843   7.9325136507e+01   3.5881824033e+01    0.3253717     0.280829 -63.25  0.001107023    1.212    0.175
       119  -7.2412     80.6705     62.3493   1.0520023344e+02   5.3735943219e+01    0.1288323    0.1089405 -81.68  0.000422784    1.764    0.433
       120  -8.2784    107.0000     58.9668   9.6163279781e+01   4.9548995607e+01      0.22812   0.07786759 -37.63 0.0008003909    2.928    0.659
       121  -9.7254    175.0186     53.4868   7.8802788837e+01   3.4695136116e+01     0.463958    0.3737729  84.35  0.002417237    1.295    0.228
       122  -8.6297    149.8521     57.3575   8.4959751631e+01   4.0293761517e+01    0.2525294    0.2013818 -48.09 0.0007768496    1.339    0.253
       123  -8.0010     90.5002     57.9636   1.0068539327e+02   5.2828416625e+01    0.2039704    0.1273377 -37.46 0.0007435908    1.551    0.355
       124  -8.8575    206.5627     55.7308   7.4173399698e+01   2.6493191322e+01    0.2269423     0.198599  69.27 0.0002531059    1.117    0.105
       125  -7.8082     86.4882     55.5036   1.0110330611e+02   5.3944508814e+01    0.1355792    0.1197372  -4.56 0.0001552326    1.025    0.024
       126  -8.4189    191.5489     52.4351   7.5667176178e+01   3.0715974351e+01    0.3445777    0.1201034 -40.24  0.001024578    2.779    0.640
       127  -9.3649    164.7767     52.3849   8.0413507993e+01   3.7407143164e+01    0.3819198     0.246682  82.49  0.001655841    1.993    0.498
       128  -8.2846    143.3099     51.5206   8.4614811721e+01   4.2743530743e+01    0.2404405    0.1324396 -33.36  0.001047223    1.909    0.476
       129  -7.9848     11.3329     50.3294   1.2619578884e+02   6.3711034476e+01    0.1221906   0.06253617 -32.65 0.0007051944    1.721    0.419
       130  -9.7160    105.2284     44.8730   9.1923365680e+01   5.2101283864e+01    0.5902175    0.3570195 -59.56  0.002470365    2.988    0.665
       131  -8.6573    193.2204     45.7536   7.3632911664e+01   3.1267001573e+01    0.3203732    0.1983957 -34.34 0.0009582221    1.710    0.415
       132  -7.8121    181.4747     46.5036   7.5730879463e+01   3.4097902017e+01    0.1437538    0.1330861  67.68 -3.554665e-05    1.051    0.049
       133  -8.7423    153.1354     46.1244   8.0871111359e+01   4.1169512049e+01    0.3861843    0.1996487  70.51  0.001510273    2.421    0.587
       134  -8.5664     90.3290     44.9243   9.6273660868e+01   5.4942176993e+01    0.1861474    0.1602544 -13.68 0.0005683145    1.094    0.086
       135  -7.6547     58.3119     45.6648   1.0711505385e+02   5.9896851291e+01    0.1113884    0.1007061 -72.72 0.0003486465    1.684    0.406
       136  -9.1524     85.4819     43.5669   9.7284643804e+01   5.6009740897e+01    0.2637458    0.1936431 -53.44  0.001074167    1.845    0.458
       137  -9.1929    195.6391     40.7022   7.1944719496e+01   3.1365769496e+01    0.2394248    0.2065639  85.53 0.0003270142    1.061    0.058
       138 -11.1085    123.1430     36.3251   8.4373240424e+01   4.9484851688e+01     0.559675    0.4297412 -29.01  0.001772537    1.380    0.275
       139  -8.4358    188.8341     38.4379   7.2369720888e+01   3.3366416160e+01    0.2948927    0.2049932 -63.04  0.001480087    1.556    0.357
       140  -9.3352    172.6461     37.7526   7.4786354896e+01   3.7496848336e+01    0.4408833    0.2713354  87.77  0.001668763    2.069    0.517
       141  -8.4249     89.7181     31.9901   9.1787763095e+01   5.6866001072e+01    0.1823895    0.1568426  -2.86 0.0005755894    1.083    0.076
       142  -8.2896     92.0461     38.6914   9.3538070158e+01   5.5530447489e+01    0.2990279    0.1343839  53.27  0.001251929    2.657    0.624
       143  -8.5289     87.9183     35.7427   9.3708850003e+01   5.6695078558e+01    0.2752989    0.2294251 -85.79  0.001175143    1.992    0.498
       144  -8.2523     73.6994     37.7840   9.8976081874e+01   5.8839576123e+01    0.2165961    0.1704595  66.73  0.001224432    2.092    0.522
       145 -11.1963     44.9740    221.6537   1.4345063454e+02   2.3456717137e+01    0.9173759    0.4564558  61.88  0.005106539    1.788    0.441
       146  -7.9975    185.6880     28.3650   7.0156278727e+01   3.5433955117e+01    0.2146043    0.1539738  81.89 0.0006563503    1.349    0.259
       147  -7.3330     86.5357    213.5222   1.3469659818e+02   1.9328082974e+01    0.1313345    0.1075288  74.32 0.0001567272    1.008    0.008
       148  -8.0437    189.5297     27.4668   6.9369406044e+01   3.4589473138e+01    0.1898808    0.1639407  72.40 0.0005144645    1.056    0.053
       149  -7.9434    156.7453     36.3802   7.7232494229e+01   4.1601896887e+01    0.2070021    0.1173157  52.21 0.0009482239    1.602    0.376
       150  -8.0622    152.4689     36.4638   7.8076321657e+01   4.2632093412e+01    0.2281847    0.1418251 -27.73  0.000763636    1.780    0.438
       151 -10.5127    151.9367     30.5581   7.6383671521e+01   4.3495133316e+01    0.4429332    0.3580228 -82.93  0.001055916    1.415    0.293
       152  -9.5533    147.1089     25.6568   7.5793974634e+01   4.5230188694e+01    0.3300994     0.214754  70.68  0.001659216    1.566    0.361
       153  -9.2625    139.0395     35.1309   8.0392492430e+01   4.6007435097e+01    0.2780402    0.2604938 -50.69 0.0004419278    1.183    0.155
       154  -8.9161    135.8366     31.0944   7.9780353847e+01   4.7254253271e+01    0.2746646    0.2281387 -67.15 0.0004986686    1.464    0.317
       155 -10.7913     28.5456    207.8637   1.4529145381e+02   2.8230167528e+01    0.5715889    0.4521714  80.68  0.002434775    1.102    0.093
       156  -8.7426    161.2243     33.9035   7.5673341951e+01   4.0817935175e+01    0.2928902    0.2188851  72.28  0.000960492    1.307    0.235
       157  -8.7840    206.5301     26.8872   6.6972792004e+01   3.0472643764e+01    0.2348944    0.1715816  64.22 0.0005552412    1.285    0.222
       158  -8.3657    162.8439     27.2326   7.3438451552e+01   4.1228286458e+01    0.2100728    0.1780217  88.87 0.0007163464    1.203    0.169
       159  -9.1966    155.9797     25.3101   7.4063554889e+01   4.3128804223e+01    0.4096448    0.2782234 -86.53  0.002019614    1.838    0.456
       160  -8.6121    175.6036     23.4659   7.0323999090e+01   3.8514405108e+01    0.3196219    0.1841664 -44.72 0.0006705986    1.856    0.461
       161  -7.8662    174.4942     19.5197   6.9403314716e+01   3.9230783737e+01    0.1363428    0.1194554  73.41  7.60253e-05    1.002    0.002
       162  -8.5561     84.2296     24.7674   9.0720542120e+01   5.8771412815e+01    0.2108068    0.1964833  87.47 0.0009056247    1.563    0.360
       163  -9.1278    180.6515     21.6907   6.9097083347e+01   3.7467342772e+01     0.259344    0.1987924  76.61  0.000508762    1.180    0.153
       164  -9.0996    164.4030     19.2293   7.0869286402e+01   4.1744145818e+01    0.3015032    0.1934412 -51.48 0.0009779357    1.767    0.434
       165  -8.3555    173.8617    204.0948   1.1519574238e+02   5.5751485619e+00    0.2062597     0.182464  69.79 0.0005380532    1.235    0.190
       166  -8.5503    155.8205     18.1194   7.1950540016e+01   4.3953421514e+01    0.3085938    0.1826815  81.84   0.00144095    1.972    0.493
       167  -7.5228    184.5286     17.5325   6.7449546918e+01   3.6973317445e+01    0.1351914    0.1173602  77.12 0.0003124512    1.014    0.014
       168  -9.2679    138.3793     17.5984   7.4930906135e+01   4.8164894129e+01    0.3398183    0.1262671  66.70  0.001256307    2.944    0.660
       169 -11.0563     59.6544    198.7191   1.3840330610e+02   2.6386469667e+01    0.4807703    0.2720457  45.66  0.002628673    1.711    0.416
       170  -8.1750     68.6683     15.6529   9.2038191643e+01   6.2497009841e+01    0.2235982    0.1311286 -45.18  0.001170747    2.519    0.603
       171  -8.9700    176.9347     14.9677   6.7810016831e+01   3.9118367669e+01    0.2870407    0.1753283  78.32 0.0008100573    1.576    0.366
       172 -10.5933     47.2246    181.1165   1.3900298635e+02   3.1880773876e+01    0.4067595    0.2055479  44.61  0.002122391    1.979    0.495
       173  -7.9351     80.4449     11.4772   8.6655328597e+01   6.0919095953e+01    0.1223076    0.1006355  18.75   0.00022234    1.009    0.008
       174 -11.0930     48.4954    186.9049   1.3938738989e+02   3.0428599259e+01    0.5131983    0.2536391  55.00  0.002609017    1.991    0.498
       175 -10.1488     49.0559    190.5087   1.3966672079e+02   2.9559008478e+01    0.3458317    0.1526222  35.61  0.001656022    2.555    0.609
       176  -8.8134    201.4838     28.1562   6.7929160122e+01   3.1551683415e+01    0.2437573    0.1776586 -73.29   0.00131669    1.376    0.273
       177  -7.7041     28.7867     10.6218   1.0497144287e+02   6.8502348501e+01    0.1285336    0.0929462  27.26 0.0002376498    1.533    0.348
       178  -7.8050    108.7125    187.5641   1.2640987913e+02   2.1279804529e+01     0.199637    0.1203808  54.77 0.0009358706    1.620    0.383
       179  -8.9480     35.5522    185.8718   1.4194500750e+02   3.2175405563e+01    0.1916963    0.1300336  54.40  0.001096354    1.435    0.303
       180 -10.8588     51.8915    175.7934   1.3736244808e+02   3.2516130526e+01    0.4732547    0.2815233 -63.39  0.002592502    1.508    0.337
       181  -8.8628    248.4482    168.8215   9.3693070330e+01  -2.4567905530e+00    0.3987119    0.2081265 -48.84  0.001747809    2.251    0.556
       182  -7.5224    241.3068    170.6460   9.5332906831e+01  -1.4565339079e+00    0.1341369    0.1092623 -68.74 0.0003507382    1.717    0.418
       183  -8.6274     60.7726    167.1375   1.3422846157e+02   3.3375230440e+01    0.2236647    0.1622465  58.97 0.0008107957    1.374    0.272
       184  -7.8407    144.6500    156.2891   1.1228816232e+02   2.1412209178e+01    0.1589457    0.1188929  79.38 0.0003838347    1.666    0.400
       185  -8.0155     13.7845    156.2088   1.4352117694e+02   4.0933528914e+01    0.2010791   0.09217262  69.82 0.0009411419    2.720    0.632
       186  -7.4326    222.6569    155.3214   9.5450837564e+01   4.9013472639e+00    0.1460007    0.1167442 -79.55 0.0007050168    1.727    0.421
       187 -10.4381    178.5062    150.6573   1.0336227583e+02   1.5320326281e+01    0.6172078    0.5024053 -82.68  0.002352773    1.508    0.337
       188  -7.8460    229.4552    152.5200   9.3571398060e+01   4.0297506961e+00     0.143687      0.13431 -20.61 0.0001279392    1.004    0.004
       189  -7.9387     80.2694    148.4325   1.2653983574e+02   3.5028695476e+01    0.1891404    0.1259136  53.56 0.0005204896    1.594    0.373
