#   1 NUMBER                 Running object number                                     
#   2 MAG_AUTO               Kron-like elliptical aperture magnitude                    [mag]
#   3 X_IMAGE                Object position along x                                    [pixel]
#   4 Y_IMAGE                Object position along y                                    [pixel]
#   5 X_WORLD                Barycenter position along world x axis                     [deg]
#   6 Y_WORLD                Barycenter position along world y axis                     [deg]
#   7 A_WORLD                Profile RMS along major axis (world units)                 [deg]
#   8 B_WORLD                Profile RMS along minor axis (world units)                 [deg]
#   9 THETA_WORLD            Position angle (CCW/world-x)                               [deg]
#  10 FWHM_WORLD             FWHM assuming a gaussian core                              [deg]
#  11 ELONGATION             A_IMAGE/B_IMAGE                                           
#  12 ELLIPTICITY            1 - B_IMAGE/A_IMAGE                                       
         1 -13.7425      6.8210     13.2496   1.2146564087e+02   7.2206942958e+01      2.39287    0.6973973 -45.20   0.01182145    2.387    0.581
         2 -14.0896    202.2950     11.6109   6.4841581394e+01   3.2906412301e+01     2.032962     1.182249  46.14  0.009524643    1.948    0.487
         3 -13.4131    189.9498     28.9829   7.1343986344e+01   3.4154507819e+01     1.235198     1.159295  84.30  0.006486582    1.021    0.021
         4  -9.7321    163.2100    249.5909   1.2581123417e+02   2.7888425203e+00    0.1728507    0.0883222  36.44 0.0009545987    1.660    0.398
         5 -11.9870    140.2096    248.6737   1.2974501724e+02   6.5853906056e+00    0.4156085    0.3247597  70.29  0.002932416    1.367    0.269
         6 -11.4879    125.0108    249.6681   1.3251719380e+02   8.8175484377e+00    0.5019025    0.1384795  39.95  0.002056833    3.142    0.682
         7 -11.1025    107.7733    248.4653   1.3540374914e+02   1.1620143945e+01      0.31784    0.1666866  69.55  0.001720735    2.312    0.567
         8 -11.3670     98.2850    249.8776   1.3716965752e+02   1.2796368896e+01     0.371256    0.2150999  45.96  0.002384397    1.356    0.262
         9  -9.6767     67.2643    250.4086   1.4244153710e+02   1.6998156698e+01    0.1569694   0.07133495  51.55 0.0006254853    1.600    0.375
        10 -11.0200     46.8689    248.4081   1.4564362319e+02   1.9888895919e+01     0.368563    0.1688974  60.62  0.001304061    1.658    0.397
        11 -14.5086     33.0663    246.7256   1.4775495277e+02   2.1778819755e+01     9.602053     2.835131  31.90   0.02995199    9.587    0.896
        12 -13.9275     57.6575    212.7118   1.4129140688e+02   2.4906515286e+01     2.634734    0.5438265  49.86   0.01016526    3.771    0.735
        13  -9.8553    228.5248    228.0253   1.1132682072e+02  -5.0321092426e+00    0.2621141    0.1906408 -58.97  0.001422758    2.695    0.629
        14 -11.7830     81.4894    243.1689   1.3949578939e+02   1.6267906764e+01     0.359713    0.2880684  89.94  0.002734331    1.304    0.233
        15  -9.3704     33.4724    228.9061   1.4671816615e+02   2.4815300100e+01    0.1978345    0.1243501  83.14 0.0006668548    1.288    0.224
        16 -10.1161     35.7059    225.4142   1.4613100157e+02   2.5191731158e+01    0.1834559    0.1421735  61.66 0.0007375846    1.209    0.173
        17 -10.4696     88.6803    249.3056   1.3876331293e+02   1.4262205469e+01     0.189994    0.1211478  55.92 0.0006108928    1.157    0.136
        18 -15.3410     22.1629    174.7393   1.4523607806e+02   3.6609995783e+01     7.427523     2.378751  88.07   0.02685799    4.539    0.780
        19 -10.1232    185.8859    239.1654   1.2044938840e+02   4.8344012035e-01    0.1787159    0.1413614  47.81 0.0004589732    1.223    0.183
        20 -14.8556      2.6905    228.9429   1.5175174863e+02   2.7990930053e+01     6.602213    0.3597074 -76.47   0.02076184    8.930    0.888
        21  -9.4334     94.5794    216.6163   1.3464923386e+02   1.9003206584e+01    0.2515734    0.1342433  67.71 0.0009508526    2.051    0.512
        22  -8.9841    152.6605    212.9753   1.2290117068e+02   1.0021804153e+01    0.1627278     0.150878  54.78 0.0002628606    1.118    0.106
        23 -11.8816     32.2794    206.9673   1.4556557743e+02   2.9034225822e+01     1.071601   0.08268835  49.36  0.003607491    5.591    0.821
        24 -10.1791    193.4103    195.6904   1.1221396015e+02   5.3774038291e+00    0.6573871    0.3214619 -61.45  0.001831921    7.632    0.869
        25 -11.4205     67.8675    197.3391   1.3791619483e+02   2.6573748946e+01    0.3138911     0.229177 -50.49  0.001472215    1.849    0.459
        26 -11.6174     73.0480    189.8042   1.3606548058e+02   2.7393702683e+01    0.2562547    0.2168641 -68.45 0.0005821173    1.335    0.251
        27 -12.2164     49.3804    232.0306   1.4420449836e+02   2.2389953397e+01    0.3742787     0.281908  70.20  0.001374325    1.077    0.072
        28 -10.8732     82.0046    177.3294   1.3265907527e+02   2.8718968066e+01    0.2333787    0.1991257  89.83 0.0003751445    1.088    0.081
        29 -13.2369     69.5070    175.0054   1.3512803165e+02   3.1010604450e+01    0.4652283    0.2746635 -47.01  0.001768392    2.268    0.559
        30 -11.9883     88.4258    167.6904   1.2989993514e+02   2.9824598711e+01    0.8880139    0.5345744  64.46   0.00441183    1.754    0.430
        31 -12.7591     67.5045    144.5197   1.3149681521e+02   3.8102345817e+01      1.05299     0.588136  84.57  0.004693849    2.355    0.575
        32 -11.9811     58.2236    132.5033   1.3203572135e+02   4.2097133480e+01     1.927924    0.6429244 -77.00  0.004471807    8.328    0.880
        33 -12.6913     43.2624    231.5990   1.4522198001e+02   2.3203407707e+01    0.2959128    0.2521255 -84.49 0.0008006386    1.438    0.304
        34  -9.8822    100.8609    151.7399   1.2442134017e+02   3.1331453518e+01    0.2684032    0.2400145  88.01 0.0007618088    1.031    0.030
        35  -9.0620    103.4854    147.5501   1.2303200091e+02   3.1819155273e+01    0.2695293     0.188647 -30.08   0.00125575    2.113    0.527
        36 -11.9616     89.6160    151.2256   1.2707597303e+02   3.3300879911e+01    0.2709846    0.2484785 -52.06 0.0005080506    1.260    0.206
        37  -8.6411    192.1822    144.1308   1.0211036126e+02   1.4392187098e+01    0.1926968    0.1740493 -76.24 0.0004446095    1.306    0.234
        38 -13.7370     49.6307    222.0217   1.4347044625e+02   2.4166907047e+01    0.8870881     0.549685  66.93  0.003210031    1.258    0.205
        39  -9.0309    242.4449    138.5568   9.1648660801e+01   4.7944759570e+00    0.1372117    0.1235039  -6.76 8.660106e-05    1.003    0.003
        40  -9.7315    111.4336    136.9709   1.1900696494e+02   3.2774845889e+01    0.3389437    0.2439226 -26.29  0.001190551    2.005    0.501
        41 -10.5068     98.9068    134.2130   1.2165449415e+02   3.5639851390e+01    0.2696348    0.2275251 -34.19 0.0006392396    1.424    0.298
        42  -8.5724    117.2887    129.3754   1.1591135735e+02   3.3374276306e+01    0.1489256    0.1180785 -18.32  0.000701964    1.726    0.420
        43 -10.9942     82.1386    248.8959   1.3984132236e+02   1.5241937769e+01    0.3035481    0.1578971  42.67  0.001866282    1.630    0.387
        44  -9.4992    108.0106    123.9254   1.1711557054e+02   3.6360065994e+01    0.2086924    0.1996593 -88.71 0.0003022171    1.026    0.025
        45 -13.7113      9.8200    206.9058   1.4958202101e+02   3.1345470084e+01     0.935285    0.6411263  85.00  0.002823012    1.132    0.117
        46 -10.8851    168.1382    113.1597   9.9719463618e+01   2.5774416700e+01    0.3664087    0.3154235 -81.95 0.0007880462    1.334    0.250
        47  -8.9368    203.4769    111.5411   9.2083070955e+01   1.7723464293e+01    0.1510941    0.1445381   4.75 0.0001549877    1.055    0.052
        48 -10.7904     53.0211    110.3210   1.2970800612e+02   4.7903103215e+01    0.3071232    0.1691659 -72.25  0.001483555    1.780    0.438
        49 -10.4817     44.2284    108.9797   1.3204546979e+02   4.9198133612e+01    0.3004457    0.1468891  50.33  0.001408835    2.419    0.587
        50 -10.8991    247.4941    247.5059   1.1122640489e+02  -9.9355524981e+00    0.1691887    0.1499208 -13.48  0.001349427    1.509    0.337
        51 -10.7988    238.9833    248.2561   1.1271680134e+02  -8.7974643432e+00    0.1943246    0.1245863  -2.19  0.001167622    1.645    0.392
