#   1 NUMBER                 Running object number                                     
#   2 MAG_AUTO               Kron-like elliptical aperture magnitude                    [mag]
#   3 X_IMAGE                Object position along x                                    [pixel]
#   4 Y_IMAGE                Object position along y                                    [pixel]
#   5 X_WORLD                Barycenter position along world x axis                     [deg]
#   6 Y_WORLD                Barycenter position along world y axis                     [deg]
#   7 A_WORLD                Profile RMS along major axis (world units)                 [deg]
#   8 B_WORLD                Profile RMS along minor axis (world units)                 [deg]
#   9 THETA_WORLD            Position angle (CCW/world-x)                               [deg]
#  10 FWHM_WORLD             FWHM assuming a gaussian core                              [deg]
#  11 ELONGATION             A_IMAGE/B_IMAGE                                           
#  12 ELLIPTICITY            1 - B_IMAGE/A_IMAGE                                       
         1 -12.3474     74.6065     51.2373   9.4101721589e+01   5.7242764566e+01     1.280248    0.6977207 -52.95  0.005974363    1.801    0.445
         2 -12.3753     60.3396     45.2467   9.7014144225e+01   6.0572317766e+01    0.9542297    0.4610713 -47.94  0.004504215    1.777    0.437
         3 -13.5107    118.4633     40.6258   7.6958290820e+01   5.0641435072e+01      1.14948    0.9829613  46.23  0.003438508    1.208    0.172
         4 -11.4956    178.7457     21.1992   5.7839279644e+01   3.8022570870e+01    0.7065123    0.3835234  33.34  0.002527445    2.324    0.570
         5 -11.3895    183.4708     24.8082   5.8364628881e+01   3.6341675260e+01    0.7378711    0.3209032  47.28   0.00274215    2.410    0.585
         6 -12.1965    104.9147     12.9159   6.8882438067e+01   5.7647569659e+01    0.6265916    0.4531952 -38.20  0.003187098    1.437    0.304
         7 -12.6659    113.8483     24.6137   7.1714144830e+01   5.4101988124e+01     0.856251    0.4073798  58.03  0.001508505    2.241    0.554
         8 -10.2395     59.9786     24.5267   8.8866088147e+01   6.4486460212e+01    0.6324404      0.29061 -32.12    0.0028275    2.162    0.538
         9 -12.6556     18.7902     22.6510   1.0617365786e+02   6.9625481153e+01    0.7670513    0.6038026  53.77  0.005235453    1.813    0.448
        10 -11.3874     26.2795     27.4804   1.0446741203e+02   6.8034041970e+01    0.4731839     0.271477 -53.07  0.001942302    1.411    0.291
        11 -12.4062     16.2929     12.5545   1.0333379003e+02   7.1745804249e+01    0.5095227    0.4083523 -66.46  0.002777043    1.502    0.334
        12 -11.7465     22.7626     11.1557   9.9343230361e+01   7.1423393051e+01    0.4768969    0.3861015   3.00   0.00300098    1.362    0.266
        13 -10.0488     87.0419      7.5324   7.1275319963e+01   6.2132476558e+01    0.5779097    0.3782147  48.22  0.003072491    1.553    0.356
        14 -11.4037     90.7907     19.9069   7.6057738962e+01   5.9741613636e+01     0.613131    0.5132924 -12.79  0.003564865    1.102    0.093
        15 -11.1032     85.9976     13.6193   7.4576770806e+01   6.1571547895e+01      0.39112    0.3001355   3.75  0.001492085    1.314    0.239
        16 -10.4830     38.6891     21.4927   9.6417582819e+01   6.7877576591e+01    0.3789331    0.1598849 -41.41  0.001823937    1.960    0.490
        17 -11.7206     35.9338     17.9984   9.6108165008e+01   6.8824211112e+01    0.6637945    0.2602887 -37.16  0.002546611    2.344    0.573
        18 -12.0258     48.4693     12.9172   8.8059178511e+01   6.8088686925e+01    0.6912747    0.3595316  35.83  0.003233193    2.175    0.540
        19 -11.9859     68.3515     17.9487   8.2638928501e+01   6.4213149988e+01    0.5816817      0.51017  12.70  0.003701977    1.152    0.132
        20 -12.7379    237.2176     15.6366   4.9497589088e+01   2.3466667312e+01    0.6410168    0.5352463  31.21  0.002990079    1.391    0.281
        21 -11.1703    165.1274     17.4278   5.8574418383e+01   4.2085608100e+01    0.4653087    0.2822155  34.25  0.001070141    1.881    0.468
        22  -9.5991    145.7614     16.5570   6.1522343748e+01   4.7278393927e+01    0.5633964    0.3020261 -67.12  0.001991086    3.195    0.687
        23 -12.3154    131.7163     14.5436   6.3431016697e+01   5.1082640561e+01     1.412837    0.6600051  74.51  0.005131355    2.943    0.660
        24  -9.3391    141.3353     12.4983   6.0746407150e+01   4.8869921663e+01    0.2530056    0.1981201  -4.28  0.001221323    1.330    0.248
        25 -12.4246    244.6270      6.3330   4.6406967777e+01   2.2622995880e+01     1.023765    0.5711771 -73.36  0.004822792    2.015    0.504
        26 -11.5872    211.7823      9.8393   5.0238944284e+01   3.0476546780e+01    0.5429225     0.348212   6.79  0.001524739    2.009    0.502
        27 -11.3694    192.3044      7.7379   5.1657220184e+01   3.5816527022e+01    0.5677212    0.3461159  11.11   0.00202068    2.158    0.537
        28  -9.8408     31.9865     11.9834   9.5138546148e+01   7.0323037019e+01    0.1607788     0.140224 -68.07 0.0004516711    1.600    0.375
        29 -11.2106      3.4262      1.7977   1.0563615226e+02   7.4659758356e+01    0.3656043    0.1828184   7.53  0.002130204    2.656    0.623
        30 -10.2123      5.1174     10.0005   1.0827184534e+02   7.3040469257e+01    0.3436749    0.1548661 -40.97  0.001767797    1.760    0.432
        31  -9.3464      5.4555      5.4936   1.0614890124e+02   7.3854801895e+01    0.1868109    0.1237149 -46.03  0.001178115    1.119    0.106
        32 -10.2148    168.9002      9.9611   5.5360153878e+01   4.1867956948e+01    0.3343709    0.2016556  46.76  0.001503495    1.663    0.399
        33 -10.2193     66.1767     10.0574   7.9507640829e+01   6.5745535319e+01    0.3372238    0.2066263  47.23  0.001811209    1.829    0.453
        34 -10.2563     62.9097      6.5001   7.8856239518e+01   6.6793809245e+01    0.2864148    0.2195201  21.87  0.001597634    1.311    0.237
        35  -9.7788    185.4242      7.9816   5.2537538320e+01   3.7631833792e+01    0.4453106    0.1977611 -55.83  0.001589885    2.873    0.652
        36  -9.5410    151.8973      7.5953   5.7034988358e+01   4.6624840320e+01    0.4023325    0.1429676  47.41 0.0008337956    2.755    0.637
        37  -9.9835      1.2520      7.3133   1.0934685090e+02   7.3782152604e+01    0.1715052   0.07375092 -57.43 0.0002169664    1.804    0.446
        38 -10.0437     77.5153      7.0012   7.3981454158e+01   6.4085996406e+01      0.27706    0.2533973 -61.36  0.001277697    1.436    0.303
        39 -10.5017     77.3068      3.3275   7.2134047435e+01   6.4572266329e+01    0.3137142    0.2158108  -3.71  0.001198232    1.439    0.305
        40 -10.7643     41.7416      4.2422   8.6457559567e+01   7.0358937939e+01    0.4783032    0.2397262 -15.43  0.002087185    2.986    0.665
        41 -10.5695    176.2639      5.3769   5.2785102950e+01   4.0339050462e+01    0.4657073    0.2680345 -87.18  0.001462459    2.086    0.521
        42  -9.9820    162.9505      5.7427   5.4687804438e+01   4.3871350383e+01    0.3771626    0.2319417  13.91   0.00164309    2.018    0.504
        43  -9.5037    157.7721      2.4227   5.4203547244e+01   4.5557971416e+01    0.2681396    0.1883485  14.39  0.001295547    1.609    0.378
        44  -9.2177    162.3170      1.2175   5.3130242511e+01   4.4455213102e+01     0.299673    0.1325563  77.23   0.00101072    2.480    0.597
        45 -11.1543    218.9478      2.8004   4.7514017350e+01   2.9313359583e+01    0.3784332    0.3427981 -83.34  0.001241632    1.074    0.068
        46 -11.6499    223.8046      1.6289   4.6770398297e+01   2.8189566683e+01    0.8878202    0.3794939 -79.73  0.003202188    3.241    0.691
        47 -10.2446     71.6455      3.7606   7.4243058726e+01   6.5594135798e+01    0.3197346    0.1980336   3.09  0.001611264    1.871    0.466
        48 -11.4452    205.3049      2.3014   4.8608138198e+01   3.2892321638e+01    0.4399643    0.2641054 -85.80  0.001013685    1.823    0.452
        49 -10.5313    142.1441      3.4446   5.7005838003e+01   4.9570766065e+01    0.3763137    0.2735312  80.78  0.001884236    1.503    0.335
        50 -11.8650    133.7706      2.5711   5.8095394159e+01   5.1801339401e+01    0.4150026    0.2628987  55.99 0.0008066798    1.479    0.324
        51  -9.7479     55.0498      3.9533   8.0542214968e+01   6.8432888594e+01    0.1855264    0.1551381 -12.95  0.000406833    1.029    0.029
        52 -11.1352    111.3245      1.9062   6.2282732346e+01   5.7374388585e+01    0.5394574    0.2231181  60.09  0.002199673    2.332    0.571
        53 -10.7977    105.1026      1.6856   6.3607211436e+01   5.8842935207e+01    0.4400114    0.2264739  66.40  0.001388447    2.204    0.546
        54  -9.8228     12.6451      1.9503   1.0029520738e+02   7.3940496619e+01    0.1746206    0.1300945 -13.31 0.0005075486    1.330    0.248
        55  -9.9514    123.1583      1.1275   5.9464977446e+01   5.4592735636e+01    0.3500685   0.09946553  68.08  0.001064048    4.047    0.753
        56  -9.2944     82.0093      1.2080   6.9552574139e+01   6.3882612820e+01    0.1644367    0.1021082  51.82 0.0004999838    1.665    0.399
        57 -10.2934     82.0465    135.1422   1.1193139497e+02   3.7891933251e+01    0.2949615    0.2186611  14.65  0.001088657    2.162    0.537
        58  -9.0287     41.3040    138.6576   1.2201237805e+02   4.2281886216e+01    0.1264617   0.07322761  73.29  0.000704041    1.682    0.405
        59 -10.9124     71.7442    134.1517   1.1423791079e+02   3.9562677814e+01    0.4353603    0.3653266  -2.69  0.002636495    1.873    0.466
        60 -10.4838     46.9760    134.3368   1.2018439061e+02   4.2593052450e+01    0.3314033    0.2465283  79.69  0.002165681    1.167    0.143
        61 -10.1760     92.8950    129.2213   1.0833365229e+02   3.7508855645e+01     0.317912    0.2208226  56.98  0.001735346    1.431    0.301
        62 -10.8848     10.7047    127.2799   1.2807353028e+02   4.7531009139e+01    0.3993307    0.1499401 -62.42  0.001490016    2.309    0.567
        63 -10.9512     55.2397    123.2792   1.1669376759e+02   4.4059895932e+01    0.5369043    0.3163351  34.72  0.002473898    1.958    0.489
        64 -10.4253     45.9288    120.6254   1.1868009915e+02   4.5716052735e+01    0.3580349    0.1878439  72.83   0.00145061    2.306    0.566
        65  -9.0209     41.6652    126.2954   1.2048739203e+02   4.4924371773e+01    0.1259017   0.07650814  71.35 0.0003592008    1.645    0.392
        66 -10.8937     23.9904    137.0131   1.2583550556e+02   4.4341793685e+01    0.2779799    0.2026181 -73.46 0.0007709677    1.248    0.199
        67 -10.2048     18.7132    124.5407   1.2591522923e+02   4.7476409442e+01    0.2536563    0.1222504 -68.32 0.0008583106    1.691    0.409
        68  -9.7057      2.3276    125.6681   1.2991318383e+02   4.8488513821e+01    0.2378885    0.1315146  86.38  0.001521765    1.426    0.299
        69 -10.5760    239.5516    124.2895   7.7340932607e+01   8.9618399401e+00    0.2628955    0.1184375 -33.87  0.001139401    2.115    0.527
        70 -10.5449     81.6731    124.6849   1.1028566289e+02   4.0212532574e+01    0.4802313    0.2596773  31.22  0.002243689    2.387    0.581
        71 -11.6700    104.7336    121.6480   1.0401786629e+02   3.7171052733e+01    0.4490303    0.3996958 -87.32  0.001657778    1.055    0.052
        72  -8.9465     40.6371    122.2371   1.2023349751e+02   4.5925770985e+01    0.1213944   0.07600429  66.72 0.0003924303    1.594    0.373
        73  -9.8680      4.2800    121.2343   1.2911153779e+02   4.9294937520e+01     0.231581     0.134883  66.64  0.001505277    1.553    0.356
        74  -9.4398    221.1897    120.4198   7.9412590210e+01   1.3292862089e+01    0.1869809    0.1362814  62.77 0.0009029608    1.653    0.395
        75 -10.0505    148.5480    119.4687   9.3301551785e+01   2.9185407906e+01    0.3483122    0.2092171  31.25  0.001476626    2.135    0.532
        76  -9.2986     72.8371    119.7357   1.1165775274e+02   4.2570037666e+01    0.1786048    0.1660835  -2.56 0.0006273558    1.456    0.313
        77 -10.8757     34.3071    119.6563   1.2151145567e+02   4.7135056527e+01    0.2311649    0.1991954  78.00 0.0009094978    1.147    0.128
        78  -9.0423     81.5348    117.4867   1.0902758584e+02   4.1814284551e+01    0.1330387    0.1175493 -82.02 3.732562e-05    1.012    0.012
        79  -9.6852    113.8391    115.9310   1.0059023921e+02   3.6762266644e+01    0.2018266    0.1889603 -30.09 0.0003207849    1.233    0.189
        80 -10.5417     67.0462    112.1199   1.1183558146e+02   4.5054648182e+01    0.4507869    0.2555531 -70.84  0.002278404    1.679    0.405
        81 -11.7638     52.7985     75.5778   1.0851190879e+02   5.5071990627e+01    0.7574199    0.2706957 -58.83   0.00314667    2.356    0.576
        82 -12.1147     35.3323     92.5977   1.1736245429e+02   5.3100368882e+01     1.686641    0.8897935 -87.98  0.007341171    2.174    0.540
        83 -11.5240     19.0956    105.6877   1.2381317373e+02   5.1580600954e+01    0.5120746    0.2049863 -57.60  0.001013929    2.190    0.543
        84 -11.4090     43.8239     85.6481   1.1353385556e+02   5.3816689189e+01    0.4466399     0.305486  19.64  0.002160142    1.986    0.496
        85 -11.0642     37.6082     85.9587   1.1551045871e+02   5.4380561275e+01    0.3118899    0.2377074  70.68  0.001128966    1.415    0.293
        86 -12.0692     20.8571     95.3442   1.2201121379e+02   5.3747142162e+01    0.5826724    0.5296949 -29.40  0.003093411    1.455    0.313
        87 -12.6324     18.0166     90.4745   1.2217142999e+02   5.5057387029e+01    0.5487062    0.3790329 -36.52 0.0007159701    1.843    0.458
        88 -12.4716      8.8646     95.7365   1.2548286190e+02   5.4537395215e+01    0.7959045    0.3748761  75.92 0.0007950923    2.380    0.580
        89 -11.8761      8.0240     89.1839   1.2495280524e+02   5.6044169460e+01     0.433855    0.2976419 -72.47  0.001320906    1.122    0.109
        90 -11.9532     22.1374    114.1513   1.2398239172e+02   4.9458440556e+01    0.9109605     0.376601  14.97  0.003776517    5.116    0.805
        91 -12.6937     25.2213    107.8092   1.2242048591e+02   5.0600375543e+01    0.8843797    0.5452371 -47.77  0.005295536    1.859    0.462
        92  -9.6305      7.0407    114.5359   1.2786800300e+02   5.0542443997e+01    0.1602466    0.1234377  84.11  0.001177743    1.085    0.078
        93 -11.4422      2.4639    112.0915   1.2880727971e+02   5.1382911477e+01    0.2972528    0.1800729 -85.88 0.0008339728    1.248    0.198
        94 -11.9968      4.0919    105.2791   1.2777680829e+02   5.2755339916e+01    0.4133183    0.2960444 -82.92  0.001332655    1.043    0.041
        95  -9.6697     87.2303    114.1354   1.0691893886e+02   4.1683667723e+01    0.2696066    0.1581977  65.12  0.001231835    2.155    0.536
        96 -11.3288     79.6416    108.7967   1.0785193391e+02   4.4022147758e+01    0.6481041    0.3922339  52.55  0.003289371    1.763    0.433
        97 -10.7463     85.8124    104.4261   1.0529280489e+02   4.4050080153e+01    0.2726073    0.2553639 -26.66 0.0007882945    1.288    0.224
        98 -10.5062    107.9511    112.3562   1.0126453033e+02   3.8591244396e+01    0.3370669    0.2322104  67.25  0.001513754    1.691    0.408
        99 -10.8958    170.2590    110.3109   8.6443990525e+01   2.6185260545e+01    0.4013881    0.3706558  -7.08  0.001514002    1.137    0.121
       100 -10.5740    175.3808    107.3992   8.4663749876e+01   2.5550523570e+01    0.3853315    0.3416645  30.73   0.00207347    1.148    0.129
       101  -9.9666     93.9193    111.6733   1.0469004160e+02   4.1151851849e+01    0.2886213     0.196132 -67.82  0.001484222    1.466    0.318
       102  -9.9781     49.0661    112.1606   1.1663433260e+02   4.7255938208e+01    0.2076959    0.1604613  59.91  0.001017274    1.320    0.242
       103 -10.3527     14.6304    109.4958   1.2542771776e+02   5.1086946734e+01    0.2632684    0.1803519  89.39  0.001768825    1.180    0.153
       104 -10.0647    120.0138    109.4572   9.7611661624e+01   3.6960436705e+01    0.2316187    0.1849835 -51.77   0.00075917    1.226    0.185
       105 -11.1555    101.5837    109.1230   1.0216710352e+02   4.0411258976e+01    0.4393577    0.2948225  44.79  0.002236257    1.550    0.355
       106 -10.3167    157.6504    106.3644   8.8119069821e+01   2.9723593757e+01     0.339646    0.2598441  -1.01  0.001448567    1.768    0.434
       107  -9.6608    130.4909    107.9899   9.4724690948e+01   3.5191506531e+01    0.2302425     0.140408 -48.14  0.001042648    1.623    0.384
       108 -10.5532    143.3062    106.1658   9.1273022903e+01   3.2887322383e+01     0.312595    0.2812741 -70.27  0.000721423    1.155    0.134
       109 -11.3198    145.7129    100.2948   8.9215751705e+01   3.3515994308e+01    0.5215409    0.4386183 -21.20  0.001764705    1.338    0.253
       110  -9.7077     50.5231     91.4928   1.1264563725e+02   5.1756747661e+01    0.4568869    0.2340925  44.12  0.002314492    2.162    0.538
       111  -9.1324     52.0000     87.9905   1.1150247246e+02   5.2377930599e+01    0.1849669    0.1320011 -48.04 0.0005441923    1.390    0.281
       112 -11.1925     47.6479    103.6043   1.1565402254e+02   4.9340572586e+01    0.3634421    0.2425243 -35.43  0.001302994    2.060    0.514
       113 -10.3784     52.2771     97.2172   1.1321857865e+02   5.0258998931e+01    0.5634871    0.1582807 -58.88  0.002184022    2.823    0.646
       114 -10.2849     57.4809    102.0163   1.1262270038e+02   4.8552044929e+01    0.2701975    0.1408328 -63.68 0.0007528135    1.656    0.396
       115 -10.3490     57.4918     97.9805   1.1186255430e+02   4.9462493189e+01    0.2660418    0.1933936 -79.97 0.0008242351    1.295    0.228
       116  -9.1083     82.4407    102.5301   1.0579971078e+02   4.4993620857e+01    0.1355767    0.1208188 -71.66 0.0001612158    1.017    0.016
       117 -10.1054     90.8355    104.2469   1.0390650513e+02   4.3286253216e+01    0.4415291     0.203533  29.58  0.001637537    3.444    0.710
       118 -11.3064     67.9345     96.8540   1.0864741004e+02   4.8364190129e+01    0.5584043    0.3245574 -51.15  0.001869605    1.610    0.379
       119  -9.1386     78.4597    100.5341   1.0646583811e+02   4.6039402472e+01    0.1344825    0.1199843 -65.80 9.349903e-05    1.058    0.055
       120  -8.8758     96.0020    100.0000   1.0155793267e+02   4.3355964206e+01    0.2052973    0.0796021  41.88 0.0003757484    2.742    0.635
       121  -9.5710    210.4764     97.5147   7.5569014722e+01   1.9107483060e+01    0.1460455    0.1382604  -5.38 0.0005948726    1.003    0.003
       122  -9.6788     66.5764     74.4197   1.0379697536e+02   5.3553410835e+01    0.3031453     0.204796 -89.24  0.001334389    2.070    0.517
       123 -10.8675     66.7229     81.8206   1.0562067306e+02   5.1896830340e+01    0.3773871    0.3074525  28.80  0.002244825    1.479    0.324
       124 -10.4508     77.9728     96.9766   1.0582692247e+02   4.6905456860e+01    0.2201425    0.1794636 -54.15 0.0003145645    1.164    0.141
       125 -11.0175     81.0663     92.6692   1.0396888312e+02   4.7394926182e+01    0.7104378    0.3866935  47.98  0.002990728    2.011    0.503
       126 -11.2679     89.4003     90.0202   1.0096184389e+02   4.6646971445e+01    0.4494023    0.2803018 -44.67  0.001007287    1.581    0.368
       127  -9.5089     92.9070     85.5255   9.8813906541e+01   4.7032916287e+01    0.2258487    0.1791364  36.45 0.0006197144    1.420    0.296
       128 -11.0287     79.7009     82.9298   1.0197563463e+02   4.9755633148e+01    0.6011479    0.4736318 -84.43  0.002536484    1.420    0.296
       129 -11.3040     73.5660     77.5955   1.0244520699e+02   5.1854550988e+01    0.5644532    0.4463742 -22.89  0.003150661    1.575    0.365
       130  -9.7432    140.8839     96.0909   8.9221005691e+01   3.5391525048e+01    0.2391519    0.1877609   6.63  0.001132249    1.721    0.419
       131 -10.1754     42.9936     94.9645   1.1551082411e+02   5.1796569559e+01    0.3087063    0.2537677  47.15  0.001948255    1.383    0.277
       132  -9.7748    137.7376     93.6843   8.9314903674e+01   3.6548809870e+01    0.3806535    0.2475824  21.73  0.001005634    2.393    0.582
       133 -11.2692    120.0081     85.3770   9.1411154216e+01   4.1956207249e+01    0.3724357    0.3007752  45.81   0.00163195    1.295    0.228
       134 -10.5547    117.3383     92.9816   9.4179225727e+01   4.0924918462e+01    0.4802865    0.2955197  32.15  0.001762991    2.064    0.515
       135 -10.3181    123.6099     88.8199   9.1450921571e+01   4.0515191494e+01    0.3373902    0.2022225 -64.25  0.001370626    2.224    0.550
       136 -10.9236    122.2811     93.9738   9.3182706996e+01   3.9730958217e+01    0.3613048    0.2438792 -54.25 0.0009360656    1.486    0.327
       137 -10.3750    126.2044     93.0587   9.1954558848e+01   3.9116235719e+01     0.336938    0.2960913  54.53 0.0009685258    1.167    0.143
       138 -11.4235    102.3027     90.2896   9.7451656963e+01   4.4347773701e+01    0.4948401    0.4524044 -20.73  0.000753992    1.253    0.202
       139  -9.6500    160.5107     93.5081   8.4101935505e+01   3.1471280329e+01    0.2696324    0.1485144  63.70  0.001032001    2.300    0.565
       140 -10.4043    152.8783     92.0153   8.5365207380e+01   3.3501502072e+01    0.4167042    0.2958708  34.67  0.001823902    1.580    0.367
       141 -10.2429    183.9256     86.5799   7.7414600599e+01   2.7144790327e+01     0.528226    0.2225429 -43.27  0.001889003    2.446    0.591
       142 -10.7100    113.4252     83.2565   9.2537602402e+01   4.3715424244e+01    0.4002008    0.2616559 -41.13  0.001529977    1.499    0.333
       143 -11.0991    109.3157     80.5631   9.2873501848e+01   4.5078098948e+01    0.3508881    0.3095056 -34.75  0.000725026    1.154    0.133
       144  -9.5038     67.4880     87.9703   1.0683740404e+02   5.0419324185e+01    0.2081364    0.1149235 -55.48  0.001017303    1.580    0.367
       145 -11.2828    143.2303     84.1068   8.5330373086e+01   3.7194115194e+01    0.3384117    0.3143035 -30.37  0.001002724    1.083    0.077
       146 -10.4743    165.5926     83.2936   8.0145378141e+01   3.2122842592e+01    0.3431476    0.2953853 -48.21   0.00130381    1.177    0.150
       147 -10.4446    127.5857     83.4161   8.8921059540e+01   4.0769981946e+01    0.2820874    0.2630708   3.30  0.001075129    1.186    0.157
       148  -9.7656     59.8714     83.5918   1.0814448219e+02   5.2408179758e+01     0.257272    0.1883231 -38.88  0.001457074    1.510    0.338
       149 -10.7827     58.8775     78.3361   1.0722469636e+02   5.3709546011e+01      0.27304    0.2455572  40.40   0.00148218    1.295    0.228
       150 -10.2965    104.4990     76.5579   9.3034725772e+01   4.6833186834e+01    0.4048974    0.2665665 -39.65  0.001938494    1.494    0.330
       151 -10.2702    142.9881    249.5153   1.1432987939e+02   9.2059582456e+00    0.1687602   0.07651926  44.24  0.001035742    1.599    0.375
       152 -10.9468     93.5413     76.3609   9.6105451738e+01   4.8882852692e+01    0.5197344    0.3525424  26.41  0.001755726    1.926    0.481
       153 -11.7142     85.6769     73.7747   9.7693776155e+01   5.0778389572e+01    0.6646447    0.5155098  50.77  0.003653305    1.429    0.300
       154 -11.1512     78.5564     67.2703   9.7984637652e+01   5.3316384789e+01     0.528003    0.4150956  82.83  0.002333265    1.641    0.391
       155  -9.9706     20.7099     71.5782   1.1830502204e+02   5.9083817241e+01    0.1802187    0.1576735  39.03  0.001063088    1.420    0.296
       156  -9.6083      1.3457     78.2452   1.2562573769e+02   5.8862657526e+01    0.2261656   0.08514855 -76.99  0.001017336    2.077    0.519
       157 -11.8725     13.7089     74.7593   1.2117181504e+02   5.8877996157e+01    0.4231649    0.3496413 -49.71  0.003071799    1.291    0.226
       158 -11.4123     14.3849     66.6703   1.1957255262e+02   6.0629860415e+01    0.4957914    0.2257792 -78.66 0.0005863836    2.100    0.524
       159 -11.6629      1.9545     71.4668   1.2453551242e+02   6.0323518620e+01    0.5639597    0.1450947 -72.16   0.00241395    2.826    0.646
       160 -12.0527      5.7783     62.7357   1.2189879849e+02   6.2034138566e+01    0.5662595    0.2808903 -55.19  0.003255735    1.615    0.381
       161 -11.4423     11.0339     62.4947   1.1999322682e+02   6.1771934180e+01    0.3161021    0.2207299  13.20  0.002019906    1.934    0.483
       162  -9.3457      5.2161     78.4341   1.2443561178e+02   5.8600256740e+01     0.132594   0.09925602  53.77  0.000471469    1.526    0.345
       163  -9.2411    170.4902     77.5450   7.7459243439e+01   3.1940858231e+01    0.1511754    0.1488998 -33.35 7.635122e-05    1.015    0.015
       164  -9.4711    135.0394     77.6182   8.5366092767e+01   4.0277088965e+01    0.2988678    0.1458228  59.13  0.001097086    2.503    0.601
       165 -10.0827    126.9468     76.9588   8.7175421404e+01   4.2182156745e+01    0.2224224      0.21299 -52.63 0.0003160106    1.017    0.017
       166  -9.7743     32.9803     77.2993   1.1533123124e+02   5.6771944461e+01    0.1605478    0.1420568 -70.80 0.0002806929    1.104    0.094
       167 -10.0906    241.9890     76.4917   6.5286151026e+01   1.4923970864e+01    0.1897145    0.1231982 -79.54 0.0008100459    2.499    0.600
       168 -11.8954    186.4004     70.2057   7.2234965711e+01   2.9209956162e+01    0.9867982    0.6101537 -36.89   0.00393447    1.560    0.359
       169  -9.2880     24.3793     73.8221   1.1749312284e+02   5.8294687400e+01     0.178443   0.08355153 -58.44 0.0006991327    1.665    0.399
       170  -9.9175    123.3859     73.1315   8.6915375418e+01   4.3695672090e+01    0.2795349    0.2289869 -57.80 0.0006487306    1.265    0.210
       171 -11.8024    122.6034     68.4455   8.5643839684e+01   4.4770016449e+01    0.6378467    0.3884977  46.05  0.002416044    1.717    0.417
       172 -11.6247     40.9008     70.2158   1.1119514722e+02   5.7586433071e+01    0.5172938    0.2376539 -62.32  0.001719174    1.812    0.448
       173 -11.4798     33.5881     71.8805   1.1403016532e+02   5.7930353625e+01    0.4961864    0.2507741  35.83  0.002646643    2.309    0.567
       174 -10.1237    161.5322     70.2792   7.7109797627e+01   3.5381428092e+01       0.3147    0.2536476  82.76  0.001132263    1.478    0.323
       175 -10.4980    171.9772     67.6870   7.4192984893e+01   3.3229275643e+01    0.4607538    0.2953101 -41.92  0.001759838    1.547    0.353
       176 -11.3555    219.6896     66.4128   6.5711452855e+01   2.1521044044e+01    0.6085901    0.3477908  63.39  0.002421517    1.910    0.476
       177  -9.6308    208.5681     68.1423   6.7886259175e+01   2.3997762762e+01    0.2471539    0.1982284  32.45 0.0007218244    1.341    0.254
       178  -9.7235    192.5402     65.8337   6.9853666979e+01   2.8346802102e+01    0.2872311    0.2065224  89.61 0.0009082614    1.829    0.453
       179  -9.6823     21.4239     65.3967   1.1687496865e+02   6.0404365219e+01    0.2256175    0.1650343  81.39  0.001263862    1.505    0.335
       180  -8.9070     25.6507     65.1777   1.1534443815e+02   6.0117157354e+01    0.2488806    0.1178537 -41.64 0.0009174919    2.293    0.564
       181 -11.3511     91.4617     62.4979   9.2487447144e+01   5.2123915693e+01    0.7874931    0.4396705  44.43  0.003255108    1.960    0.490
       182 -10.3964     91.2319     57.5994   9.0932744886e+01   5.3144535799e+01    0.2862937    0.2550487  32.90  0.000993649    1.228    0.186
       183 -11.5002     25.6660     55.9343   1.1325369852e+02   6.2149199537e+01    0.8431396     0.684009 -43.73  0.005087076    1.212    0.175
       184 -11.3218     33.9051     43.1195   1.0651431492e+02   6.4145896033e+01    0.5507273    0.3753208 -38.44  0.002376701    1.362    0.266
       185 -11.5535     38.5430     56.3225   1.0855907275e+02   6.0879102737e+01    0.7701661    0.4811901   3.29  0.004054018    2.504    0.601
       186  -9.8382    199.0406    244.5227   1.0505503925e+02   1.5187243273e+00    0.1692908   0.07855191  42.56   0.00103202    1.594    0.372
       187 -11.1130     60.7520     36.1966   9.3476781665e+01   6.2269560498e+01    0.3700472    0.2032402 -43.76 0.0009732925    1.570    0.363
       188 -11.2972     46.2745     48.9756   1.0351568390e+02   6.1604543589e+01    0.3809948    0.3058908   3.73  0.001345864    1.536    0.349
       189 -11.7039     42.6021     44.9563   1.0364281784e+02   6.2856086669e+01    0.4653524    0.3531056   8.75 0.0008284023    1.654    0.396
       190 -10.5849    159.3809     61.7699   7.4878025248e+01   3.7351380224e+01    0.4874844    0.2715713  42.06  0.001960663    1.955    0.489
       191 -10.6886     87.5761     57.1852   9.1926658612e+01   5.3880358681e+01    0.5554487    0.2302545 -42.30  0.001828005    2.224    0.550
       192  -9.2356    198.2640     62.6265   6.7942533919e+01   2.7383832488e+01    0.1600677    0.1095383 -55.32  0.000698525    1.665    0.399
       193 -10.4273    113.4038     61.0027   8.5652734358e+01   4.8146194194e+01    0.4224311    0.2325041 -43.13  0.001820556    1.722    0.419
       194 -11.8129    119.9230     57.4585   8.2697635397e+01   4.7410522844e+01    0.9560494    0.6100387  79.86  0.003740205    2.754    0.637
       195 -12.0059    125.0501     27.4729   7.0155138167e+01   5.1083924699e+01    0.6049218    0.4983794  44.67  0.001853378    1.212    0.175
       196 -11.1405    113.4264     49.7216   8.1697193204e+01   5.0211410868e+01    0.5009786    0.3201793  33.56  0.001313043    1.833    0.454
       197 -11.1065    127.7139    242.8832   1.1610918027e+02   1.2231774184e+01    0.2431082    0.1519031 -87.25  0.001598602    2.350    0.574
       198  -9.6320    147.4506     60.6403   7.7085723417e+01   4.0473379326e+01    0.3649002    0.1521399  59.80  0.001240455    2.765    0.638
       199 -10.4258    134.1150     50.4263   7.6676683489e+01   4.5401864924e+01    0.3279262    0.1824249 -49.46  0.001319598    2.026    0.506
       200 -10.8705    136.7249     56.1719   7.8055240453e+01   4.3809615611e+01    0.5964966    0.4217255  10.34  0.002360197    1.956    0.489
       201 -10.2236    145.3400     52.1691   7.4703533544e+01   4.2406326277e+01     0.360984     0.326361  35.30  0.001559564    1.133    0.117
       202 -11.2547    146.0582     46.3342   7.2513456901e+01   4.3161559454e+01    0.6295382    0.3265947 -26.68   0.00191444    2.005    0.501
       203 -11.0811    157.3611     54.8397   7.3031325027e+01   3.8988284064e+01    0.5568085    0.4290681 -49.24  0.002675262    1.352    0.261
       204 -10.8360    155.0953     49.7828   7.1797784074e+01   4.0359290069e+01    0.4335886    0.2852177 -21.94 0.0005402724    1.614    0.381
       205  -9.1272      1.9691     56.2105   1.2216253220e+02   6.3668040492e+01    0.1161339   0.09377253  17.00 0.0005772436    1.654    0.395
       206 -10.1089     67.0334     54.6647   9.7842859900e+01   5.7705946005e+01     0.254493    0.1732908 -62.59 0.0007621339    1.572    0.364
       207 -10.9269     58.1153     61.5136   1.0303284557e+02   5.7494670005e+01    0.4352627    0.3315234 -65.57  0.001700329    1.277    0.217
       208  -9.8013    248.9810     53.0000   5.8295933247e+01   1.6368433015e+01    0.2142765   0.08071502  64.66 0.0006971617    2.945    0.660
       209 -10.9610    240.2534     50.2899   5.8584475750e+01   1.8728409290e+01    0.3334246    0.2611153 -18.41 0.0008193122    1.238    0.192
       210 -10.6225    202.0295     47.1210   6.2714713694e+01   2.8619073688e+01     0.457825    0.2709586 -28.99  0.002001516    1.615    0.381
       211 -10.8365    174.0162     48.0887   6.7586275029e+01   3.5760789069e+01    0.4895134    0.3819805  84.03  0.001974017    1.481    0.325
       212  -9.9179     51.8873     48.2808   1.0118106547e+02   6.1074327803e+01    0.2507575    0.1545743 -45.07 0.0006842391    1.381    0.276
       213  -9.8761     26.0288     48.0524   1.1110339007e+02   6.3821260395e+01    0.2116868    0.1692219 -40.82 0.0003677701    1.204    0.170
       214 -10.8494     21.0393     47.0774   1.1283078868e+02   6.4432671246e+01    0.3526663    0.2235597 -53.86  0.001630843    1.230    0.187
       215 -10.0733     13.5917     46.7568   1.1573921199e+02   6.5035628995e+01    0.5203097    0.1362501 -41.28  0.001815621    4.924    0.797
       216 -10.0015     18.2621     41.5068   1.1247844724e+02   6.5826358456e+01    0.2489276    0.1701494 -26.10  0.001196668    1.667    0.400
       217  -9.9546      2.3771     48.8520   1.2065234662e+02   6.5242394605e+01    0.2462959    0.1810135 -79.38  0.001172376    1.212    0.175
       218 -10.1575      4.2317     44.1755   1.1894539352e+02   6.6149861251e+01    0.3252828    0.1464988 -39.01  0.001448143    2.298    0.565
       219 -11.5146      4.0394     35.9933   1.1712546346e+02   6.7894391863e+01    0.2593956    0.1896567 -63.39 0.0003645033    1.068    0.064
       220  -9.9476      6.5564     30.7802   1.1461513847e+02   6.8838579908e+01    0.2411849    0.1455798 -13.76  0.001488939    2.142    0.533
       221  -8.8042     91.2900     48.6607   8.7761727076e+01   5.4856095469e+01    0.1397568    0.1086821 -69.33 0.0007023409    1.643    0.391
       222 -10.2498    195.2951     46.7303   6.3610813115e+01   3.0414436951e+01    0.5464577    0.2588364 -89.65  0.001377129    5.937    0.832
       223 -10.1270    233.5263     45.1949   5.7991839521e+01   2.0970369580e+01    0.2611154    0.2030194  68.19 0.0008786874    1.384    0.278
       224 -10.7227    139.4769     44.0752   7.3161908081e+01   4.5137245089e+01    0.4357259    0.2357608  44.61  0.001784993    1.926    0.481
       225 -10.2449    101.1820     43.7378   8.2924542875e+01   5.3826422417e+01    0.3484139    0.2439604 -66.47  0.001549846    2.035    0.509
       226 -11.0391     94.3862     41.2423   8.3996960162e+01   5.5615268428e+01    0.5610417    0.2950645  43.88  0.002186282    2.040    0.510
       227  -9.4183    162.9257     43.7178   6.8177020406e+01   3.9273915238e+01    0.2151281    0.2012586  52.47 0.0009790146    1.079    0.073
       228 -11.4911    156.1298     41.7685   6.8822015690e+01   4.1307902262e+01    0.3987623    0.3530236 -17.70 0.0009553415    1.132    0.117
       229 -10.5845    153.2134     36.2071   6.7427824358e+01   4.2852797392e+01    0.3013946    0.2555573 -31.61 0.0004100646    1.162    0.139
       230 -12.4382     49.5721     60.2625   1.0565800612e+02   5.8820063114e+01    0.6300625    0.4939175  64.36  0.001831701    1.591    0.371
       231 -10.0806    188.9964     41.9717   6.3099774658e+01   3.2705247158e+01    0.2544795    0.2078443 -29.03 0.0004252151    1.195    0.163
       232 -10.8231     80.6294     39.7888   8.7829886134e+01   5.8419393439e+01    0.5178413    0.3612635  41.62  0.002762383    1.579    0.367
       233  -9.9467     77.9711     34.2354   8.6489285354e+01   5.9874492940e+01     1.020306    0.3837253  34.82  0.003597536    3.792    0.736
       234 -10.6131     81.9912     31.3254   8.3915839674e+01   5.9657633409e+01    0.4726106    0.3129271 -56.32  0.002311417    1.937    0.484
       235 -10.2545    231.5939     39.5744   5.6662849141e+01   2.2131971504e+01    0.2729196    0.2225033 -50.24 0.0007082311    1.195    0.163
       236 -10.4960    150.1882    237.8164   1.1199017776e+02   9.5894849378e+00    0.1451556    0.1117561  30.92  0.001084559    1.361    0.265
       237 -11.1444    176.7528     37.3630   6.3574810496e+01   3.6546505415e+01    0.5283626    0.3206922 -29.97  0.002312609    1.599    0.375
       238  -9.4506     15.1869    233.8433   1.3311053569e+02   2.7314701038e+01    0.1151032   0.09229441  76.22  0.001072621    1.357    0.263
       239 -10.5600    172.8670     33.1553   6.2806187296e+01   3.8127896049e+01    0.3322664    0.2470419  74.33  0.001128405    1.437    0.304
       240 -10.5801    176.0611     30.0854   6.1248381381e+01   3.7673321091e+01    0.4378308    0.2520468  41.26  0.001826694    1.904    0.475
       241 -11.1052    138.2550     32.5018   6.9144814885e+01   4.7159015000e+01    0.6460752    0.5450388 -57.23  0.002575255    1.314    0.239
       242 -10.8888     23.0953     37.0897   1.0913994264e+02   6.6371557078e+01    0.3483178     0.245816  56.36  0.001556023    1.991    0.498
       243  -9.8862    133.4865     37.4998   7.2099168596e+01   4.7604262769e+01    0.3479492     0.218204 -65.79    0.0013842    2.449    0.592
       244  -9.6428    206.6685     37.0803   5.9028008957e+01   2.8729324961e+01    0.2432257    0.2036913 -84.28 0.0006546815    1.288    0.224
       245  -9.3857    247.3148    231.3193   9.5982418596e+01  -4.2942034346e+00    0.1106234    0.0617847  19.10 0.0004159809    1.653    0.395
       246 -11.9474    105.5128     33.2230   7.7519099427e+01   5.4675597668e+01    0.7708257    0.4545975   2.64  0.002514933    3.005    0.667
       247  -9.4654     23.4876    231.5318   1.3177069687e+02   2.6854870705e+01   0.09823434   0.06313262  66.07 0.0008095298    1.028    0.028
       248 -12.3891    106.1175     20.0760   7.1772901968e+01   5.6463735119e+01    0.3138478    0.2622778 -15.70 0.0003978068    1.133    0.117
       249 -11.4918    159.9116     30.1518   6.4000069129e+01   4.1931239058e+01    0.5073982     0.324684 -42.10 0.0004433604    1.591    0.371
       250 -11.1863    164.0066     27.4931   6.2337536432e+01   4.1193032427e+01    0.3084253    0.2818305 -23.21 0.0003935345    1.091    0.084
       251 -10.4939     69.1790     32.6078   8.8904810821e+01   6.1636426457e+01    0.4461716    0.2751935  40.41  0.001834606    1.815    0.449
       252 -10.7421    240.6222     31.3588   5.3436681321e+01   2.0915630346e+01    0.4030328    0.2678822 -28.53  0.001745001    1.375    0.273
       253  -9.5713    182.5141     32.0621   6.0901189276e+01   3.5710926698e+01    0.2250299    0.1467304 -25.06 0.0004606104    1.525    0.344
       254 -10.4037    147.5071     31.7464   6.6935244942e+01   4.4930787464e+01    0.2489333    0.2387594 -85.37 0.0003392978    1.112    0.100
       255 -10.2134    234.5200    222.5309   9.6605192571e+01  -1.6296000006e+00    0.1115979   0.08204532  25.49 4.395533e-05    1.020    0.019
       256 -11.9916     55.8012     30.9871   9.3282979763e+01   6.3945451777e+01    0.3942085    0.2638504  34.10  0.002239124    1.714    0.416
       257 -11.4687     47.4207     30.6903   9.6534384384e+01   6.5115528927e+01    0.5283735    0.3165467  18.36  0.002009654    2.242    0.554
       258 -11.6499    199.1390     28.0947   5.7268590731e+01   3.1795126078e+01    0.5316517    0.4048458   2.24 0.0007348037    1.510    0.338
       259 -10.6765      9.5739     21.7639   1.1035698337e+02   7.0476987447e+01    0.2103582    0.1410826 -59.80 0.0008013293    1.248    0.199
       260  -9.3612    144.6809    214.6772   1.1026979784e+02   1.3535899713e+01    0.1086703   0.08349335  20.48 0.0007044542    1.671    0.402
       261  -9.3985    165.6498    212.3486   1.0635346608e+02   1.0484466944e+01    0.1174873   0.08179646  68.27 0.0007038531    1.822    0.451
       262  -9.3740    152.5276    207.5271   1.0799794926e+02   1.3299638135e+01    0.1184038   0.09548946  48.39 0.0002887909    1.009    0.009
       263  -9.7529    238.6689    204.4675   9.3149542317e+01  -4.8429860779e-01    0.1807871    0.1000613 -25.76  0.001085695    1.977    0.494
       264 -10.3789    189.1787     27.9706   5.8585437105e+01   3.4445442397e+01    0.4297186    0.2980786   8.21  0.001947012    1.785    0.440
       265 -10.0522     98.4389     28.6328   7.7628694104e+01   5.6881564114e+01    0.4610549    0.2481491 -48.89  0.001622929    2.236    0.553
       266  -9.3748    221.4987     29.4683   5.4954633192e+01   2.5849597594e+01      0.14498    0.1330287 -49.82 2.618909e-05    1.038    0.037
       267 -11.0403    154.3307     25.4496   6.3307857330e+01   4.3989473755e+01    0.6886649     0.440089  41.83   0.00310625    1.622    0.384
       268  -9.9585    157.2918     20.4807   6.0960595037e+01   4.3813686204e+01    0.5157321    0.2081967  64.07  0.001882197    2.433    0.589
       269 -10.7554    250.5621     25.7324   5.0994297720e+01   1.9200195140e+01    0.3354685    0.1119962 -27.86  0.001274486    2.529    0.605
       270 -10.0638    230.3175     26.6976   5.3211462097e+01   2.3959173891e+01    0.2537847     0.197711 -51.31 0.0006967322    1.236    0.191
       271  -9.9053    133.3335     23.8333   6.6840927146e+01   4.9550951869e+01    0.3750266    0.2639324 -61.98  0.001735994    1.814    0.449
       272  -9.7557    146.3768     25.7282   6.4909232533e+01   4.6013543359e+01    0.2759983    0.2033277  88.25 0.0006922588    1.666    0.400
       273  -9.7548    143.1689     24.6388   6.5125658991e+01   4.6972850202e+01     0.281105    0.2582022 -57.24 0.0009275425    1.169    0.145
       274 -10.3907    138.0208     21.5150   6.4946981228e+01   4.8670503474e+01    0.3700473    0.2425447  47.89  0.001156627    1.494    0.331
       275  -9.7059    141.5006     19.5158   6.3473347447e+01   4.8029605068e+01    0.3675205    0.2607688  56.37   0.00161952    1.379    0.275
       276 -10.7256    214.6862     23.5023   5.3982599231e+01   2.8272026573e+01    0.4833168    0.3010133  -5.22  0.002152467    1.944    0.486
       277 -10.8024     31.1656     30.1468   1.0326383000e+02   6.7045219660e+01    0.3873702    0.1730263 -45.61  0.001057204    1.781    0.438
       278 -10.1179      4.2899    204.9232   1.3372163493e+02   3.3043803798e+01    0.1682945    0.1039415 -76.81  0.001327683    1.619    0.382
       279  -9.9362    245.4570    200.5487   9.1455903732e+01  -1.1511259152e+00    0.1150312   0.08928327  20.62 9.543877e-05    1.019    0.019
       280  -9.9969    233.9665    197.1795   9.2679426478e+01   1.0315472247e+00    0.1948106    0.1582303  -7.33  0.001107577    1.251    0.201
       281 -10.5679     47.3104     18.5623   9.1304455337e+01   6.7313791699e+01    0.3626037    0.2604359 -11.56  0.001581468    1.485    0.326
       282  -9.9653    169.6084    191.4683   1.0266989632e+02   1.2746867895e+01    0.3297376    0.1493074  35.45  0.001282214    2.287    0.563
       283 -12.3622      4.7767    184.5800   1.3279701960e+02   3.6606165097e+01    0.5742369    0.3090256  67.73  0.004137291    1.371    0.271
       284 -10.0096    212.8182    181.7793   9.3483512402e+01   6.4290419862e+00    0.2211054    0.1207701  14.91 0.0009664604    2.907    0.656
       285  -9.2652    223.5034     22.4445   5.2718482572e+01   2.6140451556e+01    0.1410064    0.1325366 -50.73  0.000285542    1.006    0.006
       286 -10.0600     74.0234     19.5508   8.1369750458e+01   6.2982222765e+01    0.2288742     0.213333 -46.84 0.0006326959    1.273    0.214
       287  -9.6951    249.8220    180.5695   8.7289112277e+01   2.3237669895e-01    0.2143404   0.08450945 -25.18  0.001002382    2.688    0.628
       288  -9.9505     39.6489    173.4985   1.2560332441e+02   3.5330922337e+01    0.1809634   0.08770593 -76.54 0.0003210177    1.834    0.455
       289  -9.7537    211.3025     18.9648   5.3011082684e+01   2.9648625642e+01    0.1970878    0.1780703 -31.65 0.0003021152    1.083    0.077
       290  -9.7376     51.4198    173.2368   1.2325289384e+02   3.4055486206e+01    0.1570785   0.09002947 -89.85 0.0005970102    1.608    0.378
       291 -10.4974     36.0008    169.9636   1.2604659522e+02   3.6410636592e+01    0.1807821    0.1329776  75.80  0.001314065    1.033    0.032
       292  -9.5898    149.4929     14.9957   6.0256878636e+01   4.6483069798e+01    0.3445113    0.1996958  31.42  0.001189565    2.020    0.505
       293  -9.8672    191.5833     16.6758   5.4617860052e+01   3.5092556998e+01    0.3377977    0.2151987  24.62  0.001478992    1.977    0.494
       294 -12.0479     10.0214    166.1342   1.3089082637e+02   3.9640528351e+01    0.4935633    0.2923355 -78.44  0.003434154    1.435    0.303
       295 -11.1130     13.8985    158.1433   1.2963651072e+02   4.0881230249e+01    0.4013689    0.1576417 -79.03  0.001806121    2.070    0.517
       296  -9.5471    221.1190     19.0895   5.2001946621e+01   2.7111933510e+01    0.1948803    0.1863438   9.82  0.001139298    1.133    0.118
       297 -10.4020    186.4298     15.2034   5.4792139942e+01   3.6626452061e+01     0.274973    0.2483305  64.50 0.0006087424    1.098    0.090
       298  -9.5957    198.0528    167.7258   9.3498592914e+01   1.1024983335e+01    0.1847216    0.1524954  32.05 0.0006145149    1.071    0.066
       299  -9.6518    220.0744     12.4473   5.0189613583e+01   2.8077738009e+01    0.2153417    0.1355702  72.56  0.000904642    1.610    0.379
       300 -10.3062     18.8857    165.2475   1.2910100870e+02   3.9026130701e+01    0.2058232    0.1936794  63.13  0.001728427    1.467    0.318
       301 -10.0297    205.1439    163.1826   9.1377625082e+01   1.0331471528e+01    0.2221681    0.1896919  25.11 0.0006139768    1.045    0.043
       302 -10.5880     82.4781     18.9279   7.8220232331e+01   6.1516993932e+01    0.6276273    0.2097989  44.27  0.002120035    3.131    0.681
       303  -9.7206    188.8205    163.9684   9.4468000406e+01   1.3328665728e+01    0.2067748    0.1652492  14.37 0.0009819524    1.347    0.258
       304 -10.1955     28.2649    162.9421   1.2706014521e+02   3.8589323813e+01    0.2936795    0.1318234 -71.62  0.001700491    1.927    0.481
       305 -11.0569    105.1743    152.7998   1.0944508792e+02   3.0632982249e+01     0.476113    0.3020006  68.27  0.002474393    1.745    0.427
       306 -10.3853      8.8977    155.9963   1.3051496219e+02   4.1734859683e+01    0.2193827    0.1234483 -75.30  0.001475807    1.507    0.336
       307 -10.7204     31.3396    153.9944   1.2570553180e+02   4.0094093240e+01    0.3679448    0.1971637  69.42  0.001742952    1.692    0.409
       308 -10.4883     30.6295    149.3027   1.2545315517e+02   4.1132040283e+01    0.2538686    0.1357292  70.95  0.000824875    1.728    0.421
       309 -10.1393     23.3190    155.3727   1.2750482522e+02   4.0588743025e+01     0.217723    0.1419198  29.22  0.001448732    1.999    0.500
       310 -10.4229     72.3805    152.1357   1.1657440690e+02   3.5665689841e+01    0.4495367    0.2047759  62.00  0.002020228    2.606    0.616
       311 -10.1710     14.5058    133.6501   1.2771638532e+02   4.5874497071e+01    0.2852614    0.1377883  74.32  0.001598506    1.957    0.489
       312 -11.7778     12.1012    138.4729   1.2864029630e+02   4.5055957104e+01    0.6425195    0.2484932  71.89  0.003104875    2.777    0.640
       313 -12.0686     23.0911    149.0728   1.2706259453e+02   4.1899316907e+01    0.4768061    0.3262502 -28.09   0.00253294    2.890    0.654
       314 -11.3160     15.9363    147.8914   1.2850567193e+02   4.2781991250e+01    0.3398615    0.1924703  58.13  0.001406343    1.553    0.356
       315  -9.3739     42.2039    148.6018   1.2285205551e+02   4.0080224036e+01    0.2095213    0.1687873  44.93  0.001025798    1.406    0.289
       316  -9.9381     47.5661    151.7639   1.2199624292e+02   3.8826289980e+01    0.3606954     0.179788  44.97  0.001609251    1.892    0.472
       317 -10.9700     47.1397    146.5483   1.2154009111e+02   3.9965562372e+01    0.4456135    0.2447916 -70.28  0.002069966    1.600    0.375
       318 -11.8779      3.8715    147.4409   1.3102787808e+02   4.3859509253e+01    0.5649216    0.3138346 -80.70  0.003010793    1.410    0.291
       319 -11.9170      3.5491    141.9429   1.3075339535e+02   4.5005949391e+01    0.4395957    0.2999147  58.90   0.00326634    1.336    0.252
       320 -11.5179    246.2113     20.6906   5.0057523612e+01   2.0769467754e+01     0.280127    0.1887368 -11.82  0.001135237    1.608    0.378
       321 -11.6924      3.9505    136.7228   1.3032302137e+02   4.6053754437e+01    0.2009896    0.1591298 -83.41 0.0003077239    1.192    0.161
       322 -11.2539     62.6150    150.0917   1.1848765796e+02   3.7369741083e+01     0.436159    0.3601783  55.89  0.002545182    1.224    0.183
       323  -9.5856     85.4986    150.0046   1.1337146497e+02   3.4254621282e+01     0.189452    0.1157177 -66.14 0.0007438339    1.585    0.369
       324 -10.3838     56.0163    149.0049   1.1982968456e+02   3.8413369706e+01    0.1865444    0.1499459  84.41 0.0003340833    1.010    0.010
       325 -10.1004    108.1374    146.2218   1.0772861300e+02   3.1467584403e+01    0.2187818     0.183576 -73.19 0.0009092862    1.170    0.145
       326  -9.5450    239.7784    146.6154   8.2199612585e+01   5.9930677734e+00    0.1692398    0.1209816  53.52 0.0007697695    1.611    0.379
       327 -10.7044     33.1325    144.3303   1.2444878536e+02   4.1922096465e+01    0.2450389    0.1808711  78.70 0.0007969541    1.096    0.087
       328 -10.6883    249.5723    143.0873   7.9929111646e+01   4.6151529716e+00    0.5639994    0.1565898 -33.93  0.002099552    3.390    0.705
       329  -9.8081    133.6800    140.5293   1.0105012047e+02   2.8047401260e+01    0.2740209    0.2118965 -21.83  0.001430393    1.792    0.442
       330 -12.3346     29.8752    133.1350   1.2409801805e+02   4.4622677822e+01    0.6394902    0.3706507 -76.66 0.0003594279    1.412    0.292
       331 -11.0841     20.9834    134.6838   1.2631622867e+02   4.5105411775e+01    0.2731767    0.2385892  74.77  0.001004166    1.225    0.184
