#   1 NUMBER                 Running object number                                     
#   2 MAG_AUTO               Kron-like elliptical aperture magnitude                    [mag]
#   3 X_IMAGE                Object position along x                                    [pixel]
#   4 Y_IMAGE                Object position along y                                    [pixel]
#   5 X_WORLD                Barycenter position along world x axis                     [deg]
#   6 Y_WORLD                Barycenter position along world y axis                     [deg]
#   7 A_WORLD                Profile RMS along major axis (world units)                 [deg]
#   8 B_WORLD                Profile RMS along minor axis (world units)                 [deg]
#   9 THETA_WORLD            Position angle (CCW/world-x)                               [deg]
#  10 FWHM_WORLD             FWHM assuming a gaussian core                              [deg]
#  11 ELONGATION             A_IMAGE/B_IMAGE                                           
#  12 ELLIPTICITY            1 - B_IMAGE/A_IMAGE                                       
         1 -13.0348    176.6280     39.0184   6.5572860835e+01   3.6062398550e+01     1.280496     0.990901  15.53  0.004119878    1.455    0.313
         2 -12.6742    195.8297      6.8943   5.3052485804e+01   3.4547655374e+01    0.9955715    0.8742196  42.51  0.005712912    1.197    0.165
         3 -10.6177     93.6047    206.1913   1.2315368975e+02   2.1656296759e+01    0.2597937    0.2233965 -24.99  0.001283417    1.600    0.375
         4 -19.5263     44.7251    151.1184   1.2846335501e+02   3.8726401533e+01     18.50667     3.350168 -71.54   0.05393906    5.995    0.833
         5  -9.4132     90.3610    204.7055   1.2367094830e+02   2.2362054522e+01    0.2482764    0.1736193  39.16  0.001050142    1.247    0.198
         6  -9.8120     73.9314    205.0200   1.2709165257e+02   2.4442441011e+01    0.3875034    0.2236457  37.12   0.00138255    1.531    0.347
         7 -11.4251     75.1612    197.4881   1.2613268605e+02   2.5678977012e+01    0.4022157    0.3692736 -61.58  0.001435683    1.322    0.244
         8 -10.6633     82.0496    194.6267   1.2437792174e+02   2.5326294711e+01    0.3682641    0.3273972  64.14  0.002374172    1.073    0.068
         9 -11.6635     82.8448    186.8286   1.2336288381e+02   2.6713383713e+01    0.5830723    0.3882693  58.74  0.002290623    1.425    0.298
        10 -11.2997     12.1482    203.9199   1.3916756195e+02   3.1114295308e+01    0.2483503    0.1359861 -73.42  0.001698138    1.812    0.448
        11  -9.9072    191.4711    192.1370   1.0095623830e+02   8.4357407188e+00    0.4414617    0.2890221 -67.73  0.001780824    4.509    0.778
        12  -9.6964    167.5428    232.2837   1.1165777324e+02   6.7461033587e+00    0.2597239    0.1758584  19.84 0.0007116566    1.410    0.291
        13  -9.1227    151.9948    192.1807   1.0900130963e+02   1.5114779937e+01    0.1718751    0.1471661  87.70  0.001039932    1.611    0.379
        14 -12.5718     86.5005    182.6173   1.2206152255e+02   2.7040910760e+01    0.8142407    0.4942337  54.05  0.004503465    1.560    0.359
        15  -8.9644    151.7047    184.3219   1.0779945561e+02   1.6478016794e+01    0.1272673     0.100623  65.67  0.000278078    1.617    0.381
        16  -9.9782    171.9764    217.0000   1.0871520574e+02   8.1173702322e+00    0.3503964   0.05685792  39.26  0.001049212    4.915    0.797
        17  -9.1809    133.5247    183.5025   1.1163173880e+02   1.9690991173e+01    0.1328834    0.1151596  39.71 6.053838e-05    1.021    0.021
        18 -10.3677     99.3849    180.6310   1.1889227786e+02   2.5596941004e+01    0.2497456    0.2022573  31.99 0.0006240325    1.231    0.187
        19 -10.3637     95.0197    179.5414   1.1974607828e+02   2.6446548597e+01    0.2618874     0.178598  41.36 0.0007704477    1.304    0.233
        20  -9.4084    167.6125    175.7479   1.0290935307e+02   1.5126651532e+01    0.3286121    0.2324101 -69.84  0.001579095    2.504    0.601
        21 -11.1818    105.1283    172.5061   1.1644317038e+02   2.6332864867e+01    0.3884359    0.2853753  13.21  0.002102534    1.755    0.430
        22 -11.1978    101.1280    169.4701   1.1694595695e+02   2.7552428655e+01     0.394205    0.2981544  60.36  0.001573161    1.333    0.250
        23  -9.6903    142.2862    171.1334   1.0764430647e+02   2.0441730330e+01    0.2727766     0.167454  59.46  0.001198354    2.163    0.538
        24  -9.9443    204.4286    165.4335   9.3406204906e+01   1.0056406953e+01    0.3821748    0.2386037 -45.18  0.001583332    2.059    0.514
        25 -10.0021    193.9335    166.7862   9.5749393751e+01   1.1771262257e+01    0.3039913    0.2430814  19.46 0.0007962652    1.087    0.080
        26 -10.4183     30.6930    213.5063   1.3617053073e+02   2.7704297494e+01     0.148296    0.1138026  78.25  0.001046421    1.151    0.131
        27  -9.7794    190.0121    160.5790   9.5294024733e+01   1.3473907687e+01    0.2878382    0.1951613 -35.45 0.0009379119    1.578    0.366
        28  -9.8338    189.1241    155.3197   9.4389132905e+01   1.4488178515e+01    0.3496355    0.3018579  -4.14  0.001608397    1.109    0.099
        29  -8.6861    113.4789    160.5472   1.1259360164e+02   2.7411291316e+01    0.1358221    0.1242056  46.85 9.710132e-05    1.010    0.009
        30 -10.2031     99.1465    158.4776   1.1577395154e+02   3.0118236708e+01    0.2614875    0.2329969  15.80 0.0003916794    1.260    0.206
        31  -9.0710    184.6712    213.7010   1.0579048843e+02   6.5656115421e+00     0.126766   0.08124037  14.10 0.0006741502    1.639    0.390
        32 -11.7841     88.5954    152.9243   1.1756279397e+02   3.2878970261e+01    0.3563219    0.2869791 -27.47 0.0008971866    1.572    0.364
        33  -9.5656    164.9361    152.9162   9.9075354084e+01   1.9567173008e+01    0.2874856    0.2353124  78.64  0.001477789    1.782    0.439
        34  -8.4521    151.6841    151.3262   1.0176388208e+02   2.2403559844e+01    0.1403428    0.1142452  75.72 0.0007044165    1.671    0.402
        35  -7.9478    152.2967    211.2802   1.1176741599e+02   1.2047511551e+01    0.1197208   0.08612898  14.06 0.0001982065    1.538    0.350
        36  -9.8634    133.7310    143.5827   1.0448522906e+02   2.7304089348e+01    0.6366036    0.1795453 -54.56  0.001648698    5.851    0.829
        37 -11.1182    103.6331    151.8022   1.1356860863e+02   3.0822479450e+01    0.5530507     0.388809 -28.26  0.002151987    1.909    0.476
        38 -11.2911    101.7289    137.7853   1.1157405280e+02   3.4149488165e+01    0.2803059    0.2627047 -38.53 0.0005463058    1.132    0.117
        39 -10.3124    112.3993    137.7305   1.0874201967e+02   3.2367948822e+01     0.404067    0.2861477 -20.17  0.001781783    1.953    0.488
        40 -10.0690    105.9124    130.8933   1.0911052763e+02   3.4963476893e+01    0.3447304    0.2908073 -80.43  0.001348777    1.335    0.251
        41  -9.1553    118.0428    129.1331   1.0548362293e+02   3.3208671906e+01    0.2258101    0.1933522  -7.13  0.000627198    1.335    0.251
        42  -9.3831    106.3718    124.7998   1.0772400080e+02   3.6224467250e+01    0.2573248    0.2211817   4.15  0.000705397    1.329    0.248
        43 -10.2379     92.7077    195.1875   1.2214655127e+02   2.3778274415e+01    0.3631569    0.2074932  41.06  0.001162173    1.485    0.327
        44  -8.6184    112.9140    118.4672   1.0451380595e+02   3.6449919510e+01    0.2224825    0.1421547  38.57 0.0009781995    1.546    0.353
        45  -9.6845    168.2251    113.2764   8.9174603220e+01   2.6130899226e+01    0.3490873    0.2414789 -61.80  0.001489347    2.117    0.528
        46  -8.8599    205.7747    110.3894   8.0664233338e+01   1.8350378460e+01    0.2044209    0.1293449  36.91 0.0003346955    1.581    0.368
        47 -10.7854     84.5406    107.0953   1.1023763043e+02   4.3794982764e+01     0.412765    0.2903763  80.27  0.001914864    2.031    0.508
        48 -10.0814     85.0730     77.0106   1.0232434295e+02   5.0487749058e+01    0.2197313    0.2094834 -27.00 0.0004356806    1.034    0.033
        49  -9.1181    101.8039     71.9111   9.5186513805e+01   4.8537597484e+01     0.287865    0.2043513  68.87  0.001247569    2.155    0.536
        50 -10.8967     95.0715    200.2007   1.2220196891e+02   2.2528857092e+01    0.4452269    0.2703159  76.10  0.002373092    2.189    0.543
        51 -12.2058    162.8868     53.5957   7.2870820147e+01   3.7604762391e+01    0.7213211    0.5968431 -42.61  0.001456073    1.279    0.218
        52 -11.8868     13.5539    244.6646   1.4043139153e+02   2.4131757324e+01    0.2309942    0.1050946 -73.99  0.001616242    2.343    0.573
        53 -11.8196    181.2383     32.1830   6.2656667811e+01   3.5700462807e+01    0.6349722    0.4619473  15.53  0.001679479    1.622    0.384
        54 -11.0985     86.2848    203.3709   1.2438166131e+02   2.3148944371e+01    0.7381054    0.2724279  38.36   0.00349858    2.221    0.550
