#   1 NUMBER                 Running object number                                     
#   2 MAG_AUTO               Kron-like elliptical aperture magnitude                    [mag]
#   3 X_IMAGE                Object position along x                                    [pixel]
#   4 Y_IMAGE                Object position along y                                    [pixel]
#   5 X_WORLD                Barycenter position along world x axis                     [deg]
#   6 Y_WORLD                Barycenter position along world y axis                     [deg]
#   7 A_WORLD                Profile RMS along major axis (world units)                 [deg]
#   8 B_WORLD                Profile RMS along minor axis (world units)                 [deg]
#   9 THETA_WORLD            Position angle (CCW/world-x)                               [deg]
#  10 FWHM_WORLD             FWHM assuming a gaussian core                              [deg]
#  11 ELONGATION             A_IMAGE/B_IMAGE                                           
#  12 ELLIPTICITY            1 - B_IMAGE/A_IMAGE                                       
         1 -15.1401     61.2745     41.6166   3.1400424845e+01   6.0688013617e+01     6.775455     2.740901  34.59   0.02508014    3.187    0.686
         2 -12.4427     75.7358     13.1442   1.6408857954e+01   6.1237019724e+01    0.4547017    0.2277152  58.12  0.001180709    1.593    0.372
         3 -14.6834     93.0424      6.0095   1.0111863611e+01   5.8112479913e+01     3.218243    0.8398686  67.60   0.01226979    3.293    0.696
         4 -14.3281    117.1307     81.0617   2.6723499671e+01   4.2848544277e+01     2.107667     1.747551 -49.83   0.01021287    1.247    0.198
         5 -13.7315     12.3569     23.0341   4.8582293738e+01   7.1632933163e+01     2.615177     1.487106 -21.16     0.013526    2.163    0.538
         6  99.0000     32.9265     26.6697   3.8006583734e+01   6.8057803746e+01     1.508152    0.5977789 -42.90  0.006765615    2.976    0.664
         7 -15.1434      6.0179     79.0751   6.9218701284e+01   6.0879684290e+01     5.201693     1.707131 -69.22   0.01875091    3.327    0.699
         8 -12.5963     65.0218     17.1051   2.0942530267e+01   6.3113083677e+01    0.7019266    0.2955789  54.31  0.001349022    1.902    0.474
         9 -12.2599    241.7800     22.7765   3.5910326544e+02   2.7909368794e+01    0.6032232    0.2590889 -78.42  0.001563697    2.519    0.603
        10 -11.5813    151.1749     19.8812   5.5641699886e+00   4.4243400952e+01    0.4315474    0.2529433  72.48  0.001710452    1.487    0.328
        11 -13.6754     77.1318     60.9793   3.2266644915e+01   5.4452802099e+01     1.856674     1.057345  32.79  0.007638105    1.988    0.497
        12 -10.4752    208.3769     18.8711   4.3582639729e-01   3.3617019065e+01    0.3071496    0.1882526 -74.06   0.00222959    1.343    0.255
        13 -10.5676     56.9179     18.6017   2.4231356458e+01   6.4622885784e+01    0.3090499    0.2404692  36.95  0.001662038    1.203    0.169
        14 -11.5793    246.6022     14.2970   3.5753947093e+02   2.8078599320e+01    0.3344912    0.1766085  76.41  0.002619151    1.969    0.492
        15 -11.2526    174.7201     12.9370   1.7735567426e+00   4.0299389009e+01     0.414638    0.2362299 -72.50  0.001713838    1.558    0.358
        16 -12.1180    182.9846      8.4771   2.3125473674e-01   3.9186753440e+01     1.267159    0.5002297 -78.23  0.006268741    2.982    0.665
        17 -12.2676    167.9356      6.1576   9.0317428742e-01   4.2271625602e+01    0.4384812    0.2963636 -59.37  0.001721363    1.279    0.218
        18 -10.9550    169.4827      1.5110   3.5980098982e+02   4.2406052141e+01    0.2242606    0.1223424 -85.03  0.000751306    1.575    0.365
        19 -10.5363    228.3340     11.0708   3.5792807000e+02   3.1163005720e+01    0.2311321    0.1758232  77.19  0.001884587    1.512    0.339
        20  -9.7297    202.2988     11.1874   3.5943923891e+02   3.5449571745e+01    0.1610378    0.1126891  80.46 0.0006830455    1.372    0.271
        21  -9.2994    155.4170      9.8885   2.8215833238e+00   4.4394236659e+01    0.1481404   0.06714714 -58.80 0.0005498998    2.149    0.535
        22  -9.8790     51.7782      8.6197   2.1880972065e+01   6.6755804649e+01    0.2756671    0.1290925  50.03   0.00141685    1.673    0.402
        23 -10.1176    150.8352      7.8873   2.8031844286e+00   4.5516547161e+01    0.2089491    0.1513308 -75.74 0.0008386658    1.156    0.135
        24  -9.8667    147.3203      5.0709   2.4856761840e+00   4.6500277715e+01    0.2003468    0.1258294  83.37 0.0005458907    1.311    0.237
        25 -11.9515    138.1588      4.2564   3.2202822471e+00   4.8477629953e+01    0.4546424    0.2796905  77.48  0.001115058    1.332    0.249
        26 -10.3061    250.4683      3.8049   3.5577838066e+02   2.8554910886e+01    0.1686168    0.0584891 -43.84  0.001007517    2.037    0.509
        27  -9.9065    244.4781      3.5286   3.5598150113e+02   2.9451525643e+01   0.09227684   0.06241488 -64.07 0.0001916909    1.016    0.016
        28 -10.9601    215.6410      2.3083   3.5711069163e+02   3.4062523694e+01    0.1802496    0.1205578 -68.15 0.0004482883    1.070    0.066
        29 -10.3551     73.0346      1.4636   1.2733032296e+01   6.2905555780e+01    0.1781851    0.1089905  62.54 0.0005324727    1.282    0.220
        30  -8.6456    155.3040      1.2805   8.8216614145e-01   4.5222193264e+01   0.09893647   0.07422142  58.63 0.0004537815    1.552    0.356
        31 -11.2267    152.3595     95.9485   2.2855189402e+01   3.3347066691e+01    0.4531212     0.381369 -56.09  0.002806439    1.122    0.109
        32 -11.1355    193.6058    248.8739   4.1773322918e+01   5.6751868272e-01    0.3482656    0.1726343  -6.38  0.001876506    2.259    0.557
        33 -11.8265    188.2957    249.0116   4.2758779129e+01   9.9492400361e-01    0.3583961     0.186635   9.30  0.002094507    1.857    0.462
        34  -9.3906    224.3152     96.6593   1.2775227172e+01   2.1275804199e+01    0.1123292   0.06933694 -65.18 0.0007047909    1.705    0.413
        35 -10.5385    188.1704     93.6537   1.6639843854e+01   2.7348483997e+01    0.4695513    0.2878557  86.20  0.002471593    2.427    0.588
        36 -11.8273    246.1032     92.6997   9.9597537180e+00   1.8842326494e+01    0.3554414    0.2123511  89.25  0.002038288    2.493    0.599
        37 -10.9200    202.4128     93.2128   1.4692354567e+01   2.5088593229e+01    0.3754809    0.1999776  65.45 0.0008649854    2.314    0.568
        38 -10.3982    163.4113     92.4138   2.0149240369e+01   3.1897498074e+01    0.2479649    0.2149498  47.26 0.0008969725    1.306    0.235
        39 -10.7527     70.4492    137.9796   5.3840115262e+01   3.8948109836e+01    0.4370557    0.3447134  36.84  0.001961212    1.245    0.197
        40 -11.8574    144.9478     91.2967   2.3221892294e+01   3.5553565909e+01    0.2705874    0.2203124  73.88 0.0005031715    1.270    0.213
        41 -13.4003     77.2353    139.6763   5.1919507736e+01   3.7523235415e+01     1.129632     0.710553 -72.95  0.004794293    2.043    0.511
        42 -11.4125    246.1533     79.8067   7.8944046269e+00   2.0541264691e+01    0.2226634    0.2047743 -35.61  0.001230494    1.449    0.310
        43 -11.6090    237.5511     87.5564   9.9147375410e+00   2.0684641408e+01    0.3631022     0.168822  66.43  0.002167439    2.853    0.649
        44  -9.6157    157.3483     87.9782   2.0221481526e+01   3.3753000358e+01    0.1677986    0.1470961 -58.03 0.0003229389    1.075    0.069
        45 -10.0065    152.3569     87.7506   2.1047215055e+01   3.4735524896e+01    0.2731544    0.1874949  70.26 0.0005497832    1.605    0.377
        46 -12.0408    249.2661     85.2649   8.4988047445e+00   1.9415490092e+01    0.4201746    0.2064548 -49.05  0.001620265    1.508    0.337
        47 -10.9647    174.9266     81.1677   1.6005535790e+01   3.1585844272e+01    0.2847255    0.2050774 -54.74 0.0008220611    1.248    0.199
        48  -9.9985    177.7236     78.3118   1.5023556069e+01   3.1513142028e+01    0.1867417    0.1421421 -61.45  0.000192269    1.178    0.151
        49 -11.5577    234.5122     74.9078   8.0983203705e+00   2.2798916166e+01    0.3643519    0.2129236 -63.66  0.001088434    1.595    0.373
        50  -9.0670    212.8500     76.3897   1.0431613724e+01   2.5857110110e+01    0.1226144   0.09984391  57.84 0.0003181882    1.520    0.342
        51  -9.9594    205.9552     75.4599   1.0996895336e+01   2.7088423107e+01    0.2751462    0.1591068 -80.59  0.001557336    2.281    0.562
        52 -11.0205    249.6287     74.2917   6.7345807816e+00   2.0782937675e+01    0.2229411    0.1546672 -84.25  0.001120768    1.563    0.360
        53  -9.3019    196.1285     74.1674   1.1862056764e+01   2.8899713014e+01    0.1516144    0.1111781 -73.08 0.0003503695    1.297    0.229
        54  -9.4593    176.0821     73.7586   1.4312383380e+01   3.2486807950e+01    0.1755626    0.1282398  37.72  0.001051379    1.943    0.485
        55  -9.4924    218.3168     72.0132   9.1023877632e+00   2.5598595912e+01     0.153347    0.1135441 -56.20 0.0009703042    1.065    0.061
        56 -11.1901     95.9777     71.3220   2.9581016439e+01   4.8866619997e+01    0.2350201    0.2159462  47.95 0.0002011043    1.051    0.049
        57 -13.9411     83.4782    134.0889   4.8790277607e+01   3.7913617767e+01     1.120908     0.954196  85.48  0.005773853    1.415    0.293
        58  -8.8749    162.3776     69.2539   1.5312205168e+01   3.5717960393e+01    0.1135868   0.09300614  35.28 0.0006963152    1.653    0.395
        59  -9.9036    199.8833     68.0317   1.0271643777e+01   2.9119157179e+01     0.163633    0.1337313 -64.84 0.0003506279    1.011    0.011
        60  -8.9131    224.6665     67.7005   7.7564522776e+00   2.5195194653e+01   0.08874241   0.08157526 -11.54 0.0003224108    1.651    0.394
        61 -11.5859    186.1476    122.9251   2.2553782061e+01   2.2894375674e+01    0.4616418     0.399814  83.01  0.003114423    1.337    0.252
        62 -10.5347    184.3708     62.6585   1.0988520264e+01   3.2559931682e+01    0.3883134    0.2693849  30.15  0.002187968    2.720    0.632
        63 -11.9497    214.4905     60.4723   7.4161750003e+00   2.7721309439e+01    0.3320972    0.2408179 -83.14 0.0007180769    1.322    0.243
        64  -9.3833    167.5473     57.4827   1.2019989774e+01   3.6400177513e+01    0.1570983    0.1050107  57.57 0.0009452721    1.577    0.366
        65 -10.4285    169.5421     61.5915   1.2638045895e+01   3.5451169765e+01    0.2866636    0.1943578  85.51 0.0009427262    1.530    0.347
        66  -9.5913    165.3175     62.0518   1.3314274495e+01   3.6193308204e+01    0.1603715    0.1343885 -66.08 0.0003330342    1.066    0.062
        67 -10.7148     60.3444    145.6599   5.8694997545e+01   3.8406089546e+01    0.3114861    0.2198128  59.33  0.001412724    1.715    0.417
        68 -11.7343    247.2607     54.7135   3.8161429956e+00   2.3521125527e+01    0.2900397    0.1709866  83.78  0.002183273    1.895    0.472
        69  -9.6510    239.6763     60.6683   5.3275059422e+00   2.3872022165e+01   0.08560789   0.07597597 -21.71 0.0005321155    1.704    0.413
        70  -9.4054    183.1542     57.4608   1.0082207188e+01   3.3483973170e+01     0.160722    0.1042316  70.18  0.001015343    1.547    0.354
        71 -10.8181    174.0787     56.2748   1.0925134291e+01   3.5323098487e+01    0.2479079    0.1823033  69.01 0.0007209288    1.352    0.260
        72 -10.5807    209.0372     54.6215   6.8622793831e+00   2.9357436811e+01    0.2738509    0.1444439  60.66  0.001726095    2.115    0.527
        73  -9.3472    102.1104     54.5284   2.3168389857e+01   5.0314680502e+01    0.2019804    0.1192011  56.67  0.001010802    1.537    0.349
        74 -10.3316    126.2765     50.1460   1.6761193511e+01   4.5795111229e+01    0.2868376     0.210947 -87.10  0.000825851    1.428    0.300
        75 -11.5714    121.8358     43.3463   1.5783973840e+01   4.7661401519e+01    0.3068054    0.2878702 -63.73 0.0007712535    1.181    0.153
        76 -10.1086    101.1292     49.8761   2.2052216823e+01   5.1210866939e+01    0.3917271    0.2078028  73.46  0.001642194    2.661    0.624
        77  -9.7518    213.6283     50.1522   5.6470583671e+00   2.9163068604e+01    0.1620113    0.1170824 -78.85 0.0005039227    1.236    0.191
        78 -10.2734    138.2916     43.4222   1.2982055123e+01   4.4160307000e+01    0.4376046     0.260742 -38.85  0.002457654    1.806    0.446
        79 -10.4981    130.8546     45.7174   1.4789593927e+01   4.5425439911e+01    0.3374677    0.2264343  54.17   0.00164166    1.471    0.320
        80 -10.9077    129.9963     37.7732   1.2878264008e+01   4.6628943352e+01    0.3391875    0.2490961 -29.13  0.001318852    1.711    0.416
        81 -10.0243    223.3325     45.3330   4.0155226329e+00   2.8194315326e+01    0.1848611    0.1129445  89.30  0.000935144    1.656    0.396
        82 -11.5638    157.2464     42.7271   1.0101535873e+01   4.0363460846e+01    0.2888297    0.1978778  71.37 0.0007098702    1.350    0.259
        83 -10.2837    247.0166     42.5205   1.9091414098e+00   2.4979956189e+01    0.1223084   0.08379933  82.96 0.0005142541    1.544    0.352
        84 -10.7485    235.7153     41.3562   2.4584267674e+00   2.6761566371e+01    0.1733437    0.1570727 -80.23 0.0007177138    1.390    0.281
        85 -11.7774    226.2667     39.9405   2.8778038853e+00   2.8368366034e+01    0.3348154    0.1722375 -69.48  0.001091158    1.853    0.460
        86 -13.2433    213.5659     39.1931   3.6953248188e+00   3.0490418177e+01    0.2886763    0.2134941  80.43 0.0006889825    1.370    0.270
        87  -9.3376    204.0301     42.4907   5.0786866879e+00   3.1697038032e+01     0.144078   0.09409843  73.88 0.0006975821    1.545    0.353
        88 -11.0767    180.2306     41.0678   7.0630967640e+00   3.6120249139e+01    0.2209269    0.1677119 -63.23 0.0006384841    1.115    0.104
        89 -10.3200    197.0355     39.8812   5.2040211917e+00   3.3220165342e+01     0.173196    0.1294735 -56.09 0.0004857588    1.153    0.132
        90 -10.3212    247.9942     37.5129   1.0645555448e+00   2.5406433528e+01     0.219235    0.1049581 -80.83   0.00144397    2.345    0.573
        91 -11.9020    239.9159     33.9828   9.9352265619e-01   2.6971354873e+01    0.3500949    0.2156172  66.69  0.002743009    1.925    0.481
        92 -10.9470    248.7143     31.3261   6.0376131450e-02   2.5986157924e+01    0.2956024    0.1677822  82.45  0.001592458    1.825    0.452
        93 -11.1424    159.6823     36.0088   8.2765086929e+00   4.0702290805e+01    0.2002678    0.1685949 -87.84 0.0004466727    1.058    0.055
        94 -11.3534    151.2278     31.7643   8.3401361647e+00   4.2912011489e+01    0.3176549    0.2485216  56.54  0.001095583    1.433    0.302
        95 -10.4688     97.2006     34.3227   1.8288798237e+01   5.4162666927e+01    0.2708968     0.219171  55.84  0.001050574    1.124    0.110
        96 -10.6408    103.1389     30.3306   1.5761627268e+01   5.3354446309e+01    0.2796859    0.2191375  59.44 0.0008288183    1.138    0.121
        97 -11.5907    108.3355     28.1589   1.4070877315e+01   5.2472062215e+01    0.4169707    0.2444815  54.78  0.001451689    1.536    0.349
        98  -9.5055    224.2190     29.6075   1.2648947164e+00   2.9859671457e+01    0.1217068   0.08256907  70.66 0.0004329068    1.645    0.392
        99 -10.1365    168.6567     27.4691   5.4014974949e+00   3.9922741246e+01    0.2341943     0.158031  77.98   0.00103967    1.327    0.247
       100  -9.2380    216.1398     27.1310   1.3778114997e+00   3.1434705463e+01    0.1376365    0.1175728 -75.93 0.0005481456    1.245    0.197
       101 -10.7273    140.5943     26.1713   8.3651184906e+00   4.5753128954e+01    0.3337944    0.2273939  83.90   0.00158193    1.299    0.230
       102 -12.1494      3.2789    139.2449   7.8842545632e+01   4.5611606376e+01    0.8555411    0.4370448 -80.13  0.003667065    2.015    0.504
       103 -12.1213    237.1281     20.2110   3.5894570500e+02   2.8873336683e+01    0.4551004    0.1787541  77.75  0.001648539    2.618    0.618
       104  -8.9268    207.5512     25.4983   1.6864467437e+00   3.3046469654e+01    0.1030054    0.0779485 -68.47 0.0001850395    1.023    0.022
       105 -13.0098     91.2161    144.7403   4.8521985234e+01   3.4146347079e+01    0.9665906    0.5704948  38.68  0.004255014    1.663    0.399
       106 -13.1497     74.5682    120.2796   4.8799731975e+01   4.2628416410e+01      1.32868    0.7538007 -59.75   0.00563614    1.929    0.482
       107  -9.5463    223.0430     19.6504   3.5965153996e+02   3.1120133726e+01    0.1334529   0.09618045 -76.34 0.0003823606    1.125    0.111
       108 -10.7556    248.2660    128.7486   1.5453933581e+01   1.3553513098e+01    0.1975064    0.1007033 -45.91  0.001289271    1.470    0.320
       109 -11.1876    123.9071    128.5621   3.6154758667e+01   3.2306061949e+01    0.5294878     0.240512  46.14  0.002130373    2.320    0.569
       110 -10.8882    249.9168     18.3359   3.5799993895e+02   2.7188800572e+01    0.2294104   0.08996979 -46.69  0.001004813    1.786    0.440
       111 -10.2745    244.1853    181.3152   2.4012896007e+01   6.2943704594e+00    0.1588602    0.1039303 -34.57  0.001161194    1.140    0.123
       112  -9.2996    157.7718     19.3773   4.7379169900e+00   4.2958558089e+01    0.1365796    0.0900925  68.39 0.0001795298    1.413    0.292
       113 -10.2843    201.0200     16.1005   4.2519043509e-01   3.5170780890e+01    0.1501987    0.1117799 -72.24 0.0003080838    1.015    0.015
       114 -10.7776    227.6532    179.2325   2.5946689626e+01   8.2511267340e+00    0.2985124    0.2245431 -60.30  0.001739921    1.730    0.422
       115 -10.2366    239.1682    153.3172   2.0360742578e+01   1.0980526205e+01    0.1724021   0.09581245  30.00 0.0006010667    2.558    0.609
       116 -14.2532    107.2402    113.8158   3.7248955403e+01   3.8409512210e+01     2.358756     2.056406  46.32   0.01310524    1.133    0.117
       117 -11.2878    124.4585     57.1769   1.8949373564e+01   4.5177080692e+01     0.323442    0.2262042  53.98 0.0008585228    1.371    0.270
       118  -9.3906     49.5299     13.9182   2.5006583140e+01   6.6642954816e+01     0.156029    0.1240509 -21.39  0.001005944    1.531    0.347
       119 -11.1735    119.4555     53.6903   1.9034249981e+01   4.6743417364e+01    0.4160921    0.3869297  69.04  0.001768446    1.103    0.093
       120 -10.8810    247.6151    145.6447   1.8156007392e+01   1.1186367342e+01    0.3677921    0.2290685 -74.05  0.002073599    3.317    0.699
       121  -9.0384    168.3149    116.6909   2.4317215338e+01   2.6871659003e+01    0.1810737    0.1117857 -38.71 0.0003858499    1.598    0.374
       122  -9.7385    186.1534    111.8734   2.0452492388e+01   2.4750993088e+01    0.1888226    0.1525498 -62.90  0.001219222    1.190    0.160
       123  -9.9814    230.9972    110.5096   1.4388075061e+01   1.8346855512e+01    0.1355409   0.08648193 -87.07 0.0008098831    2.498    0.600
       124 -11.4350    248.2306    107.3752   1.2093169697e+01   1.6567803509e+01     0.277336    0.1737312  84.56  0.001839997    2.535    0.605
       125  -8.8246    185.7194    106.3211   1.9449162389e+01   2.5735070694e+01    0.1205742   0.08505069 -69.66 0.0003842756    1.586    0.369
       126  -9.3566    208.8398    102.2074   1.5538976544e+01   2.2736089914e+01    0.1389636    0.1274035 -23.12 0.0005194272    1.341    0.254
       127 -10.9777    171.0726    101.7417   2.0825044255e+01   2.8974787870e+01    0.5046784    0.2100501  59.36  0.002141139    3.093    0.677
       128  -9.5741     65.8555    101.8320   4.7627118104e+01   4.8323489818e+01    0.2034877    0.1734716  59.83  0.000558538    1.313    0.239
       129 -11.2169    100.5198     92.1561   3.3875318294e+01   4.4098905139e+01    0.3918287    0.3705136  23.65  0.001057152    1.110    0.099
