#   1 NUMBER                 Running object number                                     
#   2 MAG_AUTO               Kron-like elliptical aperture magnitude                    [mag]
#   3 X_IMAGE                Object position along x                                    [pixel]
#   4 Y_IMAGE                Object position along y                                    [pixel]
#   5 X_WORLD                Barycenter position along world x axis                     [deg]
#   6 Y_WORLD                Barycenter position along world y axis                     [deg]
#   7 A_WORLD                Profile RMS along major axis (world units)                 [deg]
#   8 B_WORLD                Profile RMS along minor axis (world units)                 [deg]
#   9 THETA_WORLD            Position angle (CCW/world-x)                               [deg]
#  10 FWHM_WORLD             FWHM assuming a gaussian core                              [deg]
#  11 ELONGATION             A_IMAGE/B_IMAGE                                           
#  12 ELLIPTICITY            1 - B_IMAGE/A_IMAGE                                       
         1 -14.5091     69.1465    146.3356   6.2898592415e+01   3.6602675291e+01     4.794945     2.276759 -85.98    0.0137351    4.180    0.761
         2 -12.8700    249.8032     38.6247   3.5943099263e+02   2.0055382573e+01     1.258965    0.5152549 -29.22  0.002471036    2.485    0.598
         3 -14.2308    229.3001     54.2858   4.4744295243e+00   2.1933151269e+01     2.001238     1.199731  47.69  0.008972977    2.314    0.568
         4 -13.3322    237.2056     49.0196   2.6030858195e+00   2.1094491875e+01    0.9011407    0.6770632  55.29  0.001644743    1.723    0.420
         5 -12.2768      2.4831     23.0341   6.1575875970e+01   7.4856980655e+01    0.5588539    0.3398626 -43.24  0.003263695    1.355    0.262
         6 -12.4446      3.9810      8.7100   5.2431403350e+01   7.7415587594e+01    0.8540475    0.4221262 -34.55  0.004565942    1.793    0.442
         7  -9.7386    158.0646      9.0049   3.5948261605e+02   4.3736663474e+01    0.2036788    0.1766796 -83.13 0.0005080801    1.027    0.026
         8  -9.5562     32.5218      5.0060   2.8606616717e+01   7.4003741022e+01    0.1607275     0.101859 -49.59 0.0008094879    2.498    0.600
         9 -11.0978     17.7156      2.9977   3.6882061809e+01   7.6645451789e+01    0.2250654    0.1841486 -14.82  0.001522484    1.171    0.146
        10 -14.1049      4.2171    216.5769   8.7259686062e+01   2.6530232322e+01     1.715974    0.6291658  17.20  0.006949168    3.986    0.749
        11  -9.7114     58.5262    249.3337   7.7283972322e+01   1.4099130506e+01     0.267467    0.1682919  84.32  0.001604228    1.807    0.447
        12  -9.4594     28.1402    250.5648   8.3660381341e+01   1.7266404132e+01    0.1716629   0.09170442  34.51 0.0008830225    1.550    0.355
        13 -13.8575      2.4628     88.8005   7.8457877361e+01   5.9170248176e+01     3.873985    0.5419001 -75.83  0.001717909    6.817    0.853
        14 -13.2707     13.6518    241.7053   8.6229284089e+01   2.0440742144e+01     1.693585    0.5206908 -67.80   0.00783446    3.441    0.709
        15 -13.6781      4.4770    236.5695   8.7919280051e+01   2.2327834007e+01     1.512436    0.6034802 -72.00  0.007918845    2.609    0.617
        16 -12.6050     43.3377    162.8654   7.3259124596e+01   3.5615508479e+01    0.8828415    0.5719707 -12.63  0.001599406    2.454    0.592
        17 -12.0068     50.2222    158.4452   7.0636070533e+01   3.5955298931e+01    0.3590185    0.3317924   2.74 0.0009656826    1.284    0.221
        18 -16.2277     20.1522    173.7590   8.0964972092e+01   3.5212872043e+01     7.537525     3.219514  72.70   0.03023213    2.587    0.613
        19  -9.6530     42.2388    233.0475   7.9697029106e+01   1.9175087544e+01    0.2728249     0.146271 -81.73  0.001476393    2.009    0.502
        20 -11.6067    134.4568    230.6609   5.8803770460e+01   7.4626151081e+00    0.3622972    0.3146404  67.67  0.002308625    1.484    0.326
        21 -11.7684    109.6313    229.6490   6.4171839758e+01   1.1160502643e+01    0.5063925    0.2628785  36.78  0.002534897    1.605    0.377
        22  -9.2895     26.0629    229.9890   8.3070637068e+01   2.1563143501e+01    0.1843148    0.1507183  60.45 0.0009550604    1.063    0.059
        23 -14.6313      9.6716    207.4820   8.5639128435e+01   2.8058333863e+01     1.301421    0.9289448  34.73  0.004945153    1.381    0.276
        24 -11.1328    125.9421    230.4415   6.0637436021e+01   8.7088040806e+00    0.3137808    0.1968546 -56.82  0.001676766    1.940    0.485
        25 -10.3520     35.1882    222.5811   8.0601970214e+01   2.2153327442e+01    0.3896203    0.1865901  68.25  0.001701303    2.130    0.531
        26  -9.1175    142.1016    215.6656   5.4987308806e+01   9.0447846719e+00    0.1964141    0.1744548 -54.38 0.0006578578    1.353    0.261
        27 -10.3390     93.1638    211.0296   6.5746454625e+01   1.7248800948e+01    0.3161015    0.2080057 -49.60  0.001297242    1.728    0.421
        28 -10.6080     71.7168    207.6292   7.0608997529e+01   2.0987384271e+01    0.2559497    0.2283409  35.70 0.0008100219    1.128    0.113
        29  -8.2946    191.2873    205.6994   4.3075963744e+01   3.5238513640e+00    0.1083349    0.1043578  63.97 0.0003551233    1.558    0.358
        30 -10.3213    100.9586    197.3922   6.2011799593e+01   1.9059195078e+01     0.472813    0.2021367 -57.25  0.001911516    2.494    0.599
        31 -10.9556     70.9875    194.0223   6.9254823073e+01   2.4217019393e+01    0.4864537    0.2782288  30.29  0.002277949    1.694    0.410
        32 -11.9959     75.4642    186.4306   6.7124901275e+01   2.5403173867e+01    0.7495664    0.4100581 -76.64  0.001076168    2.140    0.533
        33  -9.8874     71.0123    189.9816   6.8760381010e+01   2.5175698370e+01    0.2808689    0.2319884  18.88 0.0003827913    1.351    0.260
        34 -10.3614    126.1094    191.4063   5.4859241233e+01   1.6365945497e+01    0.2742788    0.2105067 -64.00  0.001004318    1.521    0.342
        35  -9.8282     68.4463    184.1949   6.8728877650e+01   2.6935375394e+01    0.2260894    0.1843606  42.45 0.0003479549    1.149    0.130
        36  -9.8186    159.5323    180.5544   4.5101855086e+01   1.2996493103e+01    0.3430326    0.2175852 -58.30  0.001513662    2.038    0.509
        37 -10.7814     99.0141    181.3594   6.0104585798e+01   2.3037542351e+01    0.3097013    0.2800001  18.92 0.0006981076    1.157    0.136
        38 -10.5117    114.8901    180.8670   5.5884457628e+01   2.0546977527e+01    0.4303795    0.1987338  49.96   0.00158873    2.544    0.607
        39 -10.5358     66.0280    176.9591   6.8466493298e+01   2.9067857510e+01     0.261415    0.2173282 -88.55 0.0003995566    1.187    0.158
        40 -10.3657     64.1160    173.0906   6.8495332473e+01   3.0310552168e+01    0.2690988    0.2156122  73.64 0.0004427891    1.229    0.187
        41  -9.2195    171.2669    173.8374   4.1235961234e+01   1.2307699723e+01    0.3566392    0.1661699 -56.20   0.00126278    3.360    0.702
        42 -13.0976    230.6636    168.8702   2.9180105590e+01   3.7644115842e+00     1.474849    0.5898125 -32.74  0.006648084    2.195    0.545
        43 -13.5041     47.9243    146.2102   6.9662014322e+01   3.9530522089e+01    0.7611147    0.4628297  10.95  0.001415039    2.207    0.547
        44 -12.4131     76.3723    132.5831   5.7948074229e+01   3.9152610371e+01    0.4939836    0.3595045 -65.84  0.001030276    1.361    0.265
        45 -12.5560     62.8948    152.9108   6.5943862529e+01   3.5751336697e+01    0.8417522    0.4038856 -77.72  0.002854101    2.539    0.606
        46  -8.9342    191.3350    249.3333   4.9945664856e+01  -2.9111062458e+00    0.1227467    0.0728654  -0.59 0.0007052194    1.736    0.424
        47  -8.7797    133.0000    142.0463   4.3425001036e+01   2.6227871015e+01    0.2650947   0.08802013 -48.39 0.0008068089    2.973    0.664
        48 -13.3259    235.4369    159.2088   2.6530736733e+01   4.5855153423e+00     1.196245     0.439228 -34.10  0.005194067    2.321    0.569
        49 -10.3091     47.9446    138.4971   6.8494130579e+01   4.1630880940e+01    0.2055271    0.1899999  47.51 0.0004559431    1.126    0.112
        50 -11.2076     45.2504    134.7673   6.8818199017e+01   4.2981620066e+01    0.3674207    0.2619509  62.06 0.0007374501    1.478    0.323
        51  -9.9881     89.7211    135.4332   5.4282128700e+01   3.6129105138e+01     0.327897    0.3004895   2.28  0.000807082    1.227    0.185
        52  -9.4993     93.7595    132.8306   5.2453848262e+01   3.6078112784e+01    0.3171659    0.2652524   2.60  0.001501027    1.453    0.312
        53 -10.1996    104.2507    128.2477   4.8189332107e+01   3.5266198260e+01    0.5520007     0.379854 -61.61  0.001782331    1.531    0.347
        54 -11.2254     48.2313    127.1884   6.6518754296e+01   4.4697260561e+01     0.470442    0.2344252  52.12  0.001805793    2.331    0.571
        55 -10.5185     37.8141    125.5816   6.9961030716e+01   4.6364198604e+01    0.2887452    0.1940411 -70.61 0.0007151816    1.360    0.264
        56 -10.9688     90.0116    122.1811   5.1165094194e+01   3.9514902302e+01     0.358159    0.2687127  37.28 0.0007100831    1.368    0.269
        57  -8.7742    112.3554    122.3133   4.4329111346e+01   3.5116217923e+01    0.1665728    0.1290941  -7.45 0.0007044685    1.737    0.424
        58 -11.1111     47.3842    120.6956   6.5645547581e+01   4.6585293494e+01    0.4433635    0.2457452 -36.63  0.001756326    2.255    0.557
        59 -10.5352     31.6205    118.1630   7.1042832088e+01   4.9056276537e+01     0.276511    0.2339393  56.70 0.0002681684    1.231    0.188
        60  -8.7409    136.1402    117.1500   3.6491337284e+01   3.1272631040e+01    0.2073874    0.1814559 -76.20  0.001005608    1.263    0.209
        61  -9.6456    102.7918    116.4168   4.5679423573e+01   3.8507242215e+01    0.2570273    0.2150098 -51.24  0.000339307    1.170    0.145
        62  -9.0921    183.9014    116.5165   2.5847545332e+01   2.1106021056e+01    0.2107657     0.147795  46.78  0.001020283    1.567    0.362
        63  -9.2030    110.3926    167.1240   5.4625348315e+01   2.4522152025e+01    0.2023395     0.183879 -71.79 0.0004358793    1.157    0.136
        64 -10.4688    205.0275    110.6381   2.0780357151e+01   1.7915016502e+01    0.3396091    0.2639833  37.82  0.001024814    1.515    0.340
        65 -11.1106     19.7236    106.8563   7.3862010784e+01   5.3223060775e+01    0.3320168    0.2991488 -82.09 0.0006469893    1.052    0.049
        66 -10.0812     24.0127    105.4806   7.1919359401e+01   5.3240082760e+01     0.317391    0.2440634 -49.71  0.000947659    1.240    0.193
        67  -8.4697    214.7212    105.7087   1.8147586358e+01   1.6882357375e+01    0.1291477    0.1023587  -7.84 0.0002418808    1.525    0.344
        68  -8.8410     75.1354     97.8561   4.9954743492e+01   4.8451993031e+01    0.2143553    0.1788992 -30.04 0.0003940231    1.283    0.221
        69 -10.1776    167.0312     89.9862   2.2148268611e+01   2.9847009046e+01    0.2296028    0.2140965   0.75  0.000625694    1.231    0.187
        70  -9.3257     28.9799    235.9511   8.2754734079e+01   2.0035342882e+01    0.1855082    0.1406743  54.92  0.000520708    1.016    0.016
        71  -9.9709     97.8511     90.6512   3.9904448937e+01   4.5722820922e+01    0.2915266    0.2421625 -70.45 0.0008765718    1.342    0.255
        72 -10.6153     98.0650    170.0460   5.8497238936e+01   2.5909400632e+01    0.5498538    0.3110563  54.80  0.001473853    2.058    0.514
        73 -10.1746     73.9176    169.9099   6.5255224824e+01   2.9728322899e+01    0.3579191    0.2313333 -89.21 0.0003537718    1.845    0.458
        74  -8.9243    136.4715     83.0351   2.6666036788e+01   3.8451479303e+01    0.2324296     0.150735 -42.97 0.0007439366    1.500    0.333
        75  -9.1534    113.7661     79.9669   3.1614821945e+01   4.4488303940e+01    0.3011476    0.2026358 -58.47 0.0008852794    1.692    0.409
        76  -9.1046    184.5750     77.6623   1.5741988919e+01   2.7987240680e+01    0.2680818    0.1359833 -32.42   0.00070105    1.975    0.494
        77  -8.7178     22.1529     72.3922   6.5911513772e+01   6.2119672957e+01    0.1768377    0.1266928  34.18 0.0004380181    1.557    0.358
        78  -9.1961     33.0535    248.7066   8.2564802948e+01   1.7098014891e+01    0.1677581    0.1278632  46.91  0.001162461    1.079    0.073
        79 -11.5272    209.8276    247.0144   4.6251128094e+01  -4.7671140118e+00    0.2644526    0.2126609  11.21  0.001181793    1.241    0.194
        80 -10.1111    112.0274    247.1880   6.5655028771e+01   7.6785677152e+00    0.1839271    0.1760446 -64.16 0.0008302095    1.295    0.228
        81 -11.7026     13.0770     60.6518   6.7641844289e+01   6.5743016522e+01    0.3961133    0.3369462  51.57  0.000685748    1.421    0.296
        82  -9.1907     68.4327     61.1865   4.0382603969e+01   5.8200266124e+01    0.2035838    0.1411172 -56.80 0.0005260362    1.655    0.396
        83  -9.1338     82.8606     61.8387   3.5078143894e+01   5.5139324718e+01    0.1970718    0.1786244 -83.62  0.000250854    1.283    0.221
        84  -9.4188     62.8637     43.6055   3.5322955476e+01   6.2670154321e+01    0.2310356      0.19791 -72.32 0.0006406145    1.548    0.354
        85  -9.8840    148.4823    247.0123   5.8003128410e+01   2.8449259029e+00    0.1579123    0.1197369 -41.74 0.0004923772    1.564    0.360
        86 -11.0031     24.7967     27.8697   4.7749896430e+01   7.1726414011e+01    0.3181176    0.1684877 -41.92  0.001587452    1.756    0.430
        87  -9.8108     60.1681     21.0051   2.5173303679e+01   6.6693984714e+01    0.2241121    0.2153573  49.44 0.0009367773    1.186    0.157
        88 -10.1330     16.1539     19.1551   4.8936723930e+01   7.4338305957e+01    0.1565345    0.1505665  -7.39 0.0006962519    1.331    0.249
        89  -9.2303    189.4890     15.1393   3.5841110398e+02   3.5490597287e+01    0.1822597    0.1169795 -35.11 0.0005874719    1.509    0.337
        90 -10.1303     72.0308    242.5758   7.3862448239e+01   1.3723332758e+01    0.2323509    0.1690885  55.19  0.000790965    1.228    0.186
        91  -9.8446     29.2522    241.8626   8.3004160802e+01   1.8827321973e+01    0.2758588    0.1697044 -52.18  0.001020095    2.251    0.556
        92 -13.9979      8.7244    183.5718   8.4653345649e+01   3.3778001245e+01     1.059188     0.665419 -53.53  0.001033094    1.871    0.466
