#   1 NUMBER                 Running object number                                     
#   2 MAG_AUTO               Kron-like elliptical aperture magnitude                    [mag]
#   3 X_IMAGE                Object position along x                                    [pixel]
#   4 Y_IMAGE                Object position along y                                    [pixel]
#   5 X_WORLD                Barycenter position along world x axis                     [deg]
#   6 Y_WORLD                Barycenter position along world y axis                     [deg]
#   7 A_WORLD                Profile RMS along major axis (world units)                 [deg]
#   8 B_WORLD                Profile RMS along minor axis (world units)                 [deg]
#   9 THETA_WORLD            Position angle (CCW/world-x)                               [deg]
#  10 FWHM_WORLD             FWHM assuming a gaussian core                              [deg]
#  11 ELONGATION             A_IMAGE/B_IMAGE                                           
#  12 ELLIPTICITY            1 - B_IMAGE/A_IMAGE                                       
         1 -13.8821    197.3739     43.7768   4.1309558223e+01   3.1012775317e+01    0.9025335    0.8237383 -67.96    0.0030563    1.082    0.075
         2 -13.9686    205.7010     35.8804   3.8417197848e+01   3.0165816132e+01    0.6508232    0.6362216 -75.85  0.001351946    1.237    0.191
         3 -14.0241    230.5149      9.5313   3.0400097821e+01   2.7925525591e+01    0.8260004    0.6580064 -67.91  0.004126351    1.058    0.055
         4 -12.4059     57.5295      2.9942   5.7612391152e+01   6.6936592758e+01     0.373812    0.1456189  44.77  0.001809978    2.103    0.524
         5  -9.6335     66.2041    241.7082   1.1157654194e+02   1.4944414642e+01    0.1155997   0.07795205  69.18 0.0001588967    1.432    0.302
         6 -13.0989     45.2080    194.0972   1.1174465088e+02   2.7995853583e+01     1.202898    0.4011998  41.57  0.002054689    2.653    0.623
         7 -13.1882     47.7059    245.7699   1.1565577503e+02   1.6426057957e+01    0.4387805    0.2439107  62.72  0.001485055    1.637    0.389
         8 -18.5307     18.7656    222.5294   1.1989220590e+02   2.4391691361e+01     10.67796     6.834554  86.66   0.06691919    1.354    0.262
         9  -9.9422     49.7845    216.5743   1.1284569209e+02   2.2296697131e+01    0.3970785    0.3110348 -49.02  0.002423283    1.575    0.365
        10 -13.2837     28.5879    215.9254   1.1740245498e+02   2.4823074232e+01    0.7358631    0.2934173  72.06  0.003006413    3.172    0.685
        11 -10.4996     64.5633    205.1244   1.0831184136e+02   2.3030825761e+01      0.46446    0.2110656 -77.07  0.001925035    2.547    0.607
        12 -10.4923     59.8183    197.1884   1.0855461940e+02   2.5492194399e+01    0.1906769    0.1568053  72.88 0.0003210832    1.118    0.105
        13 -12.7085    108.9711    189.8804   9.5347018473e+01   2.0008941705e+01    0.4035687    0.2938903 -16.49  0.001886634    1.933    0.483
        14 -10.2730     82.7447    194.9534   1.0265159289e+02   2.2888960188e+01    0.2963296    0.1972096  24.19  0.001008014    1.708    0.415
        15  -9.8103    158.3542    193.2237   8.4048177160e+01   1.0777644306e+01    0.1937184    0.1368839 -56.91 0.0005311106    1.641    0.390
        16 -12.6655    130.6777    191.5204   9.0270936045e+01   1.5974052408e+01    0.4104115    0.3133851  38.10  0.001384776    1.248    0.199
        17 -13.3701     58.4928    183.3027   1.0723811195e+02   2.8996155212e+01    0.7865679    0.7605675   2.40  0.004219017    1.239    0.193
        18 -10.3300     50.1572    181.1436   1.0910312754e+02   3.0544348597e+01    0.2458309    0.1797545 -86.93 0.0004234913    1.300    0.231
        19 -12.1938    124.9607    188.8547   9.1204641474e+01   1.7554871132e+01    0.3784828    0.2268438 -65.03  0.001168692    2.018    0.505
        20 -12.0775     56.8550    210.8492   1.1070834313e+02   2.2711450289e+01    0.8012501    0.3274302  43.16  0.002964827    2.151    0.535
        21 -11.1625    146.3339    184.5147   8.5231860675e+01   1.4753676364e+01    0.3685274    0.2000804  61.87  0.001232041    3.541    0.718
        22 -11.0243     54.4797    206.4705   1.1081401505e+02   2.4002529976e+01    0.3043891     0.215001  87.66  0.001463089    1.376    0.273
        23 -10.5288     79.6735    182.5330   1.0168328471e+02   2.6309226664e+01    0.2942459    0.1981723  80.79  0.001202937    1.782    0.439
        24 -11.7657     99.2858    181.0708   9.6375144757e+01   2.3660275898e+01     0.295887    0.2854019 -33.57  0.000641574    1.121    0.108
        25 -10.9264     75.9348    210.2763   1.0622761715e+02   2.0326798380e+01    0.4053378    0.2098907 -78.24  0.001333338    2.311    0.567
        26 -10.1291     42.8607    179.9336   1.1082014067e+02   3.1679347236e+01    0.1873311    0.1650743 -56.67  0.000325828    1.237    0.192
        27 -10.3792     46.0067    176.6923   1.0964613390e+02   3.2122362345e+01    0.2135061    0.1867097 -87.80 0.0005024131    1.022    0.021
        28 -10.8356     62.7972    250.3949   1.1300616559e+02   1.3675059948e+01    0.2375556    0.1331593  47.21  0.001361632    1.450    0.311
        29 -14.6453     54.1492    147.4115   1.0339349553e+02   3.8564833215e+01     3.731266     2.968825 -47.84   0.02034737    1.262    0.208
        30 -14.9160     43.4784    110.8850   1.0028626010e+02   4.9036667678e+01     2.198691     1.299976  55.85  0.009622279    2.291    0.563
        31 -13.4177     83.7621    157.6558   9.6570096986e+01   3.1883260553e+01     1.099847     0.735211 -69.26 0.0005526743    1.549    0.354
        32 -13.8742     72.3290    152.0031   9.8843113247e+01   3.5003481386e+01    0.7733237    0.4816901 -60.84  0.001078336    1.512    0.339
        33 -15.6861     69.5551    144.1720   9.8268524203e+01   3.7391450879e+01     5.820488     2.407808  60.17  0.002821906    8.274    0.879
        34 -12.4477     71.9069    169.8091   1.0185141248e+02   3.0558769892e+01    0.4482314    0.3011984 -36.13  0.002108417    1.848    0.459
        35 -12.4946     75.9711    165.2352   1.0002651331e+02   3.1130629398e+01    0.4442554    0.4043694 -39.97  0.002494592    1.195    0.163
        36 -10.0787     59.1209    250.6556   1.1376002714e+02   1.4085151155e+01    0.1616444   0.09939609  39.13 0.0001402649    1.418    0.295
        37 -10.6923    185.7818    172.6375   7.3923078672e+01   1.0049052870e+01    0.2767456    0.2435652 -39.88  0.001530749    1.153    0.133
        38  -9.6389     73.4084    236.4960   1.0958174885e+02   1.5051043514e+01    0.1253571    0.1061157  60.02 0.0001224064    1.017    0.017
        39 -10.8131     55.6211    222.2988   1.1208249197e+02   2.0330144324e+01     0.201153    0.1601012  65.34 0.0005453841    1.083    0.077
        40  -9.5440    120.4970    165.5560   8.8042406054e+01   2.3759338862e+01    0.1506895    0.1470568  60.33 9.487049e-05    1.030    0.029
        41 -10.0968     32.5688    165.1264   1.1183964032e+02   3.6429169932e+01    0.2188545    0.1980668   7.37 0.0007055987    1.367    0.268
        42 -12.3670     90.7341    150.7906   9.3314663828e+01   3.2514794033e+01    0.6702287    0.4564462 -23.22  0.002057226    2.039    0.510
        43 -11.7447    133.7054    145.0212   8.0246909755e+01   2.6127050526e+01      1.18592    0.3234602 -55.14  0.002770695    5.548    0.820
        44 -10.2109    174.8548    149.1316   7.1246783122e+01   1.6960697535e+01    0.2305251    0.2107675 -77.68 0.0006597863    1.274    0.215
        45 -11.9996     94.9187    203.4699   1.0084221216e+02   1.9110433634e+01    0.4061095    0.2211837 -36.85  0.001535323    2.705    0.630
        46 -11.8937     40.4455    146.7235   1.0731445215e+02   4.0281765545e+01    0.2999626     0.252739 -35.23    0.0010674    1.329    0.247
        47 -11.8798    105.3269    133.1660   8.5370756857e+01   3.4385832934e+01     1.030847    0.3783063 -43.07  0.003052563    2.991    0.666
        48 -12.4448     91.5176    136.7364   9.0227912217e+01   3.5913112167e+01    0.2965306    0.2574676 -41.14   0.00051106    1.152    0.132
        49 -13.6647     44.9658    131.6882   1.0361864042e+02   4.3638768434e+01    0.9541343    0.4479814 -78.83  0.003614924    2.713    0.631
        50 -11.0328    112.5327    128.6740   8.2241108948e+01   3.4128655422e+01    0.3174604    0.2586871  -2.15 0.0006142411    1.488    0.328
        51 -10.9332    135.5972    128.7971   7.5940068584e+01   2.9502223607e+01    0.3976099    0.1516385 -49.55  0.001291832    2.669    0.625
        52 -11.0117     99.6964    124.5190   8.5016478871e+01   3.7511050475e+01     0.305712    0.2542439  -5.23 0.0009215304    1.409    0.290
        53 -10.2063    135.0000    119.9554   7.3892296944e+01   3.1630314845e+01    0.2628561     0.088691 -46.05 0.0007993437    2.921    0.658
        54 -10.0325    108.4529    118.0231   8.0813471018e+01   3.7439796072e+01    0.2221656    0.2051631  32.87 0.0001777744    1.105    0.095
        55 -10.5594    231.1594    113.8750   5.2749430898e+01   1.2651219402e+01    0.2285378    0.2011091 -46.96 0.0007347282    1.035    0.034
        56 -10.0655    205.3852    110.1843   5.6111585339e+01   1.8429123880e+01    0.2304997    0.1971117  38.06 0.0006474657    1.311    0.237
        57 -11.3386    115.6999    108.8224   7.6305903464e+01   3.8135053593e+01    0.3167823    0.2443202 -17.06  0.001452485    1.562    0.360
        58 -12.0262    191.8949    192.9843   7.6673750173e+01   5.0519248192e+00     1.174757     0.636263 -66.69  0.002903417    8.601    0.884
        59  -9.4129     66.3284    100.2769   8.9880632913e+01   4.8771981856e+01    0.1481824    0.1070686 -19.98 0.0002793488    1.594    0.372
        60 -11.6443     52.5209     93.9155   9.3243648767e+01   5.2105470932e+01    0.3588765    0.2740134  73.35  0.001611155    1.842    0.457
        61 -10.7056    155.6050     87.8174   6.0242216056e+01   3.3715659080e+01    0.3849263    0.2627225 -71.64  0.001304175    2.044    0.511
        62 -10.1098     75.5010     85.0935   8.2490127943e+01   5.0827615796e+01    0.2072302    0.1890063  16.13 0.0003950496    1.105    0.095
        63 -13.3267    185.2890     53.2668   4.5379217638e+01   3.2481571173e+01    0.6419041    0.4928186  39.60 0.0008222659    1.570    0.363
        64 -11.0253     72.0294    245.4610   1.1070823828e+02   1.3445094068e+01    0.3396754    0.2146167 -65.81  0.001996077    1.738    0.424
        65 -10.1521     75.8624    246.2370   1.0998862916e+02   1.2787717280e+01    0.3095318    0.1096061 -62.85  0.001372088    3.027    0.670
        66  -9.5132    198.2812     23.3653   3.6295151571e+01   3.3363471964e+01     0.118796   0.09586098  34.95 0.0004519987    1.684    0.406
        67 -11.0500     59.8295    218.2154   1.1076530438e+02   2.0694374416e+01    0.2542681    0.1700818  71.70 0.0004894128    1.478    0.323
        68  -9.4949    189.6575     14.7178   3.5144709173e+01   3.6291575735e+01     0.122572   0.08783656  48.30  0.000638059    1.634    0.388
