#   1 NUMBER                 Running object number                                     
#   2 MAG_AUTO               Kron-like elliptical aperture magnitude                    [mag]
#   3 X_IMAGE                Object position along x                                    [pixel]
#   4 Y_IMAGE                Object position along y                                    [pixel]
#   5 X_WORLD                Barycenter position along world x axis                     [deg]
#   6 Y_WORLD                Barycenter position along world y axis                     [deg]
#   7 A_WORLD                Profile RMS along major axis (world units)                 [deg]
#   8 B_WORLD                Profile RMS along minor axis (world units)                 [deg]
#   9 THETA_WORLD            Position angle (CCW/world-x)                               [deg]
#  10 FWHM_WORLD             FWHM assuming a gaussian core                              [deg]
#  11 ELONGATION             A_IMAGE/B_IMAGE                                           
#  12 ELLIPTICITY            1 - B_IMAGE/A_IMAGE                                       
         1 -13.7051    186.2196     45.6677   4.6986576469e+01   3.3518679336e+01     1.232626    0.9773418  26.22  0.003947259    1.602    0.376
         2 -13.8675    209.9120     15.6839   3.6432624662e+01   3.1549156525e+01    0.9033111    0.8455335 -77.52  0.003743403    1.149    0.130
         3 -12.2874    242.3029      7.7613   3.2048771855e+01   2.5313976036e+01    0.5387372    0.3638188 -26.11   0.00334469    1.769    0.435
         4 -12.2956     62.2851    236.3708   1.1559781210e+02   1.7637920374e+01    0.2533487    0.1589835  81.69  0.001116043    1.617    0.381
         5 -13.9082    245.8326    237.9050   7.9489715912e+01  -9.3495697131e+00     1.958361     0.730345 -30.54  0.009552723    2.625    0.619
         6 -12.0757     41.6433    208.1273   1.1746169901e+02   2.5941338210e+01    0.3797531    0.2450656 -38.33  0.002039377    2.459    0.593
         7 -10.9298     65.8712    206.8243   1.1207923151e+02   2.3285379986e+01    0.2442139    0.1665453  82.70 0.0004061237    1.473    0.321
         8 -11.5521     64.6331    203.1416   1.1196495203e+02   2.4255584191e+01    0.1874306    0.1543443  64.75 0.0003659961    1.067    0.063
         9 -10.4400     56.5749    200.3614   1.1348308847e+02   2.5892447142e+01    0.1819538    0.1391047 -44.26  0.001063228    1.671    0.402
        10 -10.4480    192.9887    194.9408   8.1804760943e+01   5.0279864485e+00    0.4539066    0.2323524 -56.55  0.001734003    3.325    0.699
        11  -9.9214     70.4975    196.0026   1.0982479608e+02   2.5078999231e+01    0.1888835    0.1227421 -77.97 0.0009921424    1.546    0.353
        12  -9.2015     82.0701    194.3661   1.0691416633e+02   2.3841300321e+01    0.4360375    0.2004646  53.35  0.001824981    2.347    0.574
        13 -10.4369     76.2634    191.0260   1.0785963054e+02   2.5422885195e+01    0.3530653    0.1888824  66.72  0.001291195    2.402    0.584
        14 -11.1170     63.6746    189.5110   1.1066077310e+02   2.7461383300e+01     0.323754    0.2178928 -36.55  0.001427023    2.094    0.522
        15 -10.7470     15.4623    187.4631   1.2148249053e+02   3.3163569298e+01    0.1194585   0.09676725  88.21  0.000245797    1.060    0.056
        16  -9.7725     82.3349    185.6147   1.0567979526e+02   2.5807694939e+01    0.2280365    0.1764594  71.16 0.0006626293    1.300    0.231
        17 -10.2295    183.8925    179.6041   8.0711663724e+01   9.4762066800e+00    0.4460886    0.2039567 -50.36  0.001718701    2.600    0.615
        18 -10.4099    180.1115    175.2708   8.0645818680e+01   1.1015710850e+01    0.2687436    0.2120266 -46.42 0.0006963505    1.346    0.257
        19 -10.6746     10.8004    216.3613   1.2425559824e+02   2.7342566374e+01    0.1482416    0.1114582  33.45  0.001039107    1.571    0.363
        20 -11.1330    145.4860    170.5099   8.7584779307e+01   1.8558428660e+01    0.2776807    0.2004605 -48.26  0.001335899    1.421    0.296
        21 -15.8595    120.9009    236.9163   1.0372494120e+02   9.2975880298e+00     11.29329      6.35357 -82.90   0.04929079    3.373    0.704
        22  -9.6642    185.4076    170.2380   7.8465358454e+01   1.0999799724e+01    0.2019799    0.1371808 -50.77 0.0009464088    1.645    0.392
        23 -10.6462    230.5057    168.4993   6.9237220713e+01   3.1682174333e+00    0.2523553    0.1160777 -46.39  0.001042327    2.444    0.591
        24 -10.7443    118.8620    168.7546   9.3807240817e+01   2.3843679528e+01    0.2589863     0.218055 -83.13 0.0006524207    1.322    0.244
        25 -10.5640    191.7163    166.9947   7.6448943482e+01   1.0431614328e+01    0.4204276    0.3031247 -50.65  0.001414562    1.550    0.355
        26 -10.0409    186.6285    165.8726   7.7282900891e+01   1.1617786280e+01    0.2592027    0.1950582  25.46 0.0007652281    1.367    0.268
        27 -10.1187      3.1841    162.1925   1.2241203022e+02   3.9945823098e+01    0.1735914    0.1536251  82.21 0.0006396836    1.158    0.137
        28  -9.6899      8.0132    161.1245   1.2117601114e+02   3.9846885795e+01     0.177971    0.1376607 -58.69  0.000448559    1.346    0.257
        29 -13.2788     39.1804    229.2918   1.1958398302e+02   2.1798416085e+01     7.050701     2.717019 -74.22   0.02515078    2.513    0.602
        30 -11.1053     93.1402    154.2324   9.7851620364e+01   3.1669426774e+01    0.2684631    0.2654329  -3.62 0.0003050656    1.101    0.091
        31 -12.4987     98.2516    148.3242   9.5321910271e+01   3.2274497822e+01    0.6623029    0.4638553 -28.19  0.003001594    1.837    0.456
        32 -11.8247    133.8472    145.8162   8.5262705432e+01   2.6350531957e+01     1.293053    0.3261602 -54.33  0.002962524    5.897    0.830
        33 -10.1383    113.0140    151.1475   9.1881963032e+01   2.9029681835e+01    0.3734315    0.2370856  76.57  0.001405785    2.685    0.628
        34 -10.3844    109.0221    147.1391   9.2130902604e+01   3.0703519651e+01    0.2651342    0.2150161 -70.26    0.0013162    1.307    0.235
        35  -9.8066    174.7534    148.8911   7.6127438069e+01   1.7384869738e+01     0.280281    0.2116491 -60.69 0.0007974237    1.589    0.371
        36 -19.0313     23.5786    100.3497   1.0926652823e+02   5.3405923503e+01     15.98675    0.9926901 -66.32   0.02810611   13.093    0.924
        37  -9.9080    154.5492    140.7885   7.8939032008e+01   2.3280927982e+01    0.3101201     0.241161 -81.36 0.0009929612    1.766    0.434
        38 -11.3092     96.7088    138.3361   9.3715743333e+01   3.4974265531e+01    0.4220905    0.2660274  56.14  0.001817486    1.894    0.472
        39 -11.9270     97.7197    134.5202   9.2609227964e+01   3.5734974943e+01    0.3767474    0.3064416   2.23 0.0003420745    1.518    0.341
        40 -11.4986    108.9706    135.7970   8.9698065731e+01   3.3441425956e+01    0.4751587    0.3109529 -35.61  0.002063869    1.722    0.419
        41 -11.1002    105.7915    130.7356   8.9449240421e+01   3.5234228033e+01    0.4209952    0.3375116 -58.61  0.001200851    1.241    0.194
        42  -9.8533    116.4037    133.3154   8.7064283702e+01   3.2651828614e+01    0.2628296    0.1862558  60.98  0.000580744    1.711    0.416
        43  -9.9793    136.0000    129.0090   8.0763154080e+01   2.9759021927e+01    0.2645832   0.08839995 -46.74 0.0007507897    2.949    0.661
        44 -10.0492    115.8032    127.5624   8.5872398552e+01   3.4125559009e+01    0.2932708    0.2367712 -18.17 0.0007150826    1.455    0.313
        45 -10.4482    135.0000    120.8857   7.8988631288e+01   3.1797987809e+01     0.432205   0.08852931 -45.91  0.001036356    4.799    0.792
        46 -10.4066    103.5789    122.8862   8.8244603783e+01   3.7515698171e+01    0.2760316    0.2424952  11.47 0.0007118052    1.259    0.206
        47  -9.1038    234.4444    120.5125   5.8115085090e+01   1.0699880105e+01    0.1403684    0.1224345 -37.15 9.204599e-05    1.034    0.033
        48  -9.3033    110.7900    117.2113   8.4742733536e+01   3.7513663728e+01    0.2037735    0.1767704 -12.69 0.0002723493    1.276    0.216
        49 -10.6192    167.1313    114.8317   6.9547225444e+01   2.6071928905e+01    0.4353196    0.2228635 -39.38   0.00110338    1.922    0.480
        50  -9.8782    205.5396    110.3668   6.0621941793e+01   1.8413494372e+01    0.2476121    0.2338607  70.01 0.0006055111    1.155    0.134
        51 -11.0876    118.3639    110.5092   8.0823514134e+01   3.7565755593e+01    0.5056422    0.2978602  57.12   0.00197567    2.178    0.541
        52  -9.4397    167.1222    223.6371   9.2196657770e+01   4.3352451063e+00     0.199913    0.1833055 -61.08  0.000634624    1.372    0.271
        53 -11.3556     75.7432    246.6627   1.1384113253e+02   1.3946000868e+01    0.3615956    0.1337209 -61.88  0.001733706    2.927    0.658
        54  -9.2205     96.0820     67.6837   7.4709616595e+01   5.0989401717e+01    0.2007838    0.1765958  34.34 0.0005754123    1.148    0.129
        55 -12.9583    170.4458     60.1870   5.3704260807e+01   3.5257458912e+01    0.8052035     0.636259 -10.24  0.001285773    1.535    0.349
        56 -11.2239     68.1314    244.9385   1.1516810180e+02   1.5257655535e+01    0.1662921    0.1289192  65.97 0.0004578026    1.089    0.082
        57 -12.4826    191.4843     39.5447   4.4583278810e+01   3.3061825066e+01    0.5747271    0.4330808  41.69  0.001793159    1.543    0.352
        58  -8.6849     67.3173    238.5465   1.1478861899e+02   1.6575290106e+01    0.1130702   0.09623957  71.49 0.0001952902    1.091    0.083
        59  -9.9228     60.1689     21.1286   6.9274879928e+01   6.4923908311e+01    0.1959002    0.1479645  10.14 0.0005254823    1.171    0.146
