#   1 NUMBER                 Running object number                                     
#   2 MAG_AUTO               Kron-like elliptical aperture magnitude                    [mag]
#   3 X_IMAGE                Object position along x                                    [pixel]
#   4 Y_IMAGE                Object position along y                                    [pixel]
#   5 X_WORLD                Barycenter position along world x axis                     [deg]
#   6 Y_WORLD                Barycenter position along world y axis                     [deg]
#   7 A_WORLD                Profile RMS along major axis (world units)                 [deg]
#   8 B_WORLD                Profile RMS along minor axis (world units)                 [deg]
#   9 THETA_WORLD            Position angle (CCW/world-x)                               [deg]
#  10 FWHM_WORLD             FWHM assuming a gaussian core                              [deg]
#  11 ELONGATION             A_IMAGE/B_IMAGE                                           
#  12 ELLIPTICITY            1 - B_IMAGE/A_IMAGE                                       
         1 -14.3109    135.9296    128.3868   1.0888245721e+02   2.9846263891e+01     2.270554     0.438008 -50.01  0.005180047    5.973    0.833
         2 -14.6745    147.9102     62.9819   8.7481567440e+01   4.0248261565e+01     1.470246     1.302408   2.88  0.001269326    1.256    0.204
         3 -14.8236    158.5143     48.0293   8.0386859491e+01   3.9933750214e+01     1.255461     1.100893 -33.46  0.003552473    1.180    0.152
         4 -14.9106    169.8579     17.1146   6.8539858057e+01   4.0907213684e+01     1.511556     1.081624 -84.02  0.005375137    1.488    0.328
         5 -14.3604    184.7239     11.2847   6.4823409408e+01   3.7637813300e+01     2.177978    0.9482217 -77.44  0.007087264    3.950    0.747
         6 -13.6578    196.9353      6.5924   6.2137230116e+01   3.4964360793e+01    0.9887596    0.5439441 -65.51  0.004560931    1.969    0.492
         7 -12.0158    187.1311    244.1294   1.1897855684e+02  -8.7630423535e-01    0.1817917    0.1370755  23.83  0.000513433    1.215    0.177
         8 -12.0412    192.2120    249.5904   1.1883118207e+02  -2.3742272725e+00    0.2332755     0.170807  35.80  0.001196055    1.065    0.061
         9 -12.2950    188.1089    248.8581   1.1945477149e+02  -1.6387477268e+00    0.2737224    0.1719253  38.13  0.001007187    1.234    0.190
        10 -11.1332    139.4245    249.3393   1.2824248148e+02   6.0365334245e+00    0.2552347     0.162825 -69.44  0.001000417    2.185    0.542
        11  -9.9731    139.4028    244.5026   1.2769147416e+02   6.7649485915e+00    0.1973726    0.1293219  54.60 0.0005783247    1.343    0.256
        12 -20.3221     77.3645    180.0130   1.3241868743e+02   2.8665087382e+01      15.6426     5.765992 -65.91   0.06474503    2.714    0.631
        13 -11.2773     24.9877    202.3539   1.4539014864e+02   3.0449910703e+01    0.1846334    0.1278832 -81.52 0.0003289513    1.302    0.232
        14 -12.0232    150.1941    180.1038   1.1618075727e+02   1.6080030012e+01     0.292934     0.236251 -88.21  0.001031632    1.503    0.335
        15 -11.3716    151.4157    196.1831   1.1865848045e+02   1.2808909412e+01    0.3320134    0.2917092  65.25  0.001495176    1.154    0.134
        16 -12.7941    152.7285    191.9980   1.1769444261e+02   1.3336863137e+01     0.496871    0.4167183 -81.87  0.001489084    1.414    0.293
        17 -12.5376    155.2335    187.4413   1.1639205941e+02   1.3714661090e+01    0.3548928     0.244734  56.01  0.001056043    1.462    0.316
        18 -11.9945    152.0479    184.4985   1.1655708438e+02   1.4877251152e+01    0.2592931    0.2432666  73.02 0.0005658068    1.103    0.093
        19 -12.4488    169.4423    194.5927   1.1468405528e+02   9.7369396166e+00    0.5495304    0.2315357 -47.80  0.002227039    2.725    0.633
        20 -12.9176    164.7212    187.2964   1.1437803298e+02   1.1932898247e+01    0.5629217    0.2652218  48.68  0.001687156    2.023    0.506
        21 -10.8805     27.0426    194.9018   1.4448935672e+02   3.1751284333e+01    0.2197234    0.1583115  60.57  0.001346016    1.190    0.160
        22  -9.4614     21.6334    194.1019   1.4549179639e+02   3.2471535232e+01    0.1366844    0.1022693  86.29  0.000213767    1.098    0.089
        23 -11.3386    145.6716    190.8327   1.1898865411e+02   1.4870160585e+01    0.2613936    0.2180552  23.45 0.0004409158    1.346    0.257
        24 -13.2374    188.7286    176.4822   1.0743281420e+02   9.1951706166e+00     1.028615    0.5567589 -63.03  0.003600474    3.996    0.750
        25 -14.3551    177.4800    172.8470   1.0901706298e+02   1.2079173571e+01     1.444209    0.5806758 -40.32  0.005497097    2.734    0.634
        26 -13.0243    175.2765    186.1783   1.1199962601e+02   1.0108378872e+01    0.4821756    0.3759774 -87.26  0.002104917    1.863    0.463
        27 -12.9427    171.0028    180.0240   1.1174293573e+02   1.2045782305e+01    0.4625091    0.4009205  69.57  0.002616711    1.300    0.231
        28 -11.4295    238.5425    184.9778   9.9788229351e+01  -1.3808797606e+00    0.1920207    0.1181784 -29.08 0.0006496353    1.595    0.373
        29 -11.9020    164.6836    183.3265   1.1367319858e+02   1.2668609286e+01    0.2710606    0.2146489 -62.90  0.000946063    1.501    0.334
        30 -10.1513    133.6284    183.7388   1.2041375030e+02   1.8485286887e+01    0.1744289    0.1308911 -70.00 0.0002747556    1.503    0.335
        31 -13.3133    204.6895    174.5577   1.0390999186e+02   6.4051131296e+00    0.7797803    0.6430965 -61.37    0.0022312    1.588    0.370
        32 -12.4895    196.5439    175.3980   1.0566397885e+02   7.8490364109e+00    0.4919371    0.4038246 -77.20  0.002501587    1.740    0.425
        33 -13.0704    193.2312    165.5092   1.0431708785e+02   1.0228752377e+01    0.4379596    0.3560315 -32.55 0.0009253164    1.276    0.216
        34 -13.0965    230.1875    168.0385   9.7862376139e+01   2.6045747193e+00     0.473377    0.2890569 -33.71  0.002409342    1.610    0.379
        35 -11.7865    185.7309    236.7825   1.1819278288e+02   3.2820125724e-01    0.1787686    0.1501357 -26.06 0.0006425909    1.425    0.298
        36 -11.2111    168.0072    234.9924   1.2120033678e+02   3.5076169344e+00    0.1791595    0.1736699  -7.70 0.0003983743    1.252    0.201
        37 -13.5872    190.0231    161.0088   1.0402367496e+02   1.1691833806e+01     1.120576    0.5187935 -40.09  0.002594012    2.251    0.556
        38 -10.2101    170.2848    158.6616   1.0766163078e+02   1.6234436821e+01    0.1457545    0.1170769 -89.21 0.0003669972    1.630    0.387
        39 -10.6051    144.9804    232.8007   1.2522680986e+02   7.6719712591e+00    0.3148153    0.1579482 -47.63  0.001637485    2.487    0.598
        40 -14.6629    143.9570    143.9167   1.1045584495e+02   2.4780756185e+01      1.14195    0.7371271 -65.00   0.00395675    1.908    0.476
        41 -12.3165    140.5715    120.4472   1.0580851259e+02   3.0580707625e+01    0.5555211    0.3154964  63.30  0.001315879    2.384    0.581
        42 -12.9010    134.5442    108.3899   1.0423101084e+02   3.4510358676e+01     1.353729    0.2110025 -44.95  0.002912585    6.369    0.843
        43 -14.3224    134.1597    146.6389   1.1337620531e+02   2.6202803046e+01     1.831654    0.5698249 -57.20  0.004851479    4.966    0.799
        44 -10.9360    126.7621    248.7346   1.3045930829e+02   8.1122360866e+00    0.1462644    0.1408371  57.40 0.0004667891    1.296    0.228
        45 -10.5638     23.0060    156.0388   1.4221827067e+02   4.0553594495e+01    0.1830053    0.1425374  86.85 0.0003928841    1.012    0.012
        46 -12.8587    161.1078    152.7730   1.0842843759e+02   1.9328511463e+01    0.4047222    0.3442702 -43.21  0.001687827    1.230    0.187
        47 -11.5294     18.2276    151.6642   1.4293110248e+02   4.1967863466e+01    0.5130783    0.1523162 -67.88  0.002116324    2.584    0.613
        48 -11.7610    196.2956    231.9782   1.1556380500e+02  -7.5359686283e-01    0.1697225    0.1451191  23.02 0.0006155592    1.084    0.077
        49 -12.4891    174.0943    148.5643   1.0466664264e+02   1.7400863747e+01    0.4370899    0.3379951 -55.18  0.001297745    1.425    0.298
        50 -11.4041      7.9630    149.3239   1.4511858343e+02   4.3335913498e+01    0.2212965    0.1323535 -72.81 0.0006167943    1.363    0.266
        51 -11.6054    171.3356    137.8524   1.0283697957e+02   2.0124535419e+01    0.2613946    0.2072729  59.35 0.0005976221    1.328    0.247
        52  -9.8049     28.0414    232.6889   1.4664696987e+02   2.4317902932e+01    0.1335523   0.09403201  73.61  0.000964425    1.053    0.050
        53 -10.3406      6.5741    229.2881   1.5006245540e+02   2.7155633309e+01    0.1009273   0.06638147  64.75 0.0002209617    1.097    0.089
        54 -15.5097     43.7157    150.8324   1.3671627923e+02   3.9629856544e+01     1.336257    0.6754718 -82.45  0.005957869    1.945    0.486
        55 -11.4484    207.9766    225.7061   1.1247593337e+02  -1.8318981005e+00    0.2278945    0.1545618 -33.10  0.001129266    1.690    0.408
        56 -13.0452    160.5975    127.9402   1.0288568866e+02   2.4539334655e+01     0.493973    0.4089631 -64.42  0.001657154    1.327    0.246
        57 -12.2595    199.0070    226.0410   1.1415626606e+02  -3.9725873027e-01    0.2198272    0.1728281 -31.43 0.0008657992    1.479    0.324
        58  -9.9245     32.9498    220.9036   1.4510509653e+02   2.5958636625e+01    0.1498758    0.1147637  86.30 0.0005040553    1.192    0.161
        59 -11.1538     14.1212    241.3742   1.4936012625e+02   2.4252796143e+01    0.1849144   0.08666062  76.49 0.0008167677    1.705    0.414
        60 -10.5637    217.7102    217.9237   1.0945327282e+02  -2.3970865390e+00    0.1650214    0.1443663  -3.24 0.0006166999    1.175    0.149
        61 -11.2517    167.6716    112.7209   9.7455390719e+01   2.6012760555e+01    0.3840976    0.2925871 -82.29  0.001339269    1.740    0.425
        62 -11.3702      3.8041    112.5345   1.4274092195e+02   5.1935837514e+01    0.2905948    0.1929474   4.52  0.001840455    2.174    0.540
        63 -10.8853    205.4401    110.1506   8.9124072384e+01   1.7595791721e+01    0.3223552    0.2152715  42.74 0.0009304021    1.574    0.365
        64 -11.9419     31.4075    104.4582   1.3353361323e+02   5.1744845683e+01    0.3307811    0.2253312   1.42   0.00186336    2.108    0.526
        65 -11.1882     24.5571    215.1725   1.4626347516e+02   2.7971474053e+01    0.1424774    0.1056845  71.89 0.0003342462    1.056    0.053
        66 -13.2261     11.6575    205.7577   1.4806415403e+02   3.1108623380e+01    0.3909727    0.2960256  25.51  0.002730051    1.954    0.488
        67 -11.1370    124.4964     95.5128   1.0334166649e+02   3.9461452690e+01     0.262181    0.1459514 -34.15 0.0006802292    2.056    0.514
        68 -12.7489     51.4484     91.9745   1.2468738986e+02   5.2592571621e+01    0.3352538    0.3140386 -55.08 0.0009107278    1.083    0.077
        69 -10.3861     32.7652    250.5709   1.4680994465e+02   2.0655039150e+01    0.1131346   0.07079773  61.51 0.0003208862    1.112    0.100
        70 -11.8466    139.7115    201.0174   1.2184846940e+02   1.4044398952e+01     0.564955    0.3184023  45.64  0.002803684    1.542    0.351
        71 -11.0924    142.8748     81.6878   9.4529833153e+01   3.8078391926e+01    0.2954486    0.2258512 -46.77 0.0005394556    1.322    0.244
        72 -10.4570    104.0318     82.0054   1.0517905804e+02   4.6550100897e+01    0.2145875    0.2101444 -14.13 0.0003759065    1.031    0.030
        73 -12.2516    128.4877    244.5136   1.2968816273e+02   8.4953791980e+00    0.1906802    0.1574136  59.48  0.001343755    1.112    0.101
        74 -12.5379    115.9950    247.2757   1.3224865268e+02   1.0000717058e+01    0.2429787    0.2038598 -40.39    0.0012604    1.733    0.423
        75 -13.4676    162.6223     38.9900   7.6688028259e+01   4.0150481998e+01    0.4977107    0.4636601  80.85 0.0008394579    1.046    0.044
        76 -11.8835    134.5787    198.9897   1.2261208859e+02   1.5340055590e+01    0.4995193    0.3293931  19.25  0.002178727    2.303    0.566
        77 -11.1385     13.4200     59.7458   1.3105250848e+02   6.3145825450e+01    0.1879039     0.163982 -58.16 0.0004115884    1.124    0.111
        78 -12.5221    199.0644    246.2962   1.1716658733e+02  -3.0376729181e+00    0.3208906    0.2221491  68.35  0.001774921    2.710    0.631
        79  -9.6503    150.5865    248.5419   1.2613500998e+02   4.3813217923e+00    0.1182266   0.09302896  41.34 0.0002878451    1.059    0.056
