#   1 NUMBER                 Running object number                                     
#   2 MAG_AUTO               Kron-like elliptical aperture magnitude                    [mag]
#   3 X_IMAGE                Object position along x                                    [pixel]
#   4 Y_IMAGE                Object position along y                                    [pixel]
#   5 X_WORLD                Barycenter position along world x axis                     [deg]
#   6 Y_WORLD                Barycenter position along world y axis                     [deg]
#   7 A_WORLD                Profile RMS along major axis (world units)                 [deg]
#   8 B_WORLD                Profile RMS along minor axis (world units)                 [deg]
#   9 THETA_WORLD            Position angle (CCW/world-x)                               [deg]
#  10 FWHM_WORLD             FWHM assuming a gaussian core                              [deg]
#  11 ELONGATION             A_IMAGE/B_IMAGE                                           
#  12 ELLIPTICITY            1 - B_IMAGE/A_IMAGE                                       
         1  99.0000     84.0070    233.0787   1.1964975935e+02   1.8304412577e+01    0.3244138    0.1030586 -53.91  0.001468002    4.626    0.784
         2 -21.2311    140.9373    166.0182   1.0079933711e+02   2.1080334065e+01     10.40041      7.72011  54.83    0.0490977    1.247    0.198
         3  99.0000     87.6950    230.5475   1.1884201548e+02   1.8202688586e+01     0.175682   0.08980493  49.73 0.0007224475    1.547    0.353
         4  -9.5346    206.9369    233.1492   9.9225165133e+01  -1.2059555313e+00    0.2843035    0.1234596  49.52  0.001003789    2.096    0.523
         5 -11.2241     79.1164    230.5911   1.2023084388e+02   1.9369866501e+01    0.1411061   0.09477682  55.92 0.0003969336    1.187    0.157
         6 -10.7966    138.1635    244.9831   1.1203271403e+02   8.5174625732e+00    0.1121041    0.1030109 -63.22 0.0008922687    1.449    0.310
         7 -10.8511    213.9700    227.0510   9.7160887866e+01  -1.6714262936e+00    0.1662063    0.1314021  35.51            0    1.047    0.045
         8 -12.1240     71.8106    225.0610   1.2096582122e+02   2.1253407476e+01    0.4476791     0.129099  54.66  0.002070137    3.007    0.667
         9 -10.6262     64.4897    227.1224   1.2230094051e+02   2.1853150287e+01    0.1264692    0.0938718  80.35 0.0009753159    1.128    0.113
        10 -11.1533    138.2065    249.1737   1.1245938018e+02   7.9396617021e+00     0.104594   0.09207473  75.35 0.0006493431    1.256    0.204
        11  -9.8323     57.2549    220.1152   1.2294386796e+02   2.3940877123e+01    0.1689371   0.07779095 -72.15  0.001029585    2.097    0.523
        12  -9.0184     46.6104    220.8712   1.2469889773e+02   2.5084714273e+01   0.08704685   0.06056369  43.39 0.0002823649    1.643    0.391
        13 -10.4338     45.2240    216.6230   1.2463401987e+02   2.5978065710e+01    0.2487808    0.1194849  62.90  0.001582017    1.683    0.406
        14 -11.0295     47.1176    213.5158   1.2411327263e+02   2.6301468408e+01    0.1889252    0.1396865  72.38 0.0006474343    1.064    0.060
        15  -9.5544     39.5166    210.1037   1.2511545771e+02   2.7772235645e+01    0.1472017    0.1185878  61.22   0.00119162    1.326    0.246
        16 -11.4474     39.4644    205.0973   1.2478114501e+02   2.8675132553e+01    0.2008718    0.1316537  79.13 0.0007334315    1.152    0.132
        17 -10.8083     44.0690    201.2280   1.2372884949e+02   2.8860956618e+01    0.2533676    0.1272243 -88.44  0.001167374    1.809    0.447
        18 -11.5587     23.5753    171.9066   1.2514102273e+02   3.6616000540e+01    0.3205554    0.1613137 -88.62  0.001398221    1.657    0.396
        19 -11.3815    180.9872    246.3302   1.0524462390e+02   1.5007567529e+00    0.3026577     0.185162  61.73  0.001832521    1.932    0.482
        20 -11.1692    113.4613    246.5247   1.1613140986e+02   1.2052027038e+01    0.1383907    0.0987908 -80.17  0.001014058    1.580    0.367
        21 -10.6728    158.8503    248.4268   1.0907049865e+02   4.7969291006e+00   0.09204823   0.07205578 -88.84 0.0006478517    1.658    0.397
        22 -11.2961    124.0878    246.8783   1.1448004289e+02   1.0415392052e+01    0.1447605     0.116976  35.85  0.001080051    1.511    0.338
        23 -10.7327     20.9965    148.9233   1.2374239976e+02   4.1502151725e+01    0.2077866    0.1210819 -74.08 0.0004315751    1.358    0.264
        24 -11.2892    170.3233    243.3102   1.0661006398e+02   3.6006098512e+00    0.2812648    0.1565026  63.28  0.001538219    2.305    0.566
        25 -12.4043     27.2570    137.8597   1.2134820117e+02   4.3259559717e+01    0.2717519    0.1667487 -77.06 0.0005608611    1.278    0.217
        26 -10.8611     84.6426    244.5256   1.2046195182e+02   1.6429201461e+01    0.1027164   0.07566708  67.22 0.0001880309    1.052    0.050
        27 -11.4027    187.4811    242.7703   1.0373774677e+02   8.6991491230e-01    0.3510851    0.1414468  48.63  0.001801591    2.032    0.508
        28 -10.5203     24.0452    130.2243   1.2123981189e+02   4.5170088060e+01    0.2544787    0.1290424 -81.97   0.00074326    1.680    0.405
        29 -10.6574     33.9437    129.3810   1.1889213214e+02   4.4454412473e+01    0.2253378    0.1570501 -65.72 0.0004724747    1.248    0.199
        30 -11.1317    189.5289    238.6459   1.0286137192e+02   1.0272093209e+00    0.1702859    0.1319517 -15.92  0.001183172    1.714    0.417
        31 -11.6715    235.5379    126.5964   7.3925984299e+01   8.1274598523e+00     0.509814    0.2173603  42.43  0.001506317    2.396    0.583
        32 -10.1856    231.2117    121.9132   7.3559871507e+01   9.7976409595e+00    0.2329388    0.2023667  40.20  0.000417558    1.157    0.136
        33 -12.0679    240.5449    113.7117   7.0011324775e+01   9.0268296783e+00    0.4990717    0.3236271 -11.81   0.00228988    1.788    0.441
        34 -10.1370    155.4401    243.4545   1.0905932831e+02   5.9873825875e+00    0.1127349   0.08655641  39.47 0.0007968672    1.229    0.186
        35 -11.2218    152.7847    241.0740   1.0922191431e+02   6.7320491075e+00    0.1397951    0.1296849 -35.46  0.001092627    1.481    0.325
        36 -10.9365    127.1269    242.3585   1.1354704430e+02   1.0595301863e+01    0.1827557    0.1214073 -78.60  0.001228956    1.856    0.461
        37 -10.5885     29.4989    109.9723   1.1743350605e+02   4.9078403822e+01    0.1784548    0.1639513  77.12  0.001344961    1.242    0.195
        38 -10.7202    248.9129    107.0900   6.7066299998e+01   8.2078130511e+00    0.2530259     0.204031  29.01 0.0005307206    1.288    0.223
        39  -9.9518     97.5249    241.4346   1.1820021600e+02   1.5113814588e+01    0.3912086    0.1722586  60.74  0.002196869    2.081    0.519
        40 -11.3115    215.0057    105.3270   7.2325562775e+01   1.6187065717e+01    0.2670719    0.2421468  26.96 0.0003927941    1.105    0.095
        41 -10.4421     28.5488    105.6432   1.1706005104e+02   5.0104508040e+01    0.2833115    0.1660951  41.71  0.001194662    1.977    0.494
        42 -10.5234     33.9977    103.8523   1.1537316005e+02   5.0019850737e+01    0.2168709    0.1585632 -56.73 0.0002497365    1.241    0.194
        43 -10.9830    110.3207    245.1820   1.1650593584e+02   1.2708691009e+01    0.1333898    0.1106249  -3.49 0.0009031694    2.524    0.604
        44 -11.4012    195.2600    242.2067   1.0239477984e+02  -3.3301516513e-01    0.1529433    0.1177365  60.29 0.0009777945    1.482    0.325
        45 -11.2028    133.0098    242.4401   1.1260204537e+02   9.6748396714e+00    0.1250402   0.08538055  49.26 0.0003783363    1.144    0.126
        46 -10.5770    219.4895     92.4763   6.8200486663e+01   1.7242035110e+01    0.2547503    0.2240213  11.39 0.0005274962    1.201    0.167
        47  99.0000    116.6788    242.2842   1.1522393044e+02   1.2191099523e+01    0.1399265   0.09086368 -43.29 0.0008846132    2.517    0.603
        48  -9.0518     35.7052    241.9636   1.2759510462e+02   2.2856229001e+01    0.1256641   0.08209786  72.78 0.0002097783    1.050    0.048
        49  -9.6116    218.4715    241.1275   9.8483188827e+01  -3.9677183161e+00     0.123589    0.1090141 -13.06 0.0003686096    1.387    0.279
        50 -16.7623     12.5637    223.0045   1.3001363686e+02   2.8351842913e+01     3.579298     1.197485 -75.57   0.02016301    2.534    0.605
        51  -9.7718     45.0905     92.8318   1.1045358303e+02   5.1381565662e+01    0.1794779    0.1437921 -80.31 0.0003834706    1.189    0.159
        52 -10.1238     59.8280     91.3803   1.0598192997e+02   5.0078028436e+01    0.2293741    0.1555135 -58.72 0.0002908495    1.243    0.195
        53 -10.3867     54.0810     91.7260   1.0768959161e+02   5.0666557972e+01    0.2180841    0.1546593 -59.04 0.0005854483    1.170    0.145
        54 -10.7725    122.7990    240.4101   1.1405324435e+02   1.1539793699e+01    0.1285297   0.08617309  45.10 0.0003628147    1.308    0.236
        55 -10.5448    200.5650     89.0869   7.0696037847e+01   2.2420725890e+01     0.436967     0.231903  44.46  0.001727643    1.951    0.487
        56 -10.2321     71.1838     88.3847   1.0206012939e+02   4.9294931763e+01    0.3368441    0.2296752 -12.65  0.001654308    2.357    0.576
        57 -11.3177     46.6454     87.9008   1.0904121814e+02   5.2302726619e+01     0.229075    0.2041719 -48.45  0.000493671    1.166    0.142
        58 -10.8037    207.9372    244.6246   1.0066558206e+02  -2.6545903791e+00    0.1513239    0.1181664  43.44 0.0004114764    1.164    0.141
        59 -11.3856    170.5379     85.9661   7.5854806934e+01   3.0354821186e+01    0.5276604    0.3809191 -71.79  0.001385414    1.895    0.472
        60 -11.5423     78.8576     85.5893   9.9175278817e+01   4.8829811067e+01    0.3580591    0.2630218  42.92 0.0006345343    1.535    0.348
        61 -10.5636    176.5059     83.1607   7.3791086525e+01   2.9404604359e+01    0.3160137    0.2938984 -83.40 0.0009923835    1.167    0.143
        62 -11.1018     87.4730     83.2041   9.6087610457e+01   4.8039469435e+01    0.2460355    0.2374903 -35.50 0.0007090069    1.090    0.083
        63 -11.2029     76.4622    239.1935   1.2132098910e+02   1.8348110783e+01    0.1241767   0.09235104  77.24 0.0004942768    1.137    0.120
        64 -10.6062    184.5121     82.9699   7.2102314399e+01   2.7457778598e+01    0.2779709    0.2274472  49.54  0.000370662    1.222    0.182
        65  -9.9671    174.0370     77.7668   7.2742653130e+01   3.0973213207e+01     0.271696    0.2209025 -34.52  0.000981711    1.223    0.182
        66 -10.3264     63.1008     77.6478   1.0184169992e+02   5.2656947201e+01    0.2117387    0.1547634 -61.48  0.000523947    1.255    0.203
        67 -10.0697    170.4899     71.9566   7.1762417340e+01   3.2870986104e+01     0.286345    0.2268028  44.79   0.00057128    1.269    0.212
        68 -10.4526    147.3719     73.5088   7.7395321434e+01   3.8169438386e+01    0.4009698    0.2463551 -55.95  0.001556339    2.008    0.502
        69  -9.7977    150.1349    237.1095   1.0920304796e+02   7.7020603577e+00    0.3537667    0.2024104  29.60  0.001926231    2.346    0.574
        70 -11.2440     44.8880    237.6972   1.2601693125e+02   2.2496580591e+01    0.1355528   0.09900466  77.39 0.0004027087    1.138    0.121
        71 -11.7908    214.7465    234.6501   9.8157303611e+01  -2.6629942695e+00    0.2537964    0.2101434  89.83  0.001184709    2.076    0.518
        72 -10.4804     86.5009     66.9478   9.1774984483e+01   5.1558901245e+01    0.2926002      0.22535   1.78 0.0007745316    1.631    0.387
        73 -10.5747    202.5870    236.3744   1.0039978628e+02  -8.5980474429e-01    0.1746214    0.1548386 -79.38 0.0007603928    1.667    0.400
        74  -9.8869    157.1624     65.7348   7.2740729930e+01   3.7230962443e+01    0.2240255    0.2097159  88.99 0.0005606884    1.167    0.143
        75 -10.5133    168.4826     75.6198   7.3282865216e+01   3.2724330067e+01    0.2989287    0.2606227 -73.53 0.0001350493    1.305    0.233
        76  99.0000    199.0000    233.9742   1.0065682040e+02   1.6271405576e-02    0.1727566    0.1403606 -27.89  0.001097088    1.543    0.352
        77 -10.0037    174.9991    236.5334   1.0499340705e+02   3.6952772379e+00    0.1488938   0.09720628  44.59 0.0009541676    1.180    0.152
        78 -11.9660    136.6247     62.5993   7.6560830641e+01   4.2615355097e+01    0.5105795    0.3640021 -87.06  0.002172995    2.253    0.556
        79 -11.2137    129.7970     61.4340   7.7894665695e+01   4.4346107104e+01    0.2776341    0.2342598 -70.16 0.0007622969    1.439    0.305
        80 -11.0196    108.5805     60.2514   8.3198743967e+01   4.8951301309e+01    0.2752365    0.2342069 -18.33 0.0009211591    1.171    0.146
        81  -9.1468    170.9308    237.1356   1.0574694111e+02   4.2910092771e+00    0.1524097    0.1042139  28.26 0.0009617162    1.609    0.379
        82 -10.9514    115.2567    237.0455   1.1494907969e+02   1.3183207469e+01    0.1299106    0.1087467  78.17 0.0009947884    1.198    0.166
        83 -12.0621     98.8576    234.9743   1.1742119586e+02   1.5918697666e+01    0.2854114    0.1585392  70.64  0.001755379    1.796    0.443
        84  99.0000     97.4671    231.5670   1.1733963631e+02   1.6655677450e+01    0.5297951    0.1269628 -61.83  0.002240109    4.712    0.788
        85 -10.5159     56.9828    237.4476   1.2418738711e+02   2.1100532916e+01    0.1286801   0.08141296  57.09 0.0002520967    1.216    0.177
        86 -11.6681    195.0496    235.6003   1.0153736614e+02   4.7908088139e-01    0.1603867    0.1287056  39.79 0.0003985667    1.050    0.047
        87 -10.6750     74.6447    234.9265   1.2128183238e+02   1.9264931239e+01    0.1307067     0.111804  13.24 0.0008888645    2.342    0.573
