#   1 NUMBER                 Running object number                                     
#   2 MAG_AUTO               Kron-like elliptical aperture magnitude                    [mag]
#   3 X_IMAGE                Object position along x                                    [pixel]
#   4 Y_IMAGE                Object position along y                                    [pixel]
#   5 X_WORLD                Barycenter position along world x axis                     [deg]
#   6 Y_WORLD                Barycenter position along world y axis                     [deg]
#   7 A_WORLD                Profile RMS along major axis (world units)                 [deg]
#   8 B_WORLD                Profile RMS along minor axis (world units)                 [deg]
#   9 THETA_WORLD            Position angle (CCW/world-x)                               [deg]
#  10 FWHM_WORLD             FWHM assuming a gaussian core                              [deg]
#  11 ELONGATION             A_IMAGE/B_IMAGE                                           
#  12 ELLIPTICITY            1 - B_IMAGE/A_IMAGE                                       
         1 -13.7364     62.3552     58.3272   4.0409603873e+01   5.7917138173e+01     1.606421    0.9164256 -23.33  0.005910009    4.444    0.775
         2 -14.8373      6.7981     71.3328   6.9624001416e+01   6.3021609583e+01     1.127521    0.8746293 -51.51  0.004683868    1.306    0.234
         3 -13.1201      8.9745      2.7132   4.5740537495e+01   7.5026192247e+01    0.7234632     0.403423  48.65  0.002952718    1.901    0.474
         4 -14.1176     26.6556     12.9478   3.9866003070e+01   7.1047243789e+01    0.7446615    0.4787328  25.24  0.004038735    1.707    0.414
         5 -15.7904     11.7690     22.4658   5.2488858948e+01   7.1871608542e+01     1.678995     1.160858  -7.60  0.008810095    1.727    0.421
         6 -14.3458    189.5981     21.1188   8.3331276164e+00   3.8544463710e+01      1.20106    0.4801231 -53.92  0.007346365    1.922    0.480
         7 -13.4362    218.6931     29.6057   7.6920896713e+00   3.2804469562e+01    0.8019388    0.2963105 -74.01  0.004159627    3.196    0.687
         8 -12.9919    223.8107     20.9140   6.0103575364e+00   3.3060688753e+01    0.3309608    0.2172068 -80.52  0.001851372    1.195    0.163
         9 -14.5659    216.9765     12.7365   5.1204393507e+00   3.5041776933e+01    0.9047754    0.5278486 -63.45  0.005171066    1.155    0.134
        10 -14.0894    122.3692     36.7826   1.9332098978e+01   4.9255177024e+01    0.7917951    0.4169108  49.53  0.002612867    2.332    0.571
        11 -13.3713     57.0464     27.0547   3.2344914660e+01   6.3774531088e+01     1.074813    0.3021506  47.44  0.002423324    3.037    0.671
        12 -14.1773    166.9212     29.9134   1.1989928971e+01   4.1497522180e+01     0.780324    0.4876234  80.25  0.003695338    1.381    0.276
        13 -14.2732    147.8700     29.6821   1.4059622072e+01   4.5118861467e+01     1.036084    0.4307713  71.50  0.003998241    2.158    0.537
        14 -15.1778     99.0297     12.4336   1.6979266631e+01   5.6995059219e+01     1.361683    0.5694639  64.05  0.004289008    1.907    0.476
        15 -11.9189     48.7102     19.8848   3.2808233116e+01   6.6283636876e+01    0.6253645    0.2134432  53.37  0.002737017    2.504    0.601
        16 -11.8892     60.7657     15.7172   2.7122030350e+01   6.4461584273e+01    0.3484461    0.2928727  29.75  0.002430692    1.472    0.321
        17 -13.9783     41.5461      5.1737   2.9775501236e+01   6.9335569647e+01    0.7197918    0.5380555  21.22  0.004144681    1.723    0.420
        18 -11.6462    175.9448     13.7717   8.0553877720e+00   4.1780683925e+01    0.1791815    0.1114499 -63.58 0.0002202182    1.239    0.193
        19 -11.6289     74.3415     10.5037   2.1563793353e+01   6.2299626909e+01    0.1730171    0.1410016  23.01  0.001176233    1.787    0.440
        20 -11.4292    152.8757      8.5980   9.0233858841e+00   4.6609882459e+01    0.1834603    0.1633659  58.82  0.001467695    1.725    0.420
        21 -12.3983    232.2809      2.4295   2.7722048551e+00   3.3852263048e+01    0.2919417    0.1795323  69.43  0.002186536    2.103    0.525
        22 -11.5484     46.8659     13.0702   3.0908638540e+01   6.7456687108e+01    0.3279004    0.1921502  60.33  0.001324668    1.527    0.345
        23 -12.1133    120.0370      3.1963   1.1345973248e+01   5.3633442051e+01    0.3998801    0.1820806 -88.95  0.002112304    2.238    0.553
        24 -10.8317     67.5535      3.0949   2.0722873748e+01   6.4435784894e+01    0.2458853    0.1104327  51.36  0.001324938    1.959    0.489
        25 -10.4538    192.9429      2.5100   4.8272550634e+00   4.0053221325e+01    0.1367023    0.0744781  86.73 0.0004500631    1.492    0.330
        26 -11.6890     80.8979      1.7300   1.7217309081e+01   6.1827831525e+01    0.5563815   0.07496854  60.65  0.001968642    4.275    0.766
        27 -11.5758     61.5848      1.4808   2.1713924683e+01   6.5799046140e+01    0.3631952   0.09000114  61.48  0.001467233    3.158    0.683
        28 -15.5559      9.0256    179.5300   8.2435791686e+01   3.3955686839e+01     2.530357     1.638571 -69.98   0.01177779    1.495    0.331
        29 -14.5403     95.4493    234.0930   6.2757582300e+01   1.1162887570e+01     1.421123     0.922425  57.75  0.006950454    2.024    0.506
        30 -13.4391     28.0675    246.4689   8.1510320805e+01   1.4626580697e+01    0.7879408    0.5810294  -2.37  0.004286049    1.460    0.315
        31 -12.1007      2.7974    249.5221   8.8291138328e+01   1.5890212218e+01    0.4227582    0.2914402  36.28  0.001852969    1.247    0.198
        32 -14.0204      9.5481    245.5212   8.6349498747e+01   1.6343626182e+01     1.080143    0.5339627  42.67  0.003457566    1.756    0.431
        33 -13.3157     22.3511    181.0110   7.8147453394e+01   3.2461321199e+01    0.7360987    0.4644907 -67.76  0.002458884    1.545    0.353
        34 -13.7683     40.3352    195.7974   7.3852916612e+01   2.6636340404e+01    0.9328941    0.5416504  46.30  0.003744718    1.720    0.419
        35 -13.6451    164.7168    195.1037   4.1968965183e+01   1.2145995781e+01    0.6710979    0.4234222 -82.79  0.003131388    2.881    0.653
        36 -11.2957     80.5639    192.7704   6.1527480632e+01   2.2925364905e+01    0.4250131    0.1727595  31.12  0.001599296    2.310    0.567
        37 -12.2766    201.0054    191.1534   3.5119598003e+01   9.0743556226e+00    0.2862604    0.2176225 -27.18  0.001318684    1.312    0.238
        38 -12.8103     98.8334    186.5271   5.5628795030e+01   2.2208904246e+01    0.5230435    0.3495958 -34.10  0.002465862    1.662    0.398
        39 -11.6919    216.8457    187.3316   3.2221810878e+01   8.2201635612e+00    0.1815183   0.09566381  43.15   0.00109521    2.633    0.620
        40 -12.5661    180.4418    196.8792   3.9352569878e+01   1.0094971509e+01    0.2809882    0.1920795 -65.55  0.001672943    1.645    0.392
        41 -12.3438    110.3535    182.7381   5.2067897253e+01   2.1629150647e+01     0.521729    0.3097651 -10.01  0.002059692    2.813    0.644
        42 -12.4083     48.3836    181.7946   6.9775509047e+01   2.9657679121e+01    0.5675015     0.331324 -42.40  0.002381747    1.874    0.467
        43 -11.3332    123.1399    182.0670   4.8830463122e+01   2.0094303112e+01    0.3894334    0.2353886  75.27  0.001523715    3.104    0.678
        44 -12.9147     90.9072    182.0855   5.7114714221e+01   2.4364847355e+01    0.4700761    0.1885101  48.61  0.001564203    3.228    0.690
        45 -13.1409    197.6002    180.0694   3.4033391911e+01   1.1461715834e+01    0.5020208    0.3386456 -77.97  0.002916615    2.172    0.540
        46 -13.2708    125.1234    168.2329   4.6129499055e+01   2.3056421394e+01    0.7687278    0.3241479 -61.42  0.002980236    2.454    0.592
        47 -11.4410     89.9783    169.7673   5.5480561268e+01   2.7648482461e+01    0.1991609     0.124045  28.76 0.0008546877    1.653    0.395
        48 -12.7827    237.5620    159.4306   2.5600345728e+01   1.0926534029e+01    0.5003453    0.1503852  35.97  0.002310322    5.713    0.825
        49 -11.2922    102.0031    160.6534   5.0668991901e+01   2.8231064737e+01    0.3277685    0.1371029  32.54  0.001233232    2.477    0.596
        50 -12.4063    121.2768    156.3419   4.5023660532e+01   2.6397304937e+01    0.4611922    0.2743677 -23.68  0.001812583    2.956    0.662
        51 -12.8980    112.1409    156.0013   4.7221356996e+01   2.7854836305e+01    0.5826224    0.3808446  75.97  0.002545693    2.198    0.545
        52 -12.6874     85.3735    153.2099   5.4078244973e+01   3.2570529696e+01    0.7056879    0.4923199 -25.98  0.003181604    1.859    0.462
        53 -12.6572     77.2966    156.9672   5.7135881648e+01   3.2760897092e+01    0.5630322     0.479996   5.84  0.001676096    1.317    0.241
        54 -13.6412     73.9958    153.3004   5.7548094522e+01   3.4194859816e+01    0.8021027    0.6048591  20.24  0.001487406    1.434    0.303
        55 -12.2762     55.3310    155.8740   6.4005444163e+01   3.6011397218e+01    0.5569019    0.3525631 -15.72  0.002252817    2.195    0.545
        56 -12.7310    210.7301    154.2781   2.8247914676e+01   1.4683757320e+01    0.3375416    0.2509177 -39.89  0.002391129    1.298    0.230
        57 -11.8560    103.6570    149.4606   4.8275413028e+01   3.0737777888e+01    0.4067861    0.2773857 -34.52  0.001555465    1.767    0.434
        58 -12.2295      9.6072    149.5426   7.9604719595e+01   4.2459718756e+01    0.7595216    0.3948458  -4.70  0.002974171    2.345    0.573
        59 -10.9613    190.5211    150.7525   3.0625362176e+01   1.7785105087e+01    0.2126753    0.1011667  27.02 0.0008945115    4.396    0.773
        60 -12.0178     59.8324    148.8747   6.1404200731e+01   3.7332382778e+01    0.2412626    0.2110521 -28.79  0.001237593    1.247    0.198
        61 -11.6715     38.3072    145.7431   6.8462730261e+01   4.0852758993e+01    0.2727047      0.26449 -40.03 0.0006240271    1.059    0.055
        62 -12.9533     42.4220    138.3389   6.5841719838e+01   4.2415345418e+01    0.6212533     0.396552  32.83  0.002798443    1.514    0.340
        63 -12.4040    246.5626    133.8470   2.1006671450e+01   1.4107203994e+01    0.3020623    0.2083949 -71.24  0.002341513    1.478    0.323
        64 -13.0422    234.2335    132.8461   2.2170645559e+01   1.5625915311e+01    0.3890946    0.3413877  -1.04  0.003180233    1.852    0.460
        65 -10.2794     10.9690    134.0209   7.7408429263e+01   4.6725811540e+01    0.1743998    0.1648085  14.66 0.0003479288    1.074    0.069
        66 -12.8502    136.7741    131.8983   3.7078727097e+01   2.9460504795e+01    0.6229736    0.3327868  38.72  0.002902415    2.164    0.538
        67 -12.2338    111.6696    131.6787   4.2872825049e+01   3.3671359205e+01    0.3986914    0.2899324 -39.86  0.001706976    1.557    0.358
        68 -12.7172    223.2116    127.8036   2.2665248601e+01   1.7752659369e+01    0.3436759    0.2298626 -75.47  0.002366755    1.620    0.383
        69 -10.5365     34.2838    129.6667   6.7556233790e+01   4.5721377571e+01    0.1573834    0.1089929  61.54 0.0001975467    1.617    0.382
        70 -11.0235      5.2786    128.8585   7.9132636850e+01   4.8565821440e+01    0.3105944    0.1641534 -28.00  0.001257971    2.179    0.541
        71 -14.8173    106.3539    121.2500   4.2177166356e+01   3.6960655216e+01     1.528762     1.115842  42.55  0.007929065    1.417    0.294
        72 -11.1742     59.0015    124.5662   5.7432122788e+01   4.3869537864e+01    0.2776641     0.206752 -88.09  0.000570143    1.528    0.345
        73 -12.6331    181.4873    120.9812   2.7068452521e+01   2.4602461730e+01    0.4431022    0.2836305 -82.02  0.002474421    1.930    0.482
        74 -11.0490     73.7210    120.0475   5.1517672158e+01   4.2747567578e+01    0.5041178    0.3037772  16.01   0.00203897    2.378    0.579
        75 -12.0777     79.0075    119.2753   4.9658103327e+01   4.2075167757e+01    0.3341342     0.303604 -50.00  0.001845054    1.161    0.139
        76 -13.3729     84.0570    114.4872   4.7088879574e+01   4.2366950169e+01    0.9483584    0.5343475  43.39  0.003969707    1.725    0.420
        77 -12.7239    230.0492    119.1805   2.0606722530e+01   1.8327544901e+01    0.3010526    0.1360298 -56.18  0.001800768    1.700    0.412
        78 -12.9457      4.9846    118.6406   7.8066732279e+01   5.1374009431e+01    0.7049952    0.5075848 -27.07  0.003538161    1.444    0.308
        79 -14.7855    106.1149    104.3185   3.8687051455e+01   4.0724292361e+01     1.279057    0.9833797  45.77  0.006981163    1.343    0.255
        80 -13.3710     32.2092    112.1711   6.5446618383e+01   5.0591088146e+01     0.652473    0.4344698 -52.03  0.003114859    1.506    0.336
        81 -14.2944     18.0883    110.8507   7.1261833399e+01   5.2401665805e+01    0.9692826    0.8175182 -26.89  0.003371889    1.214    0.176
        82 -13.0620     20.5679     86.2284   6.5663159357e+01   5.8296963557e+01    0.8328444    0.4463741   9.47  0.001292558    2.093    0.522
        83 -14.0775     10.7467    102.9536   7.3322631021e+01   5.5080442243e+01    0.8771688    0.7208974  51.35  0.004132757    1.297    0.229
        84 -13.6190      2.4220     96.9667   7.6348028507e+01   5.7212152324e+01    0.8921431    0.4245607 -68.24   0.00319692    2.051    0.512
        85 -14.5787     25.2809     93.7661   6.4983194997e+01   5.5985405128e+01     1.702188    0.9558572   6.36  0.007248855    2.127    0.530
        86 -12.4519     36.7432     92.6976   5.9653262139e+01   5.4852180526e+01    0.5720274    0.2748897  24.34  0.002099457    2.103    0.525
        87 -11.5178    194.8006    113.3978   2.3898724119e+01   2.4002363038e+01    0.1339322    0.1118571  47.14 0.0006722857    1.638    0.390
        88 -12.6768    121.4686    111.6314   3.6496818639e+01   3.6400515864e+01     0.448044     0.320389 -80.33   0.00177117    1.521    0.343
        89 -12.0214     62.7070    109.4622   5.3081114249e+01   4.7072311906e+01    0.7735202    0.4613236 -77.13  0.003266369    2.140    0.533
        90 -11.0326     64.6662    101.7085   5.0695920897e+01   4.8593227486e+01    0.2467826    0.1924429  17.34  0.000429246    1.498    0.332
        91 -12.1300     61.2452     97.9641   5.1078947364e+01   5.0012107172e+01    0.5344414    0.3456893  57.95  0.001949062    1.721    0.419
        92 -11.1651     45.9549    110.1895   5.9505023259e+01   4.9359750004e+01    0.2919711    0.1717509 -36.65  0.001225906    2.080    0.519
        93 -11.4308    222.3771    109.0932   1.9900096328e+01   2.0919461274e+01    0.1569672     0.143811 -88.66  0.001228573    1.395    0.283
        94 -10.8180     42.9311    107.2645   6.0121660507e+01   5.0498540142e+01    0.2057549     0.183332  31.68 0.0004916407    1.087    0.080
        95 -10.4038    153.6603    105.2944   2.8736188204e+01   3.2006015185e+01    0.1316914   0.08928479 -85.83 0.0004021284    1.654    0.395
        96 -13.1727    134.9252    102.7198   3.1761404340e+01   3.5798632757e+01    0.8092983    0.3198234  51.77  0.002799836    2.643    0.622
        97 -13.4526    120.3778    102.3872   3.4818416084e+01   3.8511061819e+01     0.671504    0.3106002  47.46  0.002944994    2.205    0.547
        98 -12.0626     46.4668     98.5092   5.6866720766e+01   5.2140530560e+01    0.4068396    0.3288566  48.84   0.00178438    1.221    0.181
        99 -11.0409     48.5936    101.2045   5.6603898604e+01   5.1191163127e+01    0.2576941    0.2047801  21.27 0.0009107215    1.296    0.228
       100 -12.0102     52.2321     97.9129   5.4457237663e+01   5.1433448844e+01    0.4357964    0.3162642  -4.06  0.001465029    1.873    0.466
       101 -11.3590     49.7257     94.6632   5.4708185137e+01   5.2567045420e+01    0.2377108    0.1954464 -48.55 0.0005015319    1.286    0.223
       102 -11.1457     48.3010     92.2940   5.4735553827e+01   5.3326043413e+01     0.232939    0.1921059  23.13 0.0001999609    1.226    0.185
       103 -11.5122    249.5001     99.4962   1.5856188636e+01   1.9012703763e+01    0.1936119   0.06185747 -55.22  0.001036505    2.372    0.578
       104 -11.9339     88.6180    109.8394   4.4722084212e+01   4.2650795471e+01    0.3879932    0.2383102 -58.38  0.001327548    1.632    0.387
       105 -12.4538    163.5499     97.6367   2.5627742815e+01   3.1729720736e+01    0.3154148    0.2638249  63.37 0.0009106812    1.349    0.259
       106 -12.8163    137.2470     95.1239   2.9742476431e+01   3.6841632931e+01    0.4104041    0.2974629  77.52  0.001223788    1.406    0.289
       107 -11.8998     90.9856     96.4090   4.1036645430e+01   4.5178302519e+01    0.3486288    0.2660795  29.70  0.001150655    1.580    0.367
       108 -10.6056     74.4937     95.5058   4.5913688082e+01   4.8333250845e+01    0.2616211    0.1376365  27.93  0.000943065    2.484    0.597
       109 -11.5871     42.8499     90.2675   5.6507876922e+01   5.4584351188e+01    0.3364994    0.2349833 -59.79 0.0009364772    1.506    0.336
       110 -12.7882     28.5747    122.0691   6.8620830996e+01   4.8391323194e+01    0.5443732    0.3639525 -49.61  0.002427985    1.501    0.334
       111 -13.4339    188.3699     84.2159   1.9709333746e+01   2.9905411675e+01    0.5160289     0.322212  49.70  0.002208502    2.209    0.547
       112 -10.3252     78.6211     86.8534   4.2511138877e+01   4.9445034087e+01    0.1874178    0.1291587 -70.14 0.0004627097    1.633    0.388
       113 -13.8903    197.3701     71.0086   1.6380354674e+01   3.0526066917e+01     1.044737    0.6602479  41.67  0.005928081    3.357    0.702
       114 -11.8177    159.0574     64.9771   1.9937676817e+01   3.8021270296e+01    0.6367146    0.2025793 -56.81  0.002534274    3.414    0.707
       115 -11.4183    152.3646     83.0724   2.4588603598e+01   3.6266892398e+01    0.2282979    0.1738065  67.13 0.0004983258    1.326    0.246
       116 -14.6539    165.3995     78.7255   2.1739643648e+01   3.4672750009e+01     1.501388    0.6919434  45.16  0.006816695    3.512    0.715
       117 -13.1427    164.9680     70.9971   2.0303743080e+01   3.6003489154e+01    0.5664744    0.3378926  50.43  0.002470606    2.174    0.540
       118 -12.6390    242.8739     83.7411   1.4141522564e+01   2.2124776180e+01    0.3206885    0.1704359  69.01  0.002165736    2.307    0.567
       119 -12.9467    237.4885     79.7421   1.3999122147e+01   2.3399635099e+01    0.3277547    0.1975106  89.09  0.002278818    1.819    0.450
       120 -11.2818     98.1808     83.8890   3.6110732640e+01   4.6376601274e+01    0.2128712     0.171231  83.64 0.0005998251    1.231    0.188
       121 -13.0479     39.8050     67.2684   5.2066166458e+01   6.0001297308e+01     2.500932    0.4480052  34.14  0.006920659    5.024    0.801
       122 -14.0201     79.7574     58.9711   3.4888099605e+01   5.4510008685e+01      1.69911    0.9859033  37.92   0.00826624    2.018    0.505
       123 -11.9492    235.4915    248.0051   3.7538776292e+01  -3.0404252216e+00    0.1833892    0.1351694  -5.98    0.0015605    1.383    0.277
       124 -13.0347     65.4548     49.8173   3.6802042146e+01   5.8790054155e+01    0.5818459    0.4806355  55.47  0.002844724    1.049    0.046
       125 -13.8698     74.3950     73.6559   4.0529292061e+01   5.2862478421e+01      1.42099    0.6964702  28.24  0.004970201    3.854    0.741
       126 -13.5508     87.3859     65.2901   3.4389619662e+01   5.1923473646e+01    0.8191676    0.6014042   0.42  0.002891262    2.917    0.657
       127 -13.3550     55.4238     80.6591   4.9101605636e+01   5.4778760983e+01    0.5592303    0.4929211 -11.76  0.001775234    1.350    0.259
       128 -13.9266     61.2270     75.6832   4.5624204407e+01   5.4828019218e+01    0.7595755    0.5766492 -49.76  0.002522494    1.439    0.305
       129 -13.5726    215.1310     78.5052   1.5823699376e+01   2.6688720474e+01    0.7156591    0.4467018  80.69  0.004805834    1.718    0.418
       130 -11.9443    114.3009     80.1304   3.1276822282e+01   4.3977078112e+01    0.3855086    0.2712397 -62.80  0.001220573    1.386    0.279
       131 -12.8044    135.4243     79.2239   2.6739026868e+01   4.0081218993e+01    0.6402495    0.3020212  58.33  0.002744706    2.111    0.526
       132 -10.5552     90.1603     81.1815   3.7653951625e+01   4.8435402341e+01    0.1981017    0.1533791  80.10  0.001082487    1.347    0.258
       133 -13.9960    170.6938    241.7819   4.7290371494e+01   2.5333157335e+00    0.8576975    0.5980267 -10.37  0.005626818    1.375    0.273
       134 -14.1337      5.5692     63.5869   6.8640685201e+01   6.4828739238e+01    0.8481641    0.5746043  11.03   0.00441297    1.369    0.270
       135 -11.8632     42.2026     77.5154   5.3708650009e+01   5.7512824083e+01    0.4471865    0.2736578 -70.54  0.001667484    2.047    0.511
       136 -11.4176     27.4258     76.3281   6.0155747654e+01   5.9776943444e+01      0.29204    0.2415223  72.43  0.001071017    1.434    0.303
       137 -11.3706    241.1963     70.4255   1.2321198867e+01   2.4225397790e+01    0.1282806   0.07625506 -86.69 0.0009517127    1.719    0.418
       138 -11.5895    214.4490     71.5248   1.4763236517e+01   2.7823196219e+01    0.1947899    0.1394839 -67.90  0.000681324    1.025    0.024
       139 -12.4545    135.4487     66.0144   2.3859427220e+01   4.2309842097e+01    0.3809415    0.3565528  58.95  0.001500614    1.435    0.303
       140 -12.0219    100.4307     64.4214   3.0744076279e+01   4.9495359286e+01    0.3447978    0.2846409 -38.28   0.00190392    1.548    0.354
       141 -12.1831     36.0353     54.6240   5.0169500606e+01   6.3019251664e+01    0.3298636    0.2528271  15.13  0.001798887    1.402    0.287
       142 -11.6768     34.6907     60.3347   5.2479294071e+01   6.2130537294e+01    0.3752189    0.2686919 -32.41  0.001559944    1.651    0.394
       143 -12.1581     38.8106     59.9708   5.0462705333e+01   6.1588257786e+01    0.3606956    0.2498418  63.00  0.001890397    1.798    0.444
       144 -13.5026    178.0061     57.5880   1.6105805130e+01   3.5748518541e+01    0.5837786    0.3697148 -66.59  0.002090703    1.270    0.212
       145 -11.9875     24.7567     59.6703   5.7195230726e+01   6.3616625520e+01    0.3538981    0.2839612 -37.94  0.001571045    1.342    0.255
       146 -13.9236    101.9424     50.7295   2.6861383955e+01   5.1409964424e+01    0.8981272    0.5296305  70.69  0.001851234    1.665    0.399
       147 -14.5113    119.9116     54.7560   2.4119516640e+01   4.7159854229e+01    0.7788044    0.4448687  50.05  0.001719697    1.930    0.482
       148 -12.7018    136.2760     50.1249   2.0186449742e+01   4.4604321474e+01    0.4469184    0.3639526 -58.62 0.0007694725    1.297    0.229
       149 -12.3785    247.9359     54.3418   9.4990473555e+00   2.5494463768e+01    0.3892229    0.1616722 -53.40  0.002673151    1.610    0.379
       150 -10.6929     47.3458     56.3449   4.5657151107e+01   6.0903096689e+01    0.2734254    0.1342132  54.96  0.001161632    2.460    0.594
       151 -11.0825     17.7064     54.9079   5.9626237255e+01   6.5420072417e+01    0.2841665    0.2047326 -81.70  0.001571795    1.912    0.477
       152 -11.3178    231.7917     55.2755   1.0764006688e+01   2.7581865364e+01    0.1603231    0.1038545 -89.76  0.001200963    1.458    0.314
       153 -10.4819     23.5242     50.0215   5.5047925923e+01   6.5644098868e+01    0.1685802    0.1271878 -52.95 0.0004694063    1.496    0.331
       154 -12.5475    154.5377     46.5191   1.6783540022e+01   4.1600671896e+01    0.3524103    0.1918943  64.26  0.002087492    1.768    0.434
       155 -12.9698    158.7944     43.0903   1.5542104237e+01   4.1276687079e+01    0.5072467    0.3255158  67.18  0.002498925    1.532    0.347
       156 -13.3170      6.2075     43.0990   6.3031976205e+01   6.8926839138e+01    0.9816097    0.3864579  22.32  0.004454922    2.234    0.552
       157 -12.6919    147.5972    238.7955   5.1447035853e+01   5.0931693265e+00    0.5228021    0.3271465  53.93  0.002427871    2.633    0.620
       158 -12.2537    145.0663    232.6713   5.1181170961e+01   6.5408533695e+00    0.3425055    0.2254366 -67.21  0.001887883    1.865    0.464
       159 -12.7633      3.1175     34.4509   6.2426097101e+01   7.0818732546e+01    0.2977854    0.2569278 -71.76 0.0009042292    1.499    0.333
       160 -14.1869     26.7571    225.5275   8.0442754016e+01   1.9949830993e+01      1.64471     0.812191 -71.02   0.00714068    2.062    0.515
       161 -14.0164     20.7310    224.5956   8.2084388772e+01   2.0699916271e+01      1.11886    0.6054391 -52.95  0.004455659    1.969    0.492
       162 -14.3991    212.6846     40.8095   9.9216203723e+00   3.2327914356e+01     1.417096    0.4486205  75.59  0.007133087    3.718    0.731
       163 -13.1544    237.1283    229.6372   3.5038131554e+01  -3.5472439793e-01    0.3179457    0.2666797  74.74  0.002518656    2.287    0.563
       164 -14.2676     57.7110    203.5868   6.9462317477e+01   2.2720023389e+01     1.035564    0.7007589  70.84  0.004767983    1.744    0.427
       165 -12.9048     63.9754    223.9568   6.9881595307e+01   1.6816870620e+01    0.8264634    0.4564548  36.56  0.003499489    1.705    0.414
       166 -13.1145     68.5224    221.1350   6.8336890589e+01   1.7050224593e+01    0.7599343    0.4314167 -75.70  0.003373721    2.016    0.504
       167 -12.7211    131.5797     33.2643   1.7046825453e+01   4.7865907325e+01    0.3615167    0.3037864  49.78  0.001523385    1.672    0.402
       168 -12.5756    109.9882     41.8792   2.2859398056e+01   5.1073884791e+01     0.442221    0.1893377  60.14 0.0009140092    2.047    0.511
       169 -12.8477    113.4927     37.8255   2.1153204132e+01   5.0920119112e+01    0.3652171     0.234039  74.82  0.001335804    1.360    0.265
       170 -12.7375     46.2062     33.6310   3.8777965036e+01   6.4853872127e+01    0.7021634    0.4075873  37.28  0.003803528    1.644    0.392
       171 -13.9796     64.0626    214.6761   6.8869445527e+01   1.9151762507e+01    0.7761598    0.5669168   3.82  0.003880017    1.456    0.313
       172 -12.4658     40.6743     40.2738   4.3447243735e+01   6.4777427992e+01    0.5886262    0.2801906  45.14  0.002877312    1.826    0.452
       173 -12.7931     32.8297     40.3166   4.7146636043e+01   6.6031652990e+01    0.4731493    0.3547311 -19.45  0.001864983    1.704    0.413
       174 -13.1623    242.9906     35.2393   7.0427378350e+00   2.8573777060e+01    0.4326446    0.3163914 -84.91  0.002733279    1.356    0.263
       175 -10.2688    169.6436     42.7269   1.4212063001e+01   3.9328721399e+01   0.09639225   0.08292695  62.64 0.0004020252    1.646    0.392
       176 -13.2167     74.8284     37.0386   2.9937553341e+01   5.8915264348e+01    0.6243055    0.2493746  56.54  0.001771928    2.193    0.544
       177 -12.5370    140.1329     21.2423   1.3142739305e+01   4.7656199121e+01    0.4194712    0.2114524  70.29  0.001149353    1.694    0.410
       178 -13.4357     59.4713    212.8474   6.9969191332e+01   2.0106845802e+01    0.8128783    0.4073185 -19.27  0.002857152    3.183    0.686
       179 -12.8607     57.2920    246.7498   7.3829724057e+01   1.1966473401e+01    0.6324431    0.3407366  15.47  0.002946727    1.771    0.435
       180 -12.0323    121.0388     26.4175   1.7002730034e+01   5.0857625655e+01     0.331376    0.1942784  78.37  0.001541732    1.471    0.320
       181 -10.5902     98.5685     27.2982   2.1253260486e+01   5.5364528580e+01    0.2122243   0.09062276  62.35  0.000642454    1.957    0.489
       182 -12.0229     30.5050     25.2968   4.2892420919e+01   6.8738704336e+01    0.3548084    0.1969684  32.59  0.001538045    1.698    0.411
       183 -11.5408     35.7419     23.2270   3.9559855102e+01   6.8164971627e+01    0.2606309    0.2277649   6.26  0.001819999    1.335    0.251
       184 -12.7190     94.4788    218.1963   6.1091154426e+01   1.4969027164e+01    0.3581866    0.2635731   9.29    0.0013637    1.390    0.281
       185 -11.6171     41.2800    248.1000   7.8134976318e+01   1.3099206886e+01    0.5565991    0.2436102 -85.05  0.002222484    2.959    0.662
       186 -12.6619      4.6891    211.6795   8.5916803420e+01   2.5360871623e+01    0.5970327    0.2740454 -67.46   0.00249426    2.129    0.530
       187 -11.5878     71.0914     16.5729   2.4422860114e+01   6.2293281287e+01    0.2299455    0.1825839  70.01  0.000688805    1.035    0.034
       188 -10.9703    136.5085    210.9582   5.0071019514e+01   1.1948842207e+01     0.202686    0.1206161 -55.76  0.000974054    1.586    0.369
       189 -11.0767     40.0145    210.7964   7.5404950905e+01   2.2608854428e+01    0.3580764    0.2028533  20.63  0.001573541    1.704    0.413
       190 -11.5281    229.2010    210.4153   3.3644685482e+01   3.2669351958e+00    0.1176504   0.09829638  37.92 0.0009561316    1.711    0.415
       191 -12.5415     46.6921    208.8546   7.3254279681e+01   2.2469207172e+01    0.5885042    0.2879776  68.18  0.002118743    2.900    0.655
       192 -11.8090    134.9993     39.7067   1.8025014655e+01   4.6328607479e+01    0.4112853    0.2109701  80.93  0.001443479    2.007    0.502
       193 -11.0202     80.6727    208.3459   6.3520885023e+01   1.8932555501e+01    0.2338451     0.160316  57.50  0.001076666    1.704    0.413
       194 -11.2996    249.1419    224.8974   3.2860791274e+01  -4.1343145431e-01    0.1451649    0.1100652 -45.63 0.0009474775    1.255    0.203
       195 -11.0300    151.0053    206.6166   4.6371849261e+01   1.1283774335e+01    0.2731777    0.1856403  -9.80  0.001493303    1.746    0.427
       196 -11.8855     13.3368    205.6904   8.2968337518e+01   2.6330278599e+01    0.4355977     0.196441 -45.75  0.001420132    2.517    0.603
       197 -13.0983     16.1986    197.0966   8.1472564253e+01   2.8465641115e+01    0.8435053    0.3028083 -54.16  0.002669802    2.768    0.639
       198 -13.9296     30.1614    168.7760   7.4272889163e+01   3.5213513747e+01    0.9697989    0.5614353 -36.52  0.003992435    1.997    0.499
