#   1 NUMBER                 Running object number                                     
#   2 MAG_AUTO               Kron-like elliptical aperture magnitude                    [mag]
#   3 X_IMAGE                Object position along x                                    [pixel]
#   4 Y_IMAGE                Object position along y                                    [pixel]
#   5 X_WORLD                Barycenter position along world x axis                     [deg]
#   6 Y_WORLD                Barycenter position along world y axis                     [deg]
#   7 A_WORLD                Profile RMS along major axis (world units)                 [deg]
#   8 B_WORLD                Profile RMS along minor axis (world units)                 [deg]
#   9 THETA_WORLD            Position angle (CCW/world-x)                               [deg]
#  10 FWHM_WORLD             FWHM assuming a gaussian core                              [deg]
#  11 ELONGATION             A_IMAGE/B_IMAGE                                           
#  12 ELLIPTICITY            1 - B_IMAGE/A_IMAGE                                       
         1 -13.0106    211.3524      1.7374   6.0567816159e+01   3.1574417645e+01     1.717422    0.7188926  73.02  0.007043066    2.186    0.543
         2 -14.1764    188.1151     25.3983   6.9660444936e+01   3.4928770359e+01     1.703722     1.469635 -14.09  0.006025588    1.304    0.233
         3 -13.8284    195.1343     18.7377   6.6849817706e+01   3.3888222929e+01     1.295256    0.9310599 -64.52  0.004376696    1.431    0.301
         4 -13.2282    201.1132     10.7687   6.3959839081e+01   3.3222362990e+01    0.8091781    0.6699147  55.19  0.001382954    1.257    0.204
         5 -11.5895     32.9236     13.2111   1.0605931839e+02   6.9349786723e+01    0.6216884   0.09921751 -42.16  0.001901284    5.916    0.831
         6 -11.8591    125.9108    243.8840   1.3086638370e+02   9.3368628605e+00    0.2512369     0.205579 -80.69  0.001800816    1.438    0.305
         7 -11.4826    247.0987    249.6888   1.1071569902e+02  -9.9451008215e+00    0.4142451    0.1603913  36.99  0.002260781    2.066    0.516
         8 -12.3986    140.5239    248.6393   1.2880429035e+02   6.3645597396e+00    0.4929088    0.2741016  50.72  0.002927832    1.504    0.335
         9 -13.0930    104.5535    244.3587   1.3470230370e+02   1.2476681571e+01    0.8398998    0.5127767  71.68 0.0007955309    1.782    0.439
        10 -13.1676    100.1743    244.7899   1.3551248447e+02   1.3045677818e+01    0.6813006    0.4877635  49.84  0.002258078    1.126    0.112
        11 -13.3168     73.2890    226.7973   1.3867448650e+02   1.9895886242e+01    0.6917385    0.2847174  64.77  0.003004143    2.970    0.663
        12 -14.0569     33.7398    246.0518   1.4676883782e+02   2.1404430947e+01     1.925763    0.6261586  42.25   0.00853356    2.422    0.587
        13 -12.7274     52.2459    233.2811   1.4290946419e+02   2.1444572076e+01    0.5452247    0.4081995 -71.87  0.002565447    1.515    0.340
        14 -13.3431     48.8286    226.6026   1.4302818500e+02   2.3056799924e+01    0.5724707    0.4666501  -8.57  0.002281498    2.595    0.615
        15 -16.5054     51.7954    206.5421   1.4092348353e+02   2.6483814825e+01     16.51383     6.826824  88.35   0.07186383    3.322    0.699
        16 -11.9767     72.8570    192.8657   1.3541356849e+02   2.6486476751e+01     0.382173    0.2629359 -46.93  0.001324395    1.945    0.486
        17 -11.8977     77.3425    186.1203   1.3369579828e+02   2.7252753378e+01    0.2776969    0.2268316 -56.45 0.0007127883    1.426    0.299
        18  -8.8296    181.5363    192.4355   1.1291906818e+02   8.1444312660e+00    0.1343803    0.1187467  32.88 0.0001035935    1.010    0.010
        19 -15.6238      9.2624    240.4649   1.5033542645e+02   2.4925194336e+01     8.848714    0.6591266 -74.82    0.0104352    7.993    0.875
        20 -13.3885     57.1355    128.0037   1.3031042916e+02   4.2969606225e+01     2.112336    0.6639137 -72.60  0.005642852    6.054    0.835
        21 -13.1278     91.0111    166.0977   1.2794712680e+02   2.9505777595e+01     3.306037    0.6387812  47.72  0.001366933    5.958    0.832
        22 -13.4289     73.3471    171.6397   1.3275648568e+02   3.0908512710e+01    0.4530726    0.2725739 -45.78  0.001640282    2.132    0.531
        23 -13.8078     68.1184    145.2518   1.3023985160e+02   3.7551693653e+01     1.541541    0.7886311  84.17  0.005767892    3.456    0.711
        24 -11.6086     85.7234    174.2823   1.3033794120e+02   2.8538750092e+01    0.2784063    0.2444105  50.76 0.0005625855    1.189    0.159
        25  -9.9901    228.9133    205.7250   1.0651939091e+02  -2.1734629492e+00     0.207271    0.1708795 -33.65 0.0004335757    1.437    0.304
        26 -10.7167    192.7858    194.3403   1.1108055388e+02   5.7666803024e+00    0.8120585    0.3908812 -60.07   0.00238507    6.722    0.851
        27 -10.2736    103.1759    149.1759   1.2221956718e+02   3.1269012546e+01    0.3287526    0.2844122 -28.91  0.000847562    1.431    0.301
        28  -9.6933    105.6279    145.6774   1.2096434298e+02   3.1628994947e+01    0.2917429     0.201784 -28.83  0.001345433    2.083    0.520
        29 -12.2639     92.1526    148.9264   1.2487734066e+02   3.3151669017e+01    0.2669048    0.2480396 -47.59 0.0004440178    1.220    0.181
        30  -9.7553    134.0000    145.4500   1.1406220456e+02   2.6388268544e+01    0.4817928   0.08345775 -48.82  0.001150756    5.879    0.830
        31  -9.9771    112.8457    135.5061   1.1712819899e+02   3.2615104856e+01    0.3138447    0.2408315 -12.82  0.001109201    1.914    0.478
        32 -11.1813     69.6788    134.6889   1.2811515341e+02   3.9778560681e+01    0.3429162    0.1852274  37.95  0.001644556    1.978    0.494
        33 -14.2994     11.4303    206.6059   1.4833665230e+02   3.0847360288e+01     1.047533    0.8090405  50.88  0.003151558    1.383    0.277
        34 -10.8640    100.4984    132.5126   1.1965655106e+02   3.5495269862e+01    0.2878924    0.2314773 -29.32 0.0007921665    1.527    0.345
        35  -8.8193    105.6710    131.3269   1.1807371972e+02   3.4856884119e+01    0.1513872     0.110776  81.52 0.0007050731    1.705    0.413
        36 -13.4617     43.2303    128.2342   1.3406691865e+02   4.4516236368e+01    0.7376804    0.3828556 -78.96  0.003568238    1.951    0.487
        37  -9.5870    109.0348    122.9121   1.1535299691e+02   3.6147067049e+01    0.2071178    0.2016882 -71.53 0.0003238315    1.038    0.037
        38 -11.2748     35.3239    229.9426   1.4557716792e+02   2.4025234285e+01    0.2653192     0.159892  62.06 0.0007737841    1.253    0.202
        39 -10.9787    168.3449    113.1297   9.8508004416e+01   2.5675452339e+01    0.3787839    0.3085538 -84.30 0.0009743712    1.541    0.351
        40  -8.8878    118.2778    128.3606   1.1419952575e+02   3.3187763259e+01    0.1482601    0.1169004 -18.72 0.0007010216    1.665    0.399
        41 -11.4151    172.7428    221.2089   1.1931709065e+02   5.1630432334e+00      0.33868    0.1824792  35.44  0.001756414    1.662    0.398
        42  -9.5104    205.5274    110.4836   9.0358587633e+01   1.7567774249e+01    0.2703474    0.1318297  41.54  0.000856731    2.260    0.557
        43  -9.8359     15.8597     91.8768   1.3628193116e+02   5.5289245429e+01    0.1743995    0.1359041 -55.46 0.0003763331    1.138    0.121
        44  -9.2001    154.5219     76.4568   9.1304735304e+01   3.5918906829e+01    0.1533425    0.1491223  14.63   0.00013065    1.042    0.040
        45 -10.8849     13.1285     61.3485   1.3131601493e+02   6.2157888402e+01    0.2279977     0.122116 -53.91  0.001251225    1.408    0.290
        46  -9.4733    127.5123     54.0193   9.0476819717e+01   4.6211018282e+01     0.216452     0.143573 -34.81 0.0003846897    1.503    0.335
        47 -10.8106    202.7504    249.5706   1.1806126995e+02  -3.4735677932e+00    0.2342313   0.08711376  37.50  0.001147899    2.140    0.533
        48  -9.5714    185.7994    238.3796   1.1943702900e+02   5.7776601761e-01    0.1671848   0.09165375  34.41 0.0003061781    1.538    0.350
        49 -11.5021    109.9804    247.7054   1.3407542379e+02   1.1148566243e+01     0.266085    0.2068784  63.46 0.0008318769    1.118    0.106
        50 -10.5172    163.5616    249.5680   1.2485991394e+02   2.6277762426e+00    0.2865949    0.1692084  68.30  0.001420747    3.059    0.673
        51 -10.6011     37.4862    226.0303   1.4496158630e+02   2.4487564814e+01    0.2160541     0.157831  81.19 0.0008490981    1.121    0.108
