#   1 NUMBER                 Running object number                                     
#   2 MAG_AUTO               Kron-like elliptical aperture magnitude                    [mag]
#   3 X_IMAGE                Object position along x                                    [pixel]
#   4 Y_IMAGE                Object position along y                                    [pixel]
#   5 X_WORLD                Barycenter position along world x axis                     [deg]
#   6 Y_WORLD                Barycenter position along world y axis                     [deg]
#   7 A_WORLD                Profile RMS along major axis (world units)                 [deg]
#   8 B_WORLD                Profile RMS along minor axis (world units)                 [deg]
#   9 THETA_WORLD            Position angle (CCW/world-x)                               [deg]
#  10 FWHM_WORLD             FWHM assuming a gaussian core                              [deg]
#  11 ELONGATION             A_IMAGE/B_IMAGE                                           
#  12 ELLIPTICITY            1 - B_IMAGE/A_IMAGE                                       
         1 -13.0764      2.8666    100.3226   1.2508840311e+02   5.3898875190e+01     1.035197    0.2494418 -76.70  0.004086363    3.374    0.704
         2 -13.3503    205.9641     35.5284   5.4035753590e+01   2.8623584320e+01     1.396827     1.093221  66.88  0.006717452    1.280    0.219
         3 -13.8171    224.8650     16.5666   4.6583905831e+01   2.6030625755e+01     1.087265    0.9182186  39.25  0.001781047    1.355    0.262
         4 -12.4236      2.5830     15.3546   1.0886437083e+02   7.2185245717e+01    0.9921135    0.1755855 -61.14  0.003360893    4.978    0.799
         5 -12.3441      3.8915      4.7382   1.0385088922e+02   7.4085365623e+01    0.7128564    0.3540647 -45.58  0.004359073    1.485    0.326
         6 -11.3306      7.6792     21.4294   1.0825083819e+02   7.0709257783e+01    0.2555406    0.1571162  38.60  0.001591124    2.193    0.544
         7 -11.0436    162.4096    250.2260   1.0749548462e+02   4.9555196986e+00    0.3287327    0.1150227  43.61  0.001695415    2.091    0.522
         8 -10.6000    144.6424    250.3250   1.1046713268e+02   7.5777505635e+00    0.2466038    0.1606275  78.70  0.001535037    2.459    0.593
         9 -10.7725    141.2981    248.6368   1.1085371081e+02   8.2852137581e+00    0.2042528    0.1554262  63.67 0.0009177877    1.378    0.274
        10 -13.2250    119.3518    237.3725   1.1347320095e+02   1.3050257011e+01    0.7668039     0.583817  49.97  0.003803178    1.030    0.029
        11 -11.3423    117.5513    249.8030   1.1494398973e+02   1.1568300836e+01    0.4260705    0.2714757  44.23  0.002098558    1.185    0.156
        12 -13.2983    122.6544    249.0944   1.1402621311e+02   1.0937358893e+01     1.505182    0.3292856  40.03  0.006022595    3.696    0.729
        13 -11.2277    100.2653    248.0347   1.1767560749e+02   1.4221478802e+01    0.3654462    0.2498384  53.07  0.002740939    1.056    0.053
        14 -11.7382     82.7339    240.2246   1.2000402312e+02   1.7724232359e+01    0.4834262    0.1921316  55.34  0.001866146    2.102    0.524
        15 -11.1103     84.3275    229.9545   1.1892475208e+02   1.9110840960e+01    0.4675181    0.3118003  12.66  0.002463908    3.647    0.726
        16 -11.7054     87.7549    248.4392   1.1978049541e+02   1.5841924712e+01    0.4776234    0.2601913  49.96    0.0020843    1.314    0.239
        17 -12.1334     88.7721    238.4955   1.1884499515e+02   1.7184943023e+01    0.6394686     0.323132  71.01  0.003678635    2.348    0.574
        18 -10.7989     90.8619    224.4007   1.1729285764e+02   1.9110599976e+01    0.4194402    0.1920004  52.20  0.001775369    1.747    0.428
        19  -9.7536     90.9784    220.2462   1.1689730665e+02   1.9772549528e+01    0.2016869    0.1347862  81.75 0.0006630754    1.570    0.363
        20 -11.4446     74.0778    243.9836   1.2172087364e+02   1.8271075545e+01    0.2961259    0.2194789 -76.00   0.00236199    1.580    0.367
        21 -10.9575     68.1025    245.3933   1.2279724298e+02   1.8806394008e+01    0.4930508    0.2380271  84.64  0.002981601    2.520    0.603
        22  -9.7512     63.7358    248.2241   1.2368373660e+02   1.8915549071e+01    0.3321367   0.05715571 -64.76  0.001435884    5.802    0.828
        23 -11.1411     58.9988    246.1602   1.2432351497e+02   1.9797208136e+01    0.3868438    0.3366888 -81.69  0.003401104    1.523    0.343
        24 -10.7252     73.7980    237.1324   1.2128773239e+02   1.9358706994e+01    0.2245578    0.1708979  77.35 0.0005388359    1.224    0.183
        25 -10.2857     69.0786    237.3719   1.2210120992e+02   1.9918782823e+01    0.2098482    0.1799339 -42.47 0.0005535708    1.974    0.493
        26 -12.7966      3.0769    190.4059   1.3099612104e+02   3.5173760864e+01     1.582454    0.2711124 -80.56  0.006134301    5.137    0.805
        27 -12.1243     34.5693    228.0997   1.2732425479e+02   2.5452098294e+01    0.7294181    0.4101888  74.21  0.001933839    1.450    0.310
        28 -12.5793     36.9503    206.3554   1.2568290619e+02   2.8950168642e+01     0.708099    0.4611124  46.63  0.005106702    1.374    0.272
        29 -14.8881     23.3068    219.8359   1.2879914236e+02   2.8019484371e+01     1.329324     1.096183 -67.04   0.01118952    1.696    0.410
        30 -12.1675    104.6350    236.7638   1.1596952661e+02   1.5257797277e+01    0.4559002    0.2373074  56.58  0.002351365    1.652    0.395
        31  -9.1513     53.7161    241.0101   1.2487864803e+02   2.1215301080e+01    0.1388405    0.1021081  68.91 0.0005606756    1.110    0.099
        32 -10.5315    144.8422    240.4392   1.0938412496e+02   8.8244079960e+00    0.2326578   0.08128841  45.00  0.001149762    2.148    0.534
        33 -11.6974    136.3320    241.4560   1.1095422020e+02   9.9676337895e+00    0.2520555    0.2006122  72.42  0.001474315    1.412    0.292
        34 -11.7963    135.4761    236.0981   1.1053513702e+02   1.0830376028e+01    0.7432129     0.448512 -20.96  0.003420802    4.791    0.791
        35 -11.4428     97.2299    239.5752   1.1748857014e+02   1.5871542207e+01    0.3437211    0.3023032 -89.69  0.002625456    1.350    0.260
        36 -12.6823     98.9324    230.7730   1.1642725764e+02   1.6973558613e+01     1.118291    0.1657415  42.56  0.003992693    4.409    0.773
        37  -9.9984    249.5415    231.4885   9.0840846225e+01  -5.9605700258e+00    0.1109848   0.07838067  19.52 0.0001624031    1.024    0.023
        38 -10.6774    113.4454    229.9886   1.1378357374e+02   1.5006488786e+01    0.2511444    0.1398768 -56.04  0.001552352    2.259    0.557
        39  -9.9792    153.8798    230.0046   1.0660947239e+02   8.8281840289e+00    0.1711121    0.1365318  44.84 0.0003458338    1.050    0.048
        40 -10.8584     56.5667    228.3076   1.2362032353e+02   2.2910764081e+01    0.1971592    0.1438437  71.90  0.000206897    1.120    0.107
        41 -10.8607     79.1830    225.8682   1.1949942803e+02   2.0455161098e+01     0.299807    0.1704611 -72.67  0.001949116    1.961    0.490
        42 -13.4070      8.7438    211.3036   1.3087952943e+02   3.0900834397e+01     1.451709    0.6805099 -61.89  0.009236915    2.682    0.627
        43 -11.0039    110.0478    247.9516   1.1603502907e+02   1.2880346507e+01      0.34414    0.2026114  51.12  0.001886576    1.257    0.204
        44 -11.0131     99.9715    223.7617   1.1559354473e+02   1.7930104283e+01    0.3242455    0.1582985  37.99  0.001814451    1.867    0.465
        45 -10.2163     71.4786    219.3341   1.2035298552e+02   2.2549261688e+01    0.3217689    0.1960601  62.69  0.002147787    1.347    0.258
        46 -10.4991     60.2802    220.2292   1.2242228280e+02   2.3809511452e+01    0.1840428     0.138234  59.98 0.0003433249    1.067    0.063
        47  -9.9720     50.9320    218.8036   1.2397798050e+02   2.5176039061e+01    0.2104835    0.1179441  66.91 0.0008241335    1.477    0.323
        48  -9.2272     46.9512    214.6575   1.2441230122e+02   2.6356303565e+01    0.1711747    0.1046639  64.26 0.0005312955    1.265    0.209
        49  -9.2219     45.1722    218.8081   1.2498976044e+02   2.5842057555e+01    0.1690544    0.1043629  62.49 0.0006483835    1.215    0.177
        50 -10.0545    107.2378    216.7262   1.1356278547e+02   1.8006733592e+01    0.2259524    0.1374154  58.09 0.0006807069    1.445    0.308
        51  -9.7792     88.0595    212.0756   1.1667568132e+02   2.1554039086e+01    0.2591663    0.1427213 -62.28  0.001055193    2.068    0.516
        52  -8.6224     58.4964    212.5191   1.2218285005e+02   2.5358818780e+01    0.1132306   0.08137234  64.62 8.125227e-05    1.052    0.049
        53 -10.2040     55.8845    209.0009   1.2240079518e+02   2.6298515684e+01     0.385794    0.1515082 -75.44  0.002041064    2.675    0.626
        54  -9.7514     99.2943    209.7491   1.1432653187e+02   2.0342094451e+01    0.2818241    0.1249629  67.24  0.000814783    3.821    0.738
        55 -10.5649     62.5306    208.7893   1.2115535803e+02   2.5517965615e+01    0.2782199    0.1934084  58.70  0.001020666    1.113    0.101
        56  -9.5498     63.9787    205.0377   1.2058203027e+02   2.6007346841e+01    0.4214697   0.09481281  43.14   0.00168399    3.164    0.684
        57  -9.3579    113.9564    204.4237   1.1092562639e+02   1.9032931952e+01    0.1867517    0.1482735  83.05 0.0005205419    1.330    0.248
        58  -9.8412    111.0316    211.3564   1.1227601863e+02   1.8319459170e+01    0.1900536     0.156237  80.27  0.000440843    1.244    0.196
        59  -9.4436    106.6646    203.4975   1.1223177375e+02   2.0314228742e+01    0.1940469    0.1401134 -64.94 0.0005550873    1.580    0.367
        60 -11.4692    101.9851    240.0091   1.1671206528e+02   1.5148267361e+01     0.345112    0.2229778 -85.76  0.001464617    1.888    0.470
        61  -9.6380    250.5926    200.2649   8.5611619285e+01  -3.0541402226e+00     0.152413   0.09591548  -8.79 0.0005279327    1.563    0.360
        62 -10.8651     45.7263    198.8895   1.2355789947e+02   2.9334128370e+01    0.3599549    0.2213143  26.40  0.002196715    2.278    0.561
        63 -13.7943      5.6402    245.3782   1.3257460342e+02   2.5599828891e+01     1.032867    0.5491446  58.62  0.008367662    1.230    0.187
        64 -13.8304     26.8590    247.5896   1.2945342239e+02   2.3166984482e+01      1.72061    0.7411344  33.68   0.01064379    2.681    0.627
        65 -10.0425    250.2383    194.2251   8.4610696799e+01  -2.3554902452e+00    0.2038499    0.1339722 -14.72  0.001286878    1.469    0.319
        66  -9.0483     54.3275    194.2897   1.2155318085e+02   2.9183050026e+01   0.09433305   0.08947115 -38.06 0.0002100118    1.617    0.382
        67  -9.0902     58.0191    193.0224   1.2072486641e+02   2.8972413021e+01    0.2161692    0.1109155  47.84  0.001264563    1.617    0.382
        68 -11.8593     50.4424    191.7870   1.2211055675e+02   3.0120153384e+01    0.3373849    0.2167711 -59.43  0.001387458    1.850    0.459
        69 -10.0004     30.9126    193.1029   1.2597074623e+02   3.2036917788e+01    0.2600339    0.1489767 -54.87  0.001105398    2.368    0.578
        70 -10.1403     35.7288    191.9536   1.2497690967e+02   3.1745003779e+01    0.3247931     0.126921  39.02  0.001778454    2.277    0.561
        71  -9.4628     25.6126    192.8363   1.2695449332e+02   3.2629117210e+01    0.1812585    0.1261842  67.78  0.001340712    1.076    0.070
        72  -9.0631     21.6970    193.2883   1.2771337900e+02   3.2932391921e+01    0.1623832     0.124174 -86.83  0.000418972    1.260    0.206
        73 -10.2141     19.0712    188.4216   1.2793193590e+02   3.4104623935e+01    0.2976674    0.1288693 -89.90 6.201489e-05    2.075    0.518
        74  -9.1357    191.5625    191.6745   9.4226534210e+01   7.8300223922e+00    0.1417718    0.1247208 -43.90 0.0005397773    1.413    0.292
        75  -9.9025      9.8753    187.3471   1.2960292481e+02   3.5155973216e+01    0.1984878    0.1247409 -82.34  0.001428602    1.393    0.282
        76  -9.7837     70.4186    187.1000   1.1769590877e+02   2.8517615548e+01    0.3017059    0.1530022  35.31 0.0008362806    2.065    0.516
        77 -11.9863     57.1131    184.5295   1.2016185975e+02   3.0716214359e+01    0.3472902    0.2071068  47.89  0.001443219    1.453    0.312
        78  -9.1486     29.5674    183.9769   1.2563376292e+02   3.3922188154e+01    0.2192953    0.1662787 -34.51  0.001460589    2.343    0.573
        79  -9.6372     36.9948    179.9937   1.2386858485e+02   3.3924213820e+01    0.1746643    0.1312542  71.03 0.0004243524    1.035    0.034
        80  -8.7222     27.2416    179.1327   1.2576749486e+02   3.5104663502e+01    0.1623528   0.04926807 -57.84 0.0006931617    3.940    0.746
        81  -8.8819    110.4553    178.3930   1.0830581027e+02   2.4273041052e+01    0.1268833    0.1095216  55.51 0.0001107889    1.053    0.050
        82  -9.3903     59.2279    177.1366   1.1903091572e+02   3.1915334368e+01    0.3873352   0.08818204  46.23  0.001513291    3.480    0.713
        83 -11.7291     12.4946    171.7700   1.2825588246e+02   3.7945815730e+01    0.4513958    0.2989776 -74.76  0.003226526    1.421    0.296
        84 -12.0560      8.8891    164.4791   1.2856053595e+02   3.9714514880e+01     0.493573    0.2963218 -43.58  0.002987295    2.713    0.631
        85 -11.4121    248.5463    172.4416   8.0855330590e+01   3.9058471534e-01    0.4372891    0.2847504  -0.06  0.002521189    1.550    0.355
        86 -10.7381     69.5397    172.5849   1.1635867881e+02   3.1501929516e+01    0.2215988    0.1861652  74.54 0.0004099085    1.034    0.033
        87 -10.9229     53.9014    171.4961   1.1961275882e+02   3.3707206804e+01    0.2878727    0.2154827  52.52 0.0008068017    1.230    0.187
        88  -9.1944     18.0942    172.6925   1.2718395123e+02   3.7259011695e+01    0.1522462    0.1186689  70.89  0.001152193    1.090    0.082
        89 -10.4526      2.7251    172.6286   1.3023947715e+02   3.8599974839e+01    0.2759067     0.126207  62.82  0.001176089    1.776    0.437
        90  -9.8228     27.2203    171.4454   1.2523363171e+02   3.6638496466e+01    0.2538894    0.1770749 -57.01 0.0009383686    1.760    0.432
        91 -10.4988     19.9014    168.3549   1.2653162571e+02   3.7962661901e+01    0.1865295    0.1300778 -78.41 0.0003129838    1.303    0.233
        92 -10.1893     39.5784    167.8471   1.2234756301e+02   3.6091832028e+01    0.2294892    0.1855489  15.71  0.001208734    1.845    0.458
        93 -12.0084     77.8932    164.7874   1.1360035772e+02   3.1951212876e+01    0.5198193    0.3992169  49.91  0.003253729    1.221    0.181
        94  -8.2989     64.6848    167.2718   1.1682946276e+02   3.3226107613e+01    0.1261528   0.07736719  66.49 0.0002805021    1.558    0.358
        95  -9.4493     68.2148    166.2508   1.1593385154e+02   3.2974013836e+01    0.1687528    0.1188297  75.24 0.0003411284    1.315    0.240
        96 -11.3004    242.5169    154.4906   7.8251551901e+01   3.6655461289e+00    0.2572326    0.2276032  64.47  0.001605253    1.589    0.370
        97 -11.6747    245.7461    162.4624   7.9346927586e+01   2.0822674073e+00    0.3812953    0.2042901 -31.01  0.001986349    1.848    0.459
        98 -11.2266    249.5150    161.5330   7.8559277897e+01   1.5445684744e+00    0.3330143    0.2220639 -24.39  0.001947258    1.436    0.303
        99  -8.9944     37.2014    162.1863   1.2236821762e+02   3.7516646237e+01    0.1636856    0.1086631  73.20 0.0006139538    1.289    0.224
       100 -10.4437     23.8878    161.8985   1.2523263350e+02   3.8908561727e+01    0.1796573    0.1410171  79.32 0.0003408486    1.035    0.034
       101  -8.7042     43.0943    161.1581   1.2097526453e+02   3.7094083152e+01    0.1664871    0.1101609  68.67 0.0004082157    1.325    0.245
       102 -11.5721      9.4675    156.6462   1.2795937418e+02   4.1263899098e+01    0.3445714      0.13944  76.13  0.001757718    2.413    0.586
       103 -10.9269     12.0951    153.3220   1.2717182593e+02   4.1735664113e+01     0.230544    0.1599561  59.53  0.001037378    1.277    0.217
       104 -10.4532     21.6821    156.1785   1.2527791714e+02   4.0302126402e+01    0.2069343    0.1516239 -78.61  0.001123198    1.228    0.185
       105 -10.6524     26.2146    155.3885   1.2421373678e+02   4.0044325504e+01    0.2524287    0.1455001  49.16 0.0009260667    1.595    0.373
       106  -8.8395     91.6990    156.3086   1.0929609456e+02   3.1673418529e+01    0.1352456   0.09115085  72.44 0.0001906024    1.600    0.375
       107  -8.3931    228.4728    155.4725   8.0790407290e+01   6.1151394090e+00    0.1314188    0.1163713  11.52 0.0001566834    1.054    0.051
       108  -9.8748     32.0206    153.6823   1.2276565442e+02   3.9838062500e+01    0.1585164    0.1280447  68.33 0.0004506627    1.115    0.103
       109 -11.1715    249.6463    151.0832   7.6409136280e+01   2.8257823752e+00    0.3418716    0.2359462 -28.75  0.001980581    1.417    0.295
       110 -10.8935     92.2731    149.8173   1.0817576840e+02   3.2952758901e+01    0.3009474    0.2826919  73.91  0.001020487    1.107    0.096
       111  -9.2508     96.1113    145.8675   1.0662492623e+02   3.3183859404e+01    0.2011314    0.1827851  83.26 0.0004199312    1.030    0.029
       112 -10.6925     24.0335    150.0530   1.2426240589e+02   4.1377301025e+01    0.2699274    0.1621174  76.12  0.001206041    1.462    0.316
       113 -13.1381     16.1200    121.7877   1.2362031549e+02   4.8209003166e+01    0.7418821     0.320208 -63.75  0.003953511    1.933    0.483
       114 -11.8521      8.5364    132.2486   1.2644237126e+02   4.6494675309e+01    0.3511713    0.1960272 -62.95  0.002172694    1.663    0.399
       115 -12.1089      3.2215    132.5584   1.2773962928e+02   4.6811073784e+01    0.6549588    0.3392804  71.86  0.003915085    1.743    0.426
       116 -13.0784      3.9340    121.8079   1.2674391034e+02   4.9089880792e+01    0.7579843    0.4903434  79.39  0.005062651    1.308    0.236
       117 -12.8154      9.0847    143.2865   1.2714248864e+02   4.4087962484e+01    0.8660908    0.1941323 -64.34  0.003696642    3.459    0.711
       118 -12.4520      4.3023    142.7110   1.2818994685e+02   4.4572827334e+01    0.5269905    0.3672371 -77.91  0.002356793    1.229    0.187
       119 -10.4344     80.6500    148.4945   1.1074857222e+02   3.4996177808e+01    0.2287208    0.2046008  82.21 0.0005181818    1.042    0.041
       120  -9.6997     38.8307    148.8455   1.2073909801e+02   4.0173407670e+01    0.1929214    0.1678767  18.38 0.0008790527    1.587    0.370
       121 -11.6832     68.3528    143.6163   1.1302822953e+02   3.7781562823e+01    0.6649963    0.3560692  73.38  0.002906733    2.473    0.596
       122 -12.4019    241.5689    120.3888   7.0969580711e+01   8.4435485632e+00    0.8258191    0.4697975  58.25  0.003868527    2.155    0.536
       123 -12.7711    248.4577    133.7241   7.2892260420e+01   5.2961448281e+00     1.152263    0.6129826 -19.09  0.005445423    1.952    0.488
       124 -12.0146    247.7494    112.8130   6.8281846344e+01   8.2551145777e+00    0.5979713    0.4270849  33.62  0.003269146    1.444    0.307
       125  -9.2542    236.1259    146.1420   7.7549882721e+01   5.9502298740e+00    0.1639333     0.157752 -26.79 0.0004738418    1.284    0.221
       126  -8.8862    133.3964    141.2020   9.6941384507e+01   2.7512355344e+01    0.2023398    0.1340787 -63.11 0.0009544477    1.758    0.431
       127  -9.8058     44.9532    139.5943   1.1826050946e+02   4.1531487743e+01    0.2188231    0.1461907 -61.56  0.000282901    1.458    0.314
       128 -10.6025     15.8650    139.5506   1.2528227192e+02   4.4341917401e+01    0.2485755    0.1185387  84.40  0.001330139    1.968    0.492
       129 -10.0200    106.1067    135.7870   1.0241197093e+02   3.3669335226e+01    0.3765887    0.2804277  -4.06  0.001284561    2.280    0.561
       130  -8.3498     92.5803    133.4409   1.0536052431e+02   3.6445187997e+01    0.1342925    0.1236583  87.24 0.0001173503    1.023    0.022
       131 -11.5144     18.2922    132.4354   1.2408112310e+02   4.5686092959e+01     0.278006    0.1925695 -89.21 0.0008857136    1.163    0.140
       132  -9.4276     44.1993    129.8459   1.1725474268e+02   4.3783990334e+01    0.1614354    0.1314349 -59.32 0.0005210678    1.295    0.228
       133  -9.1146     58.8130    127.8208   1.1316387703e+02   4.2536102822e+01    0.1771376    0.1325006  82.65 0.0005013937    1.291    0.225
       134 -10.1698    249.7207    117.9237   6.9164610326e+01   7.1714953545e+00    0.2409048    0.2168447  -8.29 0.0006647871    1.052    0.050
       135 -12.9090    248.1121    101.9639   6.5683775899e+01   9.6678544795e+00    0.9886269    0.5893112 -20.96  0.004822362    1.636    0.389
       136 -10.5589    232.1488    116.2180   7.1492025548e+01   1.0956398115e+01     0.219682    0.1815376  10.96 0.0008936485    1.199    0.166
       137  -9.5413    238.0000    249.0130   9.5161581161e+01  -5.9224849002e+00    0.1403431   0.05665457 -29.26 0.0008061328    2.968    0.663
       138 -12.2656     14.6837    101.3048   1.2178389848e+02   5.2906078326e+01    0.3609921    0.2214501 -86.67  0.002180832    1.421    0.296
       139 -11.9616    248.0206    142.4381   7.4845315820e+01   4.2308617151e+00    0.5939294    0.4507498  21.37   0.00352894    1.237    0.191
       140 -13.0514      8.7276    113.3978   1.2475261687e+02   5.0616106357e+01    0.6743584    0.2500895 -75.35  0.003345436    2.123    0.529
       141 -10.3288    185.5049    247.9955   1.0341159870e+02   1.7596952623e+00    0.1314755     0.108917 -27.28 0.0005312555    1.579    0.367
       142 -12.1659    150.3108    246.1201   1.0907099242e+02   7.2665579243e+00    0.4878133    0.2435434  38.09  0.002932324    1.584    0.369
       143 -10.8171    197.8038    245.3396   1.0105891437e+02   2.1075666053e-01    0.1801133    0.1431836  19.17  0.001387562    1.192    0.161
       144 -11.1969    180.2560    243.9533   1.0378572773e+02   3.0039281511e+00    0.2772551    0.1515283  24.15  0.001587647    2.101    0.524
