#   1 NUMBER                 Running object number                                     
#   2 MAG_AUTO               Kron-like elliptical aperture magnitude                    [mag]
#   3 X_IMAGE                Object position along x                                    [pixel]
#   4 Y_IMAGE                Object position along y                                    [pixel]
#   5 X_WORLD                Barycenter position along world x axis                     [deg]
#   6 Y_WORLD                Barycenter position along world y axis                     [deg]
#   7 A_WORLD                Profile RMS along major axis (world units)                 [deg]
#   8 B_WORLD                Profile RMS along minor axis (world units)                 [deg]
#   9 THETA_WORLD            Position angle (CCW/world-x)                               [deg]
#  10 FWHM_WORLD             FWHM assuming a gaussian core                              [deg]
#  11 ELONGATION             A_IMAGE/B_IMAGE                                           
#  12 ELLIPTICITY            1 - B_IMAGE/A_IMAGE                                       
         1 -10.9190     14.3132     38.9208   9.1730391171e+01   7.1052057318e+01    0.9121484    0.5310403  78.75  0.004172167    2.349    0.574
         2 -12.2016     52.7521     37.7825   6.7920055952e+01   6.6116251545e+01    0.8976359    0.4733731  63.82 0.0004126875    3.643    0.726
         3 -12.2091    107.8026     29.1190   4.3977034497e+01   5.4746356786e+01    0.5057371    0.4351844   6.14  0.002467013    1.377    0.274
         4 -10.3198    133.5776     30.0864   3.9079768103e+01   4.7634094462e+01    0.7549207    0.3863603  -7.38  0.002537234    3.410    0.707
         5 -11.1044     18.7920     26.9748   8.3970424333e+01   7.3446417551e+01    0.6556355    0.3397132 -54.01  0.002894336    1.710    0.415
         6 -10.2791     40.9160     21.0299   6.5462967161e+01   7.1538346428e+01    0.4925178    0.3598346  87.94  0.002343787    2.304    0.566
         7 -10.5163     35.7630     18.1187   6.6895434298e+01   7.2965489769e+01    0.4588696    0.4009848   0.84   0.00110538    1.186    0.157
         8  -9.5948     31.5364     12.8110   6.6242824733e+01   7.4634057113e+01    0.2791516    0.2075387  42.58  0.001573054    1.413    0.292
         9 -11.0068     50.5225     22.1473   6.0742943245e+01   6.9536393721e+01    0.3828883    0.2781768 -24.52 0.0007078146    1.505    0.335
        10 -12.5052    104.9812     21.4153   4.1164184511e+01   5.6543047517e+01     0.514267    0.4245881  -5.15 0.0006397711    1.407    0.289
        11  -9.2831     98.2626      6.3948   3.5328879399e+01   6.0062103392e+01     0.412961    0.2619368 -17.88  0.001933203    1.726    0.421
        12 -10.7837     91.6917      2.4556   3.4613521467e+01   6.2206089468e+01    0.3940365    0.2414209 -79.69  0.001174246    1.929    0.481
        13  -9.9880     96.9450     12.9306   3.8919251194e+01   5.9726200732e+01    0.2720778    0.2242309  47.96 0.0003961108    1.217    0.178
        14 -10.5491    101.0510     11.0730   3.7094018390e+01   5.8825184012e+01    0.3495261    0.2498061 -71.53 0.0003401546    1.541    0.351
        15 -11.0264    151.6660     18.0822   3.1946300382e+01   4.4145866007e+01    0.5400233    0.3629969 -22.98  0.000328188    1.571    0.364
        16 -10.2487    131.4794     21.9960   3.6281825679e+01   4.9229127739e+01    0.4499384    0.3162301 -15.69  0.002122042    1.635    0.388
        17 -10.0336     69.5606     11.7157   4.6061444444e+01   6.6893430246e+01    0.3713824    0.2429818  56.42  0.001060998    1.459    0.315
        18 -10.5861     68.8549     17.0702   4.9519584059e+01   6.6340646394e+01    0.4738309    0.3653739 -87.45  0.001822521    1.624    0.384
        19 -11.2891     62.2778     16.9654   5.2078818375e+01   6.7877187908e+01    0.6943126    0.3389196  35.83  0.002678231    2.646    0.622
        20 -11.0659    164.6702     19.3668   3.0892380967e+01   4.0514075465e+01    0.5964415    0.3933072  52.24  0.001841895    1.665    0.400
        21  -9.8017     14.2802     18.8824   8.3712562343e+01   7.5703576991e+01    0.5001456    0.2767805 -15.51  0.002228084    2.628    0.620
        22 -11.4665    218.1877     18.0865   2.6035775308e+01   2.7528965160e+01    0.5685303    0.3088657 -59.87  0.001563131    1.730    0.422
        23 -10.1402    117.1937     14.8180   3.5723228957e+01   5.3997632928e+01    0.3021156    0.2730659  43.47 0.0006903588    1.186    0.157
        24  -9.4511    185.3417     13.4280   2.7082345255e+01   3.5796684675e+01    0.4035629    0.2094405 -73.61  0.001782014    2.047    0.511
        25 -11.3327    182.4306     18.3292   2.8814646240e+01   3.6020737949e+01    0.3006022    0.2720796 -36.81 0.0003073011    1.136    0.120
        26 -11.2796    175.5926     12.1909   2.7506025102e+01   3.8407577127e+01    0.6926572     0.541823  69.18  0.002963304    1.322    0.244
        27  -9.8007    171.5980      6.0612   2.5877355421e+01   4.0041677784e+01    0.4283091    0.2666889  86.63  0.001305376    1.552    0.356
        28 -11.6450    178.4405      3.0190   2.4407742354e+01   3.8550438965e+01    0.6323007    0.2750818  80.32  0.002675148    2.246    0.555
        29  -9.3846    185.5074      1.5026   2.3482291639e+01   3.6893724573e+01     0.221947    0.1221063  74.81 0.0005467116    1.798    0.444
        30 -10.3713    145.1720     12.7973   3.0809385428e+01   4.6481509577e+01     0.588353    0.5017343  14.59  0.003169953    1.420    0.296
        31 -10.4704    242.8401     14.4597   2.3743675879e+01   2.2691953968e+01    0.3365676    0.1948285  41.89  0.001775127    2.599    0.615
        32  -9.7411      7.1738      9.3738   8.5159687789e+01   7.8409148774e+01    0.6593454    0.2784913  13.87 0.0008865661    2.935    0.659
        33 -10.4235      1.3644      8.5271   9.0916488713e+01   7.9022977628e+01    0.2396607    0.1161202 -62.17 0.0006369748    1.806    0.446
        34  -9.7607     13.5726     11.4553   8.0114681731e+01   7.7355499876e+01    0.3360349    0.1864957 -36.18   0.00139122    1.827    0.453
        35 -10.6592      5.8505     16.1163   9.0001443589e+01   7.7037238572e+01    0.3531131    0.3270376  56.11  0.001820296    1.252    0.201
        36 -10.2126      9.5745     15.1678   8.6012016198e+01   7.6952969455e+01    0.2910064    0.2213897 -31.23  0.000703691    1.264    0.209
        37 -10.1361    232.5971     15.7618   2.4591158802e+01   2.4656408491e+01    0.3140522     0.130197 -31.24  0.001233857    1.889    0.471
        38 -10.9067    226.6458     15.1433   2.4771045959e+01   2.5978750273e+01    0.3915267    0.2646068  60.41  0.001388218    1.759    0.431
        39 -10.7254    210.7203     13.3893   2.5271447180e+01   2.9692051237e+01    0.5409326    0.2550064 -14.16  0.002200044    2.583    0.613
        40 -11.1834    133.0915     12.6337   3.2310995669e+01   4.9830869571e+01    0.2637219    0.2504486 -76.60 0.0002410043    1.050    0.047
        41 -10.0141     50.8038     12.1551   5.4248162725e+01   7.1100525358e+01    0.7733039    0.2064869  46.15  0.002504914    3.703    0.730
        42 -10.0903     54.1924      7.8680   4.9688440140e+01   7.0966137275e+01    0.4299442    0.3769584  28.96  0.002528711    1.121    0.108
        43 -10.0764     49.0354      8.0147   5.2243725606e+01   7.2069443037e+01    0.2794777    0.2303326  27.12 0.0004060707    1.227    0.185
        44  -9.3335     18.7377     12.2481   7.5952534556e+01   7.6595826893e+01     0.243674    0.1628382 -60.89 0.0008832715    1.653    0.395
        45  -9.7905    218.2626     11.3257   2.4274685434e+01   2.8189991476e+01    0.2902893     0.213857 -60.59  0.001291693    1.187    0.157
        46 -11.0589    207.6257      3.2839   2.2726799854e+01   3.1378003391e+01    0.6530398    0.2497341 -49.78  0.002869549    2.150    0.535
        47 -10.5015    191.1796      7.1564   2.4792875216e+01   3.4959362025e+01    0.6059286    0.2885876 -30.49  0.002795926    1.846    0.458
        48 -10.7089    196.1431      3.4673   2.3415868494e+01   3.4089985969e+01    0.4992262    0.2696195  69.35  0.002462562    1.912    0.477
        49  -8.5976     75.8744     12.3204   4.4300172199e+01   6.5265778648e+01     0.197673     0.175385  56.05 0.0007521852    1.082    0.076
        50  -9.5329     23.8321     11.5860   7.1223218906e+01   7.6043006707e+01    0.3835559    0.2004754  20.50   0.00167079    2.654    0.623
        51 -10.9458     24.9389      7.0791   6.7001511022e+01   7.6698866620e+01    0.2408802    0.2152989  65.64 0.0003622076    1.422    0.297
        52  -9.6045     21.3488      5.3244   6.8617612932e+01   7.7547554680e+01    0.2258895    0.1718547 -12.75 0.0007378258    1.406    0.289
        53  -8.4408     78.6505     10.1727   4.2201553722e+01   6.4825007544e+01     0.283742    0.1101167 -35.59  0.001069577    2.510    0.602
        54 -10.2346    230.2249      8.0254   2.2812327279e+01   2.5907776061e+01    0.4426666    0.1966297 -11.39  0.001869899    3.088    0.676
        55 -11.7332    156.0240      3.5155   2.6323248380e+01   4.4415971689e+01    0.3958005    0.2377394  55.55 9.456444e-05    1.761    0.432
        56 -12.1505    160.0880      1.6666   2.5337358813e+01   4.3486568874e+01    0.7927597    0.4824523 -54.63  0.001535509    1.512    0.339
        57  -8.9160    111.4385      4.5030   3.2038232388e+01   5.6630674094e+01    0.3244462    0.1754926  29.86  0.001132073    2.481    0.597
        58  -9.1039    120.1405      9.8976   3.3083590583e+01   5.3702444026e+01    0.2226704     0.185347 -68.53 0.0003107931    1.173    0.147
        59 -10.1153    124.0014      5.0517   3.0433013179e+01   5.3095332620e+01    0.5715638    0.3073456  25.79  0.002229387    2.713    0.631
        60 -10.9099    115.7695      2.0967   3.0280923543e+01   5.5644483017e+01     0.312351    0.2627658 -60.17 0.0003732651    1.168    0.144
        61  -9.6371    120.1708      1.9206   2.9594782215e+01   5.4437293878e+01    0.2850338    0.2227041 -59.88 0.0008915808    1.256    0.204
        62 -10.2770    107.4245      7.0313   3.3904356010e+01   5.7498863240e+01    0.4056759    0.2677032  75.09 0.0008275822    1.439    0.305
        63  -9.9469    107.0471      2.2147   3.1664362143e+01   5.8046625979e+01    0.5417374    0.2640555  39.39  0.002136679    2.438    0.590
        64 -10.5277     91.7733      8.5672   3.7864226970e+01   6.1584711679e+01    0.5272438    0.2048836  52.83  0.001979368    2.365    0.577
        65  -9.1714     87.9127      6.4922   3.7656384717e+01   6.2823802919e+01    0.2318399    0.1915318 -53.64 0.0005531931    1.270    0.213
        66  -9.7246    200.2437      8.5664   2.4609437442e+01   3.2621868978e+01    0.3634276    0.2325136  60.61  0.001924722    1.752    0.429
        67  -8.5319     52.1569      2.4734   4.6706475338e+01   7.2093437273e+01    0.5779256    0.1232061  53.91  0.001845815    3.795    0.736
        68 -11.5320     79.4288      4.3487   3.8577636714e+01   6.5257468705e+01    0.3241282    0.2714306  64.51 0.0004164955    1.131    0.116
        69 -10.6322     73.5270      5.5347   4.0970343095e+01   6.6638731897e+01    0.3439279    0.2333636 -32.70 0.0005841368    1.510    0.338
        70 -11.1068     74.5561      2.5048   3.8797620132e+01   6.6689804647e+01    0.4293713    0.2559617  73.02  0.001516891    1.717    0.418
        71  -8.5004    138.7596      6.8959   2.9328204695e+01   4.8829501335e+01     0.166524    0.1240825 -19.07 0.0003350909    1.463    0.317
        72 -10.3167    238.0148      3.5399   2.1378034188e+01   2.4702857658e+01    0.3134188    0.2851185  12.60  0.001949308    1.448    0.309
        73  -9.8670    233.7717      2.5949   2.1326665502e+01   2.5667351399e+01    0.2355857    0.1330833 -62.29 0.0008077503    1.572    0.364
        74  -8.5445     62.4444      6.3836   4.5264703590e+01   6.9253625566e+01    0.3510631    0.1884391  69.31  0.001516729    2.123    0.529
        75 -11.5814     37.5012      4.6112   5.6084542323e+01   7.4896545764e+01    0.3010692    0.2484925  14.75 0.0004252773    1.240    0.193
        76  -8.9412     43.0471      1.3286   5.0237322738e+01   7.4218366708e+01    0.2851304    0.1347229  62.44  0.001193481    2.546    0.607
        77 -10.6898    217.7655      2.7851   2.2086910024e+01   2.9110778062e+01    0.3466292    0.2682342 -72.48  0.001885892    1.202    0.168
        78 -10.2979     30.6153      2.5850   5.8992399826e+01   7.6479817733e+01    0.2830645    0.1986715 -48.29 0.0008287002    1.620    0.383
        79  -9.8832     13.4619      2.7329   7.3948076376e+01   7.9083139679e+01    0.3074314    0.2354891 -70.68  0.001797813    1.758    0.431
        80  -8.9231     17.8843      2.1786   6.9136439133e+01   7.8598275218e+01    0.1977215    0.1540566 -14.19 0.0006401705    1.305    0.234
        81 -11.0260    249.8194      1.6225   2.0478481930e+01   2.2521508505e+01    0.1848745    0.1505188 -61.46 0.0003758708    1.157    0.136
        82  -9.3017    244.4957      3.4703   2.1101997469e+01   2.3400361182e+01    0.2116624   0.09157337 -76.05  0.001036047    2.500    0.600
        83 -10.3780    135.2534      1.6610   2.7667785195e+01   5.0269929305e+01    0.3082054    0.1885018  83.94 0.0009994728    1.547    0.353
        84  -9.5841      5.0978      1.5327   8.2251910743e+01   8.0213484220e+01    0.2665093    0.1386095   4.91  0.001270639    2.532    0.605
        85  -9.5723     32.8451    117.8065   9.7715380318e+01   4.9014278726e+01    0.1879468    0.1647758  55.70 0.0003002835    1.099    0.090
        86 -10.0644    201.4263    249.4949   7.5455711436e+01   1.3437713422e+00    0.2044129    0.1350238  14.32 0.0007010419    1.148    0.129
        87  -9.9796     33.8583    114.1953   9.6895610099e+01   4.9833255985e+01    0.2448277     0.182505 -83.90 0.0004961102    1.242    0.195
        88  -8.9298    239.3172    117.0045   4.7484791072e+01   1.1407853845e+01    0.1987315   0.08912613 -11.55 0.0007042545    4.220    0.763
        89  -8.9904    104.1422    115.1361   7.3750942401e+01   3.8487249417e+01    0.2130675    0.2040757  19.23 0.0002954873    1.169    0.144
        90  -8.6331     84.1654    114.7895   7.9698816946e+01   4.2343354520e+01    0.2338633    0.1212044  27.41 0.0008507485    2.549    0.608
        91  -9.5604     46.9380    114.0330   9.2155628593e+01   4.8315723479e+01    0.2171875    0.2032788  88.24  0.000641448    1.090    0.083
        92  -8.7105    140.5086    111.9443   6.3515357431e+01   3.1570500271e+01    0.2165553    0.1465221 -42.43 0.0004268409    1.510    0.338
        93 -10.9014     21.0496    110.1531   1.0114931463e+02   5.2150061654e+01    0.4064334    0.3361606  75.55  0.001193678    1.056    0.053
        94  -9.1576    231.4997    109.9942   4.6993519725e+01   1.3615260821e+01    0.1828074   0.08512006 -47.12 0.0008106509    2.594    0.615
        95  -9.8941    104.1940    109.2437   7.2339382382e+01   3.9808514791e+01    0.2695452    0.2324105  67.51 0.0003480379    1.155    0.134
        96  -9.9018     37.0302    106.6671   9.4662553476e+01   5.1426699283e+01    0.3018785    0.1793892 -46.53 0.0007243453    1.959    0.489
        97  -9.0362     91.9706    106.2810   7.5306072594e+01   4.2912343078e+01     0.208363    0.1912304  54.68 0.0003293295    1.066    0.062
        98 -10.2784     45.7037    105.5642   9.1209093586e+01   5.0654467855e+01    0.4670269    0.2837488  14.46  0.002049436    2.232    0.552
        99  -9.6236    131.9080    104.0043   6.3562596540e+01   3.5031784896e+01    0.2522849     0.212594  54.28 0.0004329549    1.168    0.144
       100 -10.4362     70.8456    101.9581   8.1301980863e+01   4.7806791124e+01    0.4521088    0.2701219 -62.43  0.001930442    1.672    0.402
       101  -9.0845     16.3913    108.1213   1.0270092084e+02   5.3074083435e+01    0.2027196    0.1207288 -84.05 0.0004534123    1.516    0.340
       102 -10.6035    101.8411    102.2595   7.1286394152e+01   4.1871191165e+01    0.6994131    0.4039952  22.24  0.002412225    3.169    0.684
       103  -9.2291    100.5884     98.7653   7.0751986617e+01   4.2923722809e+01    0.3259744    0.2362785 -48.12 0.0009496381    1.420    0.296
       104 -10.4004     78.6275    100.7103   7.8316578604e+01   4.6748205975e+01    0.4026292    0.3618526  -3.65  0.002111136    1.397    0.284
       105 -10.4614     56.7099    101.1268   8.6245194474e+01   5.0267452263e+01    0.3785963    0.2633626 -54.85  0.001472891    1.460    0.315
       106  -8.5290     85.9566    102.0000   7.6185968182e+01   4.5078061555e+01    0.2591206   0.08485176  40.03 0.0001652893    3.007    0.667
       107  -8.1426     95.3048    100.2725   7.2767876499e+01   4.3657351925e+01    0.1448548    0.1240189  -1.47 0.0002309982    1.539    0.350
       108 -10.7225     30.9053    107.5081   9.7107963028e+01   5.1880653229e+01    0.9215435    0.4088866 -48.02   0.00350465    2.695    0.629
       109  -8.3891     23.3297    100.2883   9.9115586381e+01   5.4509558799e+01    0.1359203    0.0991119 -41.38 0.0007014674    1.619    0.382
       110 -11.6168    117.6660     98.0127   6.5650300175e+01   3.9426380725e+01     0.283106    0.2644714  48.94 0.0003163364    1.081    0.075
       111  -9.6189      6.1591     98.1035   1.0581534387e+02   5.6411117225e+01    0.4545808    0.1747256  20.73  0.001933288    2.735    0.634
       112 -10.1410      2.8584     92.8017   1.0675464388e+02   5.7980537270e+01    0.4648437     0.183111  53.52  0.001390605    2.454    0.592
       113 -10.2727      2.3047     85.7393   1.0642444854e+02   5.9840112920e+01    0.6343167    0.2054924 -77.47  0.002036406    2.593    0.614
       114  -9.1852      3.2208     78.9359   1.0538933774e+02   6.1557033978e+01    0.2077288    0.1769826  82.41 0.0007061936    1.045    0.043
       115  -9.8775    140.7074     96.6871   5.9509852816e+01   3.4501059030e+01    0.2570783    0.2171521 -29.09  0.000515606    1.274    0.215
       116  -9.8936    139.7116     93.6747   5.8912907919e+01   3.5311438814e+01    0.2579045    0.2095709 -33.42 0.0004879748    1.295    0.228
       117 -10.2827    124.8982     96.9518   6.3446263305e+01   3.8038001261e+01    0.3758816     0.226463  57.84  0.001571773    1.773    0.436
       118  -9.1171     93.8234     79.0923   6.7218730969e+01   4.8799241878e+01    0.4193322    0.2756822  21.21  0.001366355    2.438    0.590
       119  -9.2517     90.9364     83.5582   6.9533534664e+01   4.8406228802e+01    0.2660619    0.2077922 -36.58 4.309784e-05    1.448    0.309
       120  -9.3384     80.1826     94.7157   7.6288157815e+01   4.7915098346e+01    0.3084393    0.2214912  57.86 0.0007603501    1.432    0.301
       121  -9.9452     84.6254     94.0446   7.4599022560e+01   4.7230051416e+01    0.4256839    0.3191115  83.38 0.0009481298    1.580    0.367
       122 -10.2855     85.9402     89.1874   7.2834137664e+01   4.8121129032e+01    0.5233788    0.3676743 -27.44  0.001708475    2.003    0.501
       123  -9.2256     86.9996     83.7171   7.0901629890e+01   4.9183810105e+01    0.2376911    0.2160386 -84.18 0.0003539014    1.086    0.079
       124 -10.8194     32.2362     92.6528   9.4336686823e+01   5.5618265355e+01    0.6210153    0.4797437  -7.43   0.00326575    1.702    0.413
       125  -9.9202     22.1935     92.5880   9.8557010264e+01   5.6629041077e+01      0.38509    0.2079668 -59.15  0.001808533    1.756    0.430
       126 -10.9659     26.5976     87.1165   9.5826575297e+01   5.7650497947e+01    0.6695593    0.3676689 -49.80  0.003022955    1.908    0.476
       127 -10.3023     47.6446     92.8263   8.8037202132e+01   5.3689999521e+01    0.3875677    0.2734139  79.19  0.001573558    1.534    0.348
       128  -9.4459     44.5671     87.7565   8.8226436290e+01   5.5412464548e+01    0.4989502    0.1768094 -47.03  0.001636428    3.412    0.707
       129 -10.0784     14.8114     93.3834   1.0177868634e+02   5.7035155422e+01    0.3886309    0.3040436 -11.53  0.002194437    1.621    0.383
       130  -9.3469     18.0992     90.9717   1.0008554260e+02   5.7405111810e+01    0.2433515    0.1947948  10.12 0.0005232043    1.487    0.328
       131  -9.8205    134.1719     91.9636   5.9743434107e+01   3.6926588347e+01    0.4595988    0.2592602  32.96  0.001661296    2.441    0.590
       132  -9.0373     70.8891     91.1331   7.8670117742e+01   5.0478302198e+01    0.2385839    0.1944102  78.39  0.000658376    1.287    0.223
       133  -8.8852     52.6402     90.9554   8.5629677418e+01   5.3466678954e+01    0.2338884    0.1680651 -88.44 0.0009199143    1.486    0.327
       134 -10.9713    131.3684     83.5221   5.7973728048e+01   3.9239480707e+01    0.7474096    0.4612022  13.11  0.002322797    4.140    0.758
       135 -11.2130    123.7228     86.9081   6.0898335844e+01   4.0366543546e+01    0.4620044    0.4362431 -47.07  0.001486455    1.089    0.082
       136 -10.3351    119.7586     83.7196   6.0990293643e+01   4.1941146428e+01    0.5661236    0.2894906  51.18  0.002206263    1.938    0.484
       137  -8.7743    104.4270     90.4582   6.7311438530e+01   4.3971565630e+01    0.1548385    0.1464744  86.17 3.281363e-05    1.017    0.017
       138 -10.0478     97.8117     88.9110   6.8889767000e+01   4.5740366210e+01     0.312458    0.2497616 -74.65 0.0002741208    1.361    0.265
       139  -9.1045     39.8370     88.4621   9.0363571763e+01   5.5833628030e+01    0.3517396      0.18656 -58.43  0.001554389    1.770    0.435
       140  -8.7245      6.8647     88.9463   1.0471264703e+02   5.8744434501e+01     0.202204    0.1273901  57.94 0.0005141493    1.521    0.342
       141  -9.9439     58.2260     87.7012   8.2639641764e+01   5.3447903236e+01    0.3182192    0.2021741  69.27  0.001188358    1.959    0.490
       142  -8.8038     14.1483     87.8081   1.0140355391e+02   5.8544145437e+01     0.191027    0.1417429 -58.53 0.0009565936    1.335    0.251
       143  -9.7561    110.6500     85.4281   6.4020171276e+01   4.3681812627e+01     0.293904    0.2444133  68.32 0.0008570551    1.234    0.190
       144 -11.1940     80.4350     83.3252   7.3070304302e+01   5.0588684678e+01    0.5652701    0.3485356  31.27 0.0005991422    1.939    0.484
       145 -11.4444     72.6735     79.9012   7.4912382847e+01   5.2887390299e+01    0.7333685    0.6084095 -35.93  0.003679037    1.374    0.272
       146 -10.2143     65.8729     85.6819   7.9131302258e+01   5.2695796745e+01    0.2779432    0.2560707 -44.05   0.00125823    1.187    0.157
       147  -9.9705    155.2020     84.9481   5.3098156037e+01   3.3295357613e+01    0.2931618    0.2481956 -20.38 0.0003321221    1.295    0.228
       148 -10.9955    155.0992     79.2722   5.1487440709e+01   3.4314065861e+01    0.5707957    0.3525495  39.73  0.000706153    1.886    0.470
       149 -10.0702    142.6561     84.1532   5.5532487054e+01   3.6425242808e+01    0.3309999     0.244057  85.61 0.0009684949    1.708    0.415
       150  -8.1794    105.2892     84.6660   6.5356411995e+01   4.5051367317e+01    0.1598024    0.1209773 -86.01 0.0007019303    1.630    0.387
       151 -10.9127     45.2620     68.7200   8.3194402914e+01   6.0170775462e+01    0.3928277    0.2784005 -68.28 0.0005545577    1.374    0.272
       152 -10.6434     51.4151     82.6874   8.4179923678e+01   5.5755454018e+01    0.3943141    0.3244129 -41.99  0.000839238    1.342    0.255
       153 -12.9579     53.0519     75.2485   8.1527309047e+01   5.7383469875e+01     0.499166    0.3563579 -41.88 0.0005395244    1.544    0.352
       154 -11.3415     51.1849     68.4125   8.0374708437e+01   5.9367529230e+01    0.7017421    0.5372634  75.39  0.003509028    1.491    0.329
       155  -8.3778     99.4429     83.4976   6.6784192558e+01   4.6598870900e+01    0.1533749    0.1497767  88.01 0.0004535431    1.051    0.049
       156  -9.6781     20.4461     81.5981   9.7697617104e+01   5.9664701547e+01    0.3850171    0.2112087  46.22   0.00181791    1.835    0.455
       157  -9.3046     44.9212     80.1398   8.6341419533e+01   5.7325167584e+01    0.3100178    0.2911151 -27.32  0.001771997    1.217    0.178
       158 -11.6360    167.5032     77.6469   4.8683299623e+01   3.1616668273e+01    0.4808385    0.3539647 -14.88 0.0004857483    1.626    0.385
       159 -10.6741    165.5952     71.5906   4.7276535059e+01   3.3059968593e+01    0.5112984    0.2453711 -25.89  0.001517657    2.456    0.593
       160  -9.8137    110.3890     75.5434   6.1022532373e+01   4.5816968504e+01    0.5149622    0.3163141 -41.34  0.002183304    1.670    0.401
       161  -8.9756     84.7416     78.1558   6.9991435044e+01   5.0928098135e+01    0.2105215    0.1973935 -58.87  0.001111249    1.080    0.074
       162 -10.3470     94.2795     71.0879   6.4469339950e+01   5.0454151640e+01    0.7393258    0.3874048 -50.69  0.002632156    1.947    0.486
       163 -10.4893     88.6026     73.6025   6.7201338826e+01   5.1146218030e+01    0.6393394    0.3966703 -37.68  0.001912856    1.835    0.455
       164 -10.2765     87.4304     67.7700   6.5637358350e+01   5.2683889372e+01    0.5291381    0.3364919  42.44  0.001215054    1.627    0.385
       165  -8.6970     12.8238     78.0779   1.0074444336e+02   6.1186536947e+01    0.1810892    0.1357976 -59.22 0.0003663914    1.283    0.221
       166 -10.1595    134.1235     75.7932   5.4959838659e+01   4.0051253197e+01    0.4761643     0.285568  89.97  0.001615666    3.160    0.684
       167  -9.9248     63.2489     74.3044   7.6952672440e+01   5.5939000065e+01      0.55605    0.2938513  59.96  0.002054367    2.627    0.619
       168 -10.2411     15.3416     64.5140   9.7286338795e+01   6.4529465255e+01    0.6089241    0.3598152 -42.63 0.0006000405    1.805    0.446
       169  -9.8096     32.3247     47.4962   8.3194832225e+01   6.7109589626e+01    0.2402854    0.2214652  68.38  0.001424489    1.153    0.133
       170 -11.4080      9.8740     51.5511   9.7844969594e+01   6.8233572268e+01    0.8501543    0.5127556  27.56  0.004329141    1.780    0.438
       171 -10.7053     29.1625     74.9024   9.2374510715e+01   6.0579553120e+01    0.7794042    0.1870246 -58.25  0.002568212    3.274    0.695
       172 -10.6078     25.2574     67.8155   9.2780293301e+01   6.2810302653e+01    0.6090257    0.4181914  14.01  0.001658403    1.716    0.417
       173 -10.5768     22.2623     64.3558   9.3573165263e+01   6.3986459599e+01    0.5477266    0.2224167 -53.92  0.001415063    2.228    0.551
       174 -12.7421     24.7597     56.0094   9.0172860770e+01   6.5869151377e+01    0.5662203    0.5429454 -81.46  0.001127167    1.051    0.049
       175 -10.3329     35.7139     53.4435   8.3323040525e+01   6.5241444484e+01    0.5172334    0.4107867 -41.76  0.002109711    1.282    0.220
       176 -10.1482     17.0184     46.6729   9.2224712515e+01   6.8923182313e+01    0.3850659    0.3102086  10.68  0.001752253    1.394    0.283
       177  -8.5847     57.0180    249.0189   1.0180056125e+02   1.8798956476e+01    0.1257817   0.08791734  44.52            0    1.013    0.013
       178 -11.6475      2.4031     66.1455   1.0441860895e+02   6.4911014770e+01     0.329897    0.2898446 -77.57 0.0005580003    1.036    0.035
       179 -11.5613      4.2911     59.8216   1.0256156513e+02   6.6445334296e+01    0.5095276    0.4624543  36.46  0.001336983    1.219    0.179
       180 -11.2826      5.6219     34.6582   9.6719470984e+01   7.2695059897e+01    0.6693844    0.4369072 -85.24  0.003640557    1.554    0.357
       181 -10.8978      9.6832     31.6679   9.2767769186e+01   7.3154596677e+01    0.2666544    0.2423136  41.23 0.0002352488    1.224    0.183
       182  -9.2693     19.1284     73.4425   9.6965008313e+01   6.1908512121e+01    0.4327619    0.3024308  72.17  0.002278847    1.466    0.318
       183 -10.8079    175.9167     74.6351   4.6391852529e+01   3.0107848632e+01     0.442992    0.2722463  44.05  0.001117871    1.826    0.452
       184  -9.2106    100.0460     75.2038   6.3995082509e+01   4.8273148602e+01    0.2445057    0.2133426 -54.50            0    1.142    0.125
       185  -8.2994     37.6822     75.7164   8.8546825249e+01   5.9397740199e+01    0.1415377    0.1061323 -33.37 0.0002895219    1.585    0.369
       186  -9.6593    160.7711     72.9560   4.8547715652e+01   3.4010140497e+01    0.2310102    0.2139705 -60.61 0.0004685387    1.045    0.043
       187 -10.5428    157.2855     70.4547   4.8451530734e+01   3.5279646907e+01    0.4229085    0.2709232 -32.72 0.0002138099    1.567    0.362
       188  -9.0619      2.8599     72.8898   1.0494514681e+02   6.3144163414e+01     0.200736    0.1558658 -55.98 0.0004629329    1.274    0.215
       189  -9.6880    218.8303     69.9387   3.9245824861e+01   2.1272335360e+01    0.1917916    0.1835715 -56.28 0.0003252994    1.118    0.106
       190  -9.3384    145.9848     70.0095   5.0543751009e+01   3.8160164871e+01    0.2405426    0.2222648 -77.91 0.0008206494    1.068    0.064
       191 -10.5097    140.9114     68.4259   5.1114313395e+01   3.9706230130e+01    0.3071176    0.2911234 -35.07 0.0005522576    1.104    0.094
       192 -10.1006    141.8490     75.6439   5.3166017302e+01   3.8184001235e+01    0.2868089     0.215784 -48.67 0.0007299261    1.317    0.241
       193  -9.6485    102.2701     69.7419   6.1493234757e+01   4.8915711718e+01    0.3123988    0.2607656 -15.88  0.001366841    1.505    0.335
       194 -10.2088    173.5547     68.9219   4.5155133021e+01   3.1558607359e+01     0.255761    0.2330124  59.99 0.0003813314    1.152    0.132
       195  -9.3859    119.7545     67.7461   5.5892600568e+01   4.5111600769e+01    0.3839929    0.2157256 -38.05    0.0011279    1.825    0.452
       196  -8.5797     36.5233     67.7079   8.7108429254e+01   6.1587604531e+01    0.2040932    0.1316874 -81.63 0.0009466701    1.683    0.406
       197  -8.5782    215.0177     66.0055   3.8699177291e+01   2.2578807697e+01    0.1568406    0.1365967 -38.16 -0.005334738    1.002    0.002
       198 -10.2642    128.2544     57.5163   5.0289288204e+01   4.4835374455e+01    0.4930955    0.2405173  64.31  0.001500559    2.228    0.551
       199 -10.3340    132.6605     59.9404   5.0126548673e+01   4.3283324858e+01    0.3650891    0.3383949  35.02  0.001135676    1.195    0.163
       200  -9.4166     74.8360     66.0070   6.9631667985e+01   5.5713959675e+01    0.2578288    0.2459571  54.88 0.0007121428    1.070    0.065
       201  -9.6585     82.3026     61.9699   6.5389373409e+01   5.5051644039e+01    0.3565098    0.2365402  32.90  0.001047425    1.804    0.446
       202  -9.9644     77.3744     61.8860   6.7190623762e+01   5.6114097291e+01    0.4290846    0.2900889 -32.09  0.001358212    1.796    0.443
       203  -9.9032     97.9217     64.1216   6.0879594717e+01   5.1087881766e+01    0.2408978    0.2172167 -56.41  0.000298991    1.101    0.092
       204  -9.9493    124.0188     62.5838   5.3057134394e+01   4.5012433892e+01    0.3042557    0.2539401 -76.19 0.0003708059    1.275    0.215
       205  -9.8741     64.8966     62.0465   7.2254605080e+01   5.8544351355e+01    0.4614806    0.2493231  36.53   0.00189979    2.001    0.500
       206  -9.0036    175.7061     61.6142   4.2695706763e+01   3.2145364829e+01    0.2759145    0.1756041 -17.93  0.001227576    1.863    0.463
       207  -9.9496    167.6155     61.5096   4.3941297876e+01   3.4148928607e+01    0.4385438    0.1380889 -45.84  0.001362441    3.334    0.700
       208  -9.2411    167.5620     56.2517   4.2354245098e+01   3.4954492895e+01     0.262334    0.1489299 -25.69 0.0008741189    1.881    0.468
       209 -10.2091    161.0306     60.5857   4.4764070308e+01   3.5936294038e+01    0.3638466    0.3011733  20.08  0.001317336    1.497    0.332
       210 -10.8303    160.7872     54.4960   4.2903341710e+01   3.6931081610e+01    0.4062091    0.2739222 -35.88 0.0004357822    1.423    0.297
       211  -9.1619    155.9547     54.0000   4.3562418445e+01   3.8244163234e+01    0.3328096    0.1261279  68.48  0.001075858    3.140    0.681
       212 -11.2763    154.2698     60.6882   4.5997110042e+01   3.7628994523e+01    0.6344738    0.2795649  55.80  0.002383151    2.241    0.554
       213 -10.2026     54.1128     60.8354   7.6595563191e+01   6.0731660129e+01    0.3134183    0.2477189 -82.26 0.0003340144    1.407    0.289
       214 -11.8549     56.2949     56.7602   7.4142937766e+01   6.1315656175e+01    0.5078462    0.3521318  65.07  0.000263888    1.787    0.440
       215  -9.6798     72.1695     60.0481   6.8541829737e+01   5.7585261019e+01    0.4957993    0.3659155   0.81  0.002153527    2.156    0.536
       216 -10.6005     38.8403     81.6327   8.9364055640e+01   5.7728366119e+01    0.2950664    0.2669387  36.80 0.0003984421    1.183    0.155
       217  -8.6865    194.0041     60.0386   3.9680623177e+01   2.8024739694e+01    0.2290549    0.1468741 -57.48 0.0005555673    1.651    0.394
       218  -9.2100     93.9375     60.0443   6.0668708104e+01   5.2846936078e+01    0.2578374     0.199144  11.76  0.001146481    1.860    0.462
       219  -8.5091     40.6482     60.2473   8.2915683318e+01   6.2917822645e+01    0.1438721    0.1039636  62.85 0.0002254385    1.588    0.370
       220 -10.3441    102.5114     59.5156   5.7794456869e+01   5.0921153623e+01    0.4403902    0.3986741   4.47            0    1.322    0.244
       221 -10.6448    225.8928     55.4871   3.4925373262e+01   2.1642891669e+01    0.2570903    0.1909634 -46.50 0.0003148373    1.189    0.159
       222  -8.3404    211.0540     57.7829   3.7040078184e+01   2.4495524022e+01    0.1549914    0.1107034  71.96 0.0002140018    1.571    0.364
       223  -8.9773    187.7983     55.8757   3.9326900180e+01   3.0054872629e+01    0.1949823    0.1521999 -64.47  0.000365593    1.302    0.232
       224  -8.2093    180.2985     56.3136   4.0474260916e+01   3.1797708032e+01    0.1410934    0.1117664  21.29 0.0002431729    1.606    0.377
       225  -8.3932    188.7930     69.0205   4.2856133433e+01   2.7954447555e+01    0.1850826     0.105772 -32.80 0.0008364297    1.617    0.381
       226 -10.6514    134.6954     64.2412   5.1116905423e+01   4.2012062275e+01    0.3873838    0.3485434  39.17 0.0008050169    1.215    0.177
       227  -9.1983     92.5275     54.5159   5.9021570484e+01   5.4282411052e+01    0.2848244    0.2413338  46.42 0.0008696569    1.205    0.170
       228  -9.6104     95.4740     52.5410   5.7296524125e+01   5.3965546283e+01    0.5199366    0.3234739  79.73  0.001975578    2.446    0.591
       229 -11.6622     68.6336     48.2479   6.5321608614e+01   6.0845249962e+01    0.7651845    0.4851645 -48.65 0.0002886947    1.565    0.361
       230 -12.7694     61.8705     44.3787   6.6590514881e+01   6.3011592302e+01    0.4882813    0.3293499  45.26 0.0004334143    1.507    0.336
       231 -10.1280     44.2907     54.2555   7.9072576361e+01   6.3847995592e+01    0.4823519    0.3044806  44.77  0.002250604    1.664    0.399
       232 -10.1057     46.0759     47.5272   7.5620350380e+01   6.5141827224e+01    0.5355645    0.3355161   0.94  0.001220028    3.068    0.674
       233  -9.1710    201.3275     47.9042   3.5478032043e+01   2.7940799874e+01    0.4260212    0.2308928  35.35  0.001087269    2.844    0.648
       234 -10.4423    193.4073     52.4665   3.7655261609e+01   2.9190605344e+01    0.2698632    0.2333113 -32.30 0.0003057899    1.115    0.103
       235  -9.1063    195.6656     48.7203   3.6340035899e+01   2.9152707857e+01    0.2632075    0.2163523  49.19 0.0007544081    1.386    0.278
       236 -10.2142    145.5858     52.2071   4.4841729732e+01   4.1209359809e+01    0.3369293    0.2292749 -76.88  0.001445467    1.776    0.437
       237  -9.6682    142.5482     49.4481   4.4476405308e+01   4.2434808475e+01    0.3172682    0.2331798 -63.85  0.001060949    1.443    0.307
       238  -9.9860    145.7353     46.4194   4.2842233585e+01   4.2056102234e+01    0.2742179    0.2484671 -69.77 0.0005069136    1.052    0.049
       239  -8.5466    106.2965     53.3371   5.4367295656e+01   5.1164988704e+01    0.1550409    0.1245377  14.22 0.0007030953    1.653    0.395
       240 -10.6107    181.3075     51.3015   3.8867984552e+01   3.2252603023e+01    0.3609793    0.2893354 -21.29  0.001920433    1.317    0.241
       241  -9.2781     61.3465     52.0816   7.0054918819e+01   6.1458358160e+01    0.2383585    0.2011735  31.00 0.0005778643    1.282    0.220
       242  -9.0189    165.7813     51.5613   4.1182493141e+01   3.6093022598e+01    0.2019135    0.1406581  85.63 0.0009131947    1.597    0.374
       243  -9.4502    122.9859     50.4811   4.8983804029e+01   4.7402215026e+01    0.6264287    0.1905099  60.84  0.001842407    3.450    0.710
       244 -10.8230    127.9759     48.0225   4.6946181095e+01   4.6500236429e+01    0.4637566    0.2876788 -39.20  0.001065794    1.583    0.368
       245 -10.4287    125.6125     44.8163   4.6272853400e+01   4.7637323455e+01    0.4592812    0.2890321  62.79 0.0004889921    1.561    0.359
       246 -10.6951    136.4608     49.3660   4.5643081699e+01   4.4049950841e+01    0.3766586    0.2674025  73.18 0.0009385135    1.453    0.312
       247  -9.8083     86.4622     49.3997   5.9008354853e+01   5.6699844687e+01    0.5167652    0.2496829  46.68  0.001987607    2.092    0.522
       248  -9.6547    175.6452     48.8345   3.8902814764e+01   3.3992811354e+01    0.3987848     0.250642 -14.99  0.001676918    1.947    0.486
       249  -8.5672    228.5756     49.2754   3.3144120212e+01   2.1837023124e+01    0.1746073    0.1132753 -18.84 0.0009376674    1.564    0.361
       250 -10.4933    153.9006     47.7143   4.1859122686e+01   3.9718855288e+01    0.3975168    0.3221862 -62.50  0.001151443    1.217    0.178
       251 -11.0765     79.6748     44.1711   5.9209954032e+01   5.9266722657e+01    0.7058501    0.5201165 -18.51  0.002498084    1.742    0.426
       252  -8.4808    235.2003     47.1913   3.2066846411e+01   2.0739285241e+01    0.1740825    0.1205934 -50.60 0.0004025181    1.298    0.230
       253 -10.0378    115.0897     45.6679   4.9059387329e+01   5.0264587872e+01    0.3849409     0.273957  56.92  0.001258578    1.376    0.273
       254  -8.1695     97.6753     47.7178   5.4674898707e+01   5.4331374479e+01    0.1529676    0.1209972  23.07 0.0003562459    1.596    0.373
       255  -8.9899     38.8188     46.9515   7.9305763392e+01   6.6369666754e+01    0.2206921    0.1789344 -38.33 0.0006547929    1.260    0.207
       256  -9.0178    164.1993     46.6259   3.9867539549e+01   3.7204131442e+01     0.214305    0.1284103  54.76 0.0009461124    1.730    0.422
       257  -8.8203      3.8538     45.7966   1.0048678562e+02   7.0031935109e+01    0.1889663    0.1495874 -51.35 0.0002631107    1.187    0.158
       258  -9.3514    244.5861     44.8853   3.0777452593e+01   1.9164163780e+01    0.2133368    0.1627687  43.45  0.001008956    1.673    0.402
       259  -9.8148    185.5772     43.3549   3.5991863202e+01   3.2268502865e+01    0.2686963    0.2294957  24.54  0.000598659    1.434    0.303
       260  -9.3915    179.6168     44.3358   3.7020024853e+01   3.3611407768e+01    0.2976531     0.171454 -88.77 0.0008679522    2.158    0.537
       261  -9.8572    103.2682     39.3192   4.9555021253e+01   5.4375284399e+01    0.6234968    0.2279342 -37.89  0.001852925    2.651    0.623
       262  -9.5784    107.6432     43.8742   5.0262457710e+01   5.2492977009e+01       0.4666    0.2608064  50.42  0.001919069    1.783    0.439
       263  -8.5902    108.3067     40.6122   4.8752406508e+01   5.2861270882e+01    0.2421938    0.1795368 -60.34 0.0005794626    1.456    0.313
       264  -9.2000     86.8764     43.1792   5.6226998696e+01   5.7776487583e+01    0.2204091     0.214204  75.11 0.0003033829    1.015    0.014
       265 -10.1709     91.4184     41.6045   5.4046349658e+01   5.6963988752e+01    0.5833883    0.3660248  69.42  0.002129202    1.857    0.461
       266 -11.5385     97.1013     35.1951   4.9488959700e+01   5.6623663323e+01    0.4237508     0.318634  41.93 0.0006968383    1.418    0.295
       267  -9.2878     94.0619     30.1264   4.8046664033e+01   5.8193055230e+01    0.2981844    0.2169778 -76.65  0.001031404    1.677    0.404
       268  -9.0818     71.6785     42.3881   6.1506469398e+01   6.1386150319e+01    0.2413083    0.1846343 -16.47  0.000548512    1.661    0.398
       269  -6.9175     46.2102     41.8080   7.3160640135e+01   6.6401699232e+01    0.5333405    0.3434879 -31.68  0.002267488    1.860    0.462
       270  -9.3784     55.0011     31.9262   6.3890614577e+01   6.6856305881e+01    0.3432947    0.2695726  -2.78  0.001014855    1.621    0.383
       271 -10.4738    115.8051    248.3437   9.0359742459e+01   1.1906280377e+01    0.2303161    0.1912158  48.36  0.001629874    1.266    0.210
       272  -8.6062     50.7052     32.6489   6.6440413888e+01   6.7533615587e+01    0.2720784    0.2111496  10.40    0.0013813    1.616    0.381
       273  -8.2366     26.7593     36.6313   8.2499323766e+01   7.0348339488e+01    0.1413701   0.09193752 -37.28 0.0002671093    1.611    0.379
       274 -10.5625     27.9311     42.7105   8.4104136209e+01   6.8784511577e+01    0.2342548    0.2141136 -83.29 0.0002089544    1.129    0.114
       275  -9.1990     24.2152     39.7890   8.5386249127e+01   6.9899002071e+01    0.2271773    0.1939072 -35.14 0.0007561906    1.175    0.149
       276 -10.8145    228.3961     39.4677   3.0733264038e+01   2.3009611870e+01    0.4351319    0.3863059   6.45  0.002831113    1.364    0.267
       277  -9.6082    222.7062     40.7979   3.1537301508e+01   2.4056613473e+01    0.2214576    0.2061809 -45.71 0.0004620658    1.114    0.102
       278  -9.6252    203.8367     39.8141   3.3004916661e+01   2.8364529727e+01    0.2427219    0.1798629 -25.67 0.0004284269    1.315    0.239
       279  -9.7446    143.9441     41.3539   4.1396361432e+01   4.3275653378e+01    0.3221279    0.2450097 -87.51 0.0007367515    1.382    0.276
       280  -8.9202     34.2045     41.8862   7.9977972992e+01   6.8187085192e+01    0.3359357    0.1971441  11.57  0.001438913    2.486    0.598
       281  -8.4947      1.8715     41.8124   1.0103907581e+02   7.1123130369e+01    0.1640109    0.1374104  62.98   0.00027273    1.273    0.214
       282  -9.4728    127.0170     39.8331   4.4080647218e+01   4.8032444657e+01    0.4528015    0.2231117  74.86  0.001635738    2.451    0.592
       283 -10.4281     40.0834     39.4541   7.5519500796e+01   6.7894796420e+01    0.2242842    0.2027516 -49.55 0.0004167052    1.053    0.051
       284  -9.2827    237.7335     38.7639   2.9842114377e+01   2.1183490114e+01    0.2855079    0.1846505  19.40   0.00147079    2.429    0.588
       285  -8.6500    236.6854     35.3009   2.9085622594e+01   2.1774160353e+01    0.1978808    0.1075598 -52.50 0.0004166372    1.672    0.402
       286 -10.2330    159.0333     39.0329   3.8169494718e+01   3.9596972059e+01    0.4018716    0.2122422  71.14   0.00109369    1.943    0.485
       287  -9.1716    120.9580     39.1712   4.5127954465e+01   4.9752326418e+01    0.2375257    0.1954548 -74.61 0.0004048308    1.260    0.206
       288 -10.6175    179.6985     36.2878   3.4577762712e+01   3.4628079120e+01    0.3993076    0.2662064  48.04 0.0007016603    1.727    0.421
       289  -8.9388     30.9822    248.2407   1.0684644665e+02   2.1671665505e+01     0.146351   0.06475458  34.03 0.0008895117    1.632    0.387
       290 -10.3231    118.1943     32.7361   4.3146774127e+01   5.1444875730e+01    0.8406469    0.4711306  14.54  0.002628312    4.088    0.755
       291 -10.1253    112.9504     33.2677   4.4546427717e+01   5.2773784052e+01    0.4894561    0.3155684 -28.29  0.001204835    1.646    0.392
       292 -10.5093     74.1597     35.1376   5.7129731746e+01   6.2194413259e+01    0.6124405    0.4175489 -45.31  0.002420072    1.482    0.325
       293  -9.6202     78.2348     34.4209   5.5252386701e+01   6.1381019742e+01    0.3081961    0.2574428 -62.93 0.0007121337    1.295    0.228
       294 -10.2447     80.5063     31.7900   5.3160567151e+01   6.1291042611e+01    0.5744169    0.3858848 -86.23  0.002410244    2.240    0.554
       295  -9.4156     71.6671     28.8020   5.4917667440e+01   6.3863258048e+01    0.4337414    0.2673294 -24.77  0.001903933    1.916    0.478
       296 -10.3906     74.8897     24.8577   5.1628067004e+01   6.3748830233e+01    0.5287097    0.3184153 -40.99  0.002399784    1.679    0.405
       297  -8.8785    139.4898     36.5196   4.0445510638e+01   4.5156270070e+01    0.2314114     0.134305  56.64 0.0001842395    1.702    0.412
       298  -9.9434     86.8577     34.5540   5.2336179078e+01   5.9291943376e+01    0.5417083     0.300333 -23.00  0.002117392    2.348    0.574
       299  -9.0461    164.0040     36.4850   3.6625566544e+01   3.8631538132e+01    0.2210543    0.1427917  74.97 0.0009083126    1.575    0.365
       300  -8.9138    162.9997    246.7364   8.1559759786e+01   6.2107695184e+00    0.1397103   0.06941777  32.37 0.0004192156    1.480    0.324
       301  -9.3996    129.5225     33.4845   4.1135065472e+01   4.8275804191e+01    0.3039381     0.149608 -29.33 0.0009395494    2.080    0.519
       302  -9.0909    242.2043     34.4800   2.8505405481e+01   2.0764297718e+01    0.2192145    0.1439587 -31.03 0.0004499975    1.262    0.208
       303  -9.2763     60.7468     34.3736   6.2403296417e+01   6.5237495012e+01     0.289021    0.1847387 -45.37 0.0008366734    1.556    0.357
       304  -8.5718     61.3334     30.3172   6.0057013602e+01   6.5872114243e+01    0.1978259    0.1477944 -22.16 0.0003308936    1.536    0.349
       305  -9.3238     19.0936     34.1539   8.6737899531e+01   7.1761834478e+01    0.2749104    0.1554125 -49.19 0.0008133278    1.608    0.378
       306  -9.1325      1.4554    244.0054   1.1243714017e+02   2.5124665233e+01    0.1352093   0.08361478  77.07 0.0003769172    1.545    0.353
       307 -10.6068    153.5272     32.1354   3.6638653637e+01   4.1966940679e+01    0.3967834    0.2473681  82.10            0    1.684    0.406
       308  -9.2499    159.5094     32.5145   3.5926124072e+01   4.0325450536e+01    0.3493522    0.2386565 -57.68  0.001669454    1.442    0.307
       309  -8.9891    145.8675     34.1560   3.8517420325e+01   4.3759613632e+01    0.3739848    0.1844472  55.38  0.001296671    2.018    0.505
       310  -9.6769    227.1093     33.0613   2.9235621881e+01   2.3996299563e+01    0.1921478    0.1676826 -66.25            0    1.143    0.125
       311  -8.4564    222.9885     34.0000   2.9787791167e+01   2.4769769549e+01    0.1925113   0.07331665  73.04 0.0008034796    2.950    0.661
       312  -9.2379     24.5947     31.0141   8.1561517500e+01   7.1887988364e+01    0.3056336    0.2478009  35.38  0.001394258    1.322    0.243
       313  -8.8404     29.2624     32.4531   7.9039197968e+01   7.0984779055e+01    0.2251612    0.1851423  58.09  0.001276603    1.414    0.293
       314 -11.1807     35.6411     26.7326   7.2020229018e+01   7.1299184264e+01    0.7109488    0.4879283  22.56  0.001098872    1.674    0.403
       315 -10.3616    234.0793     30.5389   2.8113414979e+01   2.2819879847e+01     0.370859    0.2350379  44.63  0.001313635    2.103    0.525
       316  -8.3294    190.3384     32.7218   3.2353238718e+01   3.2424083135e+01    0.1492165   0.09197757 -60.53 0.0005288717    1.617    0.382
       317 -11.0274    145.3789     29.1931   3.6809545946e+01   4.4538511426e+01    0.6598616    0.3071433  50.27 0.0008014181    2.316    0.568
       318 -10.3682    247.7755     30.0040   2.7099090103e+01   2.0154140146e+01    0.3063096    0.1638663 -38.07  0.001153529    1.422    0.297
       319  -9.2029    125.0648     30.7833   4.0936400587e+01   4.9858731553e+01    0.2473692    0.2215885 -33.73 0.0004761467    1.163    0.140
       320  -8.2909     65.7678     31.7586   5.8854701340e+01   6.4664994883e+01    0.2300338    0.1201772  61.87 0.0008810643    2.458    0.593
       321  -8.5897    149.4280     38.3320   3.9413792622e+01   4.2237871497e+01    0.2585927     0.136786  67.62  0.001058451    1.878    0.468
       322  -9.6632    211.8815     26.9304   2.8814237832e+01   2.8006514336e+01    0.3008244    0.2309438  14.80  0.001263223    1.749    0.428
       323  -8.7275    190.2674     28.4630   3.1116276269e+01   3.2940124790e+01    0.1930265    0.1252645 -82.55 0.0007027399    1.629    0.386
       324  -8.3761     43.9952    244.0000   1.0411897801e+02   2.1003295504e+01    0.1773611    0.0460473  31.06 0.0007911721    2.865    0.651
       325  -9.9432    245.6158    241.0043   6.7734701814e+01  -2.6803234179e+00    0.2978131    0.1454224  -1.21   0.00184317    2.154    0.536
       326 -10.8084     42.4985     15.4881   6.0997380431e+01   7.2232764398e+01    0.2679871    0.2292148  35.02 5.231071e-05    1.171    0.146
       327  -8.9391    145.8213    242.1745   8.4137886543e+01   8.9179833825e+00     0.149839    0.1047295  17.12 0.0005102119    1.320    0.242
       328  -9.7172     47.9921     26.8620   6.4801410460e+01   6.9161012413e+01    0.3928285    0.2996175  63.26 0.0009497755    1.584    0.369
       329  -9.4480    102.0000    239.9942   9.2290148489e+01   1.4812500243e+01    0.1437107   0.06582113 -61.20 0.0008041346    2.954    0.662
       330  -8.3590    203.3327     26.2970   2.9330133761e+01   3.0048408443e+01    0.1291975    0.1014771  32.88 0.0007029258    1.644    0.392
       331  -8.5171    161.0420     26.4805   3.3697534788e+01   4.0662058492e+01    0.2200021      0.13932  73.24  0.001021239    1.559    0.358
       332  -8.3551    206.6883    239.7023   7.3389860252e+01   1.7015936853e+00    0.1046174   0.06064195   9.66 0.0005957459    1.600    0.375
       333  -9.9770    186.8505    235.6391   7.6117179097e+01   4.5088670512e+00    0.2817816    0.1022692  26.66  0.001381586    2.671    0.626
       334  -9.0554     32.0445    232.2972   1.0602977567e+02   2.4196828259e+01    0.1586669    0.1043775  44.40 0.0004086321    1.082    0.076
       335  -9.3444    221.8136    233.5783   7.0224994469e+01   5.5946230347e-01    0.1331729   0.07789863  35.05 0.0006291245    1.631    0.387
       336  -8.2943      3.3355    230.2730   1.1183304865e+02   2.7278499601e+01   0.08685292   0.07912231  10.00  0.000299997    1.601    0.375
       337 -10.4540      2.6907     24.4911   9.6084718825e+01   7.5298849445e+01    0.4317602    0.2063092 -50.22  0.002137775    1.793    0.442
       338 -11.0474     85.8624     22.3718   4.6675229722e+01   6.1420347447e+01     0.522202    0.3226237  75.64  0.000601419    1.893    0.472
       339  -8.2249     82.9580     25.7727   4.9325984343e+01   6.1650052038e+01    0.1773922    0.1186391  57.16            0    1.451    0.311
       340  -9.2309    234.1810     24.1632   2.6551980337e+01   2.3472780634e+01     0.275577    0.1425128 -72.55  0.001113892    2.179    0.541
       341 -10.2440    172.0397     23.2454   3.1366225058e+01   3.8146546908e+01    0.5360688     0.287702  72.83  0.001723336    1.852    0.460
       342 -10.3602    153.6270     22.8904   3.3402660883e+01   4.3071271354e+01    0.4130609    0.2659633  65.50 0.0003730317    1.521    0.342
       343  -8.6566    207.2411    226.5823   7.1553490863e+01   2.9789480944e+00    0.1473395   0.07699703  24.00 0.0005611319    1.578    0.366
       344  -8.8810    163.3260    226.6831   7.9112166637e+01   8.5921402517e+00    0.1057191   0.07791754  50.14 0.0005372594    1.674    0.402
       345  -8.2494    143.6213    226.2917   8.2750225317e+01   1.1292515135e+01    0.1153945   0.07445138  50.82 0.0007019994    1.742    0.426
       346  -8.7722    223.8716    225.1328   6.8746464123e+01   1.1440921822e+00    0.1443206   0.09071857  10.79 0.0006043362    1.293    0.226
       347  -9.4936     71.9664     14.9779   4.7160627901e+01   6.5884587014e+01    0.2363145    0.2044287 -43.31 0.0003767791    1.199    0.166
       348 -11.0159     62.2574     22.4305   5.5313525855e+01   6.7032033412e+01    0.3299939    0.3144298 -48.94 0.0009878589    1.083    0.076
       349  -9.1429    132.1587    225.1909   8.4847204068e+01   1.3003525418e+01    0.1549237    0.1135599  46.68 0.0003939372    1.321    0.243
       350  -8.5671    125.0210     23.5466   3.8017287775e+01   5.0815687572e+01    0.2244188    0.1428561  71.08 0.0004936187    1.518    0.341
       351  -9.7349     26.2889     22.6333   7.6178604880e+01   7.3499900382e+01    0.2317356    0.1850192 -50.22 0.0005686253    1.189    0.159
       352 -10.0022    206.0776     21.5138   2.7795632919e+01   2.9926941317e+01     0.403519    0.1863447 -66.96  0.001712933    2.445    0.591
       353  -9.1054    188.2739     21.5440   2.9262001322e+01   3.4208757231e+01    0.2600523    0.1756165 -29.35 0.0009381987    1.408    0.290
       354  -8.3261    125.5086    225.5141   8.6199021359e+01   1.3860040448e+01    0.1180476   0.09022887  34.75 0.0008104085    1.017    0.016
       355  -9.5518     89.3669    220.8150   9.3179767403e+01   1.9435545275e+01    0.2224321    0.1652255  23.69 0.0009127737    1.368    0.269
       356  -8.6368     20.2450     17.5371   7.7961164549e+01   7.5333380233e+01    0.2463187    0.1917184   2.84   0.00110251    1.415    0.293
       357  -8.3905    117.9425    212.0034   8.6221406706e+01   1.6982175312e+01    0.1520377     0.113047  36.15 0.0004241281    1.065    0.061
       358  -9.2119    120.1594     19.7618   3.7323227329e+01   5.2612594684e+01    0.4542918    0.1751726 -59.21  0.001250909    4.550    0.780
       359  -8.9903    242.8053    210.0610   6.3745678220e+01   4.2184317847e-01    0.1422145    0.1169011   1.08 0.0006379925    1.308    0.235
       360  -9.7631    245.2327     20.1668   2.4957542304e+01   2.1654054149e+01    0.1944264    0.1169201  25.47  0.000962254    2.897    0.655
       361  -9.1532    199.7138     18.6851   2.7493142873e+01   3.1728120006e+01    0.2895679    0.1787541 -21.01  0.001062083    1.664    0.399
       362  -8.3735    230.6497    209.6939   6.5471431412e+01   1.8907925048e+00    0.1116309   0.06344628   7.88 0.0007042286    1.706    0.414
       363  -9.0560    123.9771    206.0414   8.4238549285e+01   1.7076229743e+01    0.1754489    0.1416522  32.06            0    1.046    0.044
       364  -8.7537     20.8553    203.8920   1.0731380583e+02   3.0529846863e+01    0.1721265   0.09843896  56.03 0.0005986551    1.332    0.249
       365  -8.3946    221.4919    198.5783   6.5155578435e+01   4.2191434438e+00    0.1104547   0.08376593   8.72 8.563373e-05    1.017    0.017
       366  -8.8642     95.9422    195.8536   8.9190324365e+01   2.2912678801e+01     0.183568    0.1550699  25.99 0.0004212534    1.221    0.181
       367  -9.1500      7.1491    195.0588   1.1018436049e+02   3.3552698612e+01    0.3103689    0.1410406  33.81  0.001739244    1.754    0.430
       368  -9.7724    144.0204     16.4819   3.2326237668e+01   4.6407791801e+01     0.438985    0.2070327 -25.47  0.001420688    2.144    0.534
       369 -10.1535      6.4082    175.1329   1.0974882914e+02   3.7788677768e+01    0.2730718    0.1308324  47.15 0.0008451094    1.570    0.363
       370  -8.3955    140.3267     20.3016   3.4267244915e+01   4.6994633094e+01    0.1516869    0.1088271  38.99 0.0004624582    1.641    0.390
       371 -10.9935    238.1070     17.0983   2.4615135361e+01   2.3386476963e+01    0.3334407    0.2820378 -17.55   0.00154472    1.304    0.233
       372  -9.1498     17.7365    174.4207   1.0679050258e+02   3.6938548935e+01    0.1589587    0.1134746  17.51 0.0009526426    1.667    0.400
       373  -8.2726    113.7107     19.7688   3.8556757842e+01   5.4380246141e+01      0.14413    0.1069876  43.09 0.0002019086    1.452    0.311
       374  -8.6993     79.8315     19.4244   4.7011592504e+01   6.3346562971e+01    0.2084514    0.1239899  46.62 0.0009204773    1.680    0.405
       375  -9.4137     11.6901    166.9252   1.0804897952e+02   3.9147664730e+01     0.177228    0.1332293  69.79 0.0005807287    1.102    0.092
       376 -10.4071      7.3662    166.3832   1.0918726678e+02   3.9637391326e+01    0.2210553    0.1873527  64.58 0.0003384565    1.114    0.102
       377  -9.4256     15.4454    165.4803   1.0696772562e+02   3.9138862121e+01    0.1260483    0.1005717  62.09 7.450012e-05    1.022    0.021
       378 -12.9952     36.5606    158.8307   1.0065667038e+02   3.8536589350e+01     1.623539    0.3041618  48.95  0.002600663    4.367    0.771
       379  -9.9195     20.2081    159.8300   1.0534854228e+02   3.9987501321e+01    0.2627653    0.1206189  76.15   0.00122956    2.117    0.528
       380 -10.2088      4.2897    153.1293   1.0953448872e+02   4.2908743892e+01    0.3055375    0.1705604  27.45 0.0009742221    1.757    0.431
       381  -8.6744      1.2750    160.2881   1.1062674414e+02   4.1495746907e+01    0.1251484    0.0948775  62.17 0.0001636126    1.020    0.019
       382  -9.7601      2.0563    156.5624   1.1028931964e+02   4.2286487204e+01    0.2834667    0.1800406 -87.16 0.0006453882    1.459    0.315
       383  -9.1567    195.4845     15.2705   2.6841422388e+01   3.3101916647e+01     0.226736    0.1728113 -88.88 0.0006261351    1.298    0.229
       384  -9.2337     87.5495     13.8834   4.1748884510e+01   6.2097545885e+01    0.6217458    0.1653559  60.96  0.001626516    3.237    0.691
       385  -9.9961      9.9208    157.8250   1.0813467474e+02   4.1368038539e+01     0.287625    0.1313464  36.71  0.001465091    1.810    0.448
       386  -9.5287    248.9405    153.8367   5.3471085005e+01   5.5697466622e+00    0.1775705    0.1260119   0.76 0.0006319456    1.256    0.204
       387  -9.8847     24.6652    163.0983   1.0430443970e+02   3.8805083449e+01    0.2112282    0.1674709  36.35 0.0003866037    1.255    0.203
       388 -10.5630     10.2765    147.1832   1.0752516744e+02   4.3830804808e+01    0.3299164    0.2219782 -14.57  0.001568005    2.291    0.564
       389 -10.0964     10.9838    151.5209   1.0753423266e+02   4.2746476069e+01     0.245527    0.1968738 -42.49  0.001123476    1.663    0.399
       390 -11.0506     14.8791    150.4883   1.0634157751e+02   4.2656109269e+01    0.2397568    0.1849711  46.58 0.0007153581    1.164    0.141
       391  -9.3479     62.6800    146.4800   9.1747752560e+01   3.8154012688e+01    0.3965816    0.2023745 -80.78   0.00140054    2.311    0.567
       392  -9.6067      4.0085    144.8224   1.0928538011e+02   4.4883322688e+01    0.2564308    0.1849967  33.35  0.001571116    1.374    0.272
       393  -9.5449    240.9791    144.0232   5.2692842618e+01   7.8448201854e+00    0.1437848    0.1121342 -14.03 0.0005105907    1.055    0.052
       394  -9.5662     41.9872    143.0018   9.7565618932e+01   4.1673373030e+01    0.1966804    0.1589104 -37.86 0.0004087746    1.624    0.384
       395  -8.6638     38.2423    143.2308   9.8739766851e+01   4.2052378008e+01    0.1905853    0.1298495  60.25 0.0003356631    1.301    0.231
       396  -9.3969      1.8462    139.4971   1.0972278900e+02   4.6313558869e+01    0.2680749    0.1233531  71.73  0.001297281    1.890    0.471
       397  -9.1454    230.7787    137.1649   5.2760069695e+01   1.0247715691e+01    0.1696706    0.1245325   7.15 0.0007518483    1.363    0.266
       398  -8.8508    235.9919    136.5569   5.1913865194e+01   9.5070717789e+00    0.1586864    0.1119964  39.57 0.0004934725    1.536    0.349
       399  -8.2698     83.0043    136.0086   8.4149662450e+01   3.7507224109e+01    0.1764339    0.1540115  53.71 0.0003735584    1.049    0.047
       400  -9.3144     58.2893    135.8854   9.1630415011e+01   4.1312530752e+01     0.240282    0.2139886  49.18 0.0003498209    1.110    0.099
       401 -10.1121     59.6527    131.8800   9.0620091074e+01   4.2101702677e+01    0.3932084    0.3074468  45.73  0.001743237    1.189    0.159
       402 -10.9689      6.9229    133.5110   1.0785396663e+02   4.7398206277e+01    0.6036456    0.3473691  19.15  0.003181526    1.943    0.485
       403  -9.0483     12.2135    128.3484   1.0582005929e+02   4.8265841550e+01    0.3817932    0.1354784 -66.22  0.001581751    2.626    0.619
       404  -8.4267     22.6776    133.6771   1.0278117166e+02   4.6025861523e+01    0.1415262    0.1152463  67.37 0.0008387683    1.034    0.033
       405  -8.6696     20.4685    131.4854   1.0332348067e+02   4.6776187916e+01     0.133496    0.1140707  72.94 0.0001121991    1.032    0.031
       406  -8.8243     30.5121    131.9681   1.0007120846e+02   4.5673135753e+01    0.1982035    0.1231936 -80.18 0.0004064956    1.520    0.342
       407  -8.9381     41.9719    129.9419   9.6079278507e+01   4.4897256152e+01    0.2220738    0.1853745  61.75  0.001276941    1.059    0.056
       408  -8.2739     86.7334    129.7042   8.1909361704e+01   3.8351708934e+01    0.1353564     0.116133 -20.45 0.0006919407    1.513    0.339
       409  -9.7552     18.3696    127.4105   1.0369368718e+02   4.7983684823e+01    0.3803812    0.2088831 -56.37   0.00185696    1.991    0.498
       410  -9.4683     34.1518    127.3993   9.8383038087e+01   4.6431501493e+01    0.2849501    0.1568253  78.46    0.0011552    1.896    0.473
       411  -8.7389     43.9742     10.5119   5.6721052342e+01   7.2748762902e+01    0.1910614    0.1297691  47.50 0.0003974195    1.471    0.320
       412  -9.6276     50.6086    126.5721   9.2777249918e+01   4.4657135494e+01    0.2415208    0.2115843  76.48 0.0002363776    1.028    0.027
       413  -8.9826    241.5008    124.0434   4.8661392773e+01   1.0185916243e+01    0.1873503    0.0993558 -29.76  0.001031901    1.593    0.372
       414 -10.6512     61.6937    121.4068   8.8285753456e+01   4.4400418438e+01    0.3744205    0.2575735 -47.11 7.698689e-05    1.682    0.405
       415 -10.0711     39.1437    123.7345   9.6255694708e+01   4.6795887115e+01    0.3419817    0.2282244  18.86  0.001705199    1.782    0.439
       416  -9.9354      7.4503    122.5678   1.0705788108e+02   5.0075348419e+01    0.3093025    0.2082161 -55.09  0.001705484    1.669    0.401
       417  -8.6762     84.2938    122.3552   8.1222751288e+01   4.0511698871e+01    0.2170776    0.1756181 -19.69  0.000580014    1.701    0.412
       418 -10.5952     44.7674    119.6143   9.3761496826e+01   4.7165443832e+01    0.3580992     0.244355  50.40 0.0006793469    1.363    0.266
       419  -9.3735     29.9150    120.9307   9.9113999801e+01   4.8523609966e+01    0.3513752    0.1998902  81.20 0.0009352886    1.769    0.435
       420  -9.5078     28.1984    116.2759   9.9197722476e+01   4.9891184396e+01    0.3799421    0.1732288 -84.00  0.001593169    2.196    0.545
       421 -11.4561     21.4816    118.8102   1.0186508132e+02   4.9884639337e+01    0.5059087    0.3591475  53.71  0.002815029    1.276    0.216
       422  -9.9488    221.4964    119.3696   5.0383620655e+01   1.4120870596e+01    0.2686391    0.2149427  22.88 0.0007210632    1.302    0.232
       423  -8.5487    103.6896    119.2804   7.4820275050e+01   3.7639977716e+01     0.151838     0.113002  73.31 0.0001915109    1.564    0.361
       424  -8.8783     94.1238    119.1009   7.7569725832e+01   3.9503058335e+01    0.2187981    0.2063525  -1.83 0.0005773146    1.260    0.207
       425 -10.0108      4.3120    116.7680   1.0780385284e+02   5.1753268918e+01    0.3651184    0.3197558 -68.50  0.001490035    1.244    0.196
       426  -9.6319     13.6401    113.1583   1.0418333972e+02   5.1997197564e+01    0.2564658    0.1666696  56.56 0.0005876528    1.395    0.283
       427  -9.1293     12.2387    117.9935   1.0507509699e+02   5.0872011265e+01    0.2103199    0.1749699  65.62 0.0004273611    1.054    0.051
       428 -10.5793      6.6727    111.1463   1.0659251881e+02   5.3022503143e+01    0.8622947    0.3498651  56.15  0.002821022    2.288    0.563
       429 -10.4739     43.1670     99.0107   9.1022217115e+01   5.2676149418e+01    0.5763341    0.3602549  39.83   0.00260248    1.565    0.361
