#   1 NUMBER                 Running object number                                     
#   2 MAG_AUTO               Kron-like elliptical aperture magnitude                    [mag]
#   3 X_IMAGE                Object position along x                                    [pixel]
#   4 Y_IMAGE                Object position along y                                    [pixel]
#   5 X_WORLD                Barycenter position along world x axis                     [deg]
#   6 Y_WORLD                Barycenter position along world y axis                     [deg]
#   7 A_WORLD                Profile RMS along major axis (world units)                 [deg]
#   8 B_WORLD                Profile RMS along minor axis (world units)                 [deg]
#   9 THETA_WORLD            Position angle (CCW/world-x)                               [deg]
#  10 FWHM_WORLD             FWHM assuming a gaussian core                              [deg]
#  11 ELONGATION             A_IMAGE/B_IMAGE                                           
#  12 ELLIPTICITY            1 - B_IMAGE/A_IMAGE                                       
         1 -14.6040     68.4407    144.5286   9.9195881139e+01   3.7435890698e+01     5.020048     2.757519  70.46  0.004786192    3.444    0.710
         2 -14.3191    219.2670     27.6127   3.5872715814e+01   2.8221136794e+01     1.221616    0.8981717  35.86   0.00724631    1.959    0.489
         3 -14.4463    205.9090     40.1091   4.0149779197e+01   2.9590239165e+01     1.916212     1.412197  32.54  0.008052029    1.888    0.470
         4 -12.5634    248.1560      4.5088   2.8922809865e+01   2.4926794557e+01    0.4593478    0.4085863 -50.35  0.003624511    1.311    0.237
         5 -12.5336    242.1359      4.4208   2.9284792904e+01   2.6098132857e+01    0.4890482    0.2890966 -54.10  0.003175218    1.394    0.282
         6 -10.8305     50.8215      3.6294   6.0666596152e+01   6.7461690397e+01    0.2805777    0.1870052  53.72  0.001104075    1.826    0.452
         7 -10.1625     46.0560      1.7724   6.1626457444e+01   6.8432202229e+01    0.2005913    0.1478216  44.25 0.0005905451    1.464    0.317
         8 -15.1977      9.2149    207.6117   1.2129943585e+02   2.8710142712e+01     1.255674     1.024197 -43.55  0.004464262    1.635    0.388
         9 -14.0323      3.9869    184.5995   1.2087518601e+02   3.4281532266e+01     1.477416    0.5495335 -83.10 0.0008288855    2.439    0.590
        10 -16.0340     37.6652    190.2197   1.1362531915e+02   2.9905230127e+01     6.156252     2.556823  63.84   0.02365834    3.363    0.703
        11 -10.5361     81.2897    182.1791   1.0190128801e+02   2.6400185165e+01    0.3418715    0.2622502  38.98 0.0009871948    1.301    0.231
        12  -9.5681    149.0041    187.4922   8.6172488034e+01   1.4167066889e+01    0.2278078    0.1378838  37.35  0.000736549    1.601    0.375
        13  -9.8055     99.3805    180.8679   9.7104309871e+01   2.3998925972e+01    0.2521653    0.2058931  27.96 0.0005848505    1.273    0.215
        14 -10.4225    189.2623    177.5974   7.5299654123e+01   9.0397696170e+00    0.4157761    0.2836699 -62.54  0.001893789    2.193    0.544
        15 -12.0004     67.8768    169.5905   1.0349445750e+02   3.1288134928e+01    0.3451477    0.2748565 -36.53  0.000931498    1.426    0.299
        16  -9.5650    148.1716    174.9487   8.3939845441e+01   1.6986935702e+01    0.2304697    0.1733218 -79.93 0.0009612762    1.956    0.489
        17 -15.2154      5.4783    141.1412   1.1678328362e+02   4.4487465859e+01     5.084628    0.9707201 -74.08   0.01176177    4.538    0.780
        18 -12.4168     77.6175    160.4164   9.9401239107e+01   3.2208626686e+01    0.5869305    0.4738946  34.25  0.003147685    1.297    0.229
        19 -13.5696     64.8798    156.2452   1.0222656759e+02   3.4980972923e+01    0.5377532    0.4068059 -45.83  0.001345845    1.339    0.253
        20  -9.1613     85.1426    185.9749   1.0149544405e+02   2.4948802000e+01    0.2344641    0.1542575  82.47  0.001072761    1.990    0.497
        21 -11.0147    133.7158    144.1754   8.0947282979e+01   2.6572787790e+01     1.178932    0.2818839 -53.08  0.002651165    6.060    0.835
        22 -12.1956     63.1952    174.3920   1.0541573111e+02   3.0723120873e+01    0.4615232    0.3163522 -25.47  0.002235635    2.055    0.513
        23 -10.2805    174.5048    148.9844   7.2309985041e+01   1.7495790458e+01    0.2846072    0.2623492  69.08 0.0007385592    1.289    0.224
        24  -9.5141     34.6642    145.6745   1.0915607644e+02   4.1041941270e+01    0.2377887    0.1698376 -38.34 0.0007699133    1.540    0.350
        25 -10.6386     31.8046    143.1659   1.0962599107e+02   4.1936184288e+01    0.4333008    0.3071009 -21.03  0.002143723    1.807    0.447
        26 -12.7241     85.0112    153.9079   9.6196624385e+01   3.2728949028e+01     1.541347    0.7205957 -55.53  0.006194982    2.008    0.502
        27  -8.9978    200.3635    143.2659   6.5657089942e+01   1.3600477201e+01    0.2006952    0.1269741 -46.76 0.0003770599    1.570    0.363
        28 -10.3169     98.5284    140.5369   8.9694027486e+01   3.3846765121e+01    0.2860661     0.281082  -3.89 0.0008628192    1.043    0.041
        29  -9.9502    101.4743    138.0042   8.8302353381e+01   3.3957732374e+01    0.3256141    0.2358738 -24.22  0.001080461    1.660    0.398
        30 -12.4630     86.9137    139.2014   9.2759185510e+01   3.6063884196e+01    0.3177457    0.2639956 -43.42 0.0004396286    1.169    0.144
        31 -10.9420     76.1892    136.8017   9.5429697674e+01   3.8276975125e+01    0.2828323    0.2388471  48.64 0.0009597368    1.276    0.216
        32  -9.7879     27.1022    135.1327   1.0987408120e+02   4.4353505977e+01    0.1945914    0.1712862 -81.31 0.0004620631    1.082    0.076
        33 -10.6257    106.0058    131.0057   8.5416936786e+01   3.4837413699e+01    0.3959165    0.3166699 -44.71  0.001617675    1.204    0.170
        34 -10.3056    109.3684    130.3125   8.4297360985e+01   3.4393093536e+01    0.3750089    0.2657015  -4.99   0.00158507    1.998    0.499
        35 -11.1587     17.1140    132.2159   1.1243026661e+02   4.5871396715e+01      0.30047    0.1648204 -76.15  0.001509718    1.634    0.388
        36 -10.7470    135.2704    127.9378   7.6686975667e+01   2.9934234762e+01    0.5551965    0.2907924 -43.98   0.00218623    1.862    0.463
        37  -9.7526    160.9780    127.7776   7.0353826465e+01   2.4659566037e+01     0.232495    0.1733435 -63.77  0.001045172    1.645    0.392
        38 -10.5183     97.4090    125.6092   8.6645056222e+01   3.7635542997e+01    0.2995636    0.2397147 -16.79 0.0006557502    1.427    0.299
        39  -9.5564    116.2198    124.5664   8.0977788486e+01   3.4453138334e+01    0.2142779     0.149047  23.64 0.0007877989    1.662    0.398
        40 -10.4011    230.1664    166.1643   6.5073860773e+01   4.1643321465e+00    0.1777719    0.1572085 -47.54 0.0009066184    1.337    0.252
        41  -9.1288    135.0000    119.8880   7.4730947058e+01   3.1768788331e+01    0.2561622   0.08701606 -45.03 0.0007924627    2.874    0.652
        42  -9.9650    106.8530    118.9618   8.2247114116e+01   3.7509684901e+01    0.2210894     0.206013 -23.01 0.0003523423    1.050    0.048
        43  -8.7447    194.3327    171.6711   7.3029379162e+01   9.2758278089e+00    0.1367438    0.1172406 -84.61 0.0007051859    1.719    0.418
        44 -10.8621     22.6127    119.0451   1.0885812053e+02   4.8697780684e+01    0.3338269    0.1749846  49.79  0.001554762    2.418    0.586
        45 -10.1106    205.5290    110.1746   5.7035453199e+01   1.8737897934e+01    0.2898213    0.2075743  41.19  0.000851519    1.554    0.356
        46 -13.0703    248.2019    101.8241   4.8695009364e+01   1.1900865546e+01    0.9519663    0.2914785 -37.46  0.003646894    2.777    0.640
        47  -9.2300    150.7109    150.0305   7.8038339677e+01   2.1952331288e+01    0.2399546    0.1229393 -64.85  0.000700662    4.029    0.752
        48  -9.7637     31.4899     95.5012   1.0148673602e+02   5.3644910369e+01     0.225236    0.1117243  36.01  0.001039918    2.329    0.571
        49 -10.6270     52.9947     91.1487   9.2622375919e+01   5.2378055859e+01    0.2599265    0.1869232 -48.08 0.0006840886    1.241    0.194
        50 -10.8019     27.7384    107.7397   1.0524491270e+02   5.1044073929e+01     0.535046    0.1327836  17.93  0.001628872    5.665    0.823
        51  -9.0816    152.0003     83.9275   6.0801095087e+01   3.5297258675e+01    0.2291084    0.1788359 -74.64  0.000568064    1.630    0.387
        52 -17.0186     19.9142    242.8022   1.2133923395e+02   2.0440781162e+01     8.440436     2.375491  26.13   0.03164306    5.290    0.811
        53 -10.2382     18.0699     90.3101   1.0532793345e+02   5.5926719981e+01    0.1702086    0.1543436 -34.78 0.0004286973    1.129    0.114
        54  -9.2798    160.1926     82.8321   5.8715634461e+01   3.3620728806e+01    0.2028308    0.1752549   7.33 0.0004811364    1.331    0.249
        55  -9.5596     72.3899     83.3345   8.3495486694e+01   5.1398713042e+01    0.2213505    0.1653431  51.99 0.0005664841    1.690    0.408
        56  -9.2920     89.9694     65.0572   7.1688806219e+01   5.1961220728e+01    0.2075336    0.1791038 -86.11 0.0007173084    1.667    0.400
        57  -9.2806     48.0252     62.3146   8.6112318113e+01   5.9141739401e+01    0.1771478    0.1556496  -1.57 0.0004175894    1.109    0.098
        58 -11.0049     13.4262     59.9130   1.0014149291e+02   6.2973138348e+01    0.2528063    0.1898496 -51.32 0.0005709141    1.189    0.159
        59  -8.7018     83.4644     60.4586   7.2263656045e+01   5.3986130702e+01    0.1383674    0.1293523   0.30 0.0002178107    1.085    0.078
        60 -13.9500     16.2322    216.3075   1.2043171337e+02   2.6202028262e+01    0.8234465    0.4836105  31.19  0.004969362    1.834    0.455
        61 -12.5282    196.9051     46.1645   4.2736181594e+01   3.0813336258e+01    0.6400347    0.4843143  41.58    0.0013727    1.580    0.367
        62  -9.2065     89.9506    212.2989   1.0397428681e+02   1.8310886153e+01    0.1804722    0.1585829  52.60 0.0003405881    1.048    0.046
        63 -10.7133    198.0056     23.9606   3.7201399187e+01   3.3284765814e+01     0.269969    0.1876177 -20.41  0.001133235    1.786    0.440
        64  -9.6835    134.8950     33.8405   4.9339674356e+01   4.6871844318e+01    0.1945708    0.1799518  67.72 0.0004176005    1.070    0.065
        65  -9.6041    189.8076     14.8967   3.5893369204e+01   3.6103360783e+01    0.1793679    0.1619326  62.77  0.000745128    1.204    0.169
        66 -10.6146    136.3041     42.5585   5.1818018291e+01   4.5448037994e+01    0.2517483     0.226989 -83.61 0.0004511952    1.224    0.183
        67 -10.2686    111.6616    204.6047   9.7861142466e+01   1.6722818065e+01    0.3591776    0.2349347 -81.52  0.001144823    2.147    0.534
        68 -11.7638    193.1430    195.1531   7.7968124704e+01   5.1058895313e+00     1.010018     0.550971 -63.22  0.003234926    5.182    0.807
        69  -9.3278    107.5178    203.5168   9.8672070969e+01   1.7602428735e+01    0.1377772    0.1280573  53.51 0.0001100076    1.035    0.034
