#   1 NUMBER                 Running object number                                     
#   2 MAG_AUTO               Kron-like elliptical aperture magnitude                    [mag]
#   3 X_IMAGE                Object position along x                                    [pixel]
#   4 Y_IMAGE                Object position along y                                    [pixel]
#   5 X_WORLD                Barycenter position along world x axis                     [deg]
#   6 Y_WORLD                Barycenter position along world y axis                     [deg]
#   7 A_WORLD                Profile RMS along major axis (world units)                 [deg]
#   8 B_WORLD                Profile RMS along minor axis (world units)                 [deg]
#   9 THETA_WORLD            Position angle (CCW/world-x)                               [deg]
#  10 FWHM_WORLD             FWHM assuming a gaussian core                              [deg]
#  11 ELONGATION             A_IMAGE/B_IMAGE                                           
#  12 ELLIPTICITY            1 - B_IMAGE/A_IMAGE                                       
         1 -14.4452    153.3781     51.8884   8.9014467605e+01   4.0427740226e+01     1.578658     1.209985  33.05  0.004615572    1.380    0.275
         2 -14.5625    164.5080     35.7552   8.1400542186e+01   3.9906637576e+01     1.224378     1.010599  -1.18  0.004239338    1.321    0.243
         3 -14.0069    177.7414      4.8929   6.9227940191e+01   3.9877458893e+01     1.024171    0.6670071  69.58    0.0040387    1.430    0.301
         4 -11.9745    110.1411    231.6201   1.3641467752e+02   1.4748210907e+01    0.3797619    0.2245717 -78.42  0.002294142    2.105    0.525
         5 -19.8609     72.1969    169.1831   1.3665425997e+02   3.1815704514e+01     17.24702      6.39261 -67.03   0.07564577    2.645    0.622
         6 -11.5633    177.4046    169.2448   1.1454618634e+02   1.3508636397e+01     0.244233     0.211043 -50.32 0.0009460496    1.294    0.227
         7 -10.1320    145.5234    178.4691   1.2265492715e+02   1.7996584660e+01    0.1341897    0.1207867  53.74 6.447617e-05    1.010    0.010
         8 -10.9233     16.3502    217.8455   1.5104221575e+02   2.8871387002e+01    0.1756767    0.1103166  42.39  0.001324843    1.698    0.411
         9 -10.2179    139.3702    216.5832   1.2948853168e+02   1.2527714309e+01    0.2759953    0.1666498  85.63  0.001313093    2.970    0.663
        10 -11.1124    148.6981    173.3482   1.2112298724e+02   1.8348004810e+01    0.2224488    0.2152494 -57.81 0.0006796436    1.134    0.118
        11 -12.0899    145.8687    169.7004   1.2106288319e+02   1.9564250083e+01     0.434278    0.3162263 -61.35   0.00179606    1.539    0.350
        12 -11.0540    140.4461    249.3985   1.3315756838e+02   7.5227598072e+00    0.2095233    0.1694113 -81.64 0.0009473658    1.533    0.348
        13 -11.6276    137.4838    171.4705   1.2312469462e+02   2.0792606368e+01    0.3855614    0.2591084  73.53  0.001885338    1.912    0.477
        14 -11.4768     12.5049    248.9560   1.5301932604e+02   2.4100408058e+01    0.1746652    0.0855752 -68.64  0.001066922    2.295    0.564
        15 -11.1862    205.8404    170.4069   1.0929999105e+02   7.6948988164e+00    0.5295953    0.2715656  24.83  0.002076557    2.831    0.647
        16 -11.8867    226.6384    168.3282   1.0510888723e+02   3.9859179412e+00    0.5242927    0.3017689 -56.53  0.002121662    3.427    0.708
        17 -12.4402     13.5836    244.0812   1.5266812758e+02   2.4761706734e+01    0.2320868     0.100419 -75.37  0.001621665    2.166    0.538
        18 -10.3277    123.9354    166.8847   1.2521744998e+02   2.4142908532e+01    0.2136898    0.1509952  75.86 0.0005999768    1.657    0.396
        19 -11.2401    199.9901    163.8345   1.0907002312e+02   9.8941189046e+00    0.3450863    0.3058076 -85.84  0.001528774    1.494    0.331
        20 -10.1278     31.5871    204.7351   1.4775418146e+02   2.9672104879e+01   0.08767145   0.08114422 -50.48 0.0004938628    1.761    0.432
        21 -11.2923     21.8039    233.8598   1.5099615610e+02   2.5591056489e+01    0.1377688    0.1003768 -88.43 0.0006501688    1.323    0.244
        22 -10.3040    116.6454    230.8952   1.3521589110e+02   1.3880182900e+01    0.1383384   0.09610735 -89.25 0.0004779798    1.664    0.399
        23 -10.5624     16.3377    156.4563   1.4706874471e+02   4.0703051356e+01    0.1631665    0.1124937  24.78  0.001102772    2.046    0.511
        24 -11.4720    158.9232    194.4649   1.2262412111e+02   1.2739535654e+01    0.2525267    0.1844363 -73.18 0.0007653455    1.844    0.458
        25 -13.5844    133.9232    145.4384   1.1905646637e+02   2.6648669233e+01      1.44519    0.3736566 -54.60  0.003805747    5.484    0.818
        26 -14.5959    135.8280    127.7786   1.1482985410e+02   2.9940825961e+01     2.210936    0.7279298 -54.73   0.00642023    4.169    0.760
        27 -13.9211    143.4933    144.6513   1.1674632788e+02   2.4928122014e+01    0.9322277    0.6066203 -78.76  0.003917017    2.433    0.589
        28 -10.8734    174.4360    148.4242   1.1089543639e+02   1.7824313566e+01    0.3278344    0.2514524 -61.37  0.001036939    1.569    0.363
        29 -11.9414    135.3625    195.8470   1.2740265223e+02   1.6685548635e+01    0.2923593    0.2020764  84.27 0.0009741157    1.890    0.471
        30 -12.5978    154.4294    146.1225   1.1464720517e+02   2.2421420206e+01    0.3932067    0.3061609  72.17   0.00198797    1.506    0.336
        31 -11.0316    220.3855    227.7172   1.1684881136e+02  -2.5861817660e+00    0.1873257    0.1097564 -36.55  0.001007759    2.084    0.520
        32 -10.9986     41.1275    194.0769   1.4528646725e+02   3.0641552579e+01     0.387039    0.2141591  36.04  0.002219874    2.067    0.516
        33 -13.7540    207.5915    183.7704   1.1156812771e+02   5.3468809584e+00    0.8380271    0.5490579 -52.74  0.001206573    2.129    0.530
        34 -11.8175    160.1758    128.5153   1.0944944593e+02   2.4668937091e+01    0.4221771    0.3045882 -30.79   0.00200173    1.528    0.345
        35 -13.1134    210.4929    181.5329   1.1061580879e+02   5.1291145068e+00    0.4589091    0.3495517 -13.19  0.001843088    1.410    0.291
        36 -11.0318     18.2705    128.9333   1.4405188219e+02   4.6429176990e+01    0.2270956     0.135823 -53.63  0.001026666    1.711    0.415
        37  -9.3401     32.2494    188.5992   1.4649505983e+02   3.2666234131e+01    0.1828137    0.1464796 -65.76 0.0003646148    1.508    0.337
        38 -12.8553     28.5610    183.9305   1.4682809903e+02   3.3962715419e+01    0.3526782    0.2129087  58.71 0.0008808341    1.419    0.295
        39 -10.7911    126.0708    186.9108   1.2793116690e+02   1.9905598165e+01    0.3671864    0.2015602  70.02  0.001568771    2.775    0.640
        40 -12.0383    147.7392    147.9503   1.1648979552e+02   2.3417988799e+01    0.2961709    0.2362206  54.99 0.0003200716    1.229    0.186
        41 -11.8871    134.5380    104.6442   1.0946761546e+02   3.5037675489e+01    0.6628036    0.1702451 -45.04  0.001885103    3.817    0.738
        42 -10.5601    101.0094    224.2860   1.3725973540e+02   1.7294130519e+01    0.1733728     0.115525  59.90  0.001134254    1.227    0.185
        43 -11.7194      4.2726    112.1323   1.4567223329e+02   5.1114794468e+01    0.2826287    0.1989966 -15.37   0.00189783    2.202    0.546
        44 -11.3602    157.7568    184.7295   1.2125512680e+02   1.4608364209e+01    0.2423923    0.1823036 -61.96 0.0006482418    1.577    0.366
        45 -10.7648    110.1287    222.9220   1.3550862076e+02   1.6155273136e+01     0.172068    0.1239265  66.36 0.0004511034    1.226    0.184
        46 -10.7989    205.4606    110.1696   9.5624888441e+01   1.7755821691e+01    0.3246385    0.2119222  42.17 0.0008969047    1.562    0.360
        47 -11.0217     19.2020    108.5909   1.4137717876e+02   5.0840886450e+01    0.2034093    0.1424875 -45.13 0.0008710247    1.577    0.366
        48 -11.1018     20.5988    219.2248   1.5043814451e+02   2.8206199652e+01    0.1564718    0.1017298  56.82 0.0005583224    1.271    0.213
        49 -10.5334    156.9212    105.9278   1.0451278708e+02   2.9847948130e+01     0.228564    0.2187368 -85.93 0.0004771471    1.101    0.092
        50 -12.2100    197.6657    176.2588   1.1197986983e+02   8.3766533912e+00    0.4345016    0.3324554 -56.56  0.001446578    1.705    0.414
        51 -10.7793    124.3486     94.9156   1.0940938101e+02   3.9183003812e+01     0.212808    0.1842244 -39.80 0.0004880808    1.124    0.111
        52 -10.5737    144.0052     79.0185   9.9859962014e+01   3.8018998951e+01    0.2444718    0.1881563  11.17 0.0006096512    1.631    0.387
        53 -10.7170      6.9764    248.3329   1.5377004632e+02   2.4737679724e+01    0.1141498   0.07423595  56.84 0.0007809174    1.272    0.214
        54 -12.6486    178.9698    174.8756   1.1531111845e+02   1.2242768948e+01    0.4393879    0.3395732  -9.76  0.001836766    1.608    0.378
        55 -12.9181    167.8643     28.7597   7.8476887037e+01   3.9921596434e+01    0.4596818    0.3577314  -8.90 0.0009369155    1.407    0.289
        56 -10.6902     13.6556     60.0317   1.3474811802e+02   6.1828998900e+01    0.1650224    0.1482933 -77.43 0.0004507207    1.242    0.195
        57 -10.4880    144.9587     34.0095   8.4624805326e+01   4.5107917572e+01    0.2189517    0.2118232  57.70 0.0003761743    1.075    0.070
