#   1 NUMBER                 Running object number                                     
#   2 MAG_AUTO               Kron-like elliptical aperture magnitude                    [mag]
#   3 X_IMAGE                Object position along x                                    [pixel]
#   4 Y_IMAGE                Object position along y                                    [pixel]
#   5 X_WORLD                Barycenter position along world x axis                     [deg]
#   6 Y_WORLD                Barycenter position along world y axis                     [deg]
#   7 A_WORLD                Profile RMS along major axis (world units)                 [deg]
#   8 B_WORLD                Profile RMS along minor axis (world units)                 [deg]
#   9 THETA_WORLD            Position angle (CCW/world-x)                               [deg]
#  10 FWHM_WORLD             FWHM assuming a gaussian core                              [deg]
#  11 ELONGATION             A_IMAGE/B_IMAGE                                           
#  12 ELLIPTICITY            1 - B_IMAGE/A_IMAGE                                       
         1 -14.8586      6.2289     70.5294   9.3019793994e+01   6.2811901073e+01     1.107184    0.7975417 -59.97  0.005700056    1.220    0.180
         2 -13.0949      3.0617     10.6146   7.4884492483e+01   7.5194528703e+01    0.6648933     0.351982 -45.44  0.003886949    1.804    0.446
         3 -12.4666      8.0314      2.5538   6.6621860906e+01   7.5903180640e+01     0.517752     0.314995  38.37  0.003174439    1.887    0.470
         4 -15.6840     10.8169     24.0325   7.5939271931e+01   7.2201753159e+01     1.956294     1.038326 -24.99  0.008930432    1.982    0.495
         5 -13.5383     25.1403     13.3233   6.1646420957e+01   7.2201019405e+01    0.7122343    0.2534641  39.73  0.003181859    2.716    0.632
         6 -13.6642     29.2294      8.3641   5.6562894860e+01   7.2255178789e+01    0.4236624    0.3398246  36.74  0.001798398    1.280    0.219
         7 -13.4605    146.6191     29.9917   3.1203891981e+01   4.4292172698e+01    0.9750137    0.5352942  66.49  0.003612877    1.660    0.397
         8 -12.8717    188.9778     26.1512   2.4942337810e+01   3.4883666799e+01    0.6986002    0.2729906 -62.30  0.002754891    3.158    0.683
         9 -11.6241     82.7756      8.1311   3.5961017232e+01   6.1782540374e+01    0.4592283    0.2360707  75.39  0.002074461    2.388    0.581
        10 -14.8534     98.7865     11.3927   3.3549777205e+01   5.7793723010e+01     1.325737    0.7464818  65.77  0.005041217    1.578    0.366
        11 -12.3378     85.9049     13.8159   3.7554771634e+01   6.0524568663e+01    0.4754552    0.3041381 -52.67  0.002488962    1.979    0.495
        12 -11.9637     60.3015     15.2210   4.6118673448e+01   6.5863561876e+01    0.4891302    0.2728145  36.70  0.002512592    1.714    0.417
        13 -11.5238     46.8370     12.8430   5.0343611245e+01   6.8722064546e+01     0.280783    0.2113443  47.96  0.001461474    1.319    0.242
        14 -12.3991    214.8260     10.1123   1.9186210330e+01   3.1170714467e+01     0.314478    0.2655975 -70.16  0.001462156    1.145    0.126
        15 -11.0587    124.4582     11.2849   2.8791975130e+01   5.1683138109e+01    0.2410727    0.1513885  69.60 0.0007600999    1.383    0.277
        16 -11.3308     75.9840      9.3368   3.8309515517e+01   6.3179767216e+01    0.3161023    0.1906384 -24.22  0.001545302    1.871    0.465
        17 -10.9268    188.2129      9.4122   2.0992061721e+01   3.6915915045e+01    0.1775091   0.09749524 -86.62 0.0009517998    1.697    0.411
        18 -10.7826    153.1885      8.7720   2.4190503836e+01   4.5034607752e+01    0.1707311    0.1409865  54.18  0.001075266    1.345    0.257
        19 -13.4775     42.1010      3.8955   4.7631212316e+01   7.0584631255e+01    0.6040887     0.420453  39.50  0.003227006    1.228    0.186
        20 -11.2704    224.6737      4.6909   1.7456979222e+01   2.9767647409e+01   0.09804975   0.08449163  54.27 0.0003380296    1.656    0.396
        21 -11.5172    118.9719      2.7398   2.6768358787e+01   5.3767636149e+01    0.3449689    0.1797874 -76.01  0.001560027    2.481    0.597
        22 -10.6362    232.5241      1.5182   1.6402271927e+01   2.8571949333e+01    0.1141391    0.0813693 -65.03 0.0008097679    1.027    0.026
        23 -10.2301    183.0406      1.2318   1.9443778133e+01   3.8877555157e+01    0.1569191    0.0858333  79.25 0.0006242385    1.603    0.376
        24 -11.0416     61.6849      1.3647   3.8859986410e+01   6.6972898933e+01    0.2856362    0.1108075  62.73  0.001173793    2.620    0.618
        25 -12.8162     76.8297    156.5196   8.2970960200e+01   3.2930157275e+01     1.053862    0.5879455  43.94  0.003592709    1.774    0.436
        26 -12.3814      3.0198    249.4720   1.0998029252e+02   1.9911220702e+01    0.4287356    0.2667543  45.44  0.001986609    1.256    0.204
        27 -13.4954      9.6168    245.5881   1.0850478562e+02   2.0059686085e+01    0.8561143    0.3563486  50.23  0.003663575    1.811    0.448
        28 -12.9023     73.4055    153.1963   8.3422759329e+01   3.4299926192e+01    0.5233849    0.3548342  48.35  0.002447462    1.489    0.328
        29 -11.7496    110.3204    155.2770   7.3211495687e+01   2.7678335602e+01    0.5265833    0.2818329 -72.64  0.001817249    3.014    0.668
        30 -12.5370    189.4280    155.8278   5.5013032625e+01   1.3172414644e+01    0.2573183    0.2267659 -84.12  0.001326201    1.464    0.317
        31 -10.7762    103.0567    149.9847   7.4168300758e+01   3.0250809888e+01    0.2495194    0.1867748 -21.46 0.0009233524    1.727    0.421
        32 -11.8192     60.3299    147.3899   8.6455084067e+01   3.7685779806e+01    0.3965358    0.2976474  14.74  0.001942499    1.568    0.362
        33 -11.9896    149.2589    144.6082   6.1112861555e+01   2.2842383989e+01    0.6226389    0.3172448 -67.38  0.001835897    4.427    0.774
        34 -10.7482     74.3226    145.3085   8.1745711058e+01   3.6195263765e+01    0.1535748    0.1165024 -25.49 0.0002539596    1.646    0.393
        35 -12.0734     41.2335    137.4355   9.1020671531e+01   4.2713051960e+01    0.5181494    0.2698583  63.45  0.002015241    2.556    0.609
        36 -11.1947     84.9902    128.0000   7.4933581211e+01   3.8886596329e+01    0.2445417    0.1682996  55.52  0.001081295    1.618    0.382
        37 -10.9753    135.4149    125.7544   6.0144507818e+01   2.9745887538e+01     0.215044    0.1432448 -37.92 0.0006410587    1.578    0.366
        38 -13.1478    108.9846    124.4485   6.6899672525e+01   3.5348302594e+01    0.5622116    0.3589353 -29.24  0.002271066    2.086    0.521
        39 -12.0647    180.6167    123.4518   4.9726029423e+01   2.1029465300e+01    0.4910641    0.2769174 -51.28  0.002182835    1.778    0.438
        40 -12.5221     28.6349    121.9203   9.2964635726e+01   4.8137828197e+01     0.420777     0.390341 -74.61  0.002498732    1.018    0.018
        41 -11.3471    159.2636    119.7339   5.3173345573e+01   2.6099098148e+01    0.4720731    0.1618935 -49.02  0.001530234    3.017    0.669
        42 -12.9076      5.7349    116.8085   1.0050667297e+02   5.1295115634e+01     1.317746    0.4224518 -60.34   0.00523043    2.438    0.590
        43 -11.8095     19.0575     85.9938   9.0339570010e+01   5.8174210596e+01    0.3044063    0.2251631 -45.90 0.0003510717    1.226    0.184
        44 -14.4411     23.9630     93.4551   8.9759821198e+01   5.5901291000e+01     1.715689     1.136616  -7.94  0.008593295    1.817    0.450
        45 -11.9484     36.6956     92.9460   8.4377660627e+01   5.4736071319e+01    0.3926547    0.2820141  12.80   0.00132094    1.551    0.355
        46 -13.1334      2.3001     96.9360   9.9280810188e+01   5.6577550747e+01    0.7375216    0.3265832 -78.32  0.003004358    2.153    0.535
        47 -13.9185     18.0727    111.5563   9.5252048128e+01   5.1778025003e+01     0.752807    0.5793135   4.99  0.003105154    1.499    0.333
        48 -14.0457     12.8427    103.8468   9.6090754817e+01   5.4161004710e+01     1.073096     0.504759  26.63  0.004888857    2.248    0.555
        49 -12.5326    111.6011    116.5338   6.4225472174e+01   3.6690944102e+01    0.3632388    0.2908213  48.90  0.000844576    1.266    0.210
        50 -11.8178     86.7307    114.8137   7.1330979232e+01   4.1854927531e+01    0.3104967    0.2395911   0.17 0.0009948858    1.711    0.416
        51 -12.0820     78.6667    110.3202   7.2883221563e+01   4.4374559781e+01    0.4397833    0.3278823 -89.55   0.00182575    1.736    0.424
        52 -11.3975    121.7280    112.1753   6.0327366265e+01   3.5608821625e+01    0.2919829    0.2568215  78.53 0.0007015924    1.237    0.192
        53 -12.6173     94.7731    109.9740   6.7575171254e+01   4.1531174271e+01     0.439181    0.4064017  58.54  0.001756022    1.102    0.093
        54 -11.2051     63.6818    111.2246   7.8277998740e+01   4.6575803017e+01    0.4377349    0.1458562  40.82  0.001439997    3.040    0.671
        55 -14.1150    106.3493    103.7466   6.2434556969e+01   4.0685229883e+01      1.07661    0.8457921  39.78  0.005245381    1.297    0.229
        56 -11.4017     41.9158    106.3731   8.5235886770e+01   5.0754042937e+01    0.3339536    0.2733995  25.83  0.001475824    1.300    0.231
        57 -12.2165    137.6013    103.7377   5.4100979451e+01   3.4034519966e+01    0.6014704    0.3146548  64.85  0.002100509    2.905    0.656
        58 -10.8134    166.6035    101.2076   4.7147980602e+01   2.8211888321e+01    0.2116586    0.1356691 -32.98 0.0009551432    1.686    0.407
        59 -11.9194     61.6253     98.1951   7.5876586808e+01   5.0118914492e+01    0.6351942    0.3982581  73.99  0.002452617    2.757    0.637
        60 -11.8881     46.5688     99.1731   8.1860880345e+01   5.1998275840e+01    0.5433254    0.3650955  74.91  0.002423523    2.104    0.525
        61 -11.3384     52.9515     97.5376   7.8997643386e+01   5.1549325414e+01    0.4523373    0.2783347  -4.15  0.001760628    2.561    0.610
        62 -12.1318     42.4474     90.7513   8.1502244519e+01   5.4594958010e+01    0.3468439     0.276015 -86.80 0.0006545471    1.478    0.323
        63 -10.9363    163.6823     97.3149   4.6747573896e+01   2.9586444205e+01    0.1512486    0.1111815 -76.24 0.0003319753    1.650    0.394
        64 -12.2453    136.7343     94.8505   5.1942992124e+01   3.6045311363e+01    0.4799617    0.3148008  57.99  0.002161729    1.607    0.378
        65 -11.6858     49.0593     93.3544   7.9484471417e+01   5.3106809866e+01    0.3719544    0.2811357  70.95  0.001835455    1.691    0.409
        66 -12.6742    187.6856     84.4158   3.9317099097e+01   2.6698513096e+01     0.355536    0.2487498  41.55  0.001707292    1.771    0.435
        67 -12.3577    164.0113     71.8484   4.0078907487e+01   3.4070359088e+01     0.497272    0.3111565 -32.55  0.002339524    1.742    0.426
        68 -11.5379    158.0304     83.5095   4.4286684166e+01   3.3404881613e+01    0.2960654    0.2470511  57.28 0.0004786313    1.228    0.186
        69 -13.1114    162.2762     79.6076   4.2445931458e+01   3.3136128602e+01    0.7233199    0.3878368  38.72  0.002510538    2.597    0.615
        70 -12.8600    169.6676     76.9760   4.0432353750e+01   3.1918868660e+01    0.3383333    0.3209587 -24.17  0.001421451    1.219    0.180
        71 -13.4042     55.1349     66.3845   6.9193492536e+01   5.8370768186e+01     1.228988    0.8426106   4.52  0.005848788    1.884    0.469
        72 -13.1080     87.3328     65.3265   5.6793838778e+01   5.2660790384e+01     1.053338    0.6100303  20.48  0.003799801    3.056    0.673
        73 -13.7407     61.5834     75.1298   6.9381407447e+01   5.5462387491e+01    0.7117924    0.5333887 -28.31   0.00269261    1.436    0.304
        74 -12.8602     70.9759     75.2276   6.5805633158e+01   5.3828159684e+01    0.5327081    0.3658312  11.04  0.001334195    1.967    0.492
        75 -12.1196     77.2235     73.4931   6.2970459561e+01   5.3042010653e+01    0.5755237     0.320897 -32.25  0.001825783    2.195    0.544
        76 -10.2245    126.4179     83.4800   5.1276871035e+01   4.0616385726e+01    0.1475058    0.1441655 -77.99 4.908404e-05    1.027    0.026
        77 -12.0574    216.7278     81.8981   3.4658093816e+01   2.1188085247e+01    0.2073108    0.1783039  56.14 0.0007717889    1.379    0.275
        78 -11.7724    136.5327     79.6915   4.7775733666e+01   3.9028460812e+01    0.4915471    0.2518649  46.24  0.001666345    2.030    0.507
        79 -11.4584    113.8693     79.8593   5.3483752747e+01   4.4139743159e+01     0.356198    0.3208663  75.18  0.001263189    1.146    0.128
        80 -13.1310     64.6363     50.7601   5.9734478811e+01   5.9784892231e+01    0.9296479    0.5703878 -34.98  0.004526093    1.709    0.415
        81 -11.6486     28.9134    244.8124   1.0446711389e+02   1.8275497005e+01    0.3403901    0.1703144  46.55  0.001904783    1.558    0.358
        82 -14.1545      4.5216     63.5440   9.2350383703e+01   6.4537215704e+01    0.8363171    0.6227216   0.42  0.003922315    1.420    0.296
        83 -10.0937     97.3195     78.7008   5.7937074953e+01   4.7953080453e+01     0.149833    0.1187992  87.01 0.0003900497    1.620    0.383
        84 -11.3294     26.8177     74.7473   8.4261395168e+01   6.0169371393e+01    0.5303343    0.2897481 -82.88   0.00212196    2.990    0.666
        85 -10.2185     98.0006     75.0499   5.6585759374e+01   4.8541784199e+01    0.1703936      0.16565  48.93            0    1.010    0.010
        86 -12.5281    198.5934     70.8167   3.4497980300e+01   2.6598927733e+01    0.4982827    0.3901224   3.44  0.002668773    2.036    0.509
        87 -10.8957    117.3697     72.6314   5.0353540975e+01   4.4733657548e+01    0.2296923    0.2051078 -41.00  0.001234038    1.156    0.135
        88 -12.0151    134.9469     66.5070   4.4293917198e+01   4.1751051661e+01    0.4924323    0.2710675  55.88  0.001482747    1.769    0.435
        89 -12.5124     54.4135     81.1066   7.4047398714e+01   5.5248881194e+01    0.6428057    0.4838414 -61.55  0.003303734    1.402    0.287
        90 -10.4715     99.5311     65.4971   5.3037579238e+01   5.0035647190e+01     0.144604    0.1402591  59.67 0.0001250042    1.018    0.017
        91 -12.7218     79.2228     60.7476   5.7968859752e+01   5.5165170397e+01     0.439142    0.4160301 -66.48  0.001740908    1.165    0.142
        92 -10.9202     35.0572     59.8018   7.6027341910e+01   6.2593934458e+01    0.4725885    0.1789086 -46.37   0.00190778    2.427    0.588
        93 -11.0276     38.8078     59.9584   7.4299769251e+01   6.2083631775e+01    0.2988739     0.203673  61.04  0.001429409    2.255    0.557
        94 -11.5870     35.7436     54.1438   7.3783519063e+01   6.3684235963e+01    0.4339036    0.2502844  21.64  0.002125612    1.831    0.454
        95 -13.2644    103.3661     50.3758   4.6812936769e+01   5.1768455460e+01    0.9125521    0.5136672 -63.32  0.002143866    2.943    0.660
        96 -12.8450     97.8769     50.1405   4.8262429041e+01   5.3045638545e+01     0.465454    0.3917967 -49.84  0.001644192    1.274    0.215
        97 -12.3473     91.8980     56.8579   5.2416530467e+01   5.3236714582e+01     0.478339    0.3062591  42.43  0.001909172    1.527    0.345
        98 -11.4329     24.7366     59.0848   8.0872246392e+01   6.3914058985e+01    0.4206599     0.218609 -54.30  0.002034148    1.775    0.437
        99 -11.9992    111.2504     58.7502   4.7540172511e+01   4.8593525854e+01    0.3280168    0.3046645 -51.99 0.0002622784    1.114    0.102
       100 -11.2299     17.8234     55.6677   8.3388970184e+01   6.5317519216e+01    0.2930359    0.1707887 -58.50  0.001518815    1.645    0.392
       101 -12.7560    177.9823     58.7336   3.4416434371e+01   3.2969416116e+01    0.4709792    0.4539659  78.09  0.001782755    1.184    0.155
       102 -13.9528    120.2563     54.8160   4.4019374126e+01   4.7144106580e+01    0.7312747    0.4553809  44.90  0.003418108    1.652    0.395
       103 -11.1881    136.1796     49.7335   3.8978707296e+01   4.4139745328e+01     0.239998    0.2182683  85.27 0.0006097865    1.022    0.022
       104 -10.3611     23.5234     49.9527   7.8551295482e+01   6.5970532763e+01     0.183128     0.116671 -49.31 0.0004327286    1.462    0.316
       105 -11.9737    153.3091     47.1677   3.5123517194e+01   4.0416154142e+01    0.3852479    0.2326547  69.92    0.0018677    1.623    0.384
       106 -10.4600     38.5598     46.0336   6.9419354672e+01   6.4900352984e+01    0.1910384    0.1224493 -43.69 0.0006300082    1.527    0.345
       107 -12.3683    204.5453     39.9079   2.6619954855e+01   2.9775446649e+01     0.593643    0.2604205 -87.46  0.002333945    3.466    0.712
       108 -12.2923    213.0133     43.0374   2.6488907839e+01   2.7594953117e+01    0.4360235    0.2691614  55.78  0.001423375    1.924    0.480
       109 -12.5485    219.7341     41.6936   2.5564892278e+01   2.6406511731e+01    0.5255256    0.3162632 -87.74  0.002378002    1.728    0.421
       110 -12.2256     24.4504    216.8381   1.0376446918e+02   2.4680800740e+01     0.698689     0.298698  49.94  0.003350931    1.980    0.495
       111 -13.0268      5.9968     42.9499   8.6060147314e+01   6.8952482092e+01    0.8829073    0.3979047  19.05  0.004373644    2.267    0.559
       112 -12.8561     26.5253    225.5056   1.0384056598e+02   2.2556612785e+01    0.6392783    0.3841459 -62.98  0.003621323    1.835    0.455
       113 -13.8509     20.5282    224.1065   1.0510568317e+02   2.3472816692e+01    0.7869833    0.6220433  63.36  0.004906159    1.030    0.029
       114 -10.8546    191.6650    226.3220   6.7280757566e+01   4.4021181684e-01    0.1095108   0.09730702  57.40 0.0007050318    1.708    0.414
       115 -13.2817     64.9989    223.1665   9.4746792452e+01   1.8610183600e+01    0.7260653    0.7167919   3.47   0.00488344    1.212    0.175
       116 -11.6595    159.5285     43.2016   3.3023362378e+01   3.9494653983e+01    0.3786548    0.2449964  75.52  0.001559749    1.514    0.339
       117  -9.9479     80.2613     44.6888   5.1709007454e+01   5.7733942044e+01    0.1299127    0.1090552 -78.38 0.0002397948    1.532    0.347
       118 -11.7917    109.5913     41.9168   4.2264948014e+01   5.1605235628e+01    0.4755726    0.2225004  65.62   0.00110552    2.400    0.583
       119 -12.0624    131.9722     32.8977   3.4530963831e+01   4.7467616598e+01    0.3895692    0.2954392  52.46  0.001260879    1.309    0.236
       120 -13.5811    122.2768     36.2825   3.7502777028e+01   4.9367202840e+01    0.7646241    0.5112475  41.05  0.003857492    1.656    0.396
       121 -12.5806    113.7858     37.8016   3.9853306712e+01   5.1190352080e+01    0.3888077    0.3306515  74.54  0.001337024    1.135    0.119
       122 -11.0155    135.4919     39.8055   3.6053118318e+01   4.5714934452e+01     0.265516    0.1814081  65.12 0.0007530772    1.359    0.264
       123 -12.3230    241.9194     36.0808   2.2596365182e+01   2.2853471105e+01    0.3627241    0.2283157  75.73  0.001511938    1.687    0.407
       124 -11.9998     75.7485     37.0087   5.0210960266e+01   5.9851971224e+01    0.3579918    0.2225142  47.41 0.0009152757    1.489    0.328
       125 -11.5186     70.6196     36.1000   5.1638040851e+01   6.1035361098e+01    0.3319001    0.2319437  57.21  0.001063318    1.532    0.347
       126 -12.5840     43.9285     33.1237   6.1449630301e+01   6.6363507204e+01    0.8456119    0.4076979  41.47  0.003990612    2.034    0.508
       127 -13.5614    166.4649     30.2595   2.8520999809e+01   3.9538728587e+01    0.8802314    0.4428363  72.36  0.004013024    1.884    0.469
       128 -12.3474    139.1394     21.5105   2.9785714615e+01   4.7081860903e+01     0.928678    0.2705022  71.16  0.003107378    3.595    0.722
       129 -11.3225    152.4930     31.4837   3.0762126656e+01   4.2699670005e+01    0.2959991     0.183506  87.64 0.0009266539    1.689    0.408
       130 -11.5096    248.8272    215.9810   5.5743135244e+01  -4.8529425187e+00    0.1932881    0.1453452   9.60  0.001419527    1.266    0.210
       131 -10.6522     64.7591     30.0132   5.1213156384e+01   6.3085639939e+01     0.171596       0.1586 -17.04  0.000372697    1.145    0.127
       132 -13.0463     55.7542     26.8304   5.3342283018e+01   6.5260200322e+01    0.7928079    0.3202825  47.75  0.002871345    2.359    0.576
       133 -11.9272     62.7479     25.6038   5.0021171097e+01   6.4087647675e+01    0.4142792    0.2473903  13.36  0.001865988    2.530    0.605
       134 -11.7757      4.0143    213.0507   1.0824769858e+02   2.7468336531e+01    0.3207603    0.1876698  59.54  0.001855544    1.422    0.297
       135 -11.5492     30.4971     25.6619   6.4876069592e+01   6.9588967677e+01    0.3796064    0.2268331  10.61  0.001858554    2.011    0.503
       136 -11.1963     36.3957     23.6216   6.0765360025e+01   6.9035197520e+01    0.3114227    0.2311494 -43.93  0.001876097    1.563    0.360
       137 -11.8751     72.4146    207.1026   9.1260975606e+01   2.1207297467e+01    0.3703807     0.272389  80.58  0.002001325    1.478    0.323
       138 -10.5079    148.6056    207.1877   7.3076528821e+01   9.8923639904e+00    0.1889616    0.1204696 -36.30 0.0009488316    1.671    0.402
       139 -10.1485    198.6741    204.3204   6.2338266469e+01   3.0571434620e+00    0.1121601    0.1032418  81.85 0.0007046883    1.681    0.405
       140 -11.4837     50.6984     20.1873   5.2345079642e+01   6.7096663308e+01    0.4121018    0.2471122  62.41  0.001776918    2.463    0.594
       141 -11.0068     46.1869     20.6131   5.4547259448e+01   6.7848277905e+01    0.3040427    0.1604697  44.41  0.001356752    1.774    0.436
       142 -11.4592     71.3045     16.4954   4.2926871893e+01   6.3447860471e+01    0.2233013    0.2175404  81.68 0.0006383327    1.188    0.158
       143 -13.0299     30.0163    169.2266   9.8461040508e+01   3.5600159704e+01     1.158481    0.6247754 -35.22  0.004873001    2.733    0.634
       144 -11.9269    120.6124     26.2148   3.4465728123e+01   5.1021867666e+01    0.4137524    0.2560588  76.99  0.001604442    1.653    0.395
       145 -13.2803     21.9198    166.2067   1.0048196787e+02   3.7166164129e+01    0.6361191    0.4298566  34.43  0.001065422    1.495    0.331
       146 -15.2810      7.8094    182.4032   1.0561121293e+02   3.4343524189e+01     1.818304     1.446545  72.84   0.01132989    1.069    0.064
       147 -10.5237     40.5159     12.5720   5.3089812680e+01   6.9877574697e+01    0.1226725    0.1045229  21.55 1.640832e-05    1.033    0.032
       148 -14.6674     15.5545    174.9007   1.0300949224e+02   3.5539208632e+01     1.898831    0.7156367  62.98   0.00708752    3.136    0.681
       149 -12.0147     17.1834    195.7642   1.0411511235e+02   3.0275642084e+01    0.3649766    0.1760059 -58.08  0.001737973    2.206    0.547
       150 -12.7206     37.0920    194.4072   9.8945041199e+01   2.8564466005e+01    0.3715435    0.2337877  87.88  0.001912163    1.592    0.372
       151 -11.5004    206.4397    190.6556   5.8506140758e+01   4.2513243138e+00      0.23358    0.1543745  27.30  0.001038913    1.560    0.359
       152 -11.2096    200.2533    191.4140   5.9777951961e+01   5.0105802231e+00     0.168952    0.1188653  42.58 0.0009502211    1.654    0.395
       153 -11.6075    249.3884    182.7867   5.0053073244e+01  -1.9478228712e-01      0.17558   0.08769431 -30.28 0.0009580096    1.708    0.415
       154 -10.8572    122.5108    182.0154   7.4985613507e+01   1.9338768328e+01     0.300907    0.1652764  63.89  0.001034754    3.416    0.707
       155 -11.9481    124.1506    167.0399   7.1855877083e+01   2.2459528983e+01    0.4641117    0.3154544 -84.75  0.001950851    2.270    0.559
       156 -11.4195    222.4953    166.9714   5.1353853661e+01   5.9057732007e+00     0.201677    0.1084303 -39.19    0.0010371    1.602    0.376
