#   1 NUMBER                 Running object number                                     
#   2 MAG_AUTO               Kron-like elliptical aperture magnitude                    [mag]
#   3 X_IMAGE                Object position along x                                    [pixel]
#   4 Y_IMAGE                Object position along y                                    [pixel]
#   5 X_WORLD                Barycenter position along world x axis                     [deg]
#   6 Y_WORLD                Barycenter position along world y axis                     [deg]
#   7 A_WORLD                Profile RMS along major axis (world units)                 [deg]
#   8 B_WORLD                Profile RMS along minor axis (world units)                 [deg]
#   9 THETA_WORLD            Position angle (CCW/world-x)                               [deg]
#  10 FWHM_WORLD             FWHM assuming a gaussian core                              [deg]
#  11 ELONGATION             A_IMAGE/B_IMAGE                                           
#  12 ELLIPTICITY            1 - B_IMAGE/A_IMAGE                                       
         1 -14.4138    162.8230     30.1698   2.9016087774e+02   6.4415840194e+00   0.09345522   0.08246719 -26.43  0.003044061    1.188    0.158
         2 -16.7646    218.2118    124.8653   2.9008610734e+02   5.0168859972e+00    0.4122742    0.1861818  13.51   0.03011983    3.290    0.696
         3 -15.5530    240.0274     55.7402   2.8940661218e+02   5.6745785626e+00   0.07517491   0.06973366 -37.58  0.006942777    1.098    0.089
         4 -15.5357    243.9688     69.6747   2.8944541938e+02   5.4908293194e+00    0.1437304   0.08057915  77.30   0.01105275    3.328    0.699
         5 -17.1905    186.7511     81.0049   2.9018918650e+02   5.7125345052e+00    0.3019712    0.1970036 -78.86   0.02977387    1.860    0.462
         6 -15.4756    193.2735     35.6776   2.8983513419e+02   6.1916043209e+00     0.159509   0.08437246 -61.56   0.01227722    1.925    0.480
         7 -15.8950    212.9227     48.0334   2.8967895107e+02   5.9294355500e+00    0.1649518   0.06353088 -45.71   0.01265645    2.834    0.647
         8 -10.7224    247.9161     16.1192   2.8907110754e+02   6.0793542560e+00   0.01844529   0.01413944 -64.22   0.00168701    1.347    0.258
         9 -11.9786    238.4782     10.5800   2.8914839474e+02   6.2008037908e+00   0.02017435   0.01579112  -1.53  0.000818069    1.444    0.307
        10  -9.8218    233.1957     10.8367   2.8921223165e+02   6.2303811772e+00   0.01070373  0.007963835  -5.69 0.0002515209    1.595    0.373
        11 -10.0769     95.0065     11.5398   2.9084846165e+02   7.0702964392e+00   0.01016469  0.008826921 -59.04 0.0004500535    1.172    0.147
        12 -10.0825    142.9531      8.2378   2.9026143776e+02   6.8145095304e+00    0.0110432  0.009706694 -60.80 0.0004282328    1.162    0.140
        13 -11.2036    201.4507      6.8188   2.8956201178e+02   6.4716022917e+00   0.01230487   0.01169056 -63.66 0.0004267085    1.080    0.074
        14  -9.3034    116.9905      7.7197   2.9056514211e+02   6.9795108918e+00  0.009142405   0.00853828  28.89 0.0003870241    1.047    0.045
        15  -9.8456    232.2745      6.9553   2.8919931532e+02   6.2804401117e+00  0.009528136  0.008549174  68.55 0.0003963412    1.195    0.163
        16 -10.3013    213.5933      4.7881   2.8940632735e+02   6.4201654908e+00   0.01075735  0.008875795  22.19 0.0003783431    1.203    0.169
        17  -9.4260    151.6160      1.8433   2.9011995548e+02   6.8345628638e+00   0.00961998  0.006486508 -79.74 0.0009493473    1.786    0.440
        18 -17.9022    221.5167     81.4386   2.8978190362e+02   5.4941170052e+00    0.2352536    0.1830211  10.64   0.02609103    1.373    0.272
        19  -9.5005    204.6768    226.2983   2.9086361424e+02   3.9370368903e+00  0.006983664  0.004972442  59.24 0.0007024103    1.626    0.385
        20  -9.9605    228.5187    250.4888   2.9073013410e+02   3.5137429776e+00  0.006620093  0.006479993  19.09 0.0008102924    1.000    0.000
        21  -9.2830    205.0332    249.9812   2.9100341897e+02   3.6633192008e+00  0.007933584  0.007892244 -13.14 0.0005163515    1.021    0.020
        22 -10.3777    165.6840    249.6707   2.9146482811e+02   3.9075724235e+00   0.01599777  0.009161754  60.34  0.001385197    2.398    0.583
        23  -9.1805    124.6786    250.3038   2.9195173402e+02   4.1508542790e+00  0.006997337  0.004977092  59.73 0.0004349199    1.634    0.388
        24 -11.8528    238.8819    224.2138   2.9044833893e+02   3.7514276778e+00   0.01407935    0.0127715  29.80 0.0004382822    1.077    0.072
        25 -10.3589     93.5884    222.2182   2.9214788860e+02   4.6629094130e+00   0.01209684  0.008933818  29.54 0.0004409554    1.316    0.240
        26 -10.6872    180.8435    223.8638   2.9112947848e+02   4.1108350275e+00   0.01665583  0.009519929  30.49 0.0008650241    1.680    0.405
        27 -10.2731    124.0472    216.0185   2.9175112647e+02   4.5481016123e+00   0.01038995    0.0099353  17.61 0.0008095012    1.029    0.028
        28 -10.9015     60.2634    215.2456   2.9249867304e+02   4.9461257837e+00   0.02175441   0.01136592  31.87  0.002009728    1.819    0.450
        29  -9.3529    235.0346    215.0000   2.9043751379e+02   3.8806086471e+00   0.01095423   0.00374472  27.51 0.0004978773    2.865    0.651
        30 -10.3373     89.8506    211.1452   2.9212480448e+02   4.8127970001e+00   0.01011669  0.009985148  10.40  0.000348566    1.010    0.010
        31 -10.6298     86.9510    208.0758   2.9214038605e+02   4.8657145835e+00   0.01111539  0.009755748 -81.13 0.0002793476    1.224    0.183
        32  -9.7353    238.1713    206.9896   2.9035181951e+02   3.9531990816e+00   0.01321069   0.00781535  41.44   0.00127555    1.682    0.405
        33  -9.8031    123.9993    205.9703   2.9169066813e+02   4.6636908245e+00  0.009506168   0.00923599  33.74            0    1.019    0.018
        34  -9.5419    244.4423    202.3205   2.9024958156e+02   3.9682697922e+00   0.01182283  0.006207724 -56.09 0.0007092063    1.874    0.466
        35 -10.1345    191.3278    201.6318   2.9087074683e+02   4.3016197182e+00   0.01063398  0.007467262  60.57 0.0007012028    1.681    0.405
        36 -10.7143     68.4606    198.6723   2.9230148672e+02   5.0864037717e+00   0.01637726   0.01065211 -51.07  0.001116918    1.541    0.351
        37 -11.1823    214.5380    197.4481   2.9057191482e+02   4.2074147727e+00   0.02268195   0.01370696  53.95  0.002138871    1.947    0.487
        38 -11.5606    231.3147    187.3566   2.9031291397e+02   4.2202675523e+00   0.01491005   0.01337386  50.91 0.0007625039    1.140    0.123
        39  -9.8537    166.3794    195.9197   2.9112995794e+02   4.5198537604e+00   0.01137596  0.009059491  41.40 0.0007824202    1.246    0.198
        40 -11.0440    155.2968    194.6302   2.9125274647e+02   4.6024540595e+00   0.02520018   0.01356856  46.28  0.002293335    1.986    0.497
        41 -10.3509    149.5049    196.0384   2.9132958824e+02   4.6217272544e+00   0.01002469   0.00667794 -64.18 0.0005104048    1.556    0.357
        42 -11.1513    117.4952    189.5947   2.9166788451e+02   4.8913289422e+00   0.02953062   0.01394639 -76.21  0.001352919    3.123    0.680
        43  -9.8651    100.0432    196.5209   2.9191581725e+02   4.9184300529e+00  0.009895073  0.006446626  28.42 -0.0001407973    1.494    0.331
        44  -9.6371    249.4759    194.9955   2.9014571801e+02   4.0213529719e+00   0.01125203  0.008581674  26.62  0.001234577    1.286    0.223
        45 -10.8857    142.2522    194.1286   2.9140348398e+02   4.6879900676e+00   0.02084387   0.01060697  60.17  0.001590479    3.132    0.681
        46 -10.6618    106.7741    194.0185   2.9182122236e+02   4.9060506247e+00   0.01528809  0.008256741 -66.82 0.0007140439    2.009    0.502
        47 -10.4755    217.6788    193.9169   2.9051342519e+02   4.2286522265e+00  0.009367387  0.008493212 -69.65  0.000420447    1.145    0.126
        48 -11.4678    226.6000    190.9097   2.9039006822e+02   4.2084435958e+00   0.02111936    0.0106861 -71.24   0.00179965    2.387    0.581
        49 -12.6598    202.0096    192.6692   2.9069036207e+02   4.3389685666e+00   0.04556302   0.02628089  85.93  0.003718977    2.919    0.657
        50 -11.4251    207.8888    190.5817   2.9060840321e+02   4.3268827414e+00   0.02191217   0.01440487 -41.74  0.001442946    1.617    0.382
        51  -9.3398    129.9801    192.4967   2.9153827235e+02   4.7817377903e+00  0.009557821  0.006397403  30.48 0.0009779701    1.445    0.308
        52  -9.6547     48.4953    192.0264   2.9249679630e+02   5.2843442267e+00   0.01040276  0.006607845 -61.71  0.001037451    1.603    0.376
        53 -10.6986    143.8839    189.5465   2.9135638324e+02   4.7305798128e+00   0.01391094  0.009206983 -87.16  0.001339143    1.974    0.493
        54 -11.9935    214.8741    186.0349   2.9049844057e+02   4.3362029113e+00   0.02310228   0.01704608 -19.35  0.002395249    1.606    0.377
        55 -10.5298     76.0323    186.0074   2.9213529271e+02   5.1856002423e+00   0.01045708   0.01009999  17.92 0.0008031601    1.016    0.016
        56 -10.5455    110.5234    184.2202   2.9171746584e+02   4.9955899489e+00   0.01290253   0.01220831  21.29 0.0008196445    1.037    0.036
        57 -11.5498    193.8708    182.7136   2.9072561601e+02   4.5029837843e+00   0.01829987   0.01009449 -61.22  0.001043326    1.839    0.456
        58 -11.8129    185.1071    183.7643   2.9083527657e+02   4.5446139333e+00   0.02007868   0.01698511  39.75  0.002340853    1.167    0.143
        59 -11.7504    188.8856    179.1281   2.9076252059e+02   4.5746377035e+00   0.02331013  0.009916265 -50.62  0.001942216    2.322    0.569
        60 -10.7654    207.9390    182.3319   2.9055756145e+02   4.4211611699e+00  0.009700503  0.008835899  19.62 0.0008061117    1.085    0.078
        61 -11.2094    129.0332    179.7393   2.9147188156e+02   4.9338968739e+00   0.01203924  0.009966888 -61.15 0.0007879479    1.232    0.189
        62 -11.7766    220.9946    177.5398   2.9037460076e+02   4.3960704795e+00   0.01769506   0.01638832  55.80  0.002154699    1.112    0.101
        63 -12.2349    201.9089    179.1207   2.9060903300e+02   4.4949318953e+00   0.01739211   0.01616152 -28.75  0.001579105    1.102    0.093
        64 -10.2356    235.4873    177.4221   2.9020324258e+02   4.3085476080e+00   0.01406049   0.01008361  49.76 0.0008338385    1.476    0.322
        65 -10.7015    147.1436    176.5034   2.9123860761e+02   4.8602706876e+00   0.01134253  0.009526151  72.25 0.0009397556    1.336    0.251
        66 -11.4566    169.6444    173.0486   2.9095228075e+02   4.7621922221e+00   0.01707448   0.01098921  78.40  0.001013091    2.236    0.553
        67 -12.0308    233.4924    171.0781   2.9018805267e+02   4.3934949270e+00   0.01297226   0.01237182  41.69 -0.0001759588    1.045    0.043
        68 -12.8679    189.6379    172.5897   2.9071383174e+02   4.6450049208e+00   0.03087487   0.02184288 -89.89  0.002788086    1.780    0.438
        69 -13.5743    182.9127    170.2651   2.9077893115e+02   4.7128603268e+00   0.06124771    0.0231013 -59.48  0.004859244    2.589    0.614
        70 -12.1341    180.8117    165.5968   2.9077525899e+02   4.7792640067e+00   0.01897632   0.01383439 -40.43  0.001893752    1.446    0.308
        71  -9.0305     62.4776    173.4572   2.9221910375e+02   5.4122902336e+00   0.00661634  0.006458258  22.53 8.472843e-05    1.004    0.004
        72  -9.8919    140.9696    172.0399   2.9128426268e+02   4.9492407115e+00   0.01035548  0.009965583  41.58 0.0007300128    1.037    0.036
        73  -9.7350    182.5030    249.5486   2.9126602497e+02   3.8061221678e+00  0.006626647  0.006450476  24.38 8.159083e-05    1.007    0.007
        74  -9.5590    193.3211    247.6783   2.9112729289e+02   3.7613900690e+00  0.007065948  0.004991468  61.13 0.0007045081    1.673    0.402
        75  -9.1997     90.2710    163.3362   2.9182954089e+02   5.3589021554e+00  0.006922435   0.00493826 -30.27 0.0002416968    1.598    0.374
        76 -10.1505    132.2779    246.9252   2.9184169849e+02   4.1432094175e+00    0.0122184  0.009386137  23.73 0.0002375198    1.291    0.225
        77  -9.3700    244.0094    161.4721   2.9000565700e+02   4.4390602633e+00    0.0103046  0.006506013  26.31  0.001021532    1.563    0.360
        78 -10.9266    145.1594    159.6708   2.9115956538e+02   5.0654982793e+00   0.01167158  0.009364684 -80.83 0.0008051068    1.388    0.280
        79  -9.0533    161.2697    159.6184   2.9096924170e+02   4.9674983514e+00  0.006976362  0.005051669  68.84  0.000489813    1.696    0.410
        80 -11.7619    190.2708    162.4659   2.9064469489e+02   4.7572126453e+00    0.0217028    0.0114407 -71.96  0.001893795    2.286    0.563
        81 -10.6463    211.9951    166.2836   2.9041199042e+02   4.5802846709e+00  0.009835619  0.008689485  33.36 0.0006861644    1.106    0.096
        82  -9.4087     16.3148    156.3300   2.9266032364e+02   5.8899475158e+00  0.007085537  0.004984533 -26.39 0.0007045245    1.678    0.404
        83 -10.0455     95.9141    166.1311   2.9177992107e+02   5.2923798434e+00    0.0100781  0.008742723  54.86 0.0003678323    1.204    0.170
        84 -11.3057    138.7464    155.2302   2.9120818430e+02   5.1556704746e+00   0.01155252  0.009572743  22.88  0.000446409    1.195    0.163
        85 -10.5049     77.0546    154.5887   2.9193240573e+02   5.5399379577e+00   0.01108645  0.009166904 -78.01  0.001258513    1.315    0.239
        86 -10.6458    214.8498    243.7894   2.9085023882e+02   3.6742202650e+00   0.01407504   0.01119085  50.89 0.0004389214    1.315    0.240
        87  -8.9067    249.8983    154.0000   2.8989075129e+02   4.4885377386e+00   0.01065742  0.003744842  27.57 0.0006018655    2.788    0.641
        88  -9.4440     77.2843    150.6478   2.9190574266e+02   5.5837587650e+00  0.006960957  0.005049843  65.89 0.0007019265    1.660    0.398
        89 -10.8818    240.8773    149.1580   2.8996740318e+02   4.5993918281e+00   0.01247805  0.009085053  20.56  0.001246676    1.397    0.284
        90  -8.6530    131.2943    242.3266   2.9182538914e+02   4.2019767431e+00  0.006976489  0.004986298 -27.57 0.0007021393    1.625    0.384
        91 -10.2984    229.8572    164.8830   2.9019308083e+02   4.4867978139e+00   0.01020656  0.008811476 -21.81 0.0004492771    1.237    0.191
        92  -9.4137    205.3187    167.2997   2.9049683535e+02   4.6095654358e+00  0.006935538  0.005042843 -23.49 0.0002537362    1.619    0.382
        93  -9.5142     66.4147    242.5134   2.9259128975e+02   4.5956538708e+00  0.006585782   0.00641597  54.16 0.0001287015    1.044    0.042
        94 -10.7088    247.5814    139.5384   2.8982976400e+02   4.6684588345e+00   0.03162228   0.01113264 -44.84  0.002258302    3.264    0.694
        95  -9.9536     32.5216    135.8425   2.9234452443e+02   6.0264716920e+00   0.01291915  0.009958563 -25.28 0.0009969582    1.458    0.314
        96 -13.2989    129.6926    130.8299   2.9116643633e+02   5.4909328599e+00   0.03023348   0.02777247 -81.59 0.0007217802    1.151    0.131
        97  -9.9499     41.9858    126.4782   2.9217580904e+02   6.0762949013e+00  0.009993039  0.006448941  28.15 0.0003658353    1.510    0.338
        98  -9.7777    241.9382    165.7206   2.9005595202e+02   4.4030823301e+00  0.009470129  0.008625508  33.37  0.000599315    1.075    0.070
        99 -11.2339    123.3120    118.7419   2.9116811376e+02   5.6685999401e+00   0.01175274   0.00968608  25.10 0.0007131485    1.193    0.162
       100 -11.5152     97.4597    117.4264   2.9146537702e+02   5.8417234063e+00   0.02717543  0.008237507  35.91   0.00197129    2.942    0.660
       101  -9.9036     52.0197    113.1932   2.9197647039e+02   6.1675777946e+00   0.01183888  0.006903718  52.98  0.001081737    2.019    0.505
       102  -9.8531     38.6828    110.8309   2.9211973656e+02   6.2759402642e+00   0.01127329  0.008939907  12.82  0.000632484    1.318    0.241
       103 -10.0394    129.0000    108.9313   2.9104117140e+02   5.7463078618e+00   0.01098422  0.003823443 -62.08 0.0008011103    2.933    0.659
       104 -10.1696    125.3287    109.6531   2.9108891790e+02   5.7604923824e+00  0.007208751   0.00497384  62.21 0.0007049855    1.755    0.430
       105 -10.0986     29.3455    107.0939   2.9220739372e+02   6.3756681158e+00   0.01408848  0.009834386  72.74  0.001404729    1.849    0.459
       106 -10.0715     99.6481    106.7767   2.9137466908e+02   5.9504976471e+00   0.01847563  0.009704517  18.41  0.001619679    2.149    0.535
       107 -11.2081    115.2447     99.4688   2.9114592012e+02   5.9389568611e+00   0.01728221  0.008216301 -50.60  0.001153945    2.089    0.521
       108 -12.3227    128.1632     96.2070   2.9097347135e+02   5.8973234787e+00   0.01999463   0.01521287 -79.56   0.00203833    1.488    0.328
       109 -11.7178    124.1913     91.4946   2.9099163862e+02   5.9756564247e+00   0.01710579   0.01374127 -21.66  0.001264313    1.384    0.277
       110 -12.1022    131.7251     89.4138   2.9088997743e+02   5.9534026180e+00   0.02433322   0.01233029 -54.79 0.0006438256    1.934    0.483
       111 -12.2944    134.3031     83.1563   2.9082135702e+02   6.0093512433e+00   0.02890904   0.01772372  65.27  0.002619962    2.264    0.558
       112 -10.7893    130.5159     83.5289   2.9086835497e+02   6.0282653973e+00   0.01089618  0.009149326 -75.37  0.001112865    1.277    0.217
       113 -11.8675    140.7827     78.4498   2.9071612059e+02   6.0236190587e+00    0.0221915   0.01505117  12.40  0.001234391    1.642    0.391
       114 -12.4123    141.4757     86.0533   2.9075434081e+02   5.9322255595e+00    0.0334137   0.01541087 -44.19  0.002802341    2.375    0.579
       115 -10.3328    139.2565     82.9913   2.9076185848e+02   5.9809121353e+00   0.01364148   0.01042427 -70.31 0.0009343263    1.396    0.284
       116  -8.9215     64.3032     97.3001   2.9173459054e+02   6.2749832922e+00   0.00686831  0.005027203 -24.80 0.0005547341    1.588    0.370
       117  -9.3260     85.6916     94.0335   2.9146192782e+02   6.1818986969e+00  0.009018074  0.008474376 -61.21 0.0004592785    1.088    0.081
       118  -9.6855    107.5117     89.4678   2.9117629434e+02   6.1009156523e+00   0.00663301  0.006457003  32.50 8.459581e-05    1.017    0.016
       119  -9.2465     98.3992     87.2421   2.9127038651e+02   6.1821383232e+00  0.009397437  0.006550917 -78.49  0.000951522    1.675    0.403
       120 -10.3361    114.4454     84.0154   2.9106113742e+02   6.1210230596e+00   0.01065994  0.008622849  28.39 0.0007729004    1.207    0.171
       121  -9.4551     58.5474     83.5165   2.9171870528e+02   6.4681653799e+00  0.006594772  0.006472605  26.13 0.0001262607    1.009    0.009
       122  -9.2875    109.3886     81.7911   2.9110731236e+02   6.1774503364e+00  0.009121963  0.006034957 -50.25 0.0003024589    1.520    0.342
       123 -11.5338    123.1396     76.7508   2.9091412127e+02   6.1511064969e+00   0.02220941  0.009407942  42.43  0.001807712    2.411    0.585
       124 -12.1345    131.7599     72.9878   2.9078933785e+02   6.1414701878e+00   0.02816882   0.01167321  32.74  0.002343725    2.241    0.554
       125 -13.3030    143.7824     69.4672   2.9062586196e+02   6.1081862519e+00   0.03719113   0.02939118 -15.78  0.003083256    1.438    0.305
       126 -11.8576    146.2833     61.9768   2.9055058764e+02   6.1786920985e+00    0.0164216   0.01312496  35.78  0.001409043    1.220    0.180
       127 -11.0875    139.5464     65.4905   2.9065160526e+02   6.1797032342e+00   0.01185871  0.009598431  42.90 0.0006439619    1.234    0.190
       128 -12.1071    136.5793     62.7957   2.9067019407e+02   6.2287559615e+00   0.02201461   0.01013428  27.72  0.001892969    2.119    0.528
       129  -9.4857      2.3314     73.6782   2.9232371064e+02   6.9232664268e+00  0.007116466  0.004962953  60.46 0.0005167502    1.698    0.411
       130 -11.1260    120.1447     69.8629   2.9090746968e+02   6.2483797466e+00    0.0170684   0.01110261  67.62  0.001206369    2.058    0.514
       131 -10.3309    104.6227     72.7836   2.9110868608e+02   6.3098501555e+00  0.009156735  0.006489139 -77.76 0.0003254484    1.625    0.385
       132 -10.3732     12.5268     64.3228   2.9214617100e+02   6.9685479733e+00   0.01146916  0.006056624  27.27 0.0002515654    1.855    0.461
       133 -10.1687    109.5194     63.5110   2.9099425063e+02   6.3861840251e+00  0.006658872  0.006436279  43.40 -2.333935e-05    1.037    0.036
       134 -11.5777    112.1218     59.4043   2.9093843607e+02   6.4173286705e+00   0.02120776   0.01316386  47.14   0.00208627    1.703    0.413
       135  -9.5270    102.5859     59.5089   2.9105177022e+02   6.4744536779e+00  0.006560555  0.006441772  50.00 0.0001253371    1.033    0.032
       136  -9.9566     45.9772     58.0612   2.9171230029e+02   6.8366565486e+00   0.00980921  0.009388694  36.68            0    1.034    0.033
       137 -12.2183    126.9206     56.3310   2.9074481528e+02   6.3619758930e+00   0.01672392   0.01328543 -41.93  0.001881596    1.300    0.231
       138 -11.8500    143.2534     55.3892   2.9054613281e+02   6.2727311387e+00   0.01722649    0.0120853 -53.34  0.001420773    1.428    0.300
       139 -10.2547    106.8556     51.8916   2.9095481553e+02   6.5356316579e+00   0.01081474  0.009067424 -25.59 0.0008427116    1.282    0.220
       140  -9.3916     20.2288     52.0239   2.9198016396e+02   7.0626811754e+00  0.008625365  0.005534725 -61.10 0.0003365927    1.583    0.368
       141 -12.0352    134.8937     49.6268   2.9060967729e+02   6.3899594246e+00   0.01664626   0.01318921 -40.95  0.001366911    1.309    0.236
       142 -11.1037    131.3870     49.2185   2.9064861027e+02   6.4161152293e+00   0.01196809  0.008803533 -76.87 0.0009746812    1.533    0.348
       143  -9.3661     29.3081     50.3342   2.9186243524e+02   7.0267792196e+00  0.007075738  0.004973165 -26.99 0.0003434214    1.672    0.402
       144  -9.5445    226.0347    241.5195   2.9070481168e+02   3.6317608155e+00   0.01019049  0.006504884  26.38 0.0008404448    1.543    0.352
       145  -9.8924     33.4442     44.8463   2.9178005583e+02   7.0644880542e+00   0.01114247  0.008594709  38.81 0.0003346252    1.274    0.215
       146 -11.2932    138.5257     44.4885   2.9053537961e+02   6.4265698179e+00   0.02677402   0.01115988  47.69  0.002041395    2.875    0.652
       147  -9.7944    140.4629     41.4683   2.9049404070e+02   6.4492953900e+00   0.01187058  0.007699463 -37.74  0.000809833    1.710    0.415
       148 -10.5214    127.2819     39.9851   2.9064070711e+02   6.5470257092e+00   0.01335837  0.009694955  12.67 0.0004771788    1.489    0.328
       149  -9.1231      6.2515     40.6105   2.9207608843e+02   7.2785184734e+00   0.00687194  0.005047567  71.43 0.0006954687    1.675    0.403
       150 -11.8405    146.9089     36.9444   2.9039024844e+02   6.4616008035e+00   0.01636823   0.01536269 -70.82  0.002007914    1.103    0.094
       151 -11.2669    141.6495     29.5615   2.9040724654e+02   6.5783833584e+00   0.01336636  0.009876358 -31.21 0.0007292432    1.509    0.337
       152 -11.2582    141.4248     35.2740   2.9044481991e+02   6.5143437634e+00   0.01990603   0.01070825   9.04  0.001647795    2.579    0.612
       153 -15.4299    212.6031     62.8754   2.8977349350e+02   5.7614655188e+00   0.08616359   0.04620961   0.09  0.006547896    3.259    0.693
       154 -14.8995    230.6244     96.0710   2.8976400166e+02   5.2705692662e+00   0.03469004   0.02846769 -17.18  0.002273451    1.350    0.259
       155  -9.8859    230.2457     32.0008   2.8937660429e+02   6.0064240524e+00   0.01122501  0.008847541  86.57 0.0004186014    1.493    0.330
       156 -10.0490    111.6022     32.2264   2.9077862161e+02   6.7318790852e+00  0.009674113  0.005918587 -49.72  0.000792752    1.645    0.392
       157 -10.1000     70.2837     30.9641   2.9125952561e+02   6.9988978279e+00  0.009052685  0.008759354 -53.76 0.0004070824    1.053    0.050
       158 -10.6304    133.1420     30.1534   2.9051138209e+02   6.6237351659e+00  0.009365311  0.007874424  75.45  0.001061834    1.342    0.255
       159  -9.1324    138.4452     27.5217   2.9043263445e+02   6.6213784650e+00  0.006587456  0.006466783  28.06 3.915254e-05    1.011    0.011
       160  -9.8774     99.0547     25.9488   2.9088862078e+02   6.8805389862e+00  0.009927456  0.009631325  -8.84 0.0003400427    1.035    0.033
       161 -14.5473    220.2472     95.9213   2.8988536738e+02   5.3360233515e+00    0.0268858   0.02170108 -75.95  0.001388489    1.346    0.257
       162  -8.9694    249.6995    169.2486   2.8998611485e+02   4.3150292765e+00  0.006644607  0.004906521  55.46 0.0002241488    1.494    0.330
       163  -9.5481     40.9341     19.7244   2.9153823986e+02   7.3066854001e+00  0.008838899  0.008557764  40.15 0.0002941384    1.032    0.031
       164  -9.0611     93.1607    241.5853   2.9227034589e+02   4.4432516404e+00  0.008706835  0.006395268   8.83  0.000321696    1.506    0.336
       165  -9.3048    235.9559     17.9703   2.8922338941e+02   6.1318042392e+00  0.007909738  0.007125409 -59.86 0.0003614793    1.133    0.117
       166 -10.0097    122.3580     15.5463   2.9054954046e+02   6.8570452159e+00   0.01577845   0.01036341  70.17  0.001496534    2.063    0.515
       167  -9.5599    130.1432     13.1729   2.9044300775e+02   6.8365287753e+00  0.009874782  0.008826286 -24.00 0.0003427474    1.169    0.145
       168  -9.4547    127.3210    238.3338   2.9184798504e+02   4.2720562082e+00  0.007134454  0.004986332 -26.08 0.0002940692    1.702    0.413
       169  -9.9026    187.8536    236.7379   2.9112517948e+02   3.9202981817e+00  0.009441212  0.008753045 -17.29  0.000557771    1.111    0.100
       170  -9.5412    237.1973    234.1508   2.9052864115e+02   3.6478555862e+00   0.00948937  0.007747751  57.25  0.001049102    1.319    0.242
       171  -9.3578     32.1975    233.4080   2.9293969037e+02   4.9085071942e+00  0.009997306  0.005730256  39.36 0.0006464649    1.704    0.413
       172  -9.2146    167.5340    232.4669   2.9133854418e+02   4.0935841964e+00  0.006616091  0.006463797   7.04 -1.309624e-05    1.014    0.014
       173 -12.1418    154.0502    231.2694   2.9149012513e+02   4.1897707303e+00   0.01316975   0.01219998  41.40 0.0003371529    1.073    0.068
       174  -9.4065    144.9731    231.4543   2.9159820581e+02   4.2431351793e+00  0.009229844  0.004964461  50.57 0.0003449333    2.162    0.537
       175 -10.5675    194.5099    169.0149   2.9063464240e+02   4.6561441284e+00   0.01005371  0.006656729 -63.18 0.0004763876    1.555    0.357
       176  -8.9314     69.2703    230.6601   2.9248583115e+02   4.7143055834e+00  0.006824971  0.005063607  66.74 0.0006988909    1.605    0.377
       177  -9.6952    149.7905    227.1718   2.9151542989e+02   4.2628186461e+00  0.009595265  0.007632899 -31.34  0.001060019    1.358    0.263
