#   1 NUMBER                 Running object number                                     
#   2 MAG_AUTO               Kron-like elliptical aperture magnitude                    [mag]
#   3 X_IMAGE                Object position along x                                    [pixel]
#   4 Y_IMAGE                Object position along y                                    [pixel]
#   5 X_WORLD                Barycenter position along world x axis                     [deg]
#   6 Y_WORLD                Barycenter position along world y axis                     [deg]
#   7 A_WORLD                Profile RMS along major axis (world units)                 [deg]
#   8 B_WORLD                Profile RMS along minor axis (world units)                 [deg]
#   9 THETA_WORLD            Position angle (CCW/world-x)                               [deg]
#  10 FWHM_WORLD             FWHM assuming a gaussian core                              [deg]
#  11 ELONGATION             A_IMAGE/B_IMAGE                                           
#  12 ELLIPTICITY            1 - B_IMAGE/A_IMAGE                                       
         1 -18.7583    227.8263     77.6428   6.7902817643e+01   1.7811257641e+01     5.227857     4.503716 -15.84   0.01719128    1.079    0.073
         2 -11.2007    203.0085     19.4754   5.4054946234e+01   3.1680408996e+01    0.6741487    0.3183678 -45.81  0.002663915    2.145    0.534
         3 -10.4973    212.6045      1.6558   4.7579521291e+01   3.0977898501e+01    0.2376948    0.1854261  81.06  0.001276765    1.293    0.227
         4 -11.4954      9.4655    207.0882   1.3358350457e+02   3.1510241997e+01    0.3054618      0.20375  38.33  0.002437933    1.781    0.438
         5 -11.9700    234.7764    248.4374   1.0117036903e+02  -4.4427947258e+00    0.2038921    0.1527002  31.50 0.0004643463    1.170    0.145
         6 -12.0188     79.3148    248.1193   1.2491188958e+02   1.7345203857e+01    0.5428475    0.1460224  55.10  0.002615494    3.293    0.696
         7  -9.1383    181.8143    199.1399   1.0257181254e+02   9.0423158953e+00    0.2940199    0.1318459  55.77  0.001275308    2.924    0.658
         8  -9.4420    191.7266    192.6062   9.9817014458e+01   8.2278493228e+00    0.3376245    0.1872837 -63.98  0.001239359    5.525    0.819
         9  -8.0886    171.6734    194.2604   1.0360929261e+02   1.1454548971e+01    0.1171587   0.08738118  64.12 0.0003349271    1.560    0.359
        10 -10.5992    225.5568    180.4185   9.1956035954e+01   3.9182939662e+00    0.2198731    0.1879451  33.89  0.000586528    1.190    0.159
        11 -11.0047    236.8330    174.4739   8.9007993304e+01   2.6875424830e+00    0.2329246    0.1922512 -10.28 0.0006877408    1.185    0.156
        12 -10.4584    240.6687    171.1554   8.7757407543e+01   2.4201831483e+00    0.1992769    0.1561257  40.05 0.0004867789    1.319    0.242
        13 -11.9089    230.3271    167.3998   8.8701999246e+01   4.6929140765e+00    0.4457107    0.2789108 -45.60    0.0020843    2.160    0.537
        14 -11.0040    241.1284    166.1575   8.6707207430e+01   2.9363052597e+00    0.2575287    0.2194138  28.97 0.0008885633    1.187    0.157
        15 -11.2705    242.0186    162.3210   8.5800882056e+01   3.2437604073e+00    0.2862838    0.2445504  26.54  0.001075458    1.164    0.141
        16  -8.2140     96.4872    165.5754   1.1393478931e+02   2.8910592096e+01     0.123327    0.1076629  72.91 0.0001444477    1.047    0.045
        17  -9.2812    201.3348    163.8635   9.2988522410e+01   1.0513957720e+01    0.2156058    0.1695689  50.72 0.0006579242    1.329    0.248
        18 -12.1018    236.1117    158.3230   8.5940301644e+01   4.7971101780e+00    0.4437699    0.3383664 -29.20  0.001909977    1.373    0.272
        19 -13.1262      8.2975    245.9862   1.3514634087e+02   2.5405492660e+01    0.9943883    0.3961993  52.20  0.007475846    1.636    0.389
        20 -11.7009     63.8222    135.1491   1.1695826958e+02   3.9897926480e+01    0.4286789    0.3543091  59.06 0.0006669755    1.223    0.183
        21 -12.2571     75.1178    131.0725   1.1364513542e+02   3.9289709968e+01    0.7958528     0.670422  46.65  0.003222692    1.312    0.238
        22 -10.5992    222.6331    159.6756   8.8449069626e+01   7.0991585074e+00    0.2594973    0.2135587  27.10 0.0002562119    1.090    0.083
        23 -10.6413    192.0294    144.2716   9.0694524700e+01   1.5332647999e+01    0.2276063    0.2053739 -21.05 0.0002699918    1.127    0.113
        24 -11.1351    189.0473    138.3063   8.9961209324e+01   1.6914046918e+01    0.4060858    0.3674705  34.24  0.001423594    1.059    0.056
        25 -11.9170      3.4091    137.8964   1.3107218134e+02   4.5325707692e+01    0.5162828    0.1126317 -65.22  0.002257037    3.430    0.708
        26 -13.3056      6.3496    154.1713   1.3149873761e+02   4.1728738081e+01    0.4914851    0.4317245  17.66  0.002623884    1.788    0.441
        27 -10.8322    190.3695    130.9633   8.8054535800e+01   1.7855604475e+01     0.321428    0.3040444  42.15 0.0008725233    1.094    0.086
        28  -9.8798    160.9108    128.4419   9.3385172160e+01   2.4516548597e+01    0.3701277    0.2558851 -55.88  0.001766368    1.630    0.386
        29  -8.8794    203.9820    153.8271   9.0506218137e+01   1.1480218090e+01    0.1789366    0.1594111  25.22            0    1.032    0.031
        30 -10.3717     31.9867    127.2854   1.2358100955e+02   4.5206114743e+01    0.1662264    0.1354454  84.68 0.0006920838    1.085    0.079
        31 -11.8331      6.5939    122.8203   1.2922274541e+02   4.8324103941e+01    0.3323122    0.1213452 -78.37   0.00169216    2.088    0.521
        32  -9.0322    135.2674    120.4833   9.7209040885e+01   3.1321213540e+01    0.2614749    0.1236259 -47.06 0.0009851274    2.097    0.523
        33 -12.1687    167.5314    115.4374   8.8910379246e+01   2.5523981434e+01    0.8566588    0.5720002  33.90  0.003473991    1.666    0.400
        34  -9.5506    127.7517    113.6902   9.7390766652e+01   3.4213712359e+01    0.2914133    0.2204644 -78.12 0.0007762678    1.583    0.368
        35 -10.0689    160.0476    110.9777   8.9383421453e+01   2.8002817477e+01    0.3518954    0.2046075 -49.37  0.001244415    1.817    0.450
        36 -10.6357    171.5291    124.4395   9.0256969326e+01   2.3008146424e+01    0.3337772    0.2854581  18.19 0.0009791185    1.264    0.209
        37 -11.7564     44.9736    144.9099   1.2251112815e+02   4.0010731593e+01    0.5302542    0.4566086 -28.01  0.003630055    1.802    0.445
        38 -12.7754     45.0292    139.5959   1.2190782253e+02   4.1153604862e+01    0.6624178    0.5328592  19.73   0.00438285    1.818    0.450
        39 -12.2821    236.1819    145.4051   8.3215904249e+01   6.4553809341e+00    0.9817439    0.3517849  39.40  0.003858239    2.821    0.646
        40 -12.0834    227.6525    143.0822   8.4115299716e+01   8.4039652943e+00    0.6029972    0.4116078 -20.61   0.00211774    1.431    0.301
        41  -9.7802    127.0811     80.7898   8.8763801791e+01   4.1180951406e+01    0.3672422    0.2016236 -44.91  0.001002705    1.727    0.421
        42  -9.4502    129.7374     77.3614   8.7049377741e+01   4.1294494141e+01    0.2298945    0.1851518 -39.09 0.0008006761    1.178    0.151
        43 -10.5294    158.9491     77.4707   8.0260673139e+01   3.4550888669e+01    0.3027273    0.2048397 -48.69 0.0006455808    1.534    0.348
        44  -8.2658    113.7017     75.7640   9.0733402432e+01   4.4988467332e+01    0.1379551    0.1152805   3.13 0.0001743316    1.473    0.321
        45 -10.2099    223.0079    145.3208   8.5383534002e+01   8.9962656323e+00    0.2393248    0.2092156 -13.88 0.0003715797    1.117    0.105
        46 -10.9032    152.2635     70.0170   7.9393762347e+01   3.7506071450e+01    0.4964344    0.3292527  33.87  0.001608346    1.763    0.433
        47  -9.5223    139.9840     69.0778   8.1914735827e+01   4.0581990557e+01    0.2346168    0.2172798 -36.87 0.0005386856    1.030    0.029
        48 -10.3489    179.4951    146.9630   9.3655241176e+01   1.7418850680e+01    0.3829855    0.2823421  79.20   0.00187713    2.016    0.504
        49 -11.7370    152.9857     61.4084   7.6419646748e+01   3.8848451483e+01    0.7482146    0.3815089 -21.56  0.002045732    2.454    0.592
        50 -11.3094    154.1106     53.5685   7.3517594524e+01   3.9885411116e+01    0.4572341    0.2749148 -23.58   0.00189028    1.741    0.426
        51 -11.2137    141.3501     56.7742   7.7454905376e+01   4.2476896389e+01    0.3655311    0.3338943  87.81  0.001907984    1.240    0.194
        52 -11.4511    137.2376     50.7155   7.6269351571e+01   4.4499612869e+01    0.7457743    0.3381143 -17.31  0.002152775    4.025    0.752
        53 -10.1882    130.6796     56.3256   7.9853019734e+01   4.5069102383e+01    0.3160831    0.1580033  52.37  0.001236748    2.112    0.527
        54 -10.3034    126.8680     53.9686   7.9966325602e+01   4.6364224067e+01     0.246457    0.2228052 -40.63 0.0002556913    1.080    0.074
        55 -10.5120    139.3351     60.3255   7.9150204324e+01   4.2331934522e+01    0.3155244    0.1870646 -35.87 0.0009077547    1.597    0.374
        56 -10.8215    142.5029     49.5164   7.4626601418e+01   4.3423674420e+01    0.2902575    0.2640868 -29.44   0.00152088    1.050    0.048
        57  -9.7145    119.8946     45.3263   7.8554965796e+01   4.9451891551e+01    0.2758814    0.2024799 -25.40 0.0005649287    1.324    0.245
        58 -10.0511    172.9860    142.0482   9.3900859680e+01   1.9572252286e+01    0.2700052     0.219855  68.57 0.0004701732    1.428    0.300
        59 -11.0842    158.4886     32.5955   6.5177646172e+01   4.1899524610e+01    0.4632661    0.3123635  19.65  0.001106773    1.820    0.451
        60  -9.1252    172.9850     32.9636   6.2766136877e+01   3.8034263329e+01    0.2264241    0.2158908  -4.37    0.0012156    1.039    0.037
        61 -10.1636    144.0718     32.8535   6.8101359073e+01   4.5574975814e+01    0.2587386    0.2275313  -9.10 0.0003053444    1.119    0.106
        62  -9.4511    146.3376     28.5438   6.5990463261e+01   4.5586061576e+01    0.2864448    0.2207926  15.69 0.0006127051    1.427    0.299
        63 -10.2963    176.2138    139.2659   9.2663901512e+01   1.9396643389e+01    0.2743448    0.2344915 -69.20 0.0007343592    1.414    0.293
        64  -9.7674    156.2585    148.0429   9.8510324773e+01   2.1834175844e+01    0.2321167    0.1872649  60.96 0.0004319619    1.278    0.217
        65  -9.9379    146.9052    225.0489   1.1201270472e+02   1.1157604652e+01    0.1615331    0.1283388  47.46 0.0003087717    1.024    0.024
        66  -9.3603    112.7482     17.1469   6.8691564793e+01   5.5293311515e+01    0.2071026    0.1829313 -22.42 0.0004870878    1.102    0.093
        67 -10.5693     68.0553    144.2502   1.1722667546e+02   3.7366908150e+01    0.6388375    0.3153857  67.71  0.002889417    2.583    0.613
