#   1 NUMBER                 Running object number                                     
#   2 MAG_AUTO               Kron-like elliptical aperture magnitude                    [mag]
#   3 X_IMAGE                Object position along x                                    [pixel]
#   4 Y_IMAGE                Object position along y                                    [pixel]
#   5 X_WORLD                Barycenter position along world x axis                     [deg]
#   6 Y_WORLD                Barycenter position along world y axis                     [deg]
#   7 A_WORLD                Profile RMS along major axis (world units)                 [deg]
#   8 B_WORLD                Profile RMS along minor axis (world units)                 [deg]
#   9 THETA_WORLD            Position angle (CCW/world-x)                               [deg]
#  10 FWHM_WORLD             FWHM assuming a gaussian core                              [deg]
#  11 ELONGATION             A_IMAGE/B_IMAGE                                           
#  12 ELLIPTICITY            1 - B_IMAGE/A_IMAGE                                       
         1 -13.2024    202.0166     34.4126   5.5635879934e+01   3.0076705050e+01     1.421893     1.302482  29.66  0.006771035    1.186    0.157
         2 -13.6124    219.6284     16.8513   4.8462172553e+01   2.7639863958e+01     1.321733    0.9473884  33.40  0.006708833    1.724    0.420
         3 -12.6482      2.7052     17.1640   1.0853462564e+02   7.0600628302e+01    0.9621686    0.2602168 -59.63  0.004010254    3.600    0.722
         4 -10.7688     22.0481     27.8791   1.0346777164e+02   6.7333643094e+01    0.3301398    0.1589093  40.87  0.001720503    3.100    0.677
         5 -10.9632    160.8986    249.8892   1.1049030961e+02   3.6239805572e+00    0.3461495   0.09578565  43.59   0.00151862    2.713    0.631
         6 -11.4336    139.4238    248.8952   1.1394444956e+02   7.1200057619e+00    0.3013422     0.225073 -88.50  0.002142282    1.689    0.408
         7 -15.2146      7.8906    244.8374   1.3415553651e+02   2.4745314185e+01     15.66834     1.926196 -78.91  0.006355948    7.924    0.874
         8 -11.1348     89.2632    246.1642   1.2190542308e+02   1.4921267393e+01     0.225753    0.1584825  32.17  0.001471356    1.937    0.484
         9  -9.8074    135.3265    232.3307   1.1281639105e+02   1.0143147234e+01     0.109186   0.08640696  20.85 -6.921813e-05    1.708    0.415
        10 -10.1084    200.5066    249.5013   1.0388805901e+02  -2.5936693872e+00    0.2203043   0.07879886  35.92  0.001040458    2.440    0.590
        11  -9.4170    149.6835    228.6470   1.0985553020e+02   8.3542887728e+00    0.1138457   0.08746028  17.52 0.0007046484    1.739    0.425
        12 -11.0858    100.6767    245.6610   1.2001450963e+02   1.3391063851e+01    0.2969928    0.2017469 -28.41  0.001577834    4.170    0.760
        13  -9.2806     98.3259    224.3269   1.1843720623e+02   1.7135330858e+01   0.09950806    0.0904213  16.35 0.0007049837    1.697    0.411
        14 -10.3953    105.5278    240.9799   1.1879513546e+02   1.3401814449e+01    0.1439608    0.1039163 -73.88 0.0007358058    1.581    0.368
        15 -13.5885     40.9253    206.7817   1.2697864962e+02   2.7808599909e+01     1.425335     0.783556  53.30  0.001077593    1.495    0.331
        16  -9.7615    226.2371    201.5180   9.2078166880e+01  -1.1392713628e+00    0.2126555    0.1866274 -45.06 0.0007471287    1.549    0.354
        17  -9.7416    192.9384    194.8697   9.6903469807e+01   5.7734879350e+00     0.306808    0.1669118 -62.49  0.001140034    4.433    0.774
        18 -11.5433     53.7674    192.3767   1.2352030794e+02   2.9036515959e+01    0.2773454    0.2378724 -46.42 0.0004464926    1.769    0.435
        19  -8.0070    181.5294    192.4706   9.8636203709e+01   8.2663905487e+00    0.1330955    0.1143908  34.90 4.543614e-05    1.035    0.034
        20 -11.9787      6.8034    185.7617   1.3159032718e+02   3.5235407898e+01     0.523002    0.2040859  61.30  0.001413193    2.181    0.541
        21 -11.7521     60.7318    184.5855   1.2145457788e+02   2.9711454770e+01    0.2360438    0.2040838 -75.60 0.0006001345    1.308    0.236
        22 -10.7896     71.9439    172.7460   1.1790080043e+02   3.0655153562e+01    0.2286443    0.1926391 -81.62 0.0004174518    1.149    0.129
        23 -13.0956     58.2650    170.0609   1.2043737211e+02   3.2998093813e+01    0.4436777    0.2511441 -50.28  0.001838091    2.232    0.552
        24 -10.9757     32.0944    169.3377   1.2569360325e+02   3.6116253497e+01    0.3289875    0.2078981  64.24  0.001581856    1.384    0.278
        25 -11.5154     26.0944    165.5452   1.2657057426e+02   3.7500222144e+01    0.3457078    0.2212954 -89.26  0.002309804    1.235    0.190
        26 -11.7238     80.2200    164.3100   1.1507331794e+02   3.1269952670e+01    0.5392473    0.4730023 -82.16  0.003549993    1.127    0.112
        27 -10.5677     23.1305    155.9366   1.2635436977e+02   3.9792269942e+01    0.1863811    0.1231578  79.05  0.000860641    1.258    0.205
        28 -10.0202     94.0672    149.3935   1.0974143488e+02   3.2396016998e+01    0.2904696    0.2288644  66.62 0.0008750912    1.223    0.182
        29 -11.9273     82.4366    148.0885   1.1223121752e+02   3.4459903255e+01    0.2750113    0.2203503 -60.77 0.0008292387    1.248    0.199
        30 -12.1811     67.7035    143.7503   1.1502252844e+02   3.7480175794e+01    0.6343005    0.3909003  70.49   0.00285716    1.797    0.444
        31  -9.4224    107.3446    135.2718   1.0405384182e+02   3.3290379897e+01    0.3250329    0.2401565  -7.74  0.001423522    2.359    0.576
        32  -9.2008     97.5307    145.4962   1.0827748287e+02   3.2693197147e+01    0.2054622    0.1785996 -19.22 9.806359e-05    1.584    0.369
        33 -10.0594     94.1423    132.2484   1.0670615954e+02   3.6181619614e+01    0.2358327     0.207083 -42.33 0.0004513347    1.295    0.228
        34  -8.8970    105.1193    122.4972   1.0199501631e+02   3.6515732605e+01    0.1867345    0.1400858  44.79 0.0003242326    1.385    0.278
        35 -10.4614     53.3347    118.7508   1.1472590590e+02   4.4907085394e+01     0.330647    0.1459055 -76.20  0.001368167    2.654    0.623
        36  -9.3306    167.4327    112.5881   8.4651286352e+01   2.5731651580e+01    0.2952659    0.2306804  89.47 0.0008369178    1.696    0.410
        37  -9.0046    203.4677    111.4913   7.6964547538e+01   1.7508006321e+01    0.1524001    0.1445491   2.70 8.476651e-05    1.031    0.030
        38 -11.1727    244.7069    106.8204   6.8662853291e+01   8.9472887908e+00    0.2922414     0.213795   1.30  0.001451981    1.576    0.365
        39 -14.6409     10.5133    206.9849   1.3209791620e+02   3.0928199831e+01     6.501378     3.364625  52.62   0.01780152    1.577    0.366
        40  -9.3362    160.5304     79.4509   7.6976648843e+01   3.3719771231e+01    0.1541161    0.1528028 -16.19 0.0001131422    1.010    0.009
        41 -14.1005     30.3005    216.8990   1.2942098399e+02   2.7148166042e+01      1.45112    0.5672618  39.83   0.00848105    2.451    0.592
        42 -10.8070    242.4316    248.6935   9.7006589474e+01  -8.8812628531e+00    0.2642729    0.1196831  20.96  0.001349323    2.631    0.620
        43 -11.0767    174.1261    249.1348   1.0820301268e+02   1.6216374877e+00    0.2658036     0.126721  38.05  0.001495969    1.711    0.416
        44 -12.8348     24.3074    223.9570   1.3077520542e+02   2.6547172398e+01     0.298492    0.2252855  85.36 0.0007538148    1.231    0.188
