#   1 NUMBER                 Running object number                                     
#   2 MAG_AUTO               Kron-like elliptical aperture magnitude                    [mag]
#   3 X_IMAGE                Object position along x                                    [pixel]
#   4 Y_IMAGE                Object position along y                                    [pixel]
#   5 X_WORLD                Barycenter position along world x axis                     [deg]
#   6 Y_WORLD                Barycenter position along world y axis                     [deg]
#   7 A_WORLD                Profile RMS along major axis (world units)                 [deg]
#   8 B_WORLD                Profile RMS along minor axis (world units)                 [deg]
#   9 THETA_WORLD            Position angle (CCW/world-x)                               [deg]
#  10 FWHM_WORLD             FWHM assuming a gaussian core                              [deg]
#  11 ELONGATION             A_IMAGE/B_IMAGE                                           
#  12 ELLIPTICITY            1 - B_IMAGE/A_IMAGE                                       
         1 -11.7660     60.0118     46.5504   7.2731347642e+01   6.0775759453e+01     1.049145    0.5790217 -41.55  0.005173516    1.864    0.463
         2 -13.1286     44.4837     46.2168   7.9084010259e+01   6.3148622831e+01     1.223257    0.7716572  50.15  0.003969496    2.385    0.581
         3 -12.3362    119.5352     57.6235   5.7682868954e+01   4.7142873316e+01     3.376513     1.699303 -63.95  0.009085847    6.183    0.838
         4 -12.5600    125.0976     27.6592   4.6615283331e+01   4.9918560781e+01     2.146451    0.9213845  75.55  0.007371727    3.791    0.736
         5 -12.7239    119.5941     38.0191   5.1217860435e+01   4.9947315681e+01     0.936804    0.5984886 -62.97  0.002967494    2.224    0.550
         6 -12.2616    106.3821     32.4675   5.2463527974e+01   5.3643335176e+01    0.7924547    0.4543239  17.70  0.003080752    2.763    0.638
         7 -12.5857    115.1761     24.9103   4.7772205560e+01   5.2522447517e+01     1.211532    0.3835891  64.48  0.003364208    3.503    0.714
         8 -11.3165    145.7055     46.5305   4.8440112738e+01   4.2664742367e+01     1.050394    0.4103625 -27.57  0.003829912    3.243    0.692
         9 -11.5417    165.4116     17.7345   3.7189254833e+01   4.1462308711e+01    0.6223756    0.3742048  28.63  0.002957185    2.720    0.632
        10 -12.1319    159.8246     30.3951   4.1399598111e+01   4.1370418953e+01      0.66903     0.468312 -59.11  0.002129871    1.493    0.330
        11 -11.0285     79.7992     35.7593   6.1336193517e+01   5.8829693053e+01    0.8480014    0.5594917 -33.25  0.004581633    1.606    0.377
        12 -11.0350    139.6512     30.0292   4.4598498201e+01   4.6213977446e+01    0.5622236    0.3136157 -11.89    0.0010611    2.729    0.634
        13 -10.6367    147.8619     16.1676   3.9147537633e+01   4.5760624992e+01     0.560657    0.3067751  34.50  0.002597467    2.554    0.608
        14 -11.2486    152.3961     25.2384   4.1073680376e+01   4.3728593080e+01     0.678524    0.3761975  49.56  0.003357312    1.808    0.447
        15 -11.9877    135.6630     23.2888   4.3237099654e+01   4.7913057737e+01      1.66779      1.08314 -80.09  0.008398461    1.940    0.485
        16 -12.0470    134.6549     15.0810   4.0872417061e+01   4.8985088563e+01     1.951818    0.6377675  69.92  0.007215898    3.124    0.680
        17 -10.8153    198.7484     29.0990   3.6124993556e+01   3.2509867063e+01     0.403424    0.3623812 -16.75  0.002292621    1.476    0.322
        18 -10.7235     59.8160     23.7726   6.3437719782e+01   6.4101562961e+01    0.5035524    0.1979932 -26.20  0.002150988    2.904    0.656
        19 -12.4749     36.0471     17.2683   7.0560852945e+01   6.8704215209e+01    0.5883841    0.3777013 -30.15  0.003623398    1.549    0.354
        20 -11.8835     48.2630     12.9278   6.3068612921e+01   6.7343422173e+01    0.6786932    0.2968373  45.32  0.003287989    2.155    0.536
        21 -11.7825     27.1541     27.8887   7.9793028987e+01   6.8344036240e+01    0.5836916    0.4128588  14.83  0.003158745    1.290    0.225
        22 -11.9373     20.2926     21.2737   8.0428655266e+01   7.0123241937e+01    0.6734393    0.2356647 -38.06   0.00226194    2.583    0.613
        23 -12.6742     17.1367     12.4586   7.7967478273e+01   7.1730757074e+01     0.724758    0.4663911 -10.78  0.003447035    1.356    0.263
        24 -12.0694     23.2209     11.3625   7.4094842728e+01   7.1165496440e+01    0.4698654    0.2767992  13.39  0.002192212    1.596    0.374
        25 -10.5775     86.3425      7.4163   4.8092715743e+01   6.0594174615e+01     0.626075    0.3120458  60.49  0.003160886    1.841    0.457
        26 -11.1960     90.9801     20.9357   5.2195091030e+01   5.8319595796e+01     0.593647    0.4287224 -16.36  0.003462386    1.530    0.346
        27 -11.5645     85.8330     14.7023   5.1144460523e+01   6.0040666587e+01     0.670096    0.4074379  11.69  0.002653565    2.064    0.515
        28  -9.6463     78.2526      7.4423   5.0275619732e+01   6.2278371777e+01    0.2433972    0.1788388  72.29 0.0008219484    1.655    0.396
        29 -11.0283     75.0512      3.5387   4.9524563755e+01   6.3257594376e+01    0.4824634    0.2816006  55.99  0.002156724    1.520    0.342
        30 -10.9890    178.9970     20.9517   3.6367286863e+01   3.7950527720e+01    0.4913432    0.2413349  47.42  0.001658796    2.483    0.597
        31 -10.3597     65.8714     10.4505   5.5374938928e+01   6.4455620571e+01    0.4276606    0.1804891  40.56  0.002050666    2.039    0.509
        32  -9.7490     62.7480      6.8122   5.4779890276e+01   6.5388457238e+01    0.2650895    0.1702707  14.39  0.001549975    1.606    0.377
        33 -11.8850     68.2247     18.0856   5.7935205820e+01   6.3224563571e+01    0.5179943    0.4109167  46.73  0.001591634    1.254    0.203
        34 -12.3753    244.7517      5.5271   2.7486636163e+01   2.5644800964e+01     1.103711    0.6519817 -54.48   0.00735539    1.332    0.249
        35 -10.6267    232.8114      7.4102   2.8597039084e+01   2.7775165979e+01     0.289196    0.2021602 -77.41  0.001237078    1.141    0.124
        36  -9.9543    233.2727      2.9334   2.7704218906e+01   2.8159670348e+01    0.1760462    0.1357132 -76.20 0.0005401993    1.056    0.053
        37 -11.9625    237.3490     15.9683   2.9945562065e+01   2.5920958902e+01    0.6399533    0.3702361  73.97  0.003870255    1.672    0.402
        38 -11.4976    227.6588     15.4772   3.0557115892e+01   2.7922445575e+01    0.4824755     0.282032 -77.48  0.001263294    1.543    0.352
        39 -10.3844     47.0366     19.2356   6.6546672957e+01   6.6802010866e+01    0.3183787    0.2253886 -17.80  0.001310136    1.359    0.264
        40 -10.6362    211.1798     16.5316   3.2106673298e+01   3.1252873660e+01    0.2956674    0.1783734 -33.00  0.001018518    1.815    0.449
        41 -11.6287    211.5676     10.1939   3.0716158371e+01   3.1862384995e+01    0.5400869      0.37174   0.31   0.00260356    2.822    0.646
        42 -10.8190    218.7507      3.0834   2.8698430383e+01   3.1093698919e+01    0.3341469    0.2258389 -42.70  0.001070212    1.463    0.316
        43 -11.4414    224.8812      2.4545   2.8153884530e+01   2.9897460818e+01    0.5159522    0.2308945  84.97  0.001534249    2.065    0.516
        44 -10.9882    177.0624      5.8756   3.2834075155e+01   3.9943462864e+01    0.4075429    0.1809837  81.11 0.0007752699    2.143    0.533
        45 -11.8219    192.0075      9.2590   3.2195458524e+01   3.6232273447e+01    0.8767432    0.4487542 -23.16  0.003515801    2.585    0.613
        46 -10.8801    184.0899      4.7699   3.1882819783e+01   3.8452961736e+01     0.398397    0.3579435  23.88  0.002761382    1.537    0.349
        47 -10.1258    126.9734     16.5289   4.2649444091e+01   5.0648078745e+01    0.2693526    0.2632063  62.47 0.0009765981    1.122    0.109
        48 -12.3473    104.9051     12.8045   4.5753422247e+01   5.6066234339e+01    0.5442501    0.4417132 -18.02    0.0019731    1.404    0.288
        49  -9.3358     98.5134     11.9740   4.6888236971e+01   5.7563265150e+01    0.1725838    0.1253558 -20.22 0.0007313298    1.562    0.360
        50 -10.0867    116.7712      2.5025   3.9849395631e+01   5.4234591298e+01    0.2645002    0.2311523  49.60  0.001102333    1.102    0.092
        51 -10.8618    106.7445      1.9783   4.1498479092e+01   5.6553782666e+01     0.852813    0.2326075  67.50  0.003036955    3.614    0.723
        52  -9.7874      5.1614     12.5394   8.5019950810e+01   7.2890533629e+01    0.2623404    0.1521668  26.11  0.001670712    1.804    0.446
        53  -9.2308      5.4593      9.4528   8.3339758270e+01   7.3315094579e+01    0.1761134    0.1100534 -23.65 0.0008105298    1.291    0.226
        54  -9.8072    168.5066      9.9639   3.4781561214e+01   4.1522657628e+01    0.3669387    0.1269862  57.72  0.001581979    2.550    0.608
        55  -9.2826    163.0893     10.1319   3.5457726995e+01   4.2767629999e+01    0.1947322    0.1812545 -19.34 0.0005988889    1.337    0.252
        56  -8.9573    163.1190      6.2016   3.4416286152e+01   4.3128839368e+01    0.1625887    0.1232183 -71.52  0.000329357    1.266    0.210
        57  -9.5502      1.1336      7.4586   8.5060825172e+01   7.3970136091e+01    0.2218347   0.07547177 -44.90 0.0005435249    2.749    0.636
        58 -11.1275      2.4525      2.0018   8.1388914487e+01   7.4613739417e+01    0.2807835    0.1560256   5.03  0.001560331    1.655    0.396
        59  -9.8835     12.2577      1.4584   7.5015716549e+01   7.3690892443e+01    0.4859524    0.1368181  34.36  0.002205197    3.374    0.704
        60  -9.3706    157.6613      7.0726   3.5292555213e+01   4.4321403420e+01    0.1657568    0.1340446  49.65 0.0004534909    1.335    0.251
        61  -9.8563    157.4299      2.7852   3.4163461687e+01   4.4755859666e+01    0.3094128    0.2783782  81.71  0.002146268    1.101    0.092
        62 -10.2924     41.2710      4.4857   6.1859027535e+01   6.9372657021e+01    0.3299019    0.1847695   7.94  0.001543889    2.034    0.508
        63 -11.7688    134.5910      2.8723   3.7146374291e+01   5.0079070325e+01    0.5147262    0.2718318  80.30  0.002015513    1.879    0.468
        64 -10.0558    143.1104      3.5735   3.6168594814e+01   4.8031271289e+01    0.4132921    0.1886959  76.77  0.001939874    2.071    0.517
        65 -10.8355    205.5236      2.3624   2.9518294111e+01   3.3961226511e+01    0.4975058    0.1933198  82.26  0.002045125    2.450    0.592
        66  -9.2864    151.8955      1.3640   3.4429529369e+01   4.6164679949e+01    0.2414202     0.103166  75.16  0.001119574    2.083    0.520
        67  -9.3395    122.5427      1.4140   3.8527573900e+01   5.2990563969e+01    0.2661485    0.1015983  66.31 0.0008773003    2.158    0.537
        68 -10.1992     82.1708      1.3112   4.6680297474e+01   6.1962698660e+01    0.1936827   0.09296922  56.61  0.000329926    1.723    0.420
        69  -8.9063     33.5447      1.5145   6.3778087977e+01   7.0873941899e+01    0.1181595   0.08791187  13.90 0.0003355657    1.048    0.045
        70 -12.1169      1.8734    142.2184   1.1622240099e+02   4.4739659937e+01    0.6797084    0.4166583  55.48 0.0008630237    1.772    0.436
        71 -10.2358    142.8681    249.4733   9.4676923713e+01   1.8787759682e+00    0.2547364    0.1713764 -42.81  0.001451331    1.689    0.408
        72 -11.0397     46.2974    147.3985   1.0384935243e+02   3.9492753844e+01    0.8065495    0.2971824 -60.68  0.003074036    2.289    0.563
        73  -9.5907     41.7432    149.1954   1.0547618560e+02   3.9534171310e+01    0.2367666    0.2117434   3.73 0.0007121615    1.333    0.250
        74  -9.9889     49.5289    146.0209   1.0266052284e+02   3.9475608180e+01    0.2205853    0.1895224 -43.62 -0.0001313677    1.207    0.171
        75 -10.6136     63.1470    150.6948   9.9375365042e+01   3.6528555232e+01    0.4509258    0.3118108  -0.73  0.001330446    2.065    0.516
        76  -9.8554     73.8168    146.6684   9.5472599295e+01   3.6068453893e+01    0.4767272    0.1760267 -44.68  0.001540847    3.080    0.675
        77 -10.7561    234.7375    149.2441   5.8000473042e+01   5.6634953643e+00    0.5015458     0.211051 -34.10  0.002066967    2.284    0.562
        78  -9.1778    216.3241    149.6815   6.1224197915e+01   8.7380566055e+00    0.1373158    0.1085254 -70.48 0.0007044865    1.673    0.402
        79 -10.9378    249.3243    142.1755   5.4306693755e+01   4.5444948409e+00    0.4801067    0.2207732 -34.35  0.002206556    1.953    0.488
        80 -10.0080    239.6559    146.6162   5.6676671028e+01   5.3235693233e+00    0.2422408    0.1808233 -33.25 0.0007418972    1.138    0.122
        81 -11.0069     33.3680    144.4258   1.0727460038e+02   4.1645842126e+01    0.4479551    0.3056266  47.07  0.001657382    1.587    0.370
        82  -9.1540     33.2465    154.4229   1.0867384967e+02   3.9065939509e+01    0.2795138    0.2301714  52.76  0.001227465    1.276    0.216
        83  -8.6814     58.8503    142.5909   9.9245946429e+01   3.9212295367e+01    0.1860193    0.1348503  45.63 0.0004321291    1.474    0.322
        84  -9.4646    132.7298    140.2630   7.7350925701e+01   2.7194648381e+01    0.2958847    0.1963835 -52.25  0.001229029    1.500    0.333
        85 -10.4395    217.1230    138.5105   5.8680299742e+01   1.0701508999e+01    0.2930913    0.2441825 -51.35 0.0006306298    1.182    0.154
        86  -9.5063     69.6560    139.6924   9.5390082128e+01   3.8485426970e+01    0.1560785    0.1120451 -27.50 0.0007043422    1.694    0.410
        87  -9.8611     79.9982    137.2783   9.1731072591e+01   3.7551724375e+01    0.3950129    0.2662025 -30.82  0.001728678    1.795    0.443
        88 -10.2095     47.0335    134.9812   1.0157289742e+02   4.2644336965e+01    0.4476727    0.2143144 -66.74  0.001848808    1.953    0.488
        89 -10.2016     39.2814    137.5577   1.0443263105e+02   4.2828018447e+01    0.3941723    0.2043974  45.41  0.001728545    2.158    0.537
        90  -9.6600     38.6394    133.1499   1.0391747974e+02   4.4038855196e+01    0.2425762    0.2203887  81.77 0.0007201865    1.143    0.125
        91 -11.2372     22.7678    127.1319   1.0803556233e+02   4.7069142360e+01    0.3193269    0.2305423  33.95 0.0003006781    1.571    0.364
        92  -9.5743     32.8453    137.8270   1.0646787021e+02   4.3408693706e+01    0.2997237    0.2453821  45.73   0.00116794    1.341    0.255
        93 -11.2668     22.9798    135.6008   1.0918698601e+02   4.4878773772e+01    0.5677639    0.5038006  45.62  0.003507982    1.269    0.212
        94 -11.4721     30.1181    132.9126   1.0657303239e+02   4.4938739462e+01     0.491081    0.3553114 -68.52 0.0004791368    1.201    0.167
        95  -9.9986    245.2066    134.8009   5.3416155729e+01   6.4811932313e+00    0.1810651    0.1391869 -22.54 0.0005338794    1.331    0.249
        96 -10.0687     93.0320    134.9970   8.7291032094e+01   3.5983330313e+01    0.2458454    0.1889841  82.45 0.0005181469    1.661    0.398
        97 -10.4441     73.9867    132.3647   9.2556696100e+01   3.9737802940e+01    0.3342659    0.2569326 -24.05   0.00160889    1.528    0.346
        98 -10.0808     61.5247    132.3046   9.6479258619e+01   4.1530954555e+01    0.4453855    0.3081808   2.78  0.002040927    1.938    0.484
        99  -9.5620    103.8103    130.9281   8.3160045023e+01   3.5070690102e+01    0.2315646    0.2060937 -22.83 0.0003411162    1.199    0.166
       100  -9.7045     93.0740    129.6697   8.6064794355e+01   3.7313895425e+01    0.3541352    0.2327725 -71.87  0.001471419    1.890    0.471
       101 -10.9834      9.5696    128.5305   1.1239935344e+02   4.7697275924e+01    0.4155869    0.3055464 -59.09  0.002453484    1.169    0.144
       102  -9.9680    241.0193    128.1613   5.2662598256e+01   8.3405793535e+00    0.2145877    0.1594175 -10.56  0.001168426    1.727    0.421
       103 -10.0632     82.0758    125.2552   8.8442750102e+01   4.0276103884e+01    0.4787521    0.3086823 -10.33  0.001853288    2.538    0.606
       104 -10.2258      2.2342    126.0385   1.1437077221e+02   4.8781094336e+01     0.269535    0.1850574  78.62  0.001309768    1.513    0.339
       105  -9.3890     53.4260    125.2928   9.7706849513e+01   4.4384717205e+01    0.3113961     0.134579 -61.55  0.001203191    2.118    0.528
       106 -10.1142     49.5434    123.0434   9.8544112777e+01   4.5432710110e+01    0.3158671    0.2671692   4.50  0.001018608    1.351    0.260
       107 -11.1789     44.5833    118.9380   9.9398177328e+01   4.7052281245e+01    0.6179535    0.3736328 -81.19   0.00198325    2.028    0.507
       108 -12.8423    103.7876    122.3270   8.1080260250e+01   3.7176262623e+01    0.4188657    0.3823626   5.73 0.0005142959    1.180    0.152
       109  -9.9071     18.9875    122.7816   1.0860869147e+02   4.8479482283e+01    0.2963901    0.1571414 -61.74 0.0009780496    1.534    0.348
       110  -8.8880    143.4160    122.2149   7.0210944832e+01   2.9132799536e+01     0.218161     0.148002 -55.03 0.0006221808    1.543    0.352
       111  -9.5452     56.7558    122.1357   9.5964688804e+01   4.4770877748e+01    0.2186602    0.1949175 -78.48 0.0006863007    1.154    0.133
       112  -9.2168     71.3306    120.9051   9.0892539241e+01   4.3050222471e+01    0.2149407    0.1807803 -49.01 0.0005180785    1.108    0.097
       113 -12.0219      7.2650     88.9328   1.0715287588e+02   5.7587904813e+01    0.7478604    0.4573129  27.80   0.00315522    1.926    0.481
       114 -10.7385     18.6622    106.0252   1.0600316354e+02   5.2708104520e+01     0.258503    0.2129042  -8.19 0.0001706618    1.376    0.273
       115 -12.0176     42.3980     85.7499   9.2613046759e+01   5.5366629428e+01    0.9984626    0.5086706  17.34  0.003440489    2.340    0.573
       116 -12.2612     34.5504     94.1720   9.7726813675e+01   5.4227743222e+01     1.395507    0.9237504 -35.28   0.00728623    1.452    0.312
       117 -11.3606     26.7123     86.1776   9.8920951686e+01   5.6840862838e+01     0.825817    0.5341417  20.41  0.003494907    1.717    0.418
       118 -11.7223     17.4703    100.7722   1.0549087689e+02   5.4085852303e+01    0.4721428    0.3661492  10.14  0.001806079    1.492    0.330
       119 -11.4808     22.9727     94.7680   1.0226667171e+02   5.5121096039e+01    0.4268066    0.2899435  -7.17  0.001242355    1.708    0.414
       120 -11.3253     18.4837     90.5465   1.0311856157e+02   5.6474573622e+01    0.4851339      0.27839 -63.98 0.0009669277    1.538    0.350
       121 -12.1885     24.8706    113.7514   1.0517830481e+02   5.0291402029e+01     1.206937    0.5450273  17.29  0.005236813    2.677    0.626
       122 -12.3505     24.9013    108.0129   1.0414120552e+02   5.1723911040e+01     1.246655    0.6800197  -5.67  0.005570839    2.581    0.613
       123  -9.0037    221.4888    120.5076   5.4017129963e+01   1.3230347150e+01     0.140927    0.1218536 -45.98 2.402525e-05    1.020    0.020
       124  -9.2022     13.6840    118.9739   1.0978648448e+02   4.9830811138e+01    0.1840858    0.1370589 -67.34 0.0003016671    1.120    0.107
       125  -9.6311     58.1410    117.9176   9.4602614263e+01   4.5660419161e+01    0.3017718    0.1840366 -41.20 0.0008497496    1.637    0.389
       126  -9.4423    113.7251    116.1096   7.6591241115e+01   3.6720524828e+01    0.3114221    0.1928039 -43.78  0.001306289    1.584    0.369
       127 -10.5992      7.2123    114.4043   1.1127947335e+02   5.1395200817e+01    0.3084917    0.2413559 -65.91  0.001891948    1.045    0.044
       128 -12.5677      2.3016    111.4223   1.1251089167e+02   5.2414274144e+01    0.5164713    0.2829163 -74.29 0.0005948457    1.555    0.357
       129 -11.0706      4.1013    104.7088   1.1093984199e+02   5.3966628482e+01    0.4303263    0.2994951  38.27   0.00183176    1.724    0.420
       130  -9.3968     79.2167    114.4450   8.6783563000e+01   4.3425660743e+01    0.3036847    0.2008678 -51.55  0.001382511    1.422    0.297
       131  -9.5889     67.0335    114.5060   9.0836842723e+01   4.5284479855e+01    0.3355745    0.2309722  63.42  0.001497837    1.975    0.494
       132 -10.1530     66.3937    110.8526   9.0184934465e+01   4.6280690669e+01    0.3850483    0.2528285  24.74   0.00155273    1.688    0.408
       133  -9.2045    126.7725    113.4389   7.2255068017e+01   3.4645669178e+01    0.2126311    0.1522291  30.48 0.0004930997    1.564    0.361
       134 -10.6564    108.0259    112.0629   7.7186123701e+01   3.8794745983e+01      1.03673    0.5409625 -66.81  0.003262595    3.463    0.711
       135  -9.6796    103.7976    112.5813   7.8582040937e+01   3.9497192546e+01    0.3004699     0.237721  56.18 0.0004769324    1.414    0.293
       136 -10.6444    101.7074    109.5458   7.8408487028e+01   4.0607908502e+01    0.4972388    0.3508714  17.27  0.001569857    1.788    0.441
       137  -9.4689     94.0551    112.5715   8.1564537264e+01   4.1323813253e+01    0.3009801    0.2194888 -68.58  0.001119542    1.624    0.384
       138 -10.0619     49.0941    112.4808   9.6518408054e+01   4.8161852340e+01    0.2730002    0.2637724  59.85 0.0008730281    1.156    0.135
       139 -10.3247    170.4708    110.5059   6.1018291696e+01   2.5717456765e+01    0.4063495    0.2816169 -41.65  0.001277406    1.381    0.276
       140 -10.2458    147.2966    111.5890   6.6522170959e+01   3.0613458324e+01    0.3293169    0.1947736 -40.82    0.0013599    1.670    0.401
       141 -10.4226    131.7527    110.4857   7.0144314587e+01   3.4241883602e+01    0.4930626    0.3360063  73.81  0.001976982    2.191    0.543
       142 -10.0662    120.8334    109.1989   7.2748350015e+01   3.6845732673e+01    0.4229452    0.2648773  31.09    0.0014558    1.850    0.460
       143 -11.5107     79.3868    108.0868   8.5124030478e+01   4.4940113452e+01     0.622335    0.3702724  27.62   0.00125732    1.876    0.467
       144 -11.4513     88.6617    104.4589   8.1128357362e+01   4.4208359072e+01    0.5544314     0.321321  33.50 0.0004248036    1.829    0.453
       145 -10.3462    175.4271    107.7575   5.9305081888e+01   2.5175313825e+01    0.3737228    0.2510542 -23.82  0.001340327    1.861    0.463
       146 -10.3850    143.3145    105.9955   6.6008349070e+01   3.2682081020e+01    0.3083273    0.2796662  64.65  0.001054929    1.154    0.134
       147 -11.1952    145.5245    100.2208   6.3914780058e+01   3.3389468857e+01    0.4903345    0.3357289 -29.55 0.0006200963    1.646    0.392
       148 -10.3134     43.1001     94.7200   9.4617117697e+01   5.3194443163e+01    0.3861698    0.3227056  11.17  0.001892411    1.291    0.226
       149 -11.8548      9.5306     97.3276   1.0779836465e+02   5.5449590269e+01     0.523508    0.5129047 -61.75 0.0004729409    1.190    0.160
       150 -10.5972     49.0813     91.0176   9.1423493897e+01   5.3360251471e+01    0.4184112    0.3538371  48.79  0.001771095    1.411    0.291
       151 -10.1645     52.4261     96.1978   9.1508292243e+01   5.1725812406e+01    0.4337201    0.2232968 -55.26  0.001663089    1.784    0.439
       152  -9.6601     45.6588    105.7123   9.6243480435e+01   5.0243895463e+01    0.2128088    0.1738597 -38.14 0.0003408629    1.148    0.129
       153 -10.9090     48.7618    102.8568   9.4472134344e+01   5.0579036128e+01    0.4947545    0.3156052  -7.39 0.0009907066    2.106    0.525
       154  -9.6961    181.5101    103.9858   5.7161940714e+01   2.4572966881e+01    0.2341909    0.1396562 -42.57 0.0007978213    1.575    0.365
       155  -8.9164     73.6927    104.1886   8.6025633732e+01   4.6789665973e+01     0.207958     0.123707 -44.91 0.0002263535    1.585    0.369
       156  -9.8842     57.3666    102.3972   9.1269158724e+01   4.9599661053e+01     0.275018    0.2130466 -44.40 0.0007461419    1.176    0.149
       157  -9.2357    120.6018    101.2286   7.0622792486e+01   3.8651084606e+01    0.2272855    0.1445549 -34.06 0.0009492961    1.701    0.412
       158 -11.9573     76.3998     80.2830   7.8260673848e+01   5.1715266294e+01    0.9464958    0.7260283  86.44  0.002209223    2.119    0.528
       159 -11.3101     89.6184     89.6875   7.6629732865e+01   4.7357048447e+01    0.6398953    0.3793723 -31.55  0.002690461    1.915    0.478
       160 -10.7902     79.7774     97.8978   8.2266486692e+01   4.7268787174e+01    0.5492351    0.3257965  51.05   0.00231198    2.080    0.519
       161 -11.2551     79.7020     92.8923   8.0880016039e+01   4.8417265367e+01    0.8559178    0.3456205  38.09  0.003149422    2.545    0.607
       162 -11.2852     67.9477     95.6585   8.5746629301e+01   4.9683473633e+01    0.5123538    0.4178905  12.61  0.002188003    1.314    0.239
       163  -9.6332    210.1633     98.0380   5.0747546191e+01   1.9537892560e+01     0.236361    0.2083267  61.34  0.001112336    1.250    0.200
       164  -9.3549    141.9498     95.7801   6.3555725819e+01   3.5097560121e+01    0.3262093    0.1784045  30.74  0.001165422    2.674    0.626
       165  -9.9727     57.6549     97.4551   8.9917762544e+01   5.0741742855e+01    0.2539173    0.1938661 -30.56  0.001111495    1.300    0.231
       166  -8.8982    183.3994     95.2269   5.4619094348e+01   2.5811809983e+01    0.2126467    0.1274109 -50.78 0.0004265171    1.642    0.391
       167 -11.2812    121.4903     88.7036   6.6786746538e+01   4.1081230308e+01      1.13654    0.6970927  -8.61  0.003830235    3.442    0.709
       168 -10.3590    122.2985     93.6489   6.8004877471e+01   3.9893754250e+01    0.2898555     0.281352 -71.15 0.0008264069    1.069    0.065
       169  -9.4324    160.8661     93.9428   5.8754585149e+01   3.1152634178e+01    0.2976328    0.2002537  82.87  0.001233186    2.157    0.536
       170 -10.5646    152.8567     91.8582   5.9938051757e+01   3.3389321606e+01    0.4820839    0.3337113  36.51  0.002190791    1.650    0.394
       171 -11.0804     98.5201     91.0444   7.4188345550e+01   4.5368057542e+01    0.3033759    0.2689627  39.34  0.001597616    1.149    0.130
       172 -10.4100    183.6547     85.7740   5.2194534721e+01   2.7470739205e+01    0.7586696    0.2947887 -49.08  0.002707066    2.689    0.628
       173 -10.0751     66.3339     88.8386   8.4420532324e+01   5.1483672283e+01    0.3859417    0.2461316   8.50  0.001298042    2.080    0.519
       174 -10.5112    104.4567     87.2052   7.1222186080e+01   4.4989497895e+01    0.4204959     0.276715 -19.70  0.001766872    2.031    0.508
       175 -11.7316    112.5510     83.3392   6.7676454397e+01   4.4083761846e+01    0.7892717    0.5321258  68.17   0.00337067    2.064    0.516
       176 -10.8621    142.3295     84.5777   6.0313781814e+01   3.7201876118e+01    0.6666136    0.3235869  42.05  0.002539241    2.253    0.556
       177 -10.1004    165.5909     83.7576   5.5056816435e+01   3.1967916440e+01    0.3638603    0.2538527 -59.32  0.001248297    1.551    0.355
       178 -10.3451     67.0741     82.0768   8.2164832104e+01   5.2858088336e+01    0.4044144    0.2915037 -38.37  0.002063635    1.306    0.234
       179 -10.3144     60.6116     83.6091   8.5017533133e+01   5.3495213548e+01    0.2962942    0.2371941 -56.91 0.0002657652    1.326    0.246
       180 -11.8831     53.3595     75.9123   8.5506617358e+01   5.6180897733e+01    0.6504983    0.5839559   0.39  0.003874328    1.097    0.088
       181 -10.9462     58.4099     77.5889   8.4055227038e+01   5.5118015328e+01    0.3307248    0.2632059 -38.47 0.0006870016    1.157    0.136
       182 -10.7362    125.9695     94.0714   6.7136567038e+01   3.9006391942e+01    0.3908484    0.3419583  16.06 0.0007965071    1.266    0.210
       183 -11.6376     13.9063     74.2553   1.0138093924e+02   6.0558030213e+01    0.6726809    0.3752851 -62.75  0.003080327    1.634    0.388
       184 -10.2606     14.1893     67.3153   9.9549825619e+01   6.2069067407e+01    0.4641872    0.2352941   8.84    0.0023297    2.252    0.556
       185  -9.1943      1.2488     80.3289   1.0792390500e+02   5.9907962706e+01     0.392003    0.1519679 -73.88  0.001239959    2.719    0.632
       186 -11.6198      2.1311     71.3952   1.0576670617e+02   6.1888855321e+01     0.663407    0.2256585 -65.10  0.002860137    2.491    0.599
       187 -13.1419      4.3122     61.7749   1.0259749105e+02   6.3877995336e+01    0.3837626    0.2913514 -38.64 0.0005755568    1.055    0.052
       188 -12.0857      9.9936     62.3954   1.0016131186e+02   6.3408534203e+01    0.6746276    0.3002908 -41.50  0.002038651    1.826    0.452
       189  -9.9629    233.1215     77.4815   4.2992621506e+01   1.8344738142e+01    0.2640669     0.199343 -44.60 0.0009416809    1.176    0.150
       190 -10.4412     84.1896     61.3042   6.9308641842e+01   5.3980901009e+01    0.7181818    0.5159577  79.97  0.003169056    2.607    0.616
       191 -10.5597     93.5470     75.6505   7.1022821493e+01   4.9497481717e+01    0.7893667    0.5981022  44.10  0.003985765    1.339    0.253
       192 -11.5956     85.2528     73.2594   7.2971385782e+01   5.1553006539e+01    0.6138362    0.4262692  33.83  0.002288569    1.443    0.307
       193 -11.1076     78.1135     66.8444   7.3297664205e+01   5.4092265179e+01    0.8826844      0.52623 -58.69  0.003758522    2.424    0.588
       194 -11.5089     91.5355     62.8831   6.7444105268e+01   5.2269718318e+01    0.9983118      0.42963  47.22  0.003921042    2.337    0.572
       195 -10.7786     91.8634     57.1830   6.5372395637e+01   5.3183069612e+01    0.4767872    0.3274588 -28.68  0.002178634    1.522    0.343
       196 -10.3218     87.5900     56.6972   6.6570801149e+01   5.4116947206e+01     0.774734    0.2908807 -42.75  0.002898063    2.826    0.646
       197 -12.7654     74.7443     53.5055   6.9803403891e+01   5.7085096346e+01    0.7789536    0.5706672  -2.24 0.0006848542    1.530    0.346
       198 -11.0326     72.6972     47.2429   6.8208984264e+01   5.8482119941e+01    0.3080425    0.2611668 -48.52  0.001464934    1.434    0.303
       199 -10.0258    126.9467     76.9536   6.1841937964e+01   4.2139097316e+01    0.2218251    0.2170383  41.83 0.0003372772    1.007    0.007
       200 -12.0587    186.3379     70.7353   4.7942378660e+01   2.9421522747e+01    0.8784415     0.571425 -42.61  0.003579135    1.464    0.317
       201  -9.5480    184.4737     61.0039   4.5772488020e+01   3.1387912475e+01    0.2638154    0.1971819 -46.63  0.001418569    1.281    0.220
       202  -9.9848     62.7583     74.0931   8.1307673241e+01   5.5209416751e+01    0.5429454    0.3182021  52.94  0.002191406    2.503    0.600
       203  -9.4812     24.6042     73.6009   9.6667803129e+01   5.9878289620e+01    0.5177777    0.3668388 -38.30  0.002174099    1.200    0.167
       204 -11.3379     40.9605     72.6674   8.9533895858e+01   5.8432232078e+01    0.5980421    0.2772233 -53.62  0.002329893    2.029    0.507
       205 -11.3866     35.0653     72.1097   9.1830033433e+01   5.9202521995e+01    0.6492437    0.2517365  28.32  0.002728827    2.698    0.629
       206  -9.0541    197.6438     74.6828   4.7154699118e+01   2.6232394221e+01    0.1359735    0.1105809  20.31 0.0007045272    1.750    0.429
       207 -10.1206    153.7951     72.5645   5.4370613036e+01   3.6696740329e+01    0.3510041    0.2241568  36.07  0.001223808    1.926    0.481
       208 -11.7762    122.9552     69.1475   6.0470378542e+01   4.4444478683e+01    0.5126603    0.4646237  31.39  0.001603909    1.114    0.102
       209  -9.3415    162.0048     70.9842   5.2292837282e+01   3.5033605714e+01    0.2367639    0.1709795 -76.04 0.0008380751    1.670    0.401
       210  -8.7142     19.6504     71.6904   9.8290017200e+01   6.0707503136e+01    0.1412881   0.07918038 -31.20 0.0007044534    1.713    0.416
       211  -9.7516    172.1719     68.7947   4.9825584161e+01   3.3011677634e+01    0.3042728    0.2160594 -42.87 0.0009365518    1.379    0.275
       212  -8.8537    172.3002     64.6744   4.8708445709e+01   3.3645378980e+01    0.2137761     0.182181 -44.54 0.0005064921    1.176    0.150
       213 -10.2277    169.0226     63.1978   4.8882926834e+01   3.4648491692e+01    0.3368518    0.2960251 -64.48  0.001263606    1.099    0.090
       214 -11.3017    220.2491     66.5388   4.2172610147e+01   2.2657761457e+01    0.5930667     0.333674  55.70   0.00300589    1.970    0.492
       215 -11.4473    234.3969     61.1714   3.9383923354e+01   2.0584159263e+01    0.5479658    0.3788814  77.44  0.002561294    1.521    0.343
       216  -9.5279    192.4535     65.7539   4.5753136024e+01   2.8829058057e+01    0.2647867    0.1917309 -75.07 0.0007630148    1.465    0.318
       217 -10.6819     58.9475     62.9241   7.9103418933e+01   5.8016428689e+01     0.455676    0.3537552 -45.38  0.002004471    1.333    0.250
       218  -9.3794    213.4994    248.4976   8.0333052598e+01  -7.7977251838e+00    0.1224438   0.09523652   1.90 -0.0006715604    1.014    0.013
       219  -9.8419    174.8556    247.1042   8.7697153587e+01  -2.3662001342e+00    0.2334615    0.1964675  13.95  0.001520427    1.018    0.017
       220 -11.8643     25.4480     58.0777   9.1835586352e+01   6.3091255150e+01    0.7445663    0.5975222  18.36  0.004715858    1.344    0.256
       221 -11.0374     20.8105     46.2629   9.0138769678e+01   6.5828344997e+01    0.4359805    0.2452759 -36.34  0.001156899    1.505    0.336
       222  -9.5609     24.1968     38.5784   8.5655578259e+01   6.6899527761e+01    0.9132143    0.6308964  64.77   0.00422043    3.903    0.744
       223 -11.1664     40.6383     56.9562   8.4658767240e+01   6.1673374648e+01      0.49514    0.2629673  33.40  0.001453975    1.984    0.496
       224 -11.5168     52.1162     61.8332   8.1474358141e+01   5.9223076225e+01    0.4147929    0.3443397 -52.72  0.002420213    1.387    0.279
       225 -11.8835     43.4578     62.0827   8.5170248150e+01   6.0321032847e+01    0.2852886    0.2444341 -23.57 0.0003654269    1.028    0.027
       226 -11.5023     46.7746     58.8038   8.2657836621e+01   6.0536260649e+01    0.3330541    0.2931845 -45.75 0.0006734224    1.279    0.218
       227 -10.6860     33.3888     52.9009   8.6495793358e+01   6.3297468088e+01    0.6224393    0.2087398  28.74  0.002392886    3.040    0.671
       228 -11.0926     26.7402     47.4406   8.7684967332e+01   6.5036021210e+01    0.4448048    0.2380483 -15.42  0.001044165    2.264    0.558
       229  -9.0585    201.4733     64.5122   4.4155553591e+01   2.7005465686e+01    0.1934667    0.1231845  54.02 0.0009495211    1.703    0.413
       230  -9.6586    198.5543     62.7743   4.4145669292e+01   2.7921459208e+01    0.2917423    0.2014032 -66.90  0.001058779    1.475    0.322
       231  -9.6761    106.2002     63.9531   6.3357009415e+01   4.9044425159e+01    0.3446949    0.2865621 -50.71  0.001841948    1.327    0.246
       232 -10.9071    106.1701     58.5059   6.1551433349e+01   4.9967451967e+01    0.5568184    0.3636769  67.85  0.002502413    2.047    0.511
       233  -9.9548     64.8555     61.9402   7.6472285860e+01   5.7278536989e+01    0.3819907    0.1805922 -41.15   0.00112977    2.049    0.512
       234 -10.2700    159.2019     62.4590   5.0464384608e+01   3.7084730409e+01    0.5591787    0.2075133  48.33  0.002004047    2.821    0.646
       235  -9.0367    205.9325     61.7677   4.2904967149e+01   2.6444746632e+01    0.1817424    0.1566157 -78.60  0.000490413    1.062    0.059
       236  -9.4322    163.5362    243.8603   8.9541855773e+01  -1.9156975557e-01    0.2011751    0.1660054  41.96 0.0008550181    1.298    0.229
       237 -11.5608    127.5414    242.0104   9.6944485995e+01   5.5087847314e+00    0.4586409    0.3311594  26.27  0.002140388    1.303    0.233
       238 -11.5511    113.8827     37.9029   5.2517427733e+01   5.1270584494e+01      0.60381    0.3516636  40.57 0.0009954383    1.717    0.417
       239 -12.2123    117.7839     44.0054   5.3638554522e+01   4.9564598300e+01    0.6855617    0.5015087  71.44   0.00277284    1.520    0.342
       240 -11.3998    148.6758    237.6119   9.1760910037e+01   3.1289189549e+00    0.5138995    0.2555063  32.64  0.001874596    1.803    0.445
       241 -10.1733    167.6047    237.7944   8.7769033109e+01   2.4818973312e-01    0.1641555    0.1266007 -55.75 0.0006059249    1.652    0.395
       242  -8.5057    199.3063    235.3062   8.0918705004e+01  -3.9142613726e+00    0.1973838    0.1446266 -21.97 0.0006194897    1.288    0.224
       243  -9.1615    150.8512     60.8656   5.1630352419e+01   3.9316236150e+01    0.1994258    0.1921736 -62.91 0.0006348066    1.061    0.057
       244  -9.1975    146.8035     60.6543   5.2388842427e+01   4.0308951461e+01    0.2736927    0.2001921  63.60  0.001021844    1.344    0.256
       245  -9.4687    113.5367     60.4196   6.0156685280e+01   4.8037822346e+01    0.2914207    0.1427378 -35.86  0.001121275    2.135    0.532
       246 -10.4449    138.2164     49.3368   5.0777318331e+01   4.4047840335e+01    0.7400577    0.2734561  42.31  0.002463917    3.481    0.713
       247 -11.0713    136.6709     45.1321   4.9805163218e+01   4.5004157761e+01    0.7142832     0.246699  47.68  0.002364656    2.883    0.653
       248 -10.5359    197.1655    232.2875   8.0839970751e+01  -3.1280801622e+00    0.3707243    0.2550193   1.11  0.002106762    1.469    0.319
       249  -9.4192     15.3469    233.6608   1.1998586256e+02   2.1908867135e+01    0.2160226    0.1260537 -78.30  0.001295784    1.577    0.366
       250 -12.4939    153.0425     35.8595   4.4012281929e+01   4.2320317017e+01    0.4157882    0.3178092  75.99 0.0003906054    1.234    0.190
       251 -10.4044    160.1665     43.3651   4.4954484983e+01   3.9648660785e+01    0.5100263     0.319126  76.79  0.002110336    1.673    0.402
       252 -11.3045    155.6607     42.4347   4.5449786775e+01   4.0847130292e+01    0.5821421    0.4402753 -64.92  0.003178173    1.404    0.288
       253 -10.2420    247.4828    231.7727   7.1436622816e+01  -9.5565022345e+00    0.2453152    0.1483685 -37.89  0.001198349    1.656    0.396
       254 -11.4285    164.3519     27.5959   3.9975851009e+01   4.0625610745e+01     0.277491    0.2307001  85.11 0.0006018272    1.077    0.072
       255 -10.7346    245.0571     51.1834   3.6267765918e+01   1.9932967508e+01    0.2773766    0.1674961  85.26  0.001580242    1.779    0.438
       256  -9.6494    238.0940     55.9065   3.7901492901e+01   2.0618026554e+01    0.2044029    0.1489997 -49.82 0.0003044995    1.165    0.142
       257 -10.3033    240.3436     50.7741   3.6628742002e+01   2.0902382583e+01    0.2994579    0.2230909 -31.44  0.001010741    1.561    0.359
       258 -10.0926     66.9126     54.5483   7.3059328434e+01   5.8277104082e+01    0.3483696     0.186923 -46.16  0.001585532    2.025    0.506
       259  -9.5109    187.6364     55.1749   4.3831636835e+01   3.1536132460e+01    0.2885574    0.1668666  56.77  0.001401878    1.743    0.426
       260 -10.8927    103.3913     76.0561   6.8100504919e+01   4.7431415097e+01    0.7216231    0.3616627 -45.70  0.002922614    2.070    0.517
       261 -10.6889    201.3742     50.5031   4.0842851103e+01   2.9104300907e+01    0.6298178    0.3439633 -39.79   0.00304369    1.736    0.424
       262 -10.7642    201.1799     45.4161   3.9667400512e+01   2.9856932994e+01    0.5161059    0.2379641  77.98  0.002208146    2.549    0.608
       263  -9.7282    211.2254     52.5861   4.0121959231e+01   2.6646122600e+01    0.1729811    0.1159918  59.00 0.0009001374    1.600    0.375
       264 -10.9970    174.6831     48.1465   4.3947249972e+01   3.5555787222e+01    0.5823113    0.3074699  69.57  0.001926429    1.909    0.476
       265 -10.3200    136.4912     56.9261   5.3464850487e+01   4.3325756163e+01    0.6893672    0.4516839   4.63  0.002867679    2.644    0.622
       266  -9.8070     91.3135     48.3967   6.2420879885e+01   5.4699606893e+01    0.2985536    0.2424008 -74.30 0.0008787733    1.774    0.436
       267 -10.8029     12.5621     48.1207   9.4819951319e+01   6.6152482053e+01    0.3508322    0.1775738 -32.26  0.001516237    1.751    0.429
       268  -9.4097     17.3753     41.9633   9.0336444593e+01   6.6936275376e+01    0.3168607    0.1634911 -14.79  0.001188204    2.246    0.555
       269  -9.5014      2.1663     48.6849   1.0015451739e+02   6.6710347884e+01    0.4755666    0.1981366 -49.32  0.002464729    1.789    0.441
       270  -9.3613      6.2888     42.6269   9.6228201738e+01   6.7653513412e+01     0.225811    0.1676911 -35.01  0.001503309    1.058    0.055
       271  -9.4511      6.0021     31.1392   9.2391676417e+01   6.9791206838e+01     0.736592    0.3062262   0.46  0.003309824    3.195    0.687
       272  -9.1004      3.6750     39.2944   9.6509072149e+01   6.8453881155e+01    0.1827409    0.1753993  29.81 0.0007480211    1.462    0.316
       273 -10.2473      6.0058     36.2754   9.4246035147e+01   6.8865175152e+01     0.323784    0.2064567  19.51  0.001547048    1.676    0.404
       274  -8.4656    106.2565     48.2670   5.8037801806e+01   5.1543500336e+01    0.1332203    0.1021574  20.07 0.0006815916    1.449    0.310
       275  -9.2439    176.6372     43.3681   4.2408027943e+01   3.5753885120e+01    0.2133501    0.1427059 -72.65   0.00108501    1.625    0.385
       276 -10.7874     93.8566     41.2385   5.9044541297e+01   5.5217706010e+01     0.614563    0.2719679  48.09   0.00263216    2.059    0.514
       277 -10.4592    189.0701     39.7239   3.9800752491e+01   3.3357396475e+01    0.4146423    0.1958859 -26.52  0.001536814    2.722    0.633
       278 -10.0953    242.6490    231.6810   7.2255329535e+01  -8.9754972917e+00    0.2432236    0.2184695 -28.43  0.001755303    1.523    0.343
       279  -9.7762     86.1203     31.0861   5.7524318471e+01   5.8167035274e+01     0.247316    0.1974505  21.59  0.001461194    1.204    0.169
       280  -9.9734    231.5976     39.1879   3.5071968029e+01   2.4215241380e+01    0.3216161    0.1614148 -46.42    0.0012145    1.672    0.402
       281  -9.3828    217.3502     39.4732   3.6516230493e+01   2.7135100815e+01    0.2176604    0.1068367 -38.13  0.001085117    1.922    0.480
       282 -11.1570    176.8017     36.5584   4.0619693042e+01   3.6606996779e+01    0.4040039     0.288889 -36.02  0.002265937    1.485    0.326
       283 -11.1256    174.5557     31.3978   3.9586738104e+01   3.7773590302e+01     0.753632     0.258638  55.45  0.002299239    2.737    0.635
       284 -11.1436     61.0485     35.9709   6.8124299493e+01   6.2245166686e+01    0.4562738    0.3127001 -14.50  0.001447667    1.511    0.338
       285 -10.4164     67.6416     32.4599   6.4207350973e+01   6.1576935776e+01    0.3744008    0.2878413  33.44  0.001646927    1.177    0.151
       286  -9.5325     65.3728     28.7679   6.3501743982e+01   6.2477931118e+01     0.209249    0.1716553  18.03 0.0005903611    1.055    0.052
       287  -9.1867    193.7436     38.5013   3.8923087650e+01   3.2452652463e+01    0.1665485    0.1136475  59.04 0.0002610535    1.507    0.336
       288  -9.3296    183.7771     38.1132   4.0083007497e+01   3.4785302935e+01    0.1990648    0.1544543 -73.32 0.0007519777    1.214    0.176
       289  -9.9612    133.7068     36.8999   4.7845020681e+01   4.6790267086e+01    0.5979486    0.2725001  67.87  0.002423625    2.394    0.582
       290 -10.1268    157.4734     20.2918   3.8939815943e+01   4.3062781477e+01    0.3424778     0.203542  63.07  0.001557183    1.482    0.325
       291  -9.5373     23.7616    231.6364   1.1817289562e+02   2.1471700348e+01    0.1712471   0.08804828  45.32  0.000801197    1.654    0.395
       292  -9.9791    205.4852    233.9744   7.9489735424e+01  -4.5558683128e+00    0.1995607    0.1438914  21.92 0.0006148694    1.253    0.202
       293  -9.5963     68.0177    240.6614   1.0966188837e+02   1.4281656047e+01    0.1835089    0.1463221  46.89 0.0008362012    1.113    0.101
       294  -9.3033    181.3087    228.3198   8.3391231621e+01  -1.5365992248e-01    0.1361263   0.09309202  -4.37 0.0007033665    1.641    0.391
       295 -10.3987    144.1099     25.1269   4.2357187514e+01   4.5710498919e+01    0.3914231    0.2461623  63.67  0.001670427    1.405    0.288
       296 -10.3602    149.1417     22.2078   4.0701348543e+01   4.4832873575e+01    0.3327997    0.2702084  63.66  0.001176664    1.116    0.104
       297  -8.6525    209.2865    223.6980   7.6999335421e+01  -3.4381498941e+00      0.10753    0.1047471  71.85 0.0002077811    1.559    0.359
       298  -9.1812     12.6142     36.8279   9.0934480449e+01   6.8272526199e+01    0.1547434    0.1063649 -57.42 0.0006364114    1.727    0.421
       299  -9.4853     94.0702     35.8858   5.7005985243e+01   5.5895260350e+01    0.1921298    0.1772644  83.05 0.0005431041    1.310    0.237
       300 -10.2247    239.9380     33.0036   3.3091840528e+01   2.3350650830e+01    0.3358829    0.2310169  83.69  0.001595064    1.397    0.284
       301 -10.1786    240.7905     26.7093   3.1783848077e+01   2.3969105195e+01    0.2791809    0.1940351 -51.92  0.001209518    1.210    0.174
       302 -10.4082    164.6466    212.3647   8.4228737339e+01   5.3805374638e+00    0.2534335     0.214715  43.74 0.0006826895    1.273    0.214
       303  -8.7591    199.3297    210.3306   7.6579216181e+01   2.7965024460e-01    0.1420881    0.0943237  -6.18  0.000705172    1.716    0.417
       304 -12.2531     58.2955     29.7438   6.6600620354e+01   6.3588758556e+01    0.3701735    0.2609471  12.91 0.0008641927    1.392    0.282
       305 -11.6617     49.4411     30.5550   7.0570252093e+01   6.4913754416e+01    0.6366562    0.2540945  36.34  0.002362716    2.373    0.579
       306  -9.1778     35.5318     31.5218   7.7250010158e+01   6.6750537482e+01    0.2008846    0.1067285  41.21  0.001019437    2.243    0.554
       307  -9.9660      5.9197     21.4790   8.8586421628e+01   7.1436716690e+01    0.4231759    0.2229557  12.41  0.001506556    1.851    0.460
       308  -9.8086    153.3226    207.6639   8.5935007041e+01   8.1809169366e+00    0.2892139    0.2315596  70.33 0.0009440586    1.692    0.409
       309  -9.3942     61.1317    206.5191   1.0770330812e+02   2.2747196161e+01    0.2004782    0.1712086 -85.48 0.0007067026    1.111    0.100
       310  -9.8055    123.9977    205.9751   9.2471929224e+01   1.3424053243e+01    0.2015524    0.1908563  17.53            0    1.062    0.058
       311 -10.4854    237.8140    204.2856   6.8245713999e+01  -4.2231631551e+00    0.2603683    0.2571531  68.98  0.001811547    1.567    0.362
       312  -9.0704    196.3971    205.1615   7.6221744599e+01   1.6551186402e+00    0.1808679    0.1248375 -49.30 0.0006201057    1.651    0.394
       313 -10.9555      5.9985    199.4650   1.1982007754e+02   3.0412328605e+01    0.3834903     0.112575 -66.81  0.001615574    2.802    0.643
       314 -10.7830    189.2123     27.7476   3.6861111170e+01   3.4823965273e+01    0.3341861    0.2840226   3.13  0.001861181    1.687    0.407
       315 -10.3308    230.4322     27.4912   3.2771437683e+01   2.5939471360e+01    0.3470638    0.1742467 -45.04  0.001494675    1.694    0.410
       316 -10.2160    250.0700     27.4699   3.1234219192e+01   2.2089738553e+01    0.1955634    0.1574857 -32.38  0.001046642    1.571    0.364
       317 -11.2297    183.3352     25.7791   3.7061382162e+01   3.6401926542e+01     0.462869    0.3056699  59.02  0.002524037    1.506    0.336
       318 -10.7121    245.8211    200.8929   6.6246019682e+01  -4.7449820418e+00    0.1990537    0.1427599 -12.77 0.0008381507    1.232    0.189
       319 -10.4596    234.2053    196.9648   6.7518809832e+01  -2.5395829224e+00    0.3682026    0.2668295  -2.99  0.001790656    1.360    0.265
       320  -8.7447    195.2921    199.6662   7.5419688321e+01   2.8357948895e+00    0.1254898    0.1123425 -84.38 0.0003814629    1.636    0.389
       321  -9.6080     82.5628    196.2620   1.0116104972e+02   2.2214879724e+01    0.3510896    0.2085984  20.32  0.001531278    2.154    0.536
       322 -10.7972    246.5507    193.2386   6.4703319552e+01  -3.6233638354e+00    0.3149194    0.1026042 -37.62  0.001300309    2.603    0.616
       323  -9.7768    213.8331     24.3477   3.3561629207e+01   2.9782501080e+01     0.275524    0.2057458  82.16  0.001771331    1.230    0.187
       324  -9.6706    216.6716     20.3995   3.2462142710e+01   2.9641987192e+01    0.1974951    0.1944826 -66.70 0.0005527841    1.382    0.277
       325  -9.4064    169.1757     23.7802   3.8304379304e+01   3.9923847490e+01    0.2657188    0.1522155  60.98  0.001379048    1.594    0.373
       326  -9.9635     13.9689     23.2744   8.4779338720e+01   7.0454356290e+01    0.1864347    0.1363538 -25.39  0.001039722    1.133    0.118
       327 -12.0238      4.6154    184.3922   1.1909497099e+02   3.4101536989e+01    0.6671066    0.4479293  78.20  0.003989659    1.285    0.222
       328  -9.4047    223.8128     22.0143   3.2197239139e+01   2.7957339768e+01    0.2077678    0.1466689  84.27 0.0008157267    1.291    0.225
       329  -9.7468    169.9558    191.3506   7.9216933723e+01   8.6863960548e+00     0.381692    0.2171262  21.19  0.001583335    2.207    0.547
       330  -9.6563     16.4589    191.5066   1.1686058047e+02   3.1362044972e+01    0.2124205    0.1792633  86.05 6.608311e-05    1.047    0.045
       331 -10.1979    239.5543    185.0022   6.4321097106e+01  -1.3035775728e+00    0.3462805    0.2092823 -18.96  0.001046553    1.738    0.425
       332  -9.6087     74.5287     19.5278   5.6471300618e+01   6.1848226896e+01    0.2525325    0.1661196  35.67 0.0008797174    1.337    0.252
       333  -9.8515    213.1780    184.3391   6.8933341394e+01   2.7985301023e+00    0.3405133    0.2134512  66.59  0.001282085    4.119    0.757
       334  -8.4442    173.3033    184.3113   7.7105007111e+01   9.5464322617e+00    0.1492482    0.1097198  -8.38  0.000701878    1.611    0.379
       335 -10.3548    250.3072    178.7845   6.1353324538e+01  -1.7847854478e+00    0.4645526    0.1185837 -34.87  0.001534511    3.989    0.749
       336  -9.4656    230.2689    175.5719   6.4082539087e+01   1.6922864593e+00    0.2076281    0.1568074  19.88  0.000473243    1.440    0.306
       337 -10.3704     52.0943    173.6393   1.0598232550e+02   3.2005377621e+01    0.5465553     0.280776 -89.67  0.002150297    2.551    0.608
       338  -9.8386     27.8677    175.8822   1.1263047951e+02   3.4117521229e+01    0.2360142    0.1832621  58.30  0.001307873    1.259    0.205
       339 -10.2583    247.3531    174.0727   6.0921310050e+01  -5.8693379960e-01    0.4276533    0.1944174  23.82  0.001688389    3.816    0.738
       340 -10.0766     38.6163    173.1707   1.0952312084e+02   3.3686060108e+01    0.4548093    0.2047581  48.73  0.001935198    2.311    0.567
       341 -10.0526     35.4207    169.7000   1.0996545771e+02   3.4912758668e+01    0.2733548    0.2217012 -62.83 0.0007724517    1.186    0.157
       342  -8.8829    170.6313    171.8374   7.5166207496e+01   1.2644836702e+01    0.2038032    0.1377821 -53.20 0.0006415945    1.584    0.369
       343 -11.6034      9.5736    166.9748   1.1647670604e+02   3.7979341399e+01    0.4902644    0.3731999 -86.84  0.001996142    1.090    0.083
       344 -10.3016    186.3560     15.1425   3.4134243445e+01   3.6893645430e+01     0.268532    0.1814832  83.88 0.0004185941    1.305    0.234
       345  -9.2559    198.2605    167.9967   6.8519208975e+01   8.4088448438e+00    0.2063058    0.1737849 -31.21 0.0006218191    1.079    0.074
       346  -9.2046    156.4615    166.1430   7.7221632628e+01   1.6550595119e+01    0.2240273      0.14698 -46.38 0.0006897095    1.493    0.330
       347  -9.1586    205.2047     17.6616   3.2884208527e+01   3.2418897543e+01    0.1943036    0.1282708 -80.92 0.0006764652    1.359    0.264
       348  -8.6342    198.6339     17.6964   3.3507778290e+01   3.3860141785e+01    0.1196827   0.08770764  47.17 0.0007035604    1.740    0.425
       349  -8.9772    152.4479    166.5221   7.8253385896e+01   1.7229908850e+01    0.1520353    0.1460952 -20.04 0.0001181141    1.007    0.007
       350 -10.8617    157.1613     54.6153   4.8639066351e+01   3.8772430402e+01    0.9616814    0.5287964 -45.66  0.004371523    1.856    0.461
       351 -10.3460     18.8215    164.9983   1.1387416195e+02   3.7706734601e+01    0.3062807    0.2472736 -26.30  0.001521543    1.588    0.370
       352 -10.9941     13.5439    159.2376   1.1470071491e+02   3.9606934695e+01    0.5576299    0.2004533 -62.17  0.002374324    2.239    0.553
       353 -10.1710    204.9901    162.9733   6.6146490612e+01   8.1999302559e+00    0.4217973    0.2629977  43.81  0.001545952    1.783    0.439
       354  -9.7871    208.3127    160.6736   6.5028244998e+01   8.0582801252e+00    0.2504504    0.1325519 -49.30  0.001001275    1.943    0.485
       355  -9.3863     75.3905     13.9135   5.3840336451e+01   6.2259244766e+01    0.2314412    0.1350424  65.04 0.0006695675    2.133    0.531
       356 -10.0532     39.8193    162.2262   1.0783838618e+02   3.6361438055e+01    0.3906401    0.2381392  67.99  0.001499203    1.868    0.465
       357 -10.7137     29.0080    160.7139   1.1064693055e+02   3.7861620248e+01    0.3035609    0.1768153 -76.32 0.0009389806    1.534    0.348
       358  -9.0152    188.6740    163.6610   6.9553946721e+01   1.1009766233e+01    0.1541112    0.1111219  -8.33 0.0007051486    1.728    0.421
       359  -9.9383    246.8472    158.2757   5.7902022026e+01   2.1651515124e+00    0.2840266    0.1475485 -49.56   0.00135157    2.007    0.502
       360  -8.9788     78.9843    160.4853   9.6493695656e+01   3.1718467720e+01    0.2147952    0.1134747  55.62 0.0008080258    2.381    0.580
       361  -9.0869    206.5270     37.0905   3.7124999219e+01   2.9784260641e+01    0.1789276    0.1164924 -40.14 0.0005573058    1.502    0.334
       362  -9.3647    224.3841    157.6896   6.1486609138e+01   5.8559953381e+00    0.3452865    0.1537067 -45.71  0.001456644    2.094    0.522
       363  -9.2585    215.3883    157.7689   6.3104429790e+01   7.3752040966e+00    0.2099871    0.1182684 -32.38 0.0009522144    1.708    0.415
       364  -8.8423     53.3446    156.6603   1.0321241144e+02   3.6237905109e+01    0.1557142    0.1023843  68.82 0.0003840496    1.780    0.438
       365 -10.0892      9.5818    155.5461   1.1540397380e+02   4.0848127310e+01     0.250135    0.1745524 -72.14  0.001116169    1.192    0.161
       366 -10.4274    104.7770    154.1037   8.7996618242e+01   2.9108357565e+01    0.4052325    0.3466227 -33.54  0.002030965    1.243    0.196
       367 -10.0773     31.0356    151.5107   1.0892808675e+02   4.0037658102e+01    0.3025761    0.2142703 -32.16   0.00135423    1.718    0.418
       368 -11.7680     13.0731    139.0518   1.1262545765e+02   4.4777707108e+01     0.959978    0.4821456 -82.25  0.004455859    1.894    0.472
       369 -12.2394     22.5375    149.3512   1.1110373070e+02   4.1377670822e+01    0.6805089    0.3266039 -42.03  0.002949686    2.442    0.590
       370 -10.7430     16.0335    147.8304   1.1278861768e+02   4.2309456919e+01    0.3682706    0.2738234 -81.68 0.0009226307    1.161    0.139
       371  -9.1576     74.5379    154.5107   9.6707108728e+01   3.3927073683e+01    0.1498036    0.1403496 -65.95 -1.620619e-05    1.027    0.026
       372 -10.5592      3.3518    152.7992   1.1682830543e+02   4.1985991533e+01    0.4083616    0.3365439 -80.89  0.002626413    1.022    0.021
       373 -10.6822      3.4942    147.0009   1.1623846448e+02   4.3432696132e+01      0.32057    0.1904984 -63.09 0.0008149353    1.412    0.292
