#   1 NUMBER                 Running object number                                     
#   2 MAG_AUTO               Kron-like elliptical aperture magnitude                    [mag]
#   3 X_IMAGE                Object position along x                                    [pixel]
#   4 Y_IMAGE                Object position along y                                    [pixel]
#   5 X_WORLD                Barycenter position along world x axis                     [deg]
#   6 Y_WORLD                Barycenter position along world y axis                     [deg]
#   7 A_WORLD                Profile RMS along major axis (world units)                 [deg]
#   8 B_WORLD                Profile RMS along minor axis (world units)                 [deg]
#   9 THETA_WORLD            Position angle (CCW/world-x)                               [deg]
#  10 FWHM_WORLD             FWHM assuming a gaussian core                              [deg]
#  11 ELONGATION             A_IMAGE/B_IMAGE                                           
#  12 ELLIPTICITY            1 - B_IMAGE/A_IMAGE                                       
         1 -15.9074    171.9364     67.8109   8.3325093768e+01   3.3266533415e+01     13.89873     8.382098  86.38   0.04992149    2.654    0.623
         2 -14.9426    248.2612     24.1831   6.1291480723e+01   2.0478422616e+01     3.018749      1.08595 -22.13  0.006997247    4.208    0.762
         3 -13.9541    248.2330      2.6182   5.6460356077e+01   2.2913152745e+01    0.7172572    0.5363787  69.60    0.0030969    1.406    0.289
         4 -16.6450    240.3622     16.5088   6.0189321502e+01   2.3178440210e+01     6.102241     2.397989  52.39   0.02140936    3.110    0.678
         5 -15.0922    233.8375      4.1695   5.7839965657e+01   2.6043902580e+01     4.335689      1.17141 -24.86  0.003183466    4.403    0.773
         6 -12.1980    130.4204     20.3732   7.6056651673e+01   5.0544931371e+01     1.361365    0.5376529  57.58  0.005390394    2.208    0.547
         7  -8.3734    182.1944     11.0520   6.4624850567e+01   3.8196401307e+01    0.1709818    0.1606794 -65.00 0.0003699173    1.106    0.096
         8 -12.5011    120.5381     10.0771   7.4229902787e+01   5.4014543497e+01     1.079373    0.6440806  63.90  0.003507641    1.589    0.371
         9  -9.1456     52.7888      8.9053   9.4169122207e+01   6.7923086943e+01    0.2105757    0.1440957 -26.45 0.0008475289    1.384    0.277
        10 -11.8701    215.8641      4.2280   5.9310422266e+01   3.0348845487e+01    0.5089954    0.2590773 -20.33  0.002360653    2.399    0.583
        11  -9.5161    206.6882      5.2852   6.0407623909e+01   3.2516792538e+01    0.3040312    0.1899558 -88.27  0.001042735    1.528    0.345
        12 -10.7470    209.1243      1.4462   5.9195912526e+01   3.2286857499e+01     0.234581    0.1411035  78.05 0.0002591431    1.495    0.331
        13  -8.9137    138.9282      3.2001   6.8227327737e+01   5.0084943634e+01    0.2486217    0.1839729 -16.97 0.0008681251    1.519    0.342
        14  -8.7293    171.6388      2.6035   6.3398432958e+01   4.1735570721e+01    0.2742687    0.1570621 -62.42 0.0008454067    1.993    0.498
        15 -10.6021    143.2727      8.8450   6.9490513582e+01   4.8484792223e+01     1.097918    0.3099263 -15.88  0.003175792    5.487    0.818
        16  -8.4233    186.5698      1.4770   6.1379321423e+01   3.7986144087e+01    0.1355416    0.1178683 -87.42 8.430386e-05    1.028    0.027
        17 -12.5284     45.9890    172.1519   1.3820829914e+02   3.4534919134e+01    0.6297565    0.4790803  55.20  0.001603091    1.245    0.197
        18  -9.5730    118.2744    132.7689   1.1381848084e+02   3.2455362628e+01    0.3101475      0.25437 -69.95 0.0005924783    1.265    0.209
        19 -12.8140    192.4879    125.8117   9.4893816819e+01   1.7695688485e+01    0.8601003    0.7259895  16.43  0.002967976    1.312    0.238
        20  -9.8608    190.5062    120.5035   9.3988046257e+01   1.9144604320e+01    0.3183735    0.2492971  33.53 0.0009280303    1.356    0.263
        21 -12.2473    184.1034    123.9036   9.6143795822e+01   1.9972365178e+01    0.7414585    0.5569987 -60.68  0.003459535    1.566    0.361
        22 -10.6863    135.2547    127.6322   1.0830709422e+02   3.0147398990e+01    0.8728679     0.265639 -48.20  0.002648078    3.346    0.701
        23 -10.8768    135.0000    112.4893   1.0461805939e+02   3.3504405938e+01    0.6405414    0.1893819 -43.04  0.001870647    3.483    0.713
        24 -10.7200    135.1856    107.4039   1.0323422779e+02   3.4556674146e+01    0.4519183    0.3263971 -46.57  0.002083637    1.383    0.277
        25 -10.8619    160.7521    127.9392   1.0225358025e+02   2.4494074782e+01    0.4922794    0.3249516 -50.60  0.002167798    1.592    0.372
        26  -7.9664    118.7168    241.3000   1.3068335759e+02   1.0532184486e+01    0.1192993   0.07650246  63.88 0.0002487637    1.549    0.355
        27 -12.5907     52.1855    167.4393   1.3627463210e+02   3.4849652298e+01    0.8988506    0.5936487  56.23  0.003101144    1.411    0.291
        28 -10.1637    141.0514    122.4112   1.0560068479e+02   3.0037931794e+01    0.6582934    0.3655053 -70.39   0.00207222    3.636    0.725
        29 -12.3978    226.3748    119.5495   8.7107008844e+01   1.1277693532e+01     1.784475     1.046458 -78.92   0.00493775    6.256    0.840
        30 -10.1883    221.5061    119.7741   8.7995293936e+01   1.2292855923e+01    0.2947015    0.2628449  32.68 0.0006016243    1.159    0.137
        31 -12.1411    213.9578    115.6521   8.8328162446e+01   1.4671676581e+01    0.7627372    0.5113916 -56.60  0.002272269    1.786    0.440
        32 -13.0193    205.5877    110.5603   8.8585908238e+01   1.7475381445e+01     1.170822    0.7978943 -51.15  0.004947946    1.574    0.365
        33  -8.1230    110.3325    113.2797   1.1139885880e+02   3.8431641836e+01    0.1477562    0.1208503  -4.43 0.0002407829    1.608    0.378
        34 -10.4109    185.7951    119.1986   9.4623561804e+01   2.0481589094e+01    0.4625131    0.3260125 -74.23  0.001944262    2.090    0.521
        35 -10.5637    118.1526    109.4843   1.0829120182e+02   3.7728715656e+01       0.3237    0.2021312 -64.75  0.001327442    1.987    0.497
        36 -10.4859    126.6503    110.4429   1.0625832134e+02   3.5748675591e+01    0.3160495    0.2354266 -74.95 0.0006190245    1.684    0.406
        37  -8.4373     29.2750    229.5325   1.4596522415e+02   2.4745408982e+01    0.1256366   0.09480508  41.81  0.000927208    1.526    0.345
        38 -13.9182     20.7656    190.9570   1.4515665372e+02   3.3200279416e+01     1.766721     1.406638 -43.57  0.009173785    1.918    0.479
        39 -11.0920    168.2940    114.1355   9.7082392272e+01   2.5560955382e+01    0.4740911    0.3950803  89.76  0.001049549    1.436    0.304
        40  -9.8635    140.8235    104.0050   1.0088682070e+02   3.4011946407e+01    0.3088063    0.2317616  55.18 0.0008399219    1.367    0.268
        41 -10.2312    112.7412    104.1714   1.0839924733e+02   4.0001166742e+01    0.3132549    0.2178857  32.23  0.001248041    1.620    0.383
        42 -11.1012    122.4412    102.2867   1.0521944227e+02   3.8418306635e+01    0.5103068    0.3635741  24.71  0.002267999    1.761    0.432
        43 -10.3845    146.9132     99.3010   9.8082992059e+01   3.3580452534e+01     0.353134    0.3244005  78.90 0.0007520877    1.148    0.129
        44  -9.9187    174.2574    203.2722   1.1461356183e+02   7.3755218138e+00    0.2166001    0.1926191  48.40  0.000223933    1.128    0.114
        45  -9.8299    133.7068     96.7010   1.0067821044e+02   3.7146079109e+01    0.3501227    0.2691585 -63.09  0.001628258    1.471    0.320
        46 -10.2822    205.4647     92.5589   8.3992175984e+01   2.0659212451e+01    0.5904675    0.3617755  81.22   0.00219867    2.527    0.604
        47 -10.3966    140.5419     89.5691   9.6882051477e+01   3.7032883260e+01     0.514249    0.3402243 -53.63  0.001358171    1.655    0.396
        48 -10.4073    243.3253    156.6218   9.2559320785e+01   1.9592980015e+00    0.2621475    0.2002814  25.36  0.001092238    1.300    0.231
        49  -8.8950    198.7767    153.1731   9.9957156853e+01   1.1298874156e+01    0.2009266    0.1631921  16.80 0.0005008409    1.305    0.234
        50  -8.8061    225.9893     80.2016   7.7499956594e+01   1.7827341643e+01    0.2774184    0.1972138 -81.86 0.0007727986    1.777    0.437
        51  -9.2543    190.8044    152.1649   1.0134117669e+02   1.3154651633e+01    0.2169613    0.1739773  14.57  0.001096484    1.386    0.278
        52 -10.8400    222.2830     79.4933   7.7872482851e+01   1.8808650923e+01    0.6368718     0.299329 -37.00  0.002517911    1.966    0.491
        53  -9.0965    120.6589    148.3719   1.1648958271e+02   2.8476415528e+01    0.2314528    0.2191985  21.25  0.000236134    1.196    0.164
        54  -9.0970    133.5779    146.7513   1.1298851882e+02   2.6298808087e+01    0.3604057    0.1470862 -52.34  0.001285694    2.592    0.614
        55 -11.3418      4.4867     84.3598   1.3863596719e+02   5.8246978451e+01    0.4612181    0.2097915 -71.73  0.002457278    1.754    0.430
        56  -9.1336    132.6091    140.1943   1.1182292437e+02   2.7933141553e+01    0.5447287    0.1798341 -57.98  0.001404786    5.065    0.803
        57  -8.6997    159.6883    145.5415   1.0658527280e+02   2.1105191188e+01    0.2451102    0.1420997  37.65            0    1.795    0.443
        58  -8.8340    203.5181    160.7945   1.0066721663e+02   8.9856786436e+00    0.2177423    0.1964297  64.78 0.0007065904    1.306    0.234
        59  -9.0924    192.2792    144.0448   9.9227019854e+01   1.4339788204e+01    0.2066811    0.1893175 -34.61 0.0003796515    1.111    0.100
        60 -11.1065    186.9751    138.7314   9.9095500582e+01   1.6492973094e+01    0.4963196    0.3560478  10.24  0.001180312    1.900    0.474
        61  -8.5470    155.0624    159.5184   1.1060754126e+02   1.9222307916e+01    0.3003439    0.1891993 -88.59 0.0009356219    3.457    0.711
        62  -9.8209    250.3565     62.9660   7.0102829688e+01   1.4895342791e+01    0.6853238    0.1352959 -32.89  0.002013876    4.410    0.773
        63  -8.4869    246.9725     65.0000   7.0979440684e+01   1.5347958380e+01    0.2917517   0.09384006  58.40  0.001078501    3.167    0.684
        64  -7.6360    124.6986    140.6951   1.1389835870e+02   2.9408884217e+01    0.1451898    0.1210837  -7.14  0.000454105    1.594    0.373
        65 -11.2940    210.2320    135.9562   9.3853101460e+01   1.1929871661e+01     0.497731    0.3953167 -48.38  0.002574883    1.347    0.258
        66 -10.7982    213.5923    131.4895   9.2186888105e+01   1.1989130752e+01     0.399979    0.2289061  53.67  0.001744177    1.888    0.470
        67 -12.1229    200.8224    122.6857   9.2489043501e+01   1.6382515745e+01    0.7508637     0.364913 -45.63  0.002914839    2.148    0.534
        68 -10.8337    115.0231     52.5672   9.1679391025e+01   4.9739134717e+01    0.3006116    0.2402366  10.51 0.0003394275    1.409    0.290
        69 -11.3422    200.8733    132.3542   9.4801925424e+01   1.4610917468e+01    0.4328673    0.3428789  -9.63  0.002152248    1.435    0.303
        70  -9.5292    192.3311    193.5997   1.0934068984e+02   5.6355030024e+00    0.4744067     0.271731 -65.92  0.001680985    4.572    0.781
        71  -8.6628     52.9187     13.8658   9.6597123320e+01   6.7270723019e+01    0.1902178    0.1403898   0.90 0.0005317394    1.232    0.188
        72 -10.8593    217.3751    189.5447   1.0380961741e+02   1.6924321736e+00    0.7874511    0.3322668  54.88  0.002720864    4.147    0.759
        73  -9.2811    222.1172    178.2933   1.0074932037e+02   2.5423663674e+00    0.2721903    0.1745365  67.39  0.001157605    3.047    0.672
        74 -12.5275     69.4274    149.6064   1.2970514309e+02   3.6704246212e+01     2.194033    0.9544266 -59.45  0.009014715    2.110    0.526
        75 -11.6840    205.7707    124.5557   9.1997813653e+01   1.4932018010e+01    0.7772179     0.391286 -28.22  0.002987497    2.295    0.564
        76 -12.0107     57.4461    162.5961   1.3445682630e+02   3.5293136850e+01    0.6112666    0.4297748  83.04  0.001471511    1.334    0.251
        77  -9.0842    219.4919    169.9793   9.9552753935e+01   4.3315820834e+00    0.3263618    0.1914347  59.03  0.001429533    2.453    0.592
        78  -8.4468    214.9841    168.0000   9.9983933141e+01   5.5117063198e+00     0.203347    0.1730071  82.43 0.0005449826    1.696    0.410
        79  -9.8770    230.1077    167.0633   9.7028380733e+01   2.7986454341e+00    0.2468699    0.1776734 -35.79 0.0008014131    1.408    0.290
        80  -8.1756    237.4885    249.5286   1.1045123660e+02  -9.1345994615e+00     0.113544   0.08382739  19.94  0.000149232    1.011    0.010
        81  -8.7440     97.1969    135.2169   1.1988823881e+02   3.5764435155e+01    0.2007065    0.1637168  81.34 0.0005530336    1.294    0.227
