#   1 NUMBER                 Running object number                                     
#   2 MAG_AUTO               Kron-like elliptical aperture magnitude                    [mag]
#   3 X_IMAGE                Object position along x                                    [pixel]
#   4 Y_IMAGE                Object position along y                                    [pixel]
#   5 X_WORLD                Barycenter position along world x axis                     [deg]
#   6 Y_WORLD                Barycenter position along world y axis                     [deg]
#   7 A_WORLD                Profile RMS along major axis (world units)                 [deg]
#   8 B_WORLD                Profile RMS along minor axis (world units)                 [deg]
#   9 THETA_WORLD            Position angle (CCW/world-x)                               [deg]
#  10 FWHM_WORLD             FWHM assuming a gaussian core                              [deg]
#  11 ELONGATION             A_IMAGE/B_IMAGE                                           
#  12 ELLIPTICITY            1 - B_IMAGE/A_IMAGE                                       
         1 -11.8590    174.4283     32.0481   2.6004057917e+00   3.6604826696e+01     0.240645    0.1901216  83.11 0.0003627744    1.210    0.173
         2 -12.7522     45.8513     25.9350   3.4715637825e+01   6.9380655053e+01    0.3763711    0.3258449 -54.80  0.001226563    1.387    0.279
         3 -12.3587     89.5231     22.1895   1.4567325623e+01   6.0098238934e+01    0.3717279    0.2544002  23.47 0.0006379971    1.827    0.453
         4 -11.4637     75.8610     14.7831   1.5092854877e+01   6.4436048183e+01    0.2619433    0.1703434 -56.78 0.0007793785    2.011    0.503
         5 -10.6379    140.2999     11.9801   4.1465881243e-01   4.7695127454e+01    0.1874959    0.1687854 -60.50 0.0002773005    1.115    0.103
         6 -12.1145     91.9622      9.1440   7.6767407250e+00   6.0934492654e+01    0.4113555    0.2289741  44.74  0.001131047    1.769    0.435
         7 -11.5390     49.4716      8.4058   2.2058103204e+01   7.1302099630e+01    0.2256625    0.1958586  31.23 0.0006464022    1.016    0.016
         8 -10.5150    122.9863      7.0498   9.6537748017e-01   5.2820118074e+01    0.1680385    0.1495333  86.09  0.000415443    1.018    0.018
         9 -11.0475     68.1528      5.3715   1.2413616555e+01   6.7350807688e+01    0.2255197    0.1783397  16.03 0.0006272602    1.367    0.269
        10 -10.6922    106.4876      4.9425   2.7539971915e+00   5.7458796611e+01    0.1899312     0.143871 -16.60  0.000626638    1.535    0.348
        11 -10.5659    128.8607      1.3739   3.5801870342e+02   5.1730150383e+01    0.2074096     0.106475  63.96 0.0006830231    1.709    0.415
        12 -10.2214     25.4788      1.4872   3.2050686270e+01   7.6811815131e+01    0.1284834    0.1095341  11.90 7.980631e-05    1.006    0.006
        13 -11.6332    181.8943    244.6913   4.7267779862e+01   1.2816726115e+00    0.1754069    0.1267665  -8.19 0.0004998834    1.289    0.224
        14 -12.5805    248.1818    248.3561   3.6588991407e+01  -6.1461278929e+00    0.2693298    0.1467049   9.47 0.0008506657    1.430    0.301
        15 -11.8054    139.2823    248.6638   5.6103321391e+01   5.9658913838e+00    0.3198562    0.1779947 -45.73  0.001914617    2.257    0.557
        16 -11.0144    124.8225    249.9342   5.9221268423e+01   7.5911466139e+00    0.1750269    0.1334267   9.36 0.0008937753    1.276    0.216
        17 -11.9101    102.7211    249.5750   6.3844563722e+01   1.0403433505e+01    0.2121665    0.1206018  47.22  0.001096963    1.665    0.400
        18 -11.9447     99.6551    246.6765   6.4234402449e+01   1.1248249946e+01    0.2564946    0.1541958  24.23 0.0007885332    1.408    0.290
        19 -11.9639     65.3749    249.7446   7.1888542067e+01   1.4848266072e+01    0.3520701    0.1534003  36.56 0.0009149658    1.614    0.380
        20 -12.2186     69.1218    247.5288   7.0926652517e+01   1.4794623942e+01    0.5552398    0.1823746  51.70  0.002345746    3.195    0.687
        21 -14.2766      4.9057    164.0327   8.1995525310e+01   3.9095266557e+01     1.081175     0.468845  84.30  0.004881124    2.196    0.545
        22 -15.1108     16.1699    165.2233   7.8771835358e+01   3.7916625600e+01     2.118595    0.7256995  67.72  0.007642045    3.319    0.699
        23 -14.3994     23.3768    193.5883   7.8379142371e+01   3.0566750459e+01     1.305512    0.5149572  70.97  0.005484535    2.772    0.639
        24 -15.4696      7.5030    185.4921   8.2153542334e+01   3.3810778249e+01     1.857368    0.9529373  40.13  0.008687707    1.575    0.365
        25 -14.7774     34.6046    230.7800   7.7582023240e+01   2.1671028486e+01     1.399907    0.5762864 -77.48  0.007083934    2.770    0.639
        26 -13.8592     25.7572    226.9475   7.9410010252e+01   2.3308303512e+01    0.5598136    0.4255672  53.68  0.002052388    1.063    0.059
        27 -13.5851      9.8222    208.7937   8.2414726232e+01   2.8486267909e+01    0.3059397    0.2417561 -65.53 0.0009008991    1.554    0.356
        28 -14.2194     20.3646    247.6877   8.1373208312e+01   1.9949850057e+01    0.5992934    0.4473075  67.23  0.003240709    1.266    0.210
        29 -15.6607      5.9979    208.2593   8.3306757185e+01   2.8925406756e+01     1.766373    0.7386431  85.21  0.008802777    2.370    0.578
        30 -13.9797      2.4837    226.7736   8.4600210794e+01   2.5467585029e+01    0.3408172    0.2430525 -82.03  0.001922177    1.575    0.365
        31 -13.6111     19.6355    233.4632   8.1036436843e+01   2.2640774488e+01    0.3524814     0.226159  22.01  0.001306604    1.582    0.368
        32 -15.4840     15.0422    227.2021   8.1834803170e+01   2.4278061820e+01     1.100743    0.5412359  68.40  0.006229566    1.861    0.463
        33 -13.6818      1.8974    249.8671   8.5213014443e+01   2.1233614476e+01    0.2610225    0.1465071  54.89  0.001564731    1.304    0.233
        34 -15.2474      5.2566    246.4030   8.4460437814e+01   2.1558259424e+01    0.8990817    0.2544307  45.17  0.004685847    2.094    0.523
        35 -15.1544     10.6568    238.9005   8.3148655663e+01   2.2447697610e+01    0.5654835     0.518205  85.89  0.002821431    1.375    0.273
        36 -15.0867      5.2323    235.1054   8.4204101615e+01   2.3636169735e+01    0.5638245    0.4261726  35.48  0.003911886    1.218    0.179
        37 -11.2542    142.8454    243.5303   5.4778059513e+01   6.2570647069e+00    0.1893257    0.1647373 -24.50  0.001078923    1.380    0.275
        38 -10.9030    131.1969    244.1130   5.7257492011e+01   7.6560748970e+00    0.1622683    0.1215341  43.67  0.001069693    1.395    0.283
        39 -10.1826    193.2587    242.6378   4.4902376177e+01   2.0597505466e-01    0.0931144   0.08291709  29.03 0.0005585925    1.629    0.386
        40 -11.3757    126.1468    241.3998   5.8016787584e+01   8.7183802596e+00    0.1850953    0.1739028  42.11 0.0006273212    1.315    0.240
        41 -10.6930     82.0258    242.2719   6.7698185150e+01   1.4160017623e+01    0.1639557    0.1208898  35.13 0.0002356543    1.032    0.031
        42 -11.5341    117.8682    240.8982   5.9730879208e+01   9.8655577757e+00    0.1886412    0.1416815  13.81  0.001221935    1.263    0.209
        43 -12.8744     65.6250    238.8216   7.1078844877e+01   1.6731949728e+01    0.9260913    0.3644252  68.29   0.00329108    5.271    0.810
        44 -12.8409     59.1287    234.2771   7.2223242537e+01   1.8318675455e+01    0.5972376    0.2887326  65.49  0.002957938    2.479    0.597
        45 -12.2808     70.9620    238.6095   6.9868414504e+01   1.6138503834e+01    0.2675275    0.2284391 -25.00 0.0008099643    1.567    0.362
        46 -12.9560     72.8309    231.4656   6.8881703913e+01   1.7210124073e+01    0.4784124    0.3001603 -51.61  0.001755825    2.044    0.511
        47 -11.0452    206.1437    244.3091   4.2845596735e+01  -1.4490646106e+00    0.2208885   0.07702059  24.88  0.001088981    2.551    0.608
        48 -11.0245    149.6010    239.1870   5.2866929321e+01   6.0242377350e+00    0.1514486       0.1033 -25.00 0.0009301698    1.678    0.404
        49 -11.9517    102.5896    238.0969   6.2772154590e+01   1.2292516825e+01    0.2756445    0.1997564 -32.69   0.00138164    1.795    0.443
        50 -11.7082     79.6643    237.7033   6.7845104371e+01   1.5245936722e+01    0.2693787    0.2114775  13.92  0.001760894    1.365    0.267
        51 -12.4090     47.2929    235.7943   7.4992915268e+01   1.9368983685e+01    0.4366669    0.2309512  59.87  0.002452259    1.799    0.444
        52 -11.2009    210.9806    236.4757   4.0906797174e+01  -1.0739016549e+00    0.1948073    0.1396798 -48.61  0.001275473    2.502    0.600
        53 -10.5180     87.8002    236.5656   6.5920604249e+01   1.4435736849e+01    0.1817349   0.08594453  39.15 0.0008674287    1.614    0.380
        54 -11.2453    166.4669    234.8147   4.8910667353e+01   4.4876112833e+00    0.2209488    0.1158262  44.13   0.00115317    2.307    0.566
        55 -11.8372    121.2826    235.0298   5.8344969790e+01   1.0362347027e+01    0.2259047    0.1436527  30.00 0.0005111358    1.224    0.183
        56 -11.7270    112.6366    234.6513   6.0196624649e+01   1.1563246050e+01    0.2511363    0.1237076  32.63  0.000784191    1.562    0.360
        57 -12.1044    222.8589    232.3483   3.8300530020e+01  -1.9062676961e+00    0.2109553    0.1389251 -15.02 0.0007456968    1.291    0.226
        58 -11.9328    182.6255    232.1013   4.5409358403e+01   2.8240082159e+00    0.3692509    0.2012947  42.80  0.002031755    2.265    0.558
        59 -10.9839    215.1149    231.7888   3.9519157825e+01  -9.8521928106e-01    0.1565544    0.1215102   7.38 0.0006883568    1.168    0.144
        60 -12.1441    194.9312    229.5126   4.2748503369e+01   1.6525066776e+00    0.2336381     0.176253 -29.64  0.001353719    1.495    0.331
        61 -11.9762    142.9887    231.6084   5.3281967614e+01   8.0213909658e+00    0.1878485    0.1700603  -5.71 0.0002716582    1.241    0.194
        62 -11.4531    122.8966    231.2285   5.7554805945e+01   1.0768386322e+01    0.1904481    0.1381623  38.12  0.000510898    1.214    0.176
        63 -11.4861     85.9031    228.1840   6.5581909998e+01   1.6177483436e+01    0.3259172    0.2276307 -13.84  0.001807349    2.085    0.520
        64 -12.4075     80.6859    226.3090   6.6619302106e+01   1.7189409391e+01    0.3493463    0.2114097  25.47   0.00192976    1.472    0.320
        65 -10.3335     65.6364    228.7626   7.0327284814e+01   1.8585690071e+01    0.1167564   0.08778743   7.79 0.0004474875    1.596    0.373
        66 -11.6567    229.7013    227.3687   3.6440893956e+01  -2.0792449975e+00    0.1401935    0.1272248  15.56  0.000829591    1.743    0.426
        67 -11.2424    138.0044    227.0447   5.3759121196e+01   9.4076396427e+00    0.1862614    0.1497033  26.62  0.000361283    1.066    0.062
        68 -12.7922    106.0582    226.2464   6.0753824203e+01   1.3878308974e+01    0.3064994    0.1897936  24.25  0.001063053    1.419    0.295
        69 -12.0472     48.3787    226.3362   7.4168389120e+01   2.1050814037e+01    0.2954881    0.1706975  61.34  0.001670319    1.659    0.397
        70 -12.6690     50.3818    222.5306   7.3449861520e+01   2.1572673312e+01    0.4667235    0.1753602  48.40    0.0021426    2.191    0.544
        71 -13.4040     47.8500    215.8450   7.3602797437e+01   2.3203682831e+01    0.4315196    0.3453343  10.63  0.001312069    1.475    0.322
        72 -11.7195     42.1571    227.3494   7.5671896164e+01   2.1536571905e+01     0.266093    0.1408383  16.39  0.001336422    2.218    0.549
        73 -10.3812    216.7803    226.0112   3.8378445060e+01  -4.8548067786e-01    0.1278186   0.07811701 -27.18 0.0008392137    1.558    0.358
        74 -12.0238    116.7645    225.7703   5.8275917085e+01   1.2513554297e+01    0.2593639    0.1892041  48.19  0.000599271    1.406    0.289
        75 -11.6037    114.6609    221.7103   5.8272109682e+01   1.3508139050e+01    0.1705885    0.1631681  27.03  0.000555931    1.196    0.164
        76 -10.7537    182.4926    225.4831   4.4486354626e+01   3.7351566698e+00    0.1203025   0.09243188  11.11 9.402396e-05    1.007    0.007
        77 -12.5053     92.8404    223.7633   6.3538289055e+01   1.6087887836e+01    0.3772192    0.2639611   7.80  0.002129625    1.681    0.405
        78 -11.8203    159.3951    222.1816   4.8595992235e+01   7.2563481498e+00    0.3846828    0.2061722  40.03  0.002050524    1.815    0.449
        79 -12.4968     57.3011    221.3081   7.1721893415e+01   2.1016498980e+01    0.3265775    0.1977653 -39.20  0.001102666    2.486    0.598
        80 -12.7186    173.7513    219.9638   4.5377197613e+01   5.6541659289e+00    0.3009332    0.2373431 -40.90 0.0009848198    1.587    0.370
        81 -10.7035    176.2849    215.3393   4.4185259462e+01   5.9892544285e+00    0.1740048    0.1045831  16.38 0.0004391509    1.545    0.353
        82 -12.1270    124.3781    221.9558   5.6105418522e+01   1.2121703963e+01    0.3182435    0.1575795  31.98  0.001594785    1.623    0.384
        83 -11.0694    212.5293    220.9978   3.8346274562e+01   6.2202873204e-01    0.1855249    0.1240749  18.37  0.001258275    1.236    0.191
        84 -15.0981     18.5339    210.4114   8.0391131458e+01   2.7361633818e+01     1.496545    0.7895354  64.15  0.007120645    1.676    0.403
        85 -11.0893    237.3931    220.2177   3.4127515331e+01  -2.0931853029e+00    0.1310706   0.08737561 -30.47 0.0002582226    1.584    0.369
        86 -11.7973    190.0692    220.1883   4.2267416125e+01   3.4920490005e+00    0.2425262    0.1399824  18.24  0.000258489    1.531    0.347
        87 -11.5578    193.3305    218.1386   4.1347965813e+01   3.3546639883e+00    0.2820712   0.09678704 -34.80  0.001257737    3.088    0.676
        88 -12.2938     78.7841    219.5061   6.6439198605e+01   1.8725394142e+01    0.4805707    0.2228503  18.05  0.002010503    2.721    0.632
        89 -11.3021    165.9278    219.1708   4.6828603540e+01   6.8239235562e+00    0.2228328    0.1386296  14.57 0.0007578611    1.509    0.337
        90 -13.2145    143.9474    215.0384   5.0858640711e+01   1.0535896684e+01    0.6736232    0.4541521  74.52   0.00305555    3.507    0.715
        91 -12.8663    121.4187    216.6861   5.6110160523e+01   1.3452393570e+01    0.3074173    0.2537472 -88.14 0.0005146733    1.703    0.413
        92 -12.4374    129.3997    217.0127   5.4345167405e+01   1.2266970189e+01    0.2860441    0.1618137  17.88 0.0008894471    1.854    0.461
        93 -11.9272     64.2665    216.2492   6.9648812642e+01   2.1190174664e+01    0.2885038    0.2116986  42.61  0.001639354    1.092    0.084
        94 -11.0766    225.0117    215.4391   3.5376803139e+01  -1.5200475281e-01    0.1632875      0.13523   0.81  0.001243063    1.270    0.213
        95 -13.6841    107.6498    214.1444   5.8991700320e+01   1.5854041511e+01    0.6679072    0.2683147 -52.93  0.002961263    2.889    0.654
        96 -12.4321     85.4320    214.8905   6.4387339550e+01   1.8754194417e+01    0.4967887    0.2171628  41.25  0.002305039    1.856    0.461
        97 -13.7988     41.2352    212.5261   7.4993609631e+01   2.4621981882e+01    0.6310887    0.3906032  33.49  0.002809179    1.344    0.256
        98 -13.5222     36.3321    204.9372   7.5729890870e+01   2.6756525405e+01    0.5428105     0.428912 -14.81  0.003263275    1.766    0.434
        99 -11.5478    155.9973    212.7824   4.7948293436e+01   9.1924946542e+00    0.2136159    0.1966775 -42.26  0.001445218    1.405    0.288
       100 -11.1226     93.5039    217.3464   6.2709586540e+01   1.7200023159e+01    0.3138863      0.11778  35.80  0.001361508    2.050    0.512
       101 -11.0524     69.0909    212.7725   6.8168808427e+01   2.1293139810e+01    0.2673567    0.1690689 -28.52  0.001134609    2.521    0.603
       102 -10.9527     72.5482    212.4308   6.7287634984e+01   2.0923851954e+01    0.2291344    0.1485855  38.68 4.927568e-05    1.240    0.194
       103 -12.4585    229.1847    208.4750   3.3588537784e+01   2.1458221532e-01    0.3952794    0.1972845 -19.43  0.002224977    1.950    0.487
       104 -11.8939    224.8411    204.1408   3.3594829723e+01   1.2701712049e+00     0.207073    0.1886089  -6.53 0.0008763557    1.488    0.328
       105 -10.8786    209.5347    211.4462   3.7377681482e+01   2.2053089601e+00    0.1171254   0.08998019   2.98 9.401498e-05    1.017    0.017
       106 -11.6393     59.3357    211.0738   7.0429933839e+01   2.2844157127e+01    0.2153132    0.1614081  20.23  0.000669193    1.379    0.275
       107 -12.5946     52.9288    209.7244   7.1912956196e+01   2.3886320485e+01    0.3145336    0.2149687  45.52  0.000661459    1.185    0.156
       108 -10.7571    113.9519    209.9721   5.6985839241e+01   1.5735868555e+01    0.1632001    0.1327363  29.86 0.0006083934    1.020    0.020
       109 -11.3106     96.5904    208.6632   6.0993584418e+01   1.8451890672e+01     0.283093    0.1367334 -65.15  0.001290371    2.636    0.621
       110 -12.7273    160.3957    207.0709   4.6160923415e+01   9.4814801755e+00    0.3648393    0.2231211  30.44 0.0003108722    1.399    0.285
       111 -11.7276    182.0148    207.9770   4.1919863909e+01   6.2929250411e+00     0.446026    0.2235292   8.51  0.001878718    3.115    0.679
       112 -10.4856    193.9793    211.8829   4.0257374441e+01   4.1298514470e+00    0.1419382    0.1117172  -0.53 0.0006276486    1.060    0.056
       113 -11.5106    116.5034    203.9893   5.5592263912e+01   1.6489786160e+01    0.1776066    0.1361185 -54.08 0.0004964799    1.550    0.355
       114 -10.7799    239.9712    204.0000   3.1158806013e+01  -4.8296166433e-01    0.1595075   0.05514555  33.81 0.0005418049    2.873    0.652
       115 -12.7985    145.2148    200.5207   4.8443436547e+01   1.2823860048e+01    0.4444582    0.3763941  83.84  0.001925803    1.788    0.441
       116 -12.4240     90.5996    200.0046   6.1459906184e+01   2.1036710495e+01    0.5767463    0.3322648 -34.44  0.002269604    2.540    0.606
       117 -12.2220     93.2028    194.5061   6.0121504431e+01   2.1808714627e+01    0.6040057    0.3673594  74.14  0.002698618    2.484    0.597
       118 -10.2495     52.9865    204.0000   7.1449565163e+01   2.5092289528e+01    0.2179471   0.06443264  28.00  0.000797983    2.912    0.657
       119 -11.2161     77.4381    213.7813   6.6218409626e+01   2.0023206616e+01    0.2380195    0.1532992  33.18 0.0006582006    1.275    0.216
       120 -10.5992    166.6960    202.2971   4.4097322334e+01   9.3363483409e+00    0.1160958   0.09761632  51.30 0.0002342633    1.583    0.368
       121 -11.7139    212.6471    200.2848   3.5019145528e+01   3.2941251208e+00    0.2459655    0.2239458 -52.86  0.001612806    1.841    0.457
       122 -13.8283    173.8250    196.1874   4.1637952819e+01   9.2699216356e+00    0.5026684    0.3989683  46.02  0.001495588    1.559    0.358
       123 -12.8383    137.3369    197.6111   4.9781814591e+01   1.4540695763e+01    0.4381361    0.2799359  16.73  0.001123816    1.633    0.387
       124 -11.8991    124.8300    199.7714   5.3022488555e+01   1.6044005540e+01    0.2088501    0.1774625 -27.75 0.0003387755    1.316    0.240
       125 -12.9931    121.8571    196.0591   5.3193651827e+01   1.7203922083e+01    0.4572712     0.310796  21.81  0.002406474    1.406    0.289
       126 -12.4798    150.3824    198.1867   4.6933192757e+01   1.2449356709e+01    0.3116474    0.2095821  39.49 0.0009192385    1.424    0.298
       127 -11.2619     44.8285    198.0553   7.3084899688e+01   2.7329057785e+01    0.2157825    0.1447718  55.28  0.000818291    1.302    0.232
       128 -12.5167     37.1460    191.2970   7.4611726626e+01   2.9690197341e+01    0.3071109    0.1862469 -72.66  0.001084622    1.754    0.430
       129 -13.0345     37.3701    196.0404   7.4882830147e+01   2.8597267498e+01    0.5130081    0.2438158  39.58  0.002397374    1.668    0.400
       130 -10.9047     32.0304    196.5252   7.6303184813e+01   2.9049705463e+01     0.195207    0.1122825  29.04 0.0006090567    1.563    0.360
       131 -11.7459    101.4792    196.2132   5.8237953970e+01   2.0243589000e+01    0.3565937    0.2698424   5.89  0.001927189    1.530    0.346
       132 -12.2395    191.6479    195.0878   3.7952781799e+01   6.8656577069e+00    0.3862288    0.2560541  25.88  0.001495992    1.355    0.262
       133 -11.4068    211.7030    193.7023   3.4073643939e+01   4.3155685450e+00    0.2502673    0.1345849  36.56   0.00139619    1.900    0.474
       134 -11.6987    160.8381    193.1367   4.3841820858e+01   1.1723332195e+01    0.2609996    0.2178639  -5.82 0.0009351821    1.144    0.126
       135 -11.6796     84.5046    198.4372   6.2827791588e+01   2.2217687107e+01    0.2733506    0.1623115  66.08  0.001269467    2.157    0.536
       136 -11.4453    202.2421    194.9989   3.5974342959e+01   5.4070127618e+00    0.1996352     0.150448  19.62 0.0004548818    1.189    0.159
       137 -12.9163    110.6984    188.0501   5.4775241104e+01   2.0522661645e+01    0.3196968    0.3018923  32.39  0.001312814    1.085    0.078
       138 -12.1027    133.8306    191.0075   4.9572863655e+01   1.6310887861e+01    0.3469195    0.2271543   8.95  0.001389297    1.842    0.457
       139 -12.4213     51.2629    189.8360   7.0710178671e+01   2.8426921042e+01    0.2942203      0.22258  47.04  0.001041065    1.115    0.103
       140 -10.1015    147.6536    190.2618   4.6265214613e+01   1.4273070715e+01    0.1308861   0.09900743  52.62 0.0005969972    1.602    0.376
       141 -13.1002     79.3133    172.8447   6.1030856389e+01   2.8647109039e+01    0.6258189    0.3331785 -82.77  0.002491163    2.718    0.632
       142 -12.2206     76.5069    176.0442   6.2245142387e+01   2.8307078519e+01      0.35865    0.2371973  71.31  0.001488281    1.794    0.443
       143 -12.5003     76.6730    185.2477   6.3342737676e+01   2.6179638050e+01    0.6397749    0.3224985 -73.51  0.002766054    2.444    0.591
       144 -11.2472    174.8599    188.8296   4.0180881409e+01   1.0302502297e+01    0.2070186    0.1554305   1.99 0.0009527266    1.282    0.220
       145 -11.8851    121.1659    201.1313   5.4086187689e+01   1.6338610674e+01    0.2019999    0.1677793  12.27 0.0005139929    1.179    0.152
       146 -11.7161    208.7398    186.4590   3.3337059954e+01   5.7357721077e+00    0.3111068     0.174066   1.58  0.001523437    2.355    0.575
       147 -10.3349    196.6629    188.2566   3.5835853604e+01   7.1727950161e+00    0.1084784   0.09697599  46.73  0.000210748    1.574    0.365
       148 -13.0176    126.8825    186.0846   5.0457033141e+01   1.8364319797e+01    0.4730127    0.2136278  37.10  0.001894146    1.933    0.483
       149 -11.8024    132.0708    185.5085   4.9111885286e+01   1.7644718430e+01    0.2162099    0.1232053  34.23 0.0006218083    1.549    0.355
       150 -14.3929     33.2630    247.3172   7.8641636946e+01   1.8748683164e+01      1.10699    0.4792087  28.93  0.004782795    1.838    0.456
       151 -11.6060    248.6353    185.8842   2.6835521380e+01   7.1447715603e-01    0.1896492    0.1274801  10.74  0.001060405    1.370    0.270
       152 -12.0357    156.9735    185.6012   4.3407891950e+01   1.3632770994e+01    0.2506192    0.1779889 -18.27  0.001078067    1.551    0.355
       153 -10.7127     70.7195    186.5927   6.5114087868e+01   2.6692891456e+01    0.2022551    0.1083146  40.50 0.0006361656    1.578    0.366
       154 -12.3993     42.6462    185.0974   7.2652726522e+01   3.0513310869e+01    0.3331111    0.2348008 -79.53  0.001852469    1.487    0.327
       155 -10.0122     54.2845    184.3754   6.9383986375e+01   2.9316206938e+01    0.1331395    0.1019438 -33.07 0.0007015444    1.716    0.417
       156 -11.0790    201.9382    182.6532   3.3876761570e+01   7.2511826327e+00    0.1706367    0.1395477  11.30 0.0004837049    1.096    0.088
       157 -12.1117     94.3831    182.1367   5.8167498193e+01   2.4290154873e+01     0.315887    0.2668063  74.66 0.0008606138    1.319    0.242
       158 -11.6044    141.9596    181.5147   4.6106503031e+01   1.6806725538e+01    0.2043141    0.1851936 -32.24 0.0006054874    1.202    0.168
       159 -12.0444    134.1861    181.9592   4.8020729169e+01   1.7992606497e+01    0.2417371    0.1828881  25.34            0    1.206    0.171
       160 -10.3937     48.4247    181.6057   7.0751583886e+01   3.0665697151e+01    0.2652656    0.1131998  84.31 0.0009463892    3.482    0.713
       161 -13.6810    117.2808    179.5643   5.1804276841e+01   2.1234053552e+01    0.5756491    0.3855847  48.99  0.002492181    1.527    0.345
       162 -11.1822    162.9114    184.3296   4.1898925582e+01   1.2913566673e+01    0.1933688    0.1550883  23.19 0.0008628759    1.109    0.098
       163 -11.6680     99.6387    179.9399   5.6452850387e+01   2.3963808766e+01    0.2546204    0.1946656   4.61 0.0006451727    1.561    0.359
       164 -10.5993     59.0182    180.2852   6.7656747325e+01   2.9678714199e+01    0.1889697    0.1562117  43.05 0.0002305686    1.061    0.058
       165 -10.2355    231.2801    179.6688   2.8381505929e+01   3.6491623194e+00    0.1020804   0.08817568 -40.78  0.000243383    1.606    0.377
       166 -13.2366    126.9195    176.1010   4.8808626705e+01   2.0360833513e+01    0.4623866     0.339238 -52.01  0.001978951    1.529    0.346
       167 -11.7653    191.1552    177.6918   3.4982762539e+01   9.6099386391e+00    0.2073857     0.165413 -36.72 0.0006173709    1.358    0.263
       168 -11.0987     65.6828    184.1442   6.6218993151e+01   2.7921168106e+01     0.186229    0.1755366  65.17  0.001135795    1.108    0.097
       169 -11.7178    154.9120    177.1613   4.2382999095e+01   1.5487464717e+01    0.3092891    0.1966816 -55.52  0.001220503    2.024    0.506
       170 -12.6556    137.3227    176.5927   4.6354176684e+01   1.8524390980e+01    0.3735184    0.2850189 -69.38  0.001252346    1.788    0.441
       171 -11.0478    224.8660    177.1551   2.8955846971e+01   4.8381230083e+00    0.1671889    0.1170718  -0.91 0.0004690519    1.317    0.241
       172 -12.0912     31.6357    176.4120   7.5050944932e+01   3.3746287040e+01    0.2642195    0.2262346  22.71 0.0006968677    1.268    0.212
       173 -12.6554    106.8190    175.3995   5.3856746846e+01   2.3815571464e+01    0.3038562    0.2385483  39.93 0.0008619297    1.148    0.129
       174 -12.1329    145.1610    172.9987   4.3861403247e+01   1.7903079367e+01     0.345116    0.1763584  50.04  0.001410156    2.402    0.584
       175 -13.6004     90.7924    171.1381   5.7560222330e+01   2.7311394587e+01    0.4453336    0.4072163 -45.49   0.00224134    1.224    0.183
       176 -12.3658    197.8068    170.9411   3.2485135288e+01   9.6525904223e+00    0.2934106    0.2422261 -10.64  0.001196844    1.057    0.054
       177 -12.6887    153.0742    170.3632   4.1555541509e+01   1.7058861208e+01    0.2703862    0.2540667  39.75 0.0003640341    1.187    0.158
       178 -12.5726    152.1009    164.8541   4.0738276068e+01   1.8273192438e+01     0.317398    0.2844652  65.88  0.001407327    1.392    0.281
       179 -11.7306     39.7711    168.7887   7.2073229358e+01   3.4735553305e+01     0.372761    0.2026499  17.62  0.001674513    2.078    0.519
       180 -11.8219    101.8099    170.3733   5.4404751849e+01   2.5735609164e+01    0.2075029    0.1312129  23.53 0.0002862958    1.652    0.395
       181 -12.2115    118.9710    168.8610   4.9585304660e+01   2.3211967661e+01    0.3845709    0.2469214  -2.48  0.001567799    2.529    0.605
       182 -12.9673    123.1468    167.8237   4.8326178718e+01   2.2719008747e+01    0.4646344    0.2506256 -46.39  0.001498569    2.004    0.501
       183 -13.2003     52.0687    168.9228   6.8452895226e+01   3.3269588848e+01     0.565483    0.2809848  35.02  0.002254712    1.749    0.428
       184 -11.3881    159.9562    168.4661   3.9660481583e+01   1.6237996123e+01     0.212742    0.1277007  36.54  0.001023146    1.570    0.363
       185 -11.7967    203.3162    167.0951   3.0759224747e+01   9.4047116944e+00    0.1947391    0.1531416  -1.61 0.0004511835    1.156    0.135
       186 -12.2014    198.7390    164.7630   3.1139809692e+01   1.0478393640e+01    0.2863257    0.2205205 -78.07  0.001122804    2.688    0.628
       187 -12.1366    127.5892    165.9458   4.6857131877e+01   2.2346185032e+01    0.2933141    0.2267301 -16.45 0.0008375504    1.530    0.346
       188 -10.7444     30.8662    167.6316   7.4606049864e+01   3.5959589634e+01    0.1969793    0.1039688  38.54  0.000931558    1.631    0.387
       189 -12.1341    111.0138    165.0663   5.1030028718e+01   2.5390604517e+01    0.3102958    0.1902073  35.08  0.001093396    1.489    0.328
       190 -11.6095    102.1499    165.1207   5.3456080659e+01   2.6864874845e+01      0.21709    0.1926531   3.82 0.0002838135    1.231    0.188
       191 -12.6001     85.6234    168.8451   5.8676588213e+01   2.8638781138e+01    0.3596587    0.2290152  71.89  0.001578753    2.077    0.519
       192 -11.6589     64.1665    164.7543   6.4372285579e+01   3.2726173012e+01    0.2397902    0.1884614  83.72 0.0005198271    1.335    0.251
       193 -11.2980     43.9556    164.7832   7.0444966332e+01   3.5255042699e+01    0.1985524    0.1894364  -1.21 0.0005580952    1.236    0.191
       194 -11.9506     29.8588    163.6712   7.4591886684e+01   3.7042160143e+01    0.3041541    0.1501743  39.79  0.001403938    1.740    0.425
       195 -10.6064    205.6438    163.6837   2.9694762407e+01   9.5725151047e+00     0.135223   0.08863394   0.53 0.0007045114    1.747    0.428
       196 -11.9408    141.8221    162.8986   4.2775545646e+01   2.0467391596e+01    0.2278641    0.2055244  15.83 0.0003151789    1.035    0.034
       197 -12.2936     56.6667    163.1116   6.6423160597e+01   3.4123008805e+01    0.2563275    0.1784416  43.90 0.0005501505    1.286    0.223
       198 -13.2613     47.0611    157.4232   6.8716801255e+01   3.6739473384e+01    0.5541714    0.2784266 -75.78  0.001851627    2.080    0.519
       199 -11.6766     40.4821    161.5267   7.1177578952e+01   3.6461035229e+01    0.2164849    0.1115081  39.51 7.540313e-05    1.694    0.410
       200 -11.9936     25.2243    160.3805   7.5738085274e+01   3.8313334745e+01    0.2881877    0.2156972 -29.66 0.0009742253    1.746    0.427
       201 -12.1930    169.3828    159.0540   3.5793488665e+01   1.6327484085e+01    0.3753271    0.2678657 -80.31  0.001625347    2.937    0.660
       202 -13.1026    105.1960    158.3765   5.1451438721e+01   2.7890987467e+01    0.4658422    0.3588918 -88.65  0.001514702    1.649    0.394
       203 -12.5484     69.2861    158.4708   6.1988586901e+01   3.3560694635e+01    0.2854846    0.2524115 -33.43 0.0004549171    1.322    0.244
       204 -13.1608     82.9613    156.6229   5.7584707606e+01   3.1965139405e+01    0.4658035    0.2559986  42.64   0.00200186    1.670    0.401
       205 -14.5328     84.0603    149.8994   5.6146652161e+01   3.3434508893e+01     1.124772    0.4599463  27.46  0.003533199    2.702    0.630
       206 -11.8224    118.2142    157.5793   4.7750950551e+01   2.5795222139e+01    0.2179906    0.1372087  24.48  0.000949143    1.717    0.418
       207 -11.7630     28.8017    156.4010   7.4317608710e+01   3.8976358797e+01    0.2773818    0.1357097  18.03  0.001186812    2.267    0.559
       208 -10.7609    141.4633    155.4998   4.1418039697e+01   2.2027360138e+01    0.1458085    0.1358348  18.45 3.497551e-05    1.005    0.005
       209 -12.5756     76.4148    154.7077   5.9260179904e+01   3.3442657755e+01    0.3318241    0.1978903  53.52    0.0013006    1.742    0.426
       210 -10.7911     21.1027    154.8549   7.6596110109e+01   4.0084494993e+01    0.2161559    0.1522157  56.16 0.0005987167    1.268    0.211
       211 -12.3322     14.3161    152.9937   7.8584522657e+01   4.1127782645e+01    0.6779166    0.2924092  66.96  0.002615621    2.352    0.575
       212 -13.3974      3.4991    151.8350   8.1869132999e+01   4.2215815893e+01    0.8170949    0.4188746 -62.64  0.003972181    1.998    0.499
       213 -14.4046     16.8058    133.6877   7.6359679975e+01   4.5934879005e+01     0.836365     0.543348  54.92  0.002187117    1.449    0.310
       214 -12.9439      9.8896    145.8314   7.9540858844e+01   4.3293516169e+01    0.3856918    0.3014977  59.33 0.0009412284    1.134    0.118
       215 -13.6649     10.8009    142.0053   7.9004808481e+01   4.4213044631e+01    0.6002741    0.3552923 -87.38  0.002529513    1.565    0.361
       216 -13.5437     51.9986    152.6990   6.6605054962e+01   3.7338932894e+01    0.4507199    0.3487999   7.58  0.001733859    1.540    0.351
       217 -12.1713     88.8525    153.0891   5.5244763745e+01   3.1879358785e+01    0.2355486    0.2146483  54.00 0.0005113986    1.048    0.046
       218 -11.1618    160.1463    157.1414   3.7411001972e+01   1.8315503792e+01    0.1797838    0.1707532  87.37 0.0004156254    1.320    0.242
       219 -11.5970     19.0358    149.5675   7.6859573164e+01   4.1613941972e+01    0.3080292     0.253503 -18.66  0.001302513    1.523    0.343
       220 -12.0897    109.0315    149.0503   4.8647597560e+01   2.9363750440e+01    0.3256646    0.3110512  25.50 0.0007913373    1.043    0.041
       221 -13.2638     96.5191    148.9286   5.2234768546e+01   3.1595085359e+01     0.305494    0.2923983 -58.57 0.0004210503    1.114    0.102
       222 -12.4257     27.7444    149.8430   7.4086245538e+01   4.0757817685e+01    0.4345279    0.1993869  21.41  0.001835654    2.263    0.558
       223 -12.5688    171.4350    145.9215   3.2661462368e+01   1.8350605301e+01    0.4775558    0.2500303 -48.76  0.001298892    2.135    0.532
       224 -11.3525    146.8926    148.6657   3.8717980474e+01   2.2405894219e+01    0.2360642    0.1956747 -26.57 0.0003713633    1.250    0.200
       225 -11.7493    133.8109    149.1851   4.2038013977e+01   2.4759508256e+01    0.2161251    0.1773409   1.91  0.001091216    1.374    0.272
       226 -11.9483    132.9576    156.8082   4.3779009701e+01   2.3308280938e+01    0.2580773    0.2185038 -44.67 0.0006727697    1.256    0.204
       227 -10.5830    165.9853    147.9837   3.4251858334e+01   1.8973507971e+01    0.1695133    0.1566191   1.14 0.0003521256    1.002    0.002
       228 -13.1578    101.8706    142.4760   4.9426017100e+01   3.2194612006e+01    0.6661191     0.379145  59.11  0.002074691    2.330    0.571
       229 -13.5747     93.9529    139.9918   5.1313887614e+01   3.4201421435e+01    0.4862077     0.428137  -5.29  0.001828743    1.312    0.238
       230 -12.2929     88.0135    137.9819   5.2764130974e+01   3.5726195266e+01    0.2849545    0.2147655  24.71  0.001344377    1.396    0.284
       231 -12.5161     24.5868    144.3546   7.4633073420e+01   4.2475562140e+01    0.4209147    0.2189191  12.31   0.00182585    2.310    0.567
       232 -11.0461    186.9918    143.9726   2.9143325131e+01   1.5876778044e+01    0.1940804     0.167982 -70.64 0.0004980166    1.571    0.364
       233 -12.2596     85.6825    143.8589   5.4588688421e+01   3.4660894621e+01    0.2792511     0.204172  41.39 0.0003489343    1.278    0.217
       234 -12.0758     42.3820    124.4896   6.6087553886e+01   4.5923210863e+01    0.4239166    0.2559605  57.89  0.001876483    1.762    0.432
       235 -12.0164     59.6113    124.8045   5.9855082629e+01   4.3610746053e+01     0.220166    0.1974943 -86.51 0.0005374072    1.106    0.096
       236 -14.1564     49.2399    130.3263   6.4472186874e+01   4.3533616566e+01    0.6031384    0.5180515  19.88  0.002270197    1.251    0.201
       237 -13.5552     55.3493    127.7044   6.1879705134e+01   4.3433877126e+01    0.6573272    0.2828403  40.73   0.00132323    2.173    0.540
       238 -13.7308     51.7816    142.4640   6.5340339354e+01   4.0011429165e+01    0.7070261    0.3187327  53.46  0.002625425    2.451    0.592
       239 -12.2201     47.3105    141.6676   6.6732867855e+01   4.0774196305e+01    0.3142244    0.2262904 -88.88    0.0011513    1.423    0.297
       240 -11.2934    211.6550    143.4601   2.4655618661e+01   1.1744909747e+01    0.2039638    0.1262966  46.76 0.0005509883    1.868    0.465
       241 -11.1751    179.3299    142.8554   3.0399130372e+01   1.7454829952e+01    0.2318486    0.1875594  48.36 0.0007353734    1.376    0.273
       242 -11.2040    143.5860    143.3119   3.8378774341e+01   2.4127000348e+01     0.249692    0.1770932  17.09 0.0005706089    1.674    0.403
       243 -12.3365     76.7730    141.8247   5.7037068791e+01   3.6611145353e+01    0.2193539    0.1697314  62.09 0.0006231111    1.341    0.254
       244 -10.8176    165.5419    140.0004   3.2635242194e+01   2.0556396855e+01    0.2139183    0.1375638 -40.97 0.0003541721    1.545    0.353
       245 -12.5517     53.1158    135.6894   6.3919260615e+01   4.1617606462e+01    0.4251034    0.2075192  47.67  0.001697759    2.035    0.509
       246 -12.1745     60.0206    139.4319   6.2140182863e+01   3.9709806314e+01    0.2685575    0.2152677 -71.45 0.0003142986    1.264    0.209
       247 -13.9344     59.7282    134.2227   6.1415313602e+01   4.1112114992e+01    0.6957157    0.3459099  47.31  0.002771102    2.007    0.502
       248 -13.1745     68.3459    136.9780   5.8956818763e+01   3.9147100959e+01    0.4496413    0.2281879  44.29 0.0008689648    1.886    0.470
       249 -13.4955     39.7314    138.3437   6.8889952149e+01   4.2529270436e+01    0.4794207    0.3474583 -60.60   0.00090862    1.402    0.287
       250 -13.2286     37.1542    133.7644   6.9224946383e+01   4.4025583851e+01    0.5432789    0.2686373 -81.63  0.001869203    2.143    0.533
       251 -12.6165    129.7914    137.2696   4.0542769978e+01   2.8097211358e+01    0.4845638    0.3246658  33.88  0.001130944    1.486    0.327
       252 -12.5180     20.4666    131.0056   7.4836084010e+01   4.6350062125e+01    0.3152741    0.2715013 -65.28 0.0008127102    1.184    0.156
       253 -12.8876    123.1532    134.8638   4.1782804109e+01   2.9934934297e+01    0.4043482    0.3100024  -8.03 0.0003257054    1.700    0.412
       254 -12.1922    174.5725    134.1154   2.9448479992e+01   1.9919828093e+01     0.307777     0.236892  -6.02 0.0007015757    1.479    0.324
       255 -10.6625    210.2193    134.3806   2.3007533432e+01   1.3400645253e+01    0.1631754    0.1256724  55.70 0.0004901837    1.643    0.391
       256 -11.3826    196.4463    133.6288   2.5189991972e+01   1.5933089543e+01    0.3254058    0.1593528 -31.20  0.001430776    2.033    0.508
       257 -13.0159    102.6357    133.7292   4.7405034675e+01   3.4145049783e+01    0.4947383    0.2574835  32.88  0.001525078    1.956    0.489
       258 -11.2747    200.7793    133.0910   2.4316424625e+01   1.5247713178e+01    0.1934821    0.1715243 -45.21 0.0005208489    1.231    0.188
       259 -12.6531     77.9950    132.2719   5.4897571602e+01   3.8844189318e+01    0.3730907    0.2009001 -48.94 0.0008156567    1.975    0.494
       260 -12.3333     67.3236    153.9584   6.1949319410e+01   3.4965437636e+01    0.2044711    0.1903468 -75.59 0.0007151617    1.128    0.114
       261 -11.1072     31.4745    131.1441   7.0926797442e+01   4.5311135935e+01    0.2082272    0.1340169 -75.92 0.0007137528    1.492    0.330
       262 -10.3086    230.3230    130.7043   1.9173104212e+01   1.0656481120e+01    0.1161388   0.09193552 -56.87 0.0005338669    1.620    0.383
       263 -12.2090    130.2032    128.3351   3.8412358338e+01   2.9966860008e+01    0.2596827    0.2545546 -32.60 0.0003293112    1.047    0.045
       264 -13.0130    122.6838    128.7778   4.0536312391e+01   3.1393676487e+01    0.4337778    0.2919856 -43.50  0.001943319    1.547    0.354
       265 -11.8189    125.4357    123.7547   3.8606525853e+01   3.1955070098e+01    0.3193778    0.2669476 -68.45  0.001410234    1.356    0.262
       266 -13.1342     82.8935    128.0175   5.2435263580e+01   3.9104874893e+01     0.406485    0.3303621  -6.96  0.001693118    1.546    0.353
       267 -12.6154     64.7561    127.1322   5.8449441640e+01   4.2248048539e+01     0.263438    0.2460041  74.31   0.00051203    1.038    0.037
       268 -11.2334    109.5191    127.4930   4.3985834037e+01   3.4309098709e+01    0.1557226    0.1503335  32.08 0.0008101327    1.032    0.031
       269 -10.1695     33.2819    140.3561   7.1325232200e+01   4.2685313093e+01    0.1450012    0.1015458 -43.03 0.0003491526    1.664    0.399
       270 -12.1959     26.5038    125.2724   7.2060466905e+01   4.7356851840e+01    0.2421445    0.2356012  35.45 0.0009396825    1.120    0.107
       271 -11.7159      9.6645    125.4861   7.8240728433e+01   4.8621616150e+01    0.2408111    0.1164577 -80.49   0.00106486    1.891    0.471
       272 -13.8356     77.7959    113.3478   5.1011410421e+01   4.3723983938e+01    0.9480608    0.4458881  17.66  0.002643762    4.378    0.772
       273 -14.6882     78.4711    119.4556   5.2130760467e+01   4.2044505259e+01    0.8356203    0.6277817  29.74 0.0006629831    1.358    0.263
       274 -13.1610     82.1840    115.6540   5.0003043111e+01   4.2364133717e+01    0.4245762    0.3172651  31.34 0.0009170484    1.357    0.263
       275 -12.9207      6.6841    112.8758   7.8374153268e+01   5.2161369364e+01    0.4548412    0.3105663  59.85  0.001581108    1.421    0.297
       276 -13.0297      3.4497    107.6007   7.9233946680e+01   5.3743455880e+01    0.5142116    0.2775453  35.28  0.002488292    1.851    0.460
       277 -14.1751     13.5410    119.5792   7.6320236110e+01   4.9930713161e+01    0.6853905    0.4664261  77.27  0.002137122    1.407    0.290
       278 -12.5548     50.0417    122.9313   6.3016331108e+01   4.5405265606e+01    0.2676867    0.2133355  16.28  0.001346187    1.383    0.277
       279 -12.3590    105.0712    121.2888   4.3882508994e+01   3.6653001559e+01    0.3714441     0.263721  54.16 0.0009316774    1.480    0.324
       280 -13.1531      9.0264    117.7476   7.7869604573e+01   5.0720359180e+01    0.5037374    0.2469455   9.71  0.002213342    2.385    0.581
       281 -11.9296    193.4529    121.6288   2.3061294333e+01   1.8497943692e+01    0.2245154    0.1315061  47.23 0.0007916445    1.841    0.457
       282 -12.0073     59.0277    121.4820   5.9465249936e+01   4.4573686960e+01    0.2311263    0.1489358  28.51 0.0006633214    1.573    0.364
       283 -11.5579    201.0149    120.4815   2.1508819888e+01   1.7266662608e+01    0.1964812    0.1344713  48.41 0.0006551882    1.618    0.382
       284 -11.3691    100.4641    119.5069   4.4884831895e+01   3.7985248244e+01    0.1569751    0.1519899  51.02 5.174847e-05    1.006    0.006
       285 -10.5369    169.8262    122.4259   2.7740671375e+01   2.3011813981e+01     0.190398    0.1351232  32.12 0.0009189287    1.526    0.345
       286 -12.9239     93.7301    117.0100   4.6445263999e+01   3.9893246616e+01    0.4343823    0.2828649  56.10  0.001821611    1.712    0.416
       287 -12.1774     98.1525    115.1290   4.4567119528e+01   3.9496774292e+01    0.3604307    0.2305008  22.97  0.001107542    1.953    0.488
       288 -11.6619     29.8875    116.7924   6.9740792825e+01   4.9326156169e+01    0.2215776    0.1902825 -79.53 0.0003287514    1.102    0.092
       289 -11.8541    120.2918    114.1425   3.7663282249e+01   3.5182402726e+01    0.4460379    0.2596723 -41.58  0.001811947    1.813    0.449
       290 -13.8004     63.1991    111.9576   5.6044391989e+01   4.6474744528e+01    0.5885324    0.4059591 -63.65  0.001434537    1.455    0.313
       291 -11.9709     58.9631    113.9935   5.8058973600e+01   4.6568729070e+01    0.2758596    0.2173556  35.69  0.000684085    1.253    0.202
       292 -12.9046    105.6616    111.9101   4.1408910365e+01   3.8758015426e+01    0.4330806    0.3520668 -65.50   0.00108585    1.335    0.251
       293 -11.7114    165.7033    112.6116   2.6226535976e+01   2.5702984328e+01    0.1987617    0.1415646  58.23 0.0009421799    1.568    0.362
       294 -11.0246    198.8864    111.3194   1.9779093117e+01   1.9169492115e+01    0.1812577    0.1709215   2.63 0.0005718584    1.102    0.093
       295 -10.1164     23.5260    111.5240   7.1568801347e+01   5.1327689495e+01    0.1438798    0.1288042  75.27 7.141459e-05    1.062    0.058
       296 -12.3570    115.2149    113.8194   3.9033344109e+01   3.6328565273e+01    0.2945646    0.2621945  -6.23  0.001464669    1.283    0.221
       297 -11.3415    210.0266    108.9852   1.7493011722e+01   1.7427586273e+01    0.2028026    0.1799769 -27.85 0.0004808626    1.019    0.019
       298 -11.1661    160.4860    109.5159   2.6553042578e+01   2.7408451875e+01    0.1471542     0.143475 -24.66 -8.967894e-05    1.005    0.005
       299 -10.3415     36.2518    109.7288   6.6187000342e+01   5.0591270317e+01    0.1431848    0.1038368  64.29 0.0002545516    1.449    0.310
       300 -12.1258     77.0334    107.9570   5.0025184823e+01   4.5233391105e+01    0.2387171    0.2304384  68.50 0.0004027125    1.014    0.014
       301 -11.5636     70.4835    108.4709   5.2549780962e+01   4.6222543597e+01    0.1526627    0.1516351  61.75 0.0003618108    1.039    0.037
       302 -11.0946    121.9387    107.0165   3.5351928674e+01   3.6415299746e+01    0.2296735    0.2238719  68.79 0.0002938483    1.024    0.023
       303 -10.5274     98.4352    107.4312   4.2544452083e+01   4.1296487518e+01    0.1582974    0.1511593  64.46 9.141189e-05    1.036    0.035
       304 -11.4148    109.6918    104.6155   3.8271492142e+01   3.9611107634e+01    0.3592536    0.2169431 -45.07 0.0009868809    1.707    0.414
       305 -12.7888     11.4539    105.0727   7.5747557433e+01   5.3964312776e+01    0.3434818    0.2601459 -41.62 0.0009310504    1.408    0.290
       306 -11.3004    105.2464    102.7229   3.9127573480e+01   4.0995525533e+01    0.2843105    0.2005452  46.31 0.0009681135    1.386    0.278
       307 -11.7204    185.2988    101.3343   1.9700943028e+01   2.3576666270e+01    0.2385419    0.2218576 -51.95  0.000280288    1.076    0.070
       308 -12.5776     79.0014    101.6878   4.7755186599e+01   4.6465859514e+01    0.2881497    0.2668621 -42.35 0.0008567147    1.125    0.111
       309 -11.7651     55.8429    101.2000   5.6588803680e+01   5.0407719192e+01    0.3014589    0.2307474 -48.46 0.0005041232    1.329    0.247
       310 -11.7697     57.5547     97.6975   5.5089298761e+01   5.1075041366e+01    0.3486533    0.2832749  56.42 0.0006412176    1.283    0.221
       311 -10.3039     18.9470    105.0000   7.2626159236e+01   5.3461464107e+01    0.2030212   0.08075961  17.66 0.0007672454    2.704    0.630
       312 -10.7818    154.6383    101.3375   2.5708204068e+01   3.0267162492e+01    0.2381363    0.1822509 -77.55   0.00110092    1.695    0.410
       313 -13.2434     94.0300     98.4792   4.1607248775e+01   4.4334184179e+01    0.5608565    0.3470129  63.68  0.002142867    2.187    0.543
       314 -12.1075     90.5053     98.4902   4.2813243777e+01   4.5045355497e+01    0.2808063    0.2062322 -63.16 0.0006546383    1.481    0.325
       315 -11.9077     85.7360    100.3206   4.4974484300e+01   4.5538573124e+01    0.2681642    0.2292469 -48.89  0.001199634    1.198    0.165
       316 -12.8896      5.6068     99.4659   7.7651867528e+01   5.5804020817e+01    0.3870988    0.2830335  57.57  0.001307309    1.373    0.272
       317 -10.7739    208.8249     99.6056   1.5528777915e+01   1.9117579553e+01    0.1680723    0.1296149  74.80 0.0005014557    1.639    0.390
       318 -11.5576    174.5056     98.9072   2.1045565227e+01   2.6305739482e+01      0.22488    0.1374603 -37.59 0.0006541327    1.560    0.359
       319 -11.1264    162.4917     99.4986   2.3557353437e+01   2.8852640749e+01    0.1487394    0.1417383 -61.53 0.0008099796    1.057    0.054
       320 -11.8853    178.3815     96.5068   1.9722151640e+01   2.5882097567e+01    0.3052815    0.2268357 -59.35 0.0009692517    1.488    0.328
       321 -10.0943    113.3102     97.2364   3.5149258791e+01   4.0490035405e+01    0.1521171    0.1242201  14.76 0.0002342383    1.494    0.331
       322 -13.2772     78.8379     92.8349   4.5446745969e+01   4.8696590759e+01    0.3381587    0.3111831 -64.06 0.0008465766    1.105    0.095
       323 -14.0978     75.2570     90.2840   4.6093125777e+01   4.9993710805e+01    0.5696058    0.4247605  34.80  0.002654747    1.344    0.256
       324 -11.0206     41.1077     91.7255   6.0774013301e+01   5.4877990442e+01    0.2165032    0.1861892  55.11 0.0004839426    1.202    0.168
       325 -10.2046    116.6912     91.6407   3.2546716262e+01   4.0953259000e+01    0.1630422    0.1282773   0.15 9.507486e-05    1.736    0.424
       326 -10.9997     27.9925     90.7441   6.6517718884e+01   5.6542402408e+01    0.2904147    0.1612688 -14.47   0.00115903    2.557    0.609
       327 -12.9121      3.1073     87.5105   7.7599785297e+01   5.9108747513e+01    0.5451502     0.252524  84.01  0.002299033    2.267    0.559
       328 -11.3319    171.1488     88.1404   1.8867899677e+01   2.8940643554e+01    0.1988567    0.1673272 -70.30 0.0002671336    1.285    0.222
       329 -12.6042     55.0734     85.5328   5.3096714527e+01   5.4597904642e+01    0.5394974    0.4799969 -26.76  0.002183803    1.196    0.164
       330 -11.5550     56.3235     77.9818   5.0429343411e+01   5.6309564578e+01    0.2593969    0.2166089  19.98 0.0003892298    1.257    0.205
       331 -10.8643    125.7462     86.3939   2.8479171632e+01   3.9945695925e+01     0.274628    0.2036898 -16.20 0.0009745148    1.798    0.444
       332 -10.7014     11.7332     86.9327   7.3497486318e+01   5.8813643540e+01    0.1939354    0.1647428 -81.07 0.0004024997    1.093    0.085
       333 -11.3964     52.6213     80.0208   5.2687602189e+01   5.6368711206e+01    0.2588256    0.2161141  40.89 0.0004611431    1.212    0.175
       334 -12.2815    134.5226     84.0096   2.5519591282e+01   3.8328759712e+01    0.2722013    0.2626627  46.01 0.0003460308    1.063    0.060
       335 -10.7425    236.9618     83.7842   8.3988216205e+00   1.6212685754e+01    0.1619647    0.1389369 -43.50            0    1.064    0.061
       336 -11.5348    208.1102     83.9028   1.1938520997e+01   2.1661651611e+01    0.2032021    0.1606523 -55.14 0.0002757527    1.236    0.191
       337 -11.2688    164.9633     83.4662   1.8763240501e+01   3.1178710607e+01    0.2077409    0.1307257  86.76 0.0008092204    2.506    0.601
       338 -11.9155    168.7056     94.0029   2.0878669090e+01   2.8460153458e+01    0.2081138     0.183288 -42.63 0.0002547592    1.089    0.082
       339 -12.3085     88.7494     79.5286   3.7796889951e+01   4.9852955965e+01    0.4281326    0.2664908 -40.60  0.001455546    1.713    0.416
       340 -11.1075     10.2985     81.9576   7.3509280843e+01   6.0221655823e+01    0.2047755    0.1699022  77.78  0.001166023    1.218    0.179
       341 -11.2429      8.9576     77.8237   7.3594927462e+01   6.1389307357e+01    0.2818591    0.1776018 -74.22  0.001007205    1.442    0.306
       342 -11.4801    151.8378     81.3661   2.0798770639e+01   3.4661418844e+01    0.2126648     0.136758  45.00 0.0001935551    1.644    0.392
       343 -11.1036      4.8192     79.9332   7.5940009196e+01   6.1037690157e+01    0.2117005    0.1639241 -53.86 0.0005338516    1.202    0.168
       344 -11.6416    112.7534     78.5662   2.9684133637e+01   4.4633890093e+01    0.4131906    0.2829512  84.39  0.001626707    2.205    0.546
       345 -11.2327    116.0955     75.0803   2.7598570300e+01   4.4543785697e+01    0.3768479    0.2082727  49.61  0.001496999    1.759    0.431
       346 -11.5999    156.1486     78.0794   1.8968548810e+01   3.4212940303e+01    0.2148879    0.1678738 -60.30 0.0005823708    1.340    0.254
       347 -11.9390     74.9846     76.4476   4.2012918150e+01   5.3372180857e+01    0.2970455    0.2328486 -53.36 0.0005776275    1.304    0.233
       348 -11.4018     70.7874     76.8169   4.3834353282e+01   5.4086993302e+01     0.214535    0.1843838  75.41 0.0006522944    1.326    0.246
       349 -11.9784    184.0185     75.3617   1.3292322060e+01   2.8141707665e+01    0.2513325    0.1931182 -38.73 0.0002233603    1.216    0.177
       350 -10.7257    129.6925     73.9643   2.3632583882e+01   4.1439261077e+01    0.2034403    0.1906223 -52.69 0.0002662231    1.078    0.072
       351 -11.5819    105.2352     73.3622   3.0249295626e+01   4.7482317581e+01    0.2934088    0.2656715  79.40 0.0005864702    1.155    0.134
       352 -10.5113    124.3891     72.1715   2.4407574181e+01   4.3087911710e+01    0.2161107    0.1431198 -52.10 0.0004238756    1.607    0.378
       353 -12.4847     70.2981     70.1895   4.1851961363e+01   5.5727770858e+01    0.5440561    0.3699992  -8.63  0.001754608    2.352    0.575
       354 -10.4691    188.8320     70.6243   1.1326241390e+01   2.7794160396e+01    0.1823362    0.1306293  82.01 0.0001443232    1.605    0.377
       355 -12.2185     54.5645     69.2916   4.8559393541e+01   5.8718677906e+01     0.342066    0.2555684   3.32  0.000832176    1.640    0.390
       356 -11.9619     48.3488     67.6476   5.1027866977e+01   6.0077627349e+01    0.4296953    0.2671289  39.96  0.001947348    1.636    0.389
       357 -11.3646    163.1550     68.8199   1.4973100162e+01   3.4093257626e+01    0.1967392    0.1740447  27.79            0    1.328    0.247
       358 -11.7582    154.3230     68.3053   1.6466566181e+01   3.6341877151e+01    0.2614513    0.2349075 -68.66 0.0002953666    1.090    0.082
       359 -12.2824     59.6068     66.9812   4.5446885261e+01   5.8424943182e+01    0.5533496    0.3403695  71.58   0.00143817    3.086    0.676
       360 -10.4389      2.2627     68.3492   7.5784782508e+01   6.4175135618e+01    0.1444044   0.08161996 -48.62 0.0002651614    1.610    0.379
       361 -11.3053      8.6259     67.0966   7.2106580746e+01   6.4211393920e+01    0.2231239    0.1822921  30.19 0.0005947061    1.332    0.249
       362 -11.3567      2.9771     72.0388   7.5889969401e+01   6.3187910270e+01    0.2580828    0.1935613 -16.31 0.0008830212    1.445    0.308
       363 -11.1949     46.6318     62.8176   5.0316151328e+01   6.1496813587e+01    0.2375641    0.1713524  35.94 0.0005813235    1.396    0.284
       364 -10.7392    123.5109     61.5257   2.1096057470e+01   4.5272150287e+01    0.1553997    0.1478638  78.74 0.0001050145    1.005    0.005
       365 -12.1155     12.6361     59.5235   6.8362811501e+01   6.5922150162e+01    0.2753198    0.2126038 -49.01 0.0002134972    1.173    0.148
       366 -11.8079     41.7994     57.3780   5.0996870507e+01   6.3483888086e+01    0.3954001    0.2901703 -41.22   0.00198072    1.340    0.254
       367 -12.6280     37.0120     55.3148   5.2923463375e+01   6.4617118234e+01    0.4870855    0.2996528 -40.87  0.001471949    1.625    0.384
       368 -12.2280    111.4324     56.2774   2.2437630015e+01   4.9258847438e+01    0.3255911    0.2312493 -44.56 0.0009958057    1.457    0.313
       369 -13.0778    115.6777     53.9353   2.0439817859e+01   4.8592524143e+01    0.4342641    0.3113534 -84.56 0.0003246276    1.799    0.444
       370 -12.5214     22.7077     55.3044   6.1278440355e+01   6.6201704385e+01     0.360076    0.2717267 -53.00  0.001257924    1.221    0.181
       371 -11.2493    179.6348     56.0783   8.7344152771e+00   3.2095955933e+01    0.2191635    0.1814574 -85.92 0.0002970542    1.211    0.174
       372 -10.5830    133.5411     55.5474   1.6712264352e+01   4.3728731020e+01    0.1541622    0.1423611 -86.26 7.052824e-05    1.048    0.046
       373 -10.5690    197.7399     54.5668   5.9833186170e+00   2.8131489986e+01    0.1853483    0.1230975 -88.79 0.0009392967    1.715    0.417
       374 -11.8588    174.4638     50.8971   8.0116485236e+00   3.4086247088e+01    0.3601317    0.1999897 -47.52  0.001633247    1.702    0.412
       375 -12.3634    109.2115     51.9754   2.1467048893e+01   5.0573254802e+01    0.3821928    0.2397649  58.39 0.0003460366    1.541    0.351
       376 -12.4964    100.7600     50.3482   2.3306853720e+01   5.2974794774e+01    0.4693932    0.2983939 -72.36  0.001799444    2.508    0.601
       377 -13.3535     30.2954     49.8661   5.4957232427e+01   6.6727239235e+01    0.4135412    0.2927262  52.49  0.001730877    1.728    0.421
       378 -11.3711     19.0401     47.5225   6.1264014177e+01   6.8419504909e+01    0.2212524    0.1693483 -56.67 0.0007623355    1.224    0.183
       379 -11.1794    153.8730     57.1152   1.3161154062e+01   3.8274247573e+01    0.2360546     0.190292 -68.45 0.0005483473    1.263    0.208
       380 -10.3665    211.2210     48.0352   2.8734819373e+00   2.6059679674e+01     0.166906   0.09526009 -33.53 0.0003278038    1.578    0.366
       381 -10.5892    184.4265     43.4842   4.6338822601e+00   3.2708419414e+01    0.1402137    0.1201482 -61.81 2.720686e-05    1.037    0.035
       382 -11.3209    142.2005     42.7742   1.0684144761e+01   4.3439349725e+01    0.2729033    0.1404919 -65.67 0.0009629483    2.844    0.648
       383 -11.2467    155.0541     41.0968   7.9673608167e+00   4.0331794286e+01    0.2148558    0.1947674 -74.65 0.0003565139    1.017    0.017
       384 -12.3167     34.8723     40.2855   4.8416219798e+01   6.8317344302e+01    0.3289745    0.2383123   4.00  0.001318865    1.527    0.345
       385 -11.1758    120.1594     39.0151   1.3820764332e+01   4.9796723846e+01    0.3266414    0.1985462  83.17  0.000829073    2.028    0.507
       386 -10.6857    113.8240     38.8487   1.5242430876e+01   5.1488613026e+01    0.2040766    0.1698749 -74.50 0.0002807334    1.285    0.222
       387 -11.0929    102.6448     38.3228   1.7939658797e+01   5.4471770799e+01    0.1595842    0.1151675 -76.67 5.304005e-05    1.762    0.432
       388 -11.3150     80.8123     36.7356   2.4206268910e+01   6.0131485359e+01    0.2802698    0.2431702  77.20  0.001478057    1.276    0.216
       389 -11.3547     53.0262     33.6811   3.4878284943e+01   6.6650234856e+01    0.2030374    0.1747947  27.85 0.0005413829    1.100    0.091
       390 -11.9376     33.4812     33.5015   4.6239066006e+01   6.9946170661e+01    0.2450305    0.2160943 -26.43 0.0006617506    1.077    0.071
       391 -12.2079     30.3351     31.6738   4.7459420812e+01   7.0755776043e+01    0.2507812    0.2109108  27.81 0.0009250562    1.204    0.169
       392 -11.0012      5.0533     34.3418   6.7159105142e+01   7.2509508813e+01    0.1742257     0.152898 -18.67 0.0004013778    1.103    0.093
       393 -11.4204     43.0130     33.5542   4.0355064102e+01   6.8466843661e+01    0.2170098    0.1317556  35.96   0.00103005    1.601    0.375
       394 -11.3835     14.7989     33.0593   5.9272205259e+01   7.2149487475e+01    0.2096802    0.1782005   3.65 0.0003423064    1.166    0.142
       395 -11.7109    120.5046    248.6880   5.9992819399e+01   8.3199798596e+00    0.3089107    0.1483742  15.48  0.001236783    2.569    0.611
       396 -11.2013    106.3285     32.0371   1.4371470567e+01   5.4432412208e+01    0.2051452    0.1946347 -60.95 0.0005742995    1.106    0.096
       397 -11.2350    114.5931    248.8102   6.1250050533e+01   9.0432734293e+00    0.1367808    0.1151052  84.71 0.0009453701    1.693    0.409
       398 -11.0180     19.2018     27.8407   5.3712105398e+01   7.2884884347e+01    0.1845962    0.1792401  76.33 0.0006969704    1.275    0.216
       399 -11.2501     67.4434     27.4988   2.4953079296e+01   6.4689632126e+01    0.1435318    0.1334622  34.66 3.309491e-05    1.011    0.010
       400 -12.0806     74.9058     25.3897   2.0936262340e+01   6.3278034911e+01     0.332665    0.2449474 -85.07  0.001566887    1.928    0.481
       401 -12.1014     85.4792     24.4982   1.6886799085e+01   6.0819200605e+01    0.3050369    0.2130443 -66.53 0.0007853832    1.890    0.471
       402 -11.0948     55.1944    249.2008   7.4045528461e+01   1.6088204255e+01    0.3268082    0.1083581  45.83  0.001570696    2.245    0.555
       403 -10.6749    159.3348     32.3063   4.5843017425e+00   4.0386366293e+01    0.1427827    0.1060123  38.47 0.0007040324    1.669    0.401
       404 -10.7320     66.3714     23.1888   2.3140472213e+01   6.5579728433e+01    0.1838008    0.1315829 -43.62 0.0001934417    1.563    0.360
       405 -10.5073    116.5139     18.5233   6.5948172284e+00   5.3407998798e+01    0.1464142    0.1314801  77.23 3.959474e-05    1.002    0.002
       406 -10.2900      1.5444     25.5088   6.7275394833e+01   7.4716239939e+01    0.1276533    0.1082862 -38.39 0.0001232915    1.004    0.004
       407 -10.5388    131.7520     17.3464   3.5336085433e+00   4.9430540241e+01     0.147881   0.09718983 -59.45 0.0003157053    1.578    0.366
       408 -11.1406     55.3139    245.6627   7.3807788660e+01   1.6692799558e+01    0.1759678    0.1197417  58.80 0.0003161361    1.370    0.270
       409 -12.5010     50.2598    244.5684   7.4843970514e+01   1.7445238545e+01    0.4235447    0.2522236 -62.32  0.002173827    2.137    0.532
       410  -9.9830    112.3062     11.3338   4.4340246547e+00   5.5297162625e+01     0.149277   0.09926362  39.57 0.0004001327    1.667    0.400
       411 -10.8126     54.4971    242.5129   7.3794368270e+01   1.7343493551e+01    0.1702081    0.1502744 -86.15  0.000960811    1.390    0.280
       412 -12.2071    214.8733    247.4256   4.1780099578e+01  -2.7447273343e+00    0.1802028    0.1372891  -0.48 0.0003002538    1.186    0.157
       413 -11.1726    178.1770    247.1849   4.8290306089e+01   1.4072075964e+00    0.1723153    0.1167117   9.92 0.0003833169    1.190    0.160
       414 -11.8034     64.1705    245.4915   7.1864983429e+01   1.5719488218e+01    0.1719789    0.1601091  58.47 0.0002721682    1.259    0.206
       415 -10.6843    226.4401    246.4505   3.9729618895e+01  -3.8399732616e+00    0.1051337   0.07343917   4.44 5.729257e-05    1.037    0.035
       416 -10.5855    163.2828    246.4192   5.1042758139e+01   3.3004215613e+00    0.1627385   0.08535139  34.75 0.0009433978    1.614    0.380
