#   1 NUMBER                 Running object number                                     
#   2 MAG_AUTO               Kron-like elliptical aperture magnitude                    [mag]
#   3 X_IMAGE                Object position along x                                    [pixel]
#   4 Y_IMAGE                Object position along y                                    [pixel]
#   5 X_WORLD                Barycenter position along world x axis                     [deg]
#   6 Y_WORLD                Barycenter position along world y axis                     [deg]
#   7 A_WORLD                Profile RMS along major axis (world units)                 [deg]
#   8 B_WORLD                Profile RMS along minor axis (world units)                 [deg]
#   9 THETA_WORLD            Position angle (CCW/world-x)                               [deg]
#  10 FWHM_WORLD             FWHM assuming a gaussian core                              [deg]
#  11 ELONGATION             A_IMAGE/B_IMAGE                                           
#  12 ELLIPTICITY            1 - B_IMAGE/A_IMAGE                                       
         1 -13.9553    196.9139     43.3213   4.2379463481e+01   3.0841306443e+01    0.9046101    0.8241351 -75.03  0.003316479    1.086    0.079
         2 -14.0535    204.6863     36.0622   3.9724663527e+01   3.0025365059e+01    0.6678759    0.6636111  78.42  0.001361576    1.297    0.229
         3 -14.1047    229.1881      9.6049   3.1716442510e+01   2.7831478928e+01    0.8331416    0.6611282 -70.09  0.004056997    1.054    0.051
         4 -11.0449     64.7734      9.5932   5.8863366272e+01   6.4717850932e+01    0.1649448    0.1084337  56.07 0.0007315854    1.646    0.393
         5 -12.5659     58.2050      2.8038   5.8066065305e+01   6.6571605600e+01    0.4015404    0.1396065  48.99  0.001846766    2.421    0.587
         6 -10.6667     55.9358    222.6308   1.1209460920e+02   2.0683061450e+01     0.196001     0.147709  72.48 0.0007164598    1.182    0.154
         7 -16.9547     70.2187    147.2166   9.8697599608e+01   3.6700217617e+01      17.7815     8.867561  80.13    0.0129908    6.801    0.853
         8 -12.0946     56.8858    211.1010   1.1077041417e+02   2.3091031279e+01    0.7395838    0.3223131  41.49  0.002722354    2.012    0.503
         9 -10.7272     54.4966    206.4897   1.1084797227e+02   2.4436382747e+01    0.2427925    0.1879143  60.89 0.0005567126    1.141    0.123
        10 -10.6868     76.1127    210.3722   1.0628457334e+02   2.0642877119e+01    0.3227127    0.1836253 -78.28  0.001020418    1.977    0.494
        11 -10.1626     88.1120    209.6866   1.0341357937e+02   1.9038373308e+01    0.2377524    0.1884168 -70.49 0.0008229694    1.311    0.237
        12 -10.1989     41.9759    208.2003   1.1385558961e+02   2.5581717380e+01    0.3099191     0.145537  80.92  0.001331079    2.638    0.621
        13 -10.5235     64.5684    205.1742   1.0837314062e+02   2.3416022035e+01    0.2852917    0.1839564  85.02  0.001467868    1.662    0.398
        14 -13.1955     47.6917    245.4139   1.1569106833e+02   1.7017356518e+01    0.4032592    0.2276389  61.79   0.00217144    1.556    0.357
        15 -10.9140     60.0916    218.5389   1.1079337148e+02   2.1031278554e+01    0.3479325    0.1754433  69.10   0.00112407    2.373    0.579
        16 -12.0480    192.9945    195.2822   7.7448633383e+01   4.3393618931e+00    0.9814404    0.4884813 -61.97  0.002984052    5.543    0.820
        17  -9.1205     68.2827    199.6179   1.0685375135e+02   2.4184433915e+01    0.1460933   0.09197035  70.64  0.000700944    1.728    0.421
        18 -11.0772     60.0673    197.8126   1.0860766363e+02   2.5711450844e+01    0.2038532    0.1698439  87.07 0.0003311065    1.103    0.093
        19 -13.0113     48.3967    194.5946   1.1104378293e+02   2.7943600418e+01    0.4035973     0.299061 -42.21  0.001385869    1.728    0.421
        20 -10.1486     82.6498    194.9583   1.0278239329e+02   2.3199688200e+01    0.2361471    0.2021683  -2.23 0.0007657169    1.532    0.347
        21 -11.3123     34.6537    190.7319   1.1392879894e+02   3.0442354303e+01    0.7772284    0.2836097  60.90   0.00278494    3.694    0.729
        22  -9.7435    158.2972    193.6587   8.4561185686e+01   1.0702618488e+01    0.1407314    0.1138247  78.12 0.0007033295    1.664    0.399
        23  -9.8256     21.7455    192.4061   1.1709154164e+02   3.1395551903e+01    0.3023454    0.1452924  48.69  0.001534819    1.911    0.477
        24 -10.6466    149.3673    192.1825   8.6318460860e+01   1.2602240298e+01    0.1951358    0.1381896 -61.06  0.000468475    1.653    0.395
        25 -12.7306    130.5232    191.7561   9.0648968201e+01   1.6047466753e+01    0.4405225    0.2771087  37.38  0.001686252    1.511    0.338
        26 -11.9652    125.0119    189.1893   9.1529752863e+01   1.7582881998e+01    0.2522901    0.2154485 -57.61 0.0005799052    1.229    0.187
        27 -13.5524     28.6416    216.0546   1.1740928170e+02   2.5344784795e+01    0.6967036     0.289722  76.08      0.00296    2.941    0.660
        28 -13.5459     59.5409    183.2689   1.0700074000e+02   2.9231257257e+01    0.9000826    0.7700652  10.00  0.005214833    1.486    0.327
        29 -11.5366    147.2865    185.3028   8.5543657813e+01   1.4431024070e+01    0.3807637    0.2178458  56.82  0.001542939    2.276    0.561
        30 -10.9845     51.2066    181.7695   1.0892055146e+02   3.0655822044e+01    0.3521306    0.1924345  73.98  0.001229098    2.229    0.551
        31 -11.0739     37.7182    185.3276   1.1265926189e+02   3.1384682937e+01    0.2681537    0.1915092  69.69 0.0008978923    1.305    0.234
        32 -10.8119     40.0030    182.9022   1.1184561805e+02   3.1708804008e+01    0.2728898    0.1985768  66.57  0.001469126    1.289    0.224
        33 -10.5650     79.7764    183.0759   1.0183534858e+02   2.6436895167e+01    0.2241253     0.178861  75.81  0.000617645    1.263    0.208
        34 -11.7229     65.9243    179.5019   1.0488229911e+02   2.9286539000e+01    0.3389362    0.2236973  40.10 0.0007129401    1.487    0.327
        35 -18.2944     17.7325    229.9443   1.2056432147e+02   2.3541031820e+01     5.550548     4.018595  62.07   0.03809694    1.101    0.092
        36 -16.5018      2.5671     99.3279   1.1236927438e+02   5.5264916280e+01     12.91137     1.345197 -71.06   0.02799722    9.615    0.896
        37 -10.1124     39.9452    177.6351   1.1128902913e+02   3.2987083022e+01    0.1830971    0.1472698  55.47 0.0004270629    1.199    0.166
        38  -9.8475     46.8379    177.1486   1.0948182088e+02   3.2307756163e+01    0.1803761    0.1494613 -55.91 0.0004589799    1.293    0.227
        39 -10.8522    185.6672    172.7848   7.4581900726e+01   9.8997358952e+00    0.2822906    0.2537366 -12.51 0.0009395808    1.085    0.078
        40 -10.4091     47.1743    172.1215   1.0878792072e+02   3.3498116570e+01    0.1976993    0.1746931 -52.81  0.000486919    1.253    0.202
        41 -10.6492     49.8387    217.3525   1.1294030139e+02   2.2596999112e+01    0.3685625    0.2436808  15.53  0.001943933    2.198    0.545
        42  -9.3855     42.4380    167.5061   1.0946503989e+02   3.5185785449e+01     0.136494    0.1176612  87.32 0.0005591167    1.030    0.029
        43  -9.8455    120.5643    165.7684   8.8372918211e+01   2.3749098309e+01    0.2001793    0.1463874 -69.21 0.0005070593    1.543    0.352
        44 -10.5675     32.2588    165.3824   1.1190148164e+02   3.6810045454e+01    0.2465104    0.1585598 -75.61 0.0008328987    1.381    0.276
        45  -9.9086     48.5283    160.4889   1.0691545596e+02   3.6219362420e+01    0.1395682    0.1221777  86.83 0.0002543029    1.047    0.045
        46 -11.3395     49.0637    154.6252   1.0594462474e+02   3.7622330055e+01    0.2434055    0.1815686 -86.88  0.001027672    1.314    0.239
        47 -11.7900     89.9450    152.1969   9.3983483239e+01   3.2407045618e+01    0.4180521    0.3692981  10.48 0.0005399552    1.312    0.238
        48 -11.7581     92.4964    148.5029   9.2555616636e+01   3.2895315355e+01    0.4812081    0.3213689  51.19  0.001666985    1.577    0.366
        49 -11.8245    133.7076    145.0354   8.0689178614e+01   2.6056286957e+01     1.240227    0.3195403 -55.12  0.002787512    6.141    0.837
        50 -10.0951    174.8575    149.1352   7.1886283354e+01   1.6783714089e+01    0.2281818    0.2071406 -83.41 0.0006379671    1.261    0.207
        51 -10.1624    111.0879    149.2769   8.7566754485e+01   2.9422064405e+01    0.3452453    0.1775164  59.94  0.001156371    3.029    0.670
        52 -11.7183    105.5210    135.9430   8.6245722261e+01   3.3664326493e+01    0.7263549    0.4185874 -21.42  0.001946432    3.709    0.730
        53 -11.3604    106.0196    130.8679   8.4960069892e+01   3.4789603291e+01    0.4297463    0.3340161 -58.50  0.001211536    1.295    0.228
        54 -12.4234     91.9304    136.7106   9.0315218135e+01   3.5896367396e+01    0.2943276    0.2684855 -43.37 0.0004386885    1.115    0.103
        55 -10.8706    136.0000    129.4208   7.6499729560e+01   2.9149322193e+01    0.3454005   0.08824272 -47.25 0.0009296752    3.894    0.743
        56 -11.2824    112.8209    128.6493   8.2524813061e+01   3.4019058965e+01     0.330478    0.2571475   4.79 0.0008529498    1.695    0.410
        57 -11.1767    100.0679    124.5142   8.5206753497e+01   3.7410386615e+01    0.2957363    0.2459738 -12.07 0.0007270598    1.446    0.308
        58 -10.0198    108.6682    118.0030   8.1130586759e+01   3.7315061505e+01    0.2080086    0.1925519 -50.02 0.0004530743    1.067    0.063
        59 -10.5878    231.2373    113.8412   5.3699364034e+01   1.2260892736e+01    0.2241668    0.2184495 -38.38 0.0007647709    1.123    0.109
        60 -10.0743    205.3691    110.1900   5.7027875542e+01   1.8098790011e+01    0.2298726    0.1943821  41.83 0.0007312104    1.319    0.242
        61 -11.0135    119.5170    104.0082   7.4435598723e+01   3.8258161353e+01    0.2400203     0.150948 -45.90  0.001031993    1.589    0.371
        62 -10.2034     58.9645    250.3560   1.1384316920e+02   1.4644411899e+01    0.1564714    0.1253827  57.80  0.001063884    1.034    0.033
        63 -11.3775     55.6071     95.2466   9.2509973425e+01   5.1403472436e+01    0.3104387    0.2127757  46.82 0.0008717654    1.692    0.409
        64 -10.6621    156.0831     88.3428   6.1099531006e+01   3.3235576992e+01    0.3758174    0.2526153 -74.98  0.001190517    2.119    0.528
        65 -13.5141    184.2818     53.6263   4.6692700553e+01   3.2339781593e+01    0.7678766    0.5133477  41.07 0.0007846016    1.865    0.464
        66  -9.6215     75.5817    247.9076   1.1029921156e+02   1.2920697286e+01    0.1511188   0.09650924 -41.02 0.0008027781    2.386    0.581
        67 -11.1849     72.0098    244.9363   1.1075634584e+02   1.3980359580e+01    0.2719064    0.1850177 -67.12  0.001652217    1.620    0.383
        68 -11.3037     63.0885    250.1694   1.1301043433e+02   1.4148706993e+01    0.2652412    0.1431725  49.83  0.001492228    1.504    0.335
        69 -11.6115     96.0401    243.9720   1.0567879188e+02   1.0792768634e+01    0.2049692    0.1711021  49.75  0.001208635    1.011    0.010
        70  -9.6831     73.3930    236.4654   1.0967202533e+02   1.5475113241e+01    0.1245556    0.1053583  61.33 0.0001009888    1.028    0.027
