#   1 NUMBER                 Running object number                                     
#   2 MAG_AUTO               Kron-like elliptical aperture magnitude                    [mag]
#   3 X_IMAGE                Object position along x                                    [pixel]
#   4 Y_IMAGE                Object position along y                                    [pixel]
#   5 X_WORLD                Barycenter position along world x axis                     [deg]
#   6 Y_WORLD                Barycenter position along world y axis                     [deg]
#   7 A_WORLD                Profile RMS along major axis (world units)                 [deg]
#   8 B_WORLD                Profile RMS along minor axis (world units)                 [deg]
#   9 THETA_WORLD            Position angle (CCW/world-x)                               [deg]
#  10 FWHM_WORLD             FWHM assuming a gaussian core                              [deg]
#  11 ELONGATION             A_IMAGE/B_IMAGE                                           
#  12 ELLIPTICITY            1 - B_IMAGE/A_IMAGE                                       
         1 -13.5706    207.8903     33.7035   5.5913775653e+01   3.0203877967e+01     1.300588       1.0805  67.27  0.006372994    1.165    0.142
         2 -12.8685      3.8894      6.5863   1.0105446500e+02   6.9663701695e+01    0.7914432    0.3482055 -32.22  0.005202879    1.761    0.432
         3 -13.9576    225.6182     16.2063   5.0072220779e+01   2.8381716316e+01      1.03328    0.8844801  45.99  0.001215538    1.558    0.358
         4 -13.5950    118.6754    237.6487   1.1740447350e+02   8.6261401080e+00     1.330539    0.7719018  43.79  0.006919126    1.549    0.354
         5 -11.1718    162.0962    250.2713   1.1061155663e+02  -1.1201190446e+00    0.4132566    0.1522952  42.83  0.001737582    2.310    0.567
         6  -9.3498    123.1739    229.6132   1.1543242137e+02   9.4559975721e+00    0.1853485    0.1552637  77.01 0.0005409297    1.137    0.121
         7 -13.6257    142.3731    249.3292   1.1431171947e+02   2.4199732568e+00     2.106993     1.030105  60.29  0.009025295    2.650    0.623
         8 -12.3282    122.6647    249.0077   1.1806870838e+02   5.7977023116e+00    0.7119478     0.484692  39.74  0.004008136    1.416    0.294
         9 -10.6873     99.3429    250.4007   1.2262942966e+02   9.3016075098e+00     0.434074     0.246398  29.71  0.002113246    2.516    0.603
        10 -11.1353     98.8449    246.8705   1.2233141721e+02   1.0053894687e+01    0.3167337    0.1933217  49.44  0.001659365    1.404    0.288
        11 -10.4625     84.2935    230.1593   1.2322418618e+02   1.5638382244e+01    0.3685842    0.2821594 -17.80  0.001841109    2.649    0.622
        12  -9.9848     81.5609    248.1663   1.2565880284e+02   1.2438002286e+01    0.3297557    0.1169901 -69.80  0.001389937    3.231    0.690
        13 -10.9906     90.6034    224.7233   1.2134887896e+02   1.5806747005e+01    0.5311408     0.290419  55.88  0.002677096    1.707    0.414
        14  -9.2754     91.0023    220.0706   1.2069767592e+02   1.6730582030e+01    0.2593328    0.1681818 -83.82 0.0007212234    1.601    0.375
        15 -11.6655     87.6172    248.2412   1.2456117432e+02   1.1518539019e+01    0.5467464    0.3612616  45.26  0.002140326    1.423    0.297
        16 -12.2497     88.3598    238.4994   1.2337778092e+02   1.3322385156e+01    0.8122922    0.4513018  83.53  0.003961393    2.228    0.551
        17 -11.5085     58.9527    246.9719   1.2957367377e+02   1.5866919074e+01    0.5322762    0.3864872  78.40  0.003594977    1.097    0.089
        18 -11.2356     73.9152    243.5016   1.2658393823e+02   1.4466280024e+01    0.4062315    0.2603985 -66.00  0.002451978    1.603    0.376
        19 -10.7628     68.2937    245.2206   1.2776380323e+02   1.4925782912e+01    0.6217453    0.2976075 -88.95  0.002948295    2.582    0.613
        20 -10.2777     69.0850    237.4129   1.2686608290e+02   1.6372348542e+01    0.2273482    0.2101689 -64.30 0.0005717184    1.465    0.317
        21 -10.5400     73.6551    236.9170   1.2597088628e+02   1.5821884904e+01    0.3068865    0.2232253  82.45 0.0008093086    1.196    0.164
        22 -12.6593     36.6693    206.1292   1.2991232990e+02   2.7151387035e+01    0.7209848    0.5605555  49.18  0.004868989    1.401    0.286
        23 -15.0357     22.8848    219.7755   1.3363665861e+02   2.5775235539e+01     1.637344     1.243836 -79.52   0.01175196    1.219    0.179
        24 -12.3248    104.8737    236.6752   1.1998918223e+02   1.1091600484e+01     0.465476    0.3696213  59.44  0.002285709    1.080    0.074
        25 -10.8734    197.8000    245.4700   1.0293709261e+02  -6.3996282636e+00    0.2212179    0.1841965 -30.70  0.001174889    1.326    0.246
        26 -10.8961    180.5343    243.4707   1.0598712527e+02  -3.1407254810e+00    0.2843195    0.1139953  40.94  0.001214159    2.183    0.542
        27 -12.2942    115.4725    249.2340   1.1946742076e+02   6.9398699426e+00      1.09332    0.2847393  46.15  0.003374538    3.196    0.687
        28 -11.6815    101.7335    239.9967   1.2099498472e+02   1.0936817283e+01    0.4803535    0.2564337 -73.98  0.001427097    2.166    0.538
        29 -10.3319    249.8462    231.1820   9.0698533583e+01  -1.2470536120e+01    0.1781195    0.1290978  -1.74 0.0009276099    1.352    0.260
        30 -11.0156    113.4032    230.1965   1.1748098394e+02   1.0992478980e+01    0.2742109    0.2037289 -52.37  0.001562701    1.554    0.356
        31  -9.9303    153.6821    229.9946   1.0927660415e+02   4.0111511651e+00    0.1799951    0.1679283 -76.30 0.0003420128    1.164    0.141
        32 -10.9347     56.5666    228.1980   1.2827758804e+02   1.9977215163e+01    0.2319527    0.1896524 -81.20 0.0002883612    1.208    0.172
        33 -11.3292     83.2403    240.3400   1.2454074757e+02   1.3727338219e+01    0.4768925    0.3121252  66.64  0.002204294    1.360    0.265
        34 -10.3160     78.3122    225.0524   1.2381012016e+02   1.7596825161e+01    0.3029179    0.2363815   0.44  0.001633784    2.496    0.599
        35 -10.7120     99.8135    223.7589   1.1938246301e+02   1.4552747568e+01    0.3031092     0.257625 -43.42  0.001827016    1.545    0.353
        36  -8.9729     65.1322    223.7788   1.2622007901e+02   1.9746535140e+01    0.3911593    0.1151489 -50.89  0.001268316    5.477    0.817
        37  -9.4316    245.6837    221.6699   8.9742424275e+01  -1.0409682070e+01    0.1318805   0.08889945  -0.97 0.0007046251    1.682    0.405
        38 -10.9718     71.6308    219.0899   1.2444989122e+02   1.9834042540e+01    0.4805856    0.2299441  74.64   0.00196455    3.018    0.669
        39 -10.1386     60.1296    220.3327   1.2682058362e+02   2.1160102424e+01    0.2075991    0.1509506 -85.40  0.000350248    1.186    0.157
        40  -9.9865     50.8856    218.7143   1.2842012628e+02   2.2715020774e+01    0.3113594    0.1678106  84.72  0.000822023    1.919    0.479
        41  -9.9233     46.9737    214.4920   1.2874972460e+02   2.4111591435e+01    0.3243366    0.1504727  53.62  0.001657959    2.024    0.506
        42 -14.3546      7.1468    213.3911   1.3590421496e+02   2.8693287532e+01     2.920148    0.8072443 -74.26   0.01328125    2.867    0.651
        43  -9.8987    107.4669    216.9688   1.1691368152e+02   1.4737262758e+01    0.3157387    0.1595221  54.65 0.0006721179    1.962    0.490
        44  -9.7134     88.1491    212.4861   1.2032229818e+02   1.8812651257e+01    0.2478848    0.1715486 -71.54 0.0007946518    1.385    0.278
        45  -9.5181    110.9118    211.3593   1.1540013959e+02   1.5365202865e+01     0.217521     0.171814 -89.36 0.0003878222    1.258    0.205
        46  -8.9753     58.4958    212.5040   1.2631340857e+02   2.3066221432e+01    0.1863702    0.0998292  53.02 0.0008392237    1.744    0.427
        47 -10.1299     55.9916    208.9714   1.2642803400e+02   2.4167309958e+01    0.4352924    0.1567857 -65.52   0.00191467    2.463    0.594
        48  -9.3933     99.1250    209.5033   1.1763225465e+02   1.7727387263e+01    0.2580485     0.150259  89.15  0.001133621    2.288    0.563
        49 -10.4694     62.7911    209.1629   1.2509215903e+02   2.3222893195e+01    0.3188481     0.251374  62.79  0.001204119    1.172    0.147
        50  -9.8102     65.1436    205.1755   1.2415714030e+02   2.3785142487e+01    0.3449778    0.1688764  42.83  0.001217024    2.010    0.502
        51 -10.9667     97.3172    239.5404   1.2178894424e+02   1.1726648423e+01    0.3390422    0.2287044 -61.78  0.001947947    1.589    0.371
        52  -9.5228    113.9253    204.4028   1.1372455316e+02   1.6370791872e+01    0.2315835    0.1774431 -80.89 0.0005913155    1.333    0.250
        53  -9.5937    106.8792    203.4844   1.1511315588e+02   1.7775643532e+01    0.2522619     0.186271 -58.93 0.0005229891    1.381    0.276
        54  -9.6057     73.8630    200.8343   1.2181641263e+02   2.3534696574e+01    0.1875234    0.1659841 -73.84 0.0004192038    1.188    0.158
        55  -9.5845    250.6120    200.2611   8.4847707775e+01  -7.7520235604e+00    0.1797944    0.1119153 -28.88 0.0005840805    1.554    0.356
        56 -11.3389     98.6998    230.9218   1.2049830821e+02   1.3245671994e+01    0.4084437    0.3106752 -81.86  0.002450838    1.284    0.221
        57  -9.6870     47.2148    198.3918   1.2704229819e+02   2.7614737688e+01    0.2259625     0.146714 -72.05 0.0008966866    1.327    0.247
        58  -9.8556    250.0166    193.8031   8.3710639820e+01  -6.5737378546e+00    0.2039942    0.1364019 -17.78  0.001060973    1.639    0.390
        59  -9.8839     56.5104    192.7991   1.2448270583e+02   2.7715326870e+01    0.3532507    0.3116742 -34.28   0.00225403    1.581    0.368
        60 -11.9342     50.0473    191.8146   1.2572300389e+02   2.8748824945e+01    0.4037606    0.2366298 -53.20  0.001244563    1.830    0.454
        61 -10.1178     30.7902    193.7609   1.2985677253e+02   3.0519833321e+01    0.1777509    0.1399482 -74.42 0.0006477944    1.174    0.149
        62 -10.5111     35.7964    191.8814   1.2866213182e+02   3.0393618654e+01     0.339454    0.1594018  40.18  0.001293718    2.228    0.551
        63  -9.3592     21.7539    193.0614   1.3156601228e+02   3.1607233319e+01    0.1774329    0.1316423 -72.38  0.000420026    1.208    0.172
        64 -10.1396     19.1423    188.5596   1.3165867985e+02   3.2851715214e+01    0.3582483    0.1375305 -77.11  0.001456997    2.263    0.558
        65  -8.2355    109.2785    191.3047   1.1270739336e+02   2.0113956476e+01    0.1316534    0.1127966 -26.65 0.0002096329    1.550    0.355
        66  -9.1059    191.5393    191.5177   9.4631783185e+01   4.4499458349e+00    0.1424281    0.1382103  20.89 0.0001033747    1.004    0.003
        67 -11.7569    104.8814    229.3985   1.1908303172e+02   1.2561631871e+01    0.5368293    0.2794364  45.62  0.002639398    1.726    0.421
        68  -9.8226     70.0545    187.2825   1.2086212959e+02   2.7168563973e+01    0.3662966    0.2074389  29.23  0.001744926    2.298    0.565
        69 -12.1042     56.7227    184.4279   1.2340558428e+02   2.9603805313e+01     0.352645    0.2549401  47.73  0.001308322    1.441    0.306
        70 -13.9479      6.6051    245.2661   1.3805950870e+02   2.2402545170e+01     1.195511    0.7800514  70.63  0.008926026    1.149    0.130
        71 -13.8214     26.2991    247.8160   1.3512030077e+02   1.9775125249e+01     1.912306    0.9250064  33.48   0.01060234    2.828    0.646
        72  -9.8673     36.8187    180.3899   1.2720136110e+02   3.2872397741e+01    0.2817867    0.1485079 -63.44 0.0007064716    1.613    0.380
        73  -8.6550    110.2973    178.3020   1.1030895961e+02   2.2942132493e+01    0.1373213    0.1155531 -22.87 0.0002555951    1.580    0.367
        74  -9.5058     59.1124    177.0969   1.2191860045e+02   3.0997050682e+01    0.4308173    0.1201858  46.46  0.001533473    3.764    0.734
        75 -12.0181     11.6771    173.3313   1.3170863118e+02   3.6892901117e+01    0.5815318     0.316587 -57.79  0.003431913    1.694    0.410
        76 -11.7650     12.3630    153.4866   1.2948705284e+02   4.1254063178e+01    0.3608481    0.1793144 -68.62  0.001988932    1.541    0.351
        77 -10.7120      3.0587    172.6279   1.3339014944e+02   3.7754832394e+01    0.3113028    0.2104921  66.24  0.001119917    1.458    0.314
        78 -12.7619      8.1793    164.8887   1.3160354902e+02   3.9050615470e+01    0.7675771    0.3927309 -41.83  0.004051728    2.673    0.626
        79  -8.8412     87.9601    175.4777   1.1505810587e+02   2.7291702584e+01    0.1844012    0.1068611  64.36 0.0003708247    2.108    0.526
        80 -11.8308    248.3729    171.0941   7.9505658693e+01  -2.3193377522e+00    0.6619895    0.3744497 -47.57  0.003154324    1.758    0.431
        81 -10.8721     69.3060    172.4998   1.1894253993e+02   3.0721799693e+01    0.2493975    0.2211455 -80.16  0.000483031    1.053    0.050
        82 -11.0228     53.8515    171.4581   1.2234502463e+02   3.2969061602e+01    0.2775021    0.2630744 -73.56 0.0009425962    1.211    0.174
        83  -9.5958     18.5012    172.4813   1.3020889827e+02   3.6480938601e+01    0.1959271    0.1704016  68.23  0.001418427    1.251    0.201
        84 -11.0027     19.9323    168.3379   1.2946799124e+02   3.7280465061e+01    0.2592558    0.1788584 -58.17  0.000332135    1.386    0.278
        85 -10.5573     27.1979    171.6788   1.2827628084e+02   3.5842414310e+01      0.25851     0.216393 -37.94 0.0005839076    1.571    0.364
        86 -10.4192     39.8549    168.0014   1.2505702614e+02   3.5381401174e+01    0.2670956    0.2360022  20.32   0.00119331    1.509    0.337
        87  -9.0289     90.9738    168.4840   1.1319547609e+02   2.8473145339e+01    0.1987315    0.1085176  61.64 0.0008070792    2.347    0.574
        88 -12.1687     77.2803    164.3589   1.1579673004e+02   3.1523396525e+01    0.6080653    0.4570133 -63.89   0.00335228    1.204    0.170
        89  -9.4403     68.1741    166.2621   1.1827013670e+02   3.2346417720e+01    0.1851027    0.1404361  86.32 0.0003816646    1.319    0.242
        90 -12.1193    245.1659    162.1397   7.8245963445e+01  -1.1324697994e-01    0.6882208    0.2625692 -48.98    0.0025331    2.828    0.646
        91 -10.7775    249.5066    161.0161   7.7260601319e+01  -6.9321165075e-01    0.3291253    0.2122176 -54.22  0.001623523    1.699    0.412
        92 -11.0284    249.1905    157.4011   7.6574410664e+01   2.5390452527e-02     1.024043     0.414443  58.81   0.00321069    4.967    0.799
        93  -8.9668     37.4339    162.4724   1.2490098283e+02   3.6913699852e+01    0.1272278    0.1028792 -76.63 0.0001075152    1.013    0.012
        94  -8.6850     42.9669    161.0105   1.2343292819e+02   3.6660593496e+01    0.1521205    0.1274158 -78.93 0.0003727734    1.019    0.019
        95  -8.4184     58.7044    159.3187   1.1947067478e+02   3.5215510775e+01    0.1355542   0.09342164  79.62 0.0002755882    1.610    0.379
        96  -8.7469     64.6672    167.2690   1.1924892906e+02   3.2577670382e+01    0.1357629   0.09340668  72.90 0.0002745046    1.588    0.370
        97 -11.5441     23.3554    149.8204   1.2653680684e+02   4.1162254440e+01    0.2595373     0.230631  21.50  0.001676913    1.472    0.321
        98 -10.6282     23.8892    162.1056   1.2790718560e+02   3.8326734382e+01    0.2103167    0.1593124 -84.56  0.000389398    1.104    0.094
        99 -10.9504    249.6539    150.9686   7.5170678913e+01   1.1236929500e+00    0.3621845    0.2572221 -45.38  0.001924732    1.290    0.225
       100 -11.0825     91.9640    149.7498   1.0959068030e+02   3.2767461022e+01    0.3546714    0.3233813  87.71  0.001203633    1.079    0.073
       101 -10.5134     80.4935    148.5938   1.1228660279e+02   3.4798193635e+01    0.2491539    0.2308488 -60.35  0.000263383    1.083    0.077
       102  -9.9541     38.7632    148.7904   1.2272993786e+02   3.9935960676e+01     0.224121    0.1687097 -42.59 0.0007395894    1.467    0.318
       103 -11.4833     26.3241    155.8675   1.2660825495e+02   3.9520354998e+01    0.3680705    0.2100085  52.22  0.002055156    1.965    0.491
       104 -11.7909     68.2753    143.5918   1.1450778547e+02   3.7689811162e+01    0.6864142    0.4128927  78.13  0.002287684    2.555    0.609
       105 -12.8123      4.7431    142.7886   1.3000056766e+02   4.4194332610e+01    0.6223031    0.3247907 -61.68  0.001697441    1.475    0.322
       106 -12.9076      9.3099    142.8927   1.2895859073e+02   4.3846094791e+01    0.7966553    0.1761635 -66.55  0.003148404    3.118    0.679
       107 -12.6057    241.2249    120.5327   7.0160835555e+01   8.4341439792e+00    0.7948476    0.5808282  72.08  0.004094523    1.615    0.381
       108 -12.6819    248.5651    133.1246   7.1635328200e+01   4.6343210957e+00     1.282701    0.5475941 -35.50   0.00499944    2.472    0.595
       109  -9.3073     95.9751    145.7161   1.0778696018e+02   3.3075154002e+01    0.1943345    0.1832721  83.18  0.000374363    1.065    0.061
       110  -9.8081     44.9890    139.7734   1.1982150182e+02   4.1369562534e+01    0.2248422    0.1588177 -63.61 0.0003180657    1.186    0.157
       111  -9.9400    106.3243    135.3231   1.0295820881e+02   3.3759012395e+01    0.4114923    0.2658727 -22.75   0.00162717    2.446    0.591
       112 -13.8561      3.9721    105.4104   1.2525916688e+02   5.2333453009e+01     1.370925    0.4099225 -57.59  0.006607973    2.221    0.550
       113 -11.2616      2.8322    132.4120   1.2922817122e+02   4.6598498450e+01    0.4965636    0.2753603  88.51   0.00280587    1.950    0.487
       114 -13.6729      4.2605    121.7281   1.2751566508e+02   4.8831106264e+01    0.9817637    0.6140254 -83.18  0.006127801    1.531    0.347
       115  -8.4478     92.5163    133.4077   1.0618292748e+02   3.6526185992e+01    0.1414842    0.1330666 -54.63 0.0001684815    1.041    0.040
       116 -11.6199     17.9179    132.7751   1.2559469857e+02   4.5449456234e+01     0.270151    0.2218327  31.84  0.001106352    1.519    0.342
       117  -9.2753    236.2556    146.0103   7.6449573295e+01   4.6034520943e+00    0.2030666     0.175067 -40.77 0.0004764276    1.074    0.069
       118  -9.4841     44.3765    130.1176   1.1839041451e+02   4.3652882937e+01    0.1828874    0.1082653 -73.91 0.0005409847    1.701    0.412
       119 -12.8065     15.7348    121.3845   1.2452342203e+02   4.8133759525e+01    0.5658876    0.2014646 -63.97  0.002339143    2.126    0.530
       120 -13.0446    248.2681    101.8520   6.5096848994e+01   1.0408109574e+01     1.116985    0.5513802 -39.54    0.0049566    1.930    0.482
       121 -10.3995    232.0519    116.3317   7.0766211751e+01   1.1122016321e+01    0.2002729    0.1845593 -84.81 0.0007367757    1.090    0.083
       122 -11.9902    248.0067    142.3573   7.3659406167e+01   3.0261222573e+00    0.5722855    0.5085595  21.93  0.003362901    1.295    0.228
       123 -11.4589      1.6145     86.5078   1.2283398027e+02   5.6349817904e+01    0.3857842    0.1080338 -65.18  0.001667453    3.001    0.667
       124 -10.1097    249.5436    117.5259   6.8202758675e+01   7.3184444351e+00    0.2379126    0.2084219 -38.01 0.0007491439    1.152    0.132
       125 -12.0990    247.5219    112.9434   6.7549002379e+01   8.5592707302e+00    0.5737579    0.4487247  49.94   0.00295916    1.436    0.304
       126 -12.1822      3.6547     78.1500   1.2067007211e+02   5.7896959347e+01    0.3988921    0.2028829 -45.76  0.002464233    1.493    0.330
       127 -11.5055    171.9191    245.7881   1.0803350870e+02  -2.0466050098e+00    0.2922436    0.2281581 -31.83  0.001571304    1.534    0.348
       128 -11.9788    154.4894    247.1961   1.1165636491e+02   7.2002440725e-01    0.5268652    0.3337455 -65.55  0.002775025    2.028    0.507
