#   1 NUMBER                 Running object number                                     
#   2 MAG_AUTO               Kron-like elliptical aperture magnitude                    [mag]
#   3 X_IMAGE                Object position along x                                    [pixel]
#   4 Y_IMAGE                Object position along y                                    [pixel]
#   5 X_WORLD                Barycenter position along world x axis                     [deg]
#   6 Y_WORLD                Barycenter position along world y axis                     [deg]
#   7 A_WORLD                Profile RMS along major axis (world units)                 [deg]
#   8 B_WORLD                Profile RMS along minor axis (world units)                 [deg]
#   9 THETA_WORLD            Position angle (CCW/world-x)                               [deg]
#  10 FWHM_WORLD             FWHM assuming a gaussian core                              [deg]
#  11 ELONGATION             A_IMAGE/B_IMAGE                                           
#  12 ELLIPTICITY            1 - B_IMAGE/A_IMAGE                                       
         1  -7.6921    204.6063     21.0307   1.5272600047e+01   3.1199869614e+01    0.2598626    0.1140568 -30.30  0.001203072    2.238    0.553
         2 -10.1393    152.9789     17.4110   1.9734795019e+01   4.4073352364e+01    0.9201888     0.385563 -64.98  0.003141231    3.735    0.732
         3  -7.9240    212.7278     10.7205   1.2184875764e+01   3.0498101436e+01    0.1721082    0.1103795 -59.65  0.000636275    1.322    0.244
         4  -8.8528    133.5122     10.0560   2.0025953084e+01   4.9762769152e+01    0.1905098    0.1349228 -27.15   0.00102512    1.570    0.363
         5  -8.2066    148.4543      6.4733   1.6866077070e+01   4.6283151028e+01    0.1346361     0.115901 -87.72 8.928828e-05    1.032    0.031
         6  -7.8812    201.6421    240.3529   6.2439802632e+01  -1.7370604148e+00    0.2279546    0.1301791   0.78 0.0007031609    1.976    0.494
         7 -13.7600    243.1388    217.1033   5.1680301996e+01  -3.8712626254e+00     8.677199     1.283626 -36.64   0.02828098    6.264    0.840
         8 -14.7748    241.8934     34.5460   1.5377746783e+01   2.1767434345e+01      6.29866     2.617957 -29.72   0.03019645    2.359    0.576
         9  -7.6537    186.1688    240.7902   6.5369233520e+01   1.9441555788e-01    0.1690418    0.1162035   3.76  0.001072311    1.362    0.266
        10  -7.5859    214.8246    240.1417   6.0058330291e+01  -3.3371801235e+00    0.1609086    0.1065946   0.06  0.001067037    1.312    0.238
        11  -8.0651    198.9776    236.2493   6.2318532495e+01  -8.5984043691e-01    0.1898983    0.1470515 -17.16 0.0006635463    1.268    0.212
        12  -8.6516      1.9127    233.4633   1.0314905072e+02   2.4670865466e+01    0.2067144    0.1380419  82.45 0.0007288653    1.349    0.259
        13  -8.2855    213.8270    231.7323   5.8956867797e+01  -2.1538946511e+00    0.1958278    0.1285795 -16.95 0.0007809091    1.410    0.291
        14  -9.3055    222.8037    226.1359   5.6516242626e+01  -2.5516597634e+00    0.4365319    0.2283019   8.39  0.002312609    2.224    0.550
        15  -7.6150    225.6010    230.1325   5.6666791775e+01  -3.3962869869e+00    0.1888034    0.1151822 -12.01  0.001079139    1.520    0.342
        16  -8.2102    228.5050    227.5334   5.5766237615e+01  -3.4224424300e+00    0.2285311    0.1466921   6.99 0.0008727779    1.348    0.258
        17  -7.3766    220.2470    233.7608   5.8147863909e+01  -3.2011202334e+00    0.2623044    0.1087137 -17.29  0.001038131    4.239    0.764
        18  -7.8157    211.3892    225.7502   5.8456078167e+01  -1.0617344553e+00    0.1597269   0.09431884 -21.37  0.000793174    1.659    0.397
        19  -7.3396    100.9954    214.9884   7.9855234748e+01   1.6683429132e+01    0.1557557    0.1329534  40.34            0    1.001    0.001
        20  -9.0431    218.6101    209.4153   5.4510947148e+01   2.0996523145e-01    0.4502763    0.1034844 -38.06  0.001486763    4.240    0.764
        21  -8.1303    214.1895    208.4255   5.5124598865e+01   9.4361643741e-01    0.3719581     0.132604 -30.70  0.001576556    3.067    0.674
        22  -7.5814    197.2690    203.8788   5.7459776989e+01   3.9983208561e+00    0.1804427    0.1434185  82.86 0.0009411727    2.801    0.643
        23  -7.7320      5.3582    206.2487   1.0139935565e+02   2.9901717135e+01    0.1655051   0.09058089  80.53 0.0008083495    1.626    0.385
        24 -10.5952    230.0383     94.9117   2.9841985532e+01   1.5840296886e+01      1.09291    0.5844991  79.62  0.004421435    3.716    0.731
        25  -7.3352    138.5820    199.4649   6.8987668860e+01   1.3907687426e+01    0.1363098    0.1201551  16.51 0.0001061821    1.069    0.065
        26  -7.9677    133.1428    199.0450   7.0166953278e+01   1.4864591312e+01    0.1950222    0.1649994   4.12            0    1.245    0.197
        27  -9.1327    223.2085    197.8413   5.1720784887e+01   1.2085415870e+00    0.1689972    0.1516724  -3.75 0.0005350861    1.259    0.206
        28  -8.1676      2.2409    196.9925   1.0170737931e+02   3.2168428495e+01    0.1581347   0.08702777 -86.92 0.0008928176    1.643    0.391
        29 -11.9274    246.0548     95.4056   2.7980285745e+01   1.2863963544e+01     2.085197    0.5303479 -37.64  0.007901086    3.042    0.671
        30  -8.2610    223.7909    191.9344   5.0573463349e+01   1.9711887200e+00    0.2634701    0.1469183 -40.39  0.001265956    1.862    0.463
        31  -7.8779    198.9754    191.7540   5.5007912614e+01   5.6265440478e+00    0.2235494    0.1629046 -47.00  0.001282449    1.673    0.402
        32  -7.6237    211.4048    182.2401   5.0972484637e+01   5.2243730612e+00    0.2384458    0.1113012 -34.18  0.001128675    2.031    0.508
        33  -7.8812      6.0905    182.1814   1.0007534353e+02   3.5186464965e+01     0.256036    0.1156173  65.91  0.001084661    2.048    0.512
        34  -8.3978    221.0906    178.9369   4.8655785010e+01   4.2755683256e+00    0.3183467    0.1621222 -38.38  0.001623669    1.862    0.463
        35 -12.7308    223.6006     74.2902   2.5988787394e+01   2.0157212220e+01     3.084812      1.35625  61.47   0.01399492    2.541    0.606
        36  -7.8560    101.0630    175.8819   7.4375670581e+01   2.4962711170e+01    0.2033491    0.1744072  56.43   0.00111384    1.145    0.127
        37  -8.5032    224.1133    166.3582   4.5745396546e+01   5.7326970623e+00    0.3197843    0.1628741 -41.63  0.001587936    1.930    0.482
        38  -8.8211    221.5098    153.9780   4.3728831053e+01   8.0726770711e+00    0.4168673    0.2381616 -58.60  0.001730853    3.363    0.703
        39  -8.9535    234.3553    145.9427   4.0065340252e+01   7.2571501836e+00    0.4614978    0.1882187 -31.14  0.002023445    2.310    0.567
        40  -7.7257    192.3453    148.0897   4.7702025421e+01   1.4110050105e+01    0.1973333    0.1694827 -34.17 0.0008697759    1.128    0.113
        41 -11.6921    226.1232     46.2519   1.9286655535e+01   2.3488042645e+01     1.917589    0.3079456 -38.75  0.006467829    3.860    0.741
        42  -8.2665    225.2242    138.8074   4.0016732090e+01   9.8582079156e+00    0.2619553    0.2162668 -56.02  0.001584176    1.457    0.314
        43  -6.9480    216.6556    139.2924   4.1499572068e+01   1.1250664676e+01    0.1256646    0.1039272 -69.85 0.0007028448    1.660    0.398
        44  -7.5211    210.2441    138.8058   4.2473569431e+01   1.2463542267e+01    0.2109741    0.1564346 -49.61 0.0007027743    1.463    0.316
        45  -8.9476    222.7050    131.2810   3.8826689953e+01   1.1488637509e+01     0.454637    0.2029763 -46.28  0.001386689    2.328    0.570
        46  -8.1737     57.9070    130.7806   7.9459366618e+01   4.2553896205e+01    0.4032637     0.161379 -72.48  0.001343649    3.143    0.682
        47  -7.5342    192.5588    129.8095   4.3644179718e+01   1.7327946567e+01    0.2017248    0.1251887 -49.18 0.0009365955    1.702    0.413
        48  -7.3182     52.0479    129.9679   8.1262007792e+01   4.3528384509e+01    0.1738103    0.1537041 -75.14 0.0003389163    1.075    0.070
        49  -7.1683    167.2670    127.4092   4.8134373867e+01   2.2883455685e+01    0.1544982    0.1139217  -8.25 0.0005296979    1.757    0.431
        50  -8.5082    225.5881    123.8933   3.6804376562e+01   1.2157244531e+01    0.3183168    0.1798767 -50.64  0.001536526    1.972    0.493
        51  -7.5236    200.7222    124.9987   4.1083693188e+01   1.6585559061e+01    0.1956549    0.1670324 -34.56 0.0007303237    1.079    0.073
        52  -7.6678    214.2960    123.7412   3.8526011347e+01   1.4226496138e+01    0.2531873    0.1423726 -44.17  0.001215865    1.684    0.406
        53  -9.0950    219.3013    117.6013   3.6386830336e+01   1.4300037830e+01    0.6184881    0.2840659 -50.02  0.002569138    2.516    0.603
        54  -7.7897    169.1044    116.8789   4.5209507806e+01   2.4534021110e+01    0.2388835    0.1743495  83.29  0.001060901    2.016    0.504
        55  -7.4963    200.3601    116.1758   3.9127937326e+01   1.8177638509e+01    0.2041911    0.1176864 -45.68 0.0009381907    1.682    0.406
        56  -7.9322    152.9672    115.4646   4.8389163321e+01   2.8303733046e+01    0.2141832    0.1355495  72.16 0.0007574896    2.515    0.602
        57  -7.2945    180.4653    249.7693   6.7698139267e+01  -2.7348899446e-01    0.1459475   0.09764429 -17.02 0.0005808328    1.594    0.373
        58  -8.1147    182.1233    109.4377   4.0797993533e+01   2.3133331709e+01     0.433948    0.2611562  81.31  0.001539127    3.521    0.716
        59  -7.6603    190.4992    109.0477   3.9167291907e+01   2.1431131474e+01    0.2193366    0.1321325 -40.33  0.001012875    1.547    0.354
        60  -8.1948    204.8482    105.9597   3.6004257474e+01   1.9007203093e+01    0.3895459    0.2304222 -68.51  0.001548098    2.994    0.666
        61  -7.8568    212.1500    106.0668   3.4884214582e+01   1.7534693026e+01    0.2467645    0.1757462 -82.14  0.001217939    2.074    0.518
        62  -7.9450     41.9865    103.5454   8.0007380922e+01   5.1536318885e+01    0.3552451    0.2021796  -1.90  0.001416607    2.759    0.637
        63  -7.6221    174.3813    102.9883   4.0671716428e+01   2.5989955182e+01    0.2108064    0.1872593 -43.33 0.0007963196    1.082    0.076
        64  -7.9857    158.1469    103.1770   4.4064662278e+01   2.9583656038e+01    0.2112387    0.1787739 -70.66 0.0006521901    1.322    0.244
        65  -8.5526    181.9208    101.6707   3.8910003675e+01   2.4571298770e+01    0.3812103    0.2565482  80.97  0.001670671    2.189    0.543
        66  -7.8583    149.2985    101.1867   4.5514635819e+01   3.1976438507e+01    0.3431284    0.1810898 -51.72  0.001323461    2.105    0.525
        67  -7.2130    137.6951    101.6432   4.8413587933e+01   3.4515340611e+01    0.1592268    0.1242289   0.85 0.0001770294    1.719    0.418
        68  -7.7240    202.5529     94.5754   3.3664711447e+01   2.1361527459e+01    0.3272149      0.18355 -28.11  0.001433748    1.906    0.475
        69  -8.9630    209.8855     99.0562   3.3604050878e+01   1.9123980227e+01    0.3267759    0.2459678 -55.44  0.001114244    1.359    0.264
        70  -7.7296    205.3285     98.8271   3.4248188053e+01   2.0089107754e+01     0.349831    0.2123273 -56.28   0.00150008    1.884    0.469
        71  -7.8667    167.3917    100.2306   4.1351478151e+01   2.8057628447e+01     0.197851    0.1891917  22.79 0.0006785147    1.108    0.097
        72  -7.4014     83.8052    250.4136   8.7280443019e+01   1.2481719419e+01    0.1564984   0.09787215  25.68 0.0003770935    1.535    0.349
        73  -9.0853    164.5933     94.7492   4.0475849561e+01   2.9706876866e+01    0.3823104    0.2454952 -50.11  0.001007667    1.598    0.374
        74  -9.0675    169.7601     92.0491   3.8730956392e+01   2.9013833453e+01    0.7084868    0.3227215 -56.88  0.002292768    3.449    0.710
        75  -7.2886    154.7894     95.6069   4.2774311571e+01   3.1800752663e+01    0.2078568    0.1452004  64.24 0.0007391043    1.601    0.375
        76  -8.6760    209.8599     92.7956   3.2136867965e+01   2.0134886091e+01    0.4045227    0.2429152 -58.59  0.001671378    1.966    0.491
        77  -8.6273    207.4521     86.9204   3.1090104938e+01   2.1566135759e+01    0.3257753    0.2144454 -59.44  0.001092891    1.674    0.403
        78  -9.0498    188.1796     93.0826   3.5640989440e+01   2.4695773107e+01    0.2743655    0.2529982  63.31 0.0008802387    1.146    0.127
        79  -8.9535    176.8479     93.1868   3.7684612762e+01   2.7200581374e+01    0.3622089    0.2088429 -40.69  0.001399857    1.648    0.393
        80  -8.9519    182.8739     91.7520   3.6224836007e+01   2.6098449283e+01    0.3225521    0.1911161 -44.73  0.001463727    1.610    0.379
        81  -8.6750    152.0213     89.4498   4.1683984513e+01   3.3607152979e+01    0.4221055    0.2794522 -83.84  0.001660013    2.455    0.593
        82  -7.3316    142.5743     90.7990   4.4211610141e+01   3.5559783950e+01     0.212972    0.1431633 -51.42 0.0004596474    1.559    0.358
        83  -7.6888    127.8451     90.6954   4.7842959952e+01   3.8990753367e+01    0.2133958    0.1389623  57.37            0    1.634    0.388
        84  -9.9247    176.5282     83.5996   3.5226317068e+01   2.8934866473e+01    0.5887304    0.4566745 -13.23  0.002942384    1.588    0.370
        85  -8.8594    181.1750     80.6120   3.3626999500e+01   2.8367737502e+01     0.355925    0.2883364  78.05  0.001890265    1.333    0.250
        86  -7.4620    183.1488     75.8319   3.2039017072e+01   2.8695915135e+01    0.3300585    0.2633441 -33.03  0.001761652    1.259    0.206
        87  -7.8210    179.5199     74.4192   3.2262646910e+01   2.9765327971e+01    0.2524268    0.1822788  63.74 0.0008153513    1.432    0.302
        88  -9.3421    198.8138     85.6003   3.2054546310e+01   2.3615899090e+01    0.6055023    0.3088497  72.28  0.002241125    2.874    0.652
        89  -9.1391    175.8572     76.5105   3.3447182093e+01   3.0278967676e+01    0.3216824    0.2857156 -42.22  0.001079048    1.099    0.090
        90  -8.0647    161.9722     86.0271   3.8643649962e+01   3.1899827002e+01    0.2391707    0.1854926  17.57  0.001129633    1.701    0.412
        91  -8.1118    186.3279     83.5570   3.3528437435e+01   2.6707864848e+01    0.2542059    0.1428791  63.97  0.001111191    1.994    0.498
        92  -9.2528    168.0313     82.3132   3.6442118831e+01   3.1132353673e+01    0.4142537    0.2933955  85.77  0.001901074    1.808    0.447
        93  -7.8806    166.8194     77.6270   3.5380928315e+01   3.2222384729e+01     0.327758    0.1781937 -20.75  0.001215203    2.739    0.635
        94  -9.0861    188.9726     77.9179   3.1647218304e+01   2.7030227939e+01    0.3827148      0.29929  37.10  0.002021102    1.517    0.341
        95  -8.7125    157.6528     75.6648   3.6598563692e+01   3.4749310747e+01     0.347428    0.2349696 -51.21  0.001233358    1.518    0.341
        96  -7.7448    149.5356     76.9829   3.8657338450e+01   3.6474399994e+01    0.2310272    0.1479529 -37.20 0.0009943226    1.577    0.366
        97  -7.2962     89.4631     74.0387   5.4132833904e+01   5.0857320655e+01    0.2092943    0.1307915 -20.34  0.000807128    2.382    0.580
        98  -7.8226    170.4446     71.2680   3.2958956151e+01   3.2417546462e+01     0.264759    0.1430308 -31.77 0.0009761009    1.939    0.484
        99  -7.7230    182.8324     68.9194   3.0257427030e+01   2.9867064001e+01    0.2146377    0.1931616  11.21  0.001203381    1.349    0.259
       100  -8.5401    145.4396     67.5692   3.6721230283e+01   3.9103252930e+01     0.349408    0.2183751 -35.84  0.001075795    1.637    0.389
       101  -9.0841    164.1102     65.2358   3.2383289854e+01   3.4915741778e+01    0.5702657    0.1874158 -36.49  0.001941571    2.908    0.656
       102  -7.9951    171.7747     64.4069   3.0820910992e+01   3.3192312881e+01    0.4457499    0.1332151 -39.13   0.00148978    3.030    0.670
       103 -11.3759    240.5485    127.8446   3.5470662939e+01   9.0006322082e+00     1.352664      0.37264 -44.07  0.002784193    3.726    0.732
       104  -7.5402    158.2381     61.9519   3.2497545805e+01   3.6873433380e+01    0.1942103    0.1208177 -37.24 0.0006313281    1.601    0.376
       105  -7.4839    178.3486     59.7699   2.8483169146e+01   3.2324650000e+01    0.1921065    0.1330312 -24.44 0.0007887356    1.636    0.389
       106  -8.3769    132.2668     59.1075   3.6960085310e+01   4.3761730669e+01     0.286287    0.1749904 -38.62  0.001024021    1.668    0.401
       107  -7.5297    163.8088     59.1838   3.0691376208e+01   3.5935415502e+01    0.1904625    0.1725446  25.95 0.0006660707    1.292    0.226
       108  -8.6659    191.0503     56.3355   2.5731535001e+01   2.9835774151e+01    0.3952264    0.2788649  10.20  0.001859241    2.315    0.568
       109  -8.3249    138.3478     56.8490   3.4883262654e+01   4.2617298512e+01    0.2176394    0.1912756  85.62  0.001154959    1.156    0.135
       110  -7.9017    147.9103     56.1127   3.2695284607e+01   4.0347103638e+01    0.2357492    0.1797631  23.79  0.001131391    1.700    0.412
       111  -8.5575    148.8198     51.2894   3.1022165713e+01   4.0850168153e+01    0.2681031    0.1838333 -17.53  0.001240115    1.830    0.454
       112  -7.9320    178.8439     49.7341   2.5652176420e+01   3.3657622330e+01    0.2994261    0.1825497 -22.17  0.001096472    1.980    0.495
       113  -7.3155    161.6797     51.2917   2.8743951243e+01   3.7638267933e+01    0.1495985    0.1046899 -70.80 0.0003196663    1.606    0.377
       114  -7.7110    172.2940     49.9948   2.6683697643e+01   3.5209795719e+01    0.1889182    0.1682397 -56.97  0.001077149    1.073    0.068
       115  -7.1734    114.0000     50.0207   3.8307628568e+01   4.9711973331e+01    0.2241053   0.08516382 -34.54 0.0003408304    2.765    0.638
       116  -7.3392    119.3230     49.3422   3.6721346863e+01   4.8517146475e+01    0.1545812    0.1127269  23.53 0.0002472428    1.728    0.421
       117  -7.5296    196.6670     45.1591   2.2127795800e+01   3.0076432708e+01    0.1853968    0.1232869 -22.88 0.0007298777    1.743    0.426
       118  -7.5742    192.3534     45.1310   2.2637396365e+01   3.1079994975e+01    0.2073156     0.102186 -44.79 0.0007318206    1.848    0.459
       119  -6.9486    210.3118    242.6673   6.1226726229e+01  -3.1031069663e+00   0.09734289   0.08609455  35.94 0.0007044051    1.677    0.404
       120  -8.2528    150.2784     43.5816   2.8350087513e+01   4.1587374363e+01    0.3780161    0.1414798 -24.37  0.001232148    3.661    0.727
       121  -7.7101    201.0724     41.7041   2.0749388927e+01   2.9519411967e+01    0.2433873     0.151912 -45.67  0.000930339    1.432    0.302
       122  -8.9551    208.1385     37.0304   1.8853508832e+01   2.8520295455e+01     0.425648    0.1502587 -38.76  0.001523241    2.354    0.575
       123  -7.5715    192.4644     38.4935   2.0893922871e+01   3.1917410854e+01     0.239443   0.09820786 -43.22  0.001012463    2.170    0.539
       124  -6.7753    188.3071     39.6624   2.1688693311e+01   3.2746510001e+01    0.1470215   0.09007276 -62.69 0.0007041971    1.678    0.404
       125  -6.8137    173.6443     39.6827   2.3571050336e+01   3.6279182082e+01    0.1412573    0.1034412  35.59 0.0007045532    1.749    0.428
       126  -8.2935    201.5339     34.7466   1.8954735605e+01   3.0290688558e+01    0.3443766    0.1503174 -48.26  0.001379701    2.076    0.518
       127  -6.7836    173.6889     34.2847   2.2038394389e+01   3.6955131541e+01    0.1431555   0.09441313 -67.46 0.0001742283    1.573    0.364
       128  -8.1828    202.3543     27.7944   1.7140807706e+01   3.0938301525e+01    0.3310162    0.0944228 -41.60  0.001291651    2.795    0.642
       129  -7.8197    209.4077     24.1970   1.5629993290e+01   2.9767162592e+01     0.220041    0.1306482 -44.16  0.000881595    1.464    0.317
       130  -8.2012    132.1598     24.8913   2.5389486492e+01   4.8571311934e+01    0.1950719     0.162232  34.01  0.001075706    1.343    0.255
       131 -11.1046    241.3410    111.8556   3.2032691562e+01   1.1264759487e+01      1.17917    0.4730677 -34.32  0.005301157    2.135    0.532
       132  -9.1369    136.1868     19.4973   2.2852826756e+01   4.8137293539e+01     0.309034    0.1629708 -30.23  0.001418236    2.007    0.502
       133  -7.3800     17.5027     20.5166   6.6413174331e+01   7.2765378914e+01    0.1234002    0.1043003 -14.11 3.928598e-05    1.035    0.034
       134  -7.4988    193.1192    248.8198   6.5211329695e+01  -1.7560900672e+00    0.1598474    0.1088474   3.20 0.0007661637    1.323    0.244
       135  -7.8027     14.9784     17.9692   6.6856179351e+01   7.3482975244e+01    0.1451439    0.1189249 -16.03            0    1.006    0.006
       136  -7.1893    168.7002     16.7226   1.7628627074e+01   4.0200962554e+01    0.1278788   0.09631136  45.82 0.0005940337    1.538    0.350
       137  -7.6084    195.9612    244.0157   6.4009033008e+01  -1.4946327306e+00    0.1905143    0.1148499   2.44  0.001123987    1.729    0.422
       138  -7.4363    190.5289    244.5158   6.5083635843e+01  -8.6927402000e-01     0.119152   0.08896648  10.93 0.0008090361    1.060    0.057
       139  -8.7904    223.0292    241.3041   5.8814354982e+01  -4.4535885428e+00    0.3717965    0.1751169 -23.00  0.002087778    2.202    0.546
