#   1 NUMBER                 Running object number                                     
#   2 MAG_AUTO               Kron-like elliptical aperture magnitude                    [mag]
#   3 X_IMAGE                Object position along x                                    [pixel]
#   4 Y_IMAGE                Object position along y                                    [pixel]
#   5 X_WORLD                Barycenter position along world x axis                     [deg]
#   6 Y_WORLD                Barycenter position along world y axis                     [deg]
#   7 A_WORLD                Profile RMS along major axis (world units)                 [deg]
#   8 B_WORLD                Profile RMS along minor axis (world units)                 [deg]
#   9 THETA_WORLD            Position angle (CCW/world-x)                               [deg]
#  10 FWHM_WORLD             FWHM assuming a gaussian core                              [deg]
#  11 ELONGATION             A_IMAGE/B_IMAGE                                           
#  12 ELLIPTICITY            1 - B_IMAGE/A_IMAGE                                       
         1 -14.7334     68.4960    144.1806   1.0775075740e+02   3.7295189376e+01     4.968137      2.58152  70.08  0.003571351    3.159    0.683
         2 -14.3414    197.8713     37.1721   4.8171736141e+01   3.1033354260e+01     1.706651     1.392377  11.26  0.005204312    1.568    0.362
         3 -14.5752    208.7231     25.5520   4.3697782523e+01   2.9802707293e+01     1.704397     1.247203  13.43  0.002684592    1.982    0.496
         4 -10.5854     61.1228      7.8235   6.8207034214e+01   6.6058846610e+01     0.176827    0.1611746   4.57 0.0005838121    1.254    0.202
         5 -10.1476     41.3341      7.3298   7.6118272952e+01   6.9199522732e+01    0.1280379    0.0770663   2.60 0.0007052062    1.725    0.420
         6 -12.4382    232.7990      2.5394   3.5835393375e+01   2.6672717226e+01    0.7413983    0.2877527  75.25  0.003349893    2.428    0.588
         7 -11.2481     52.7564      3.0075   6.8991273680e+01   6.7977457330e+01    0.2006478    0.1952582  71.16  0.001426035    1.650    0.394
         8  -8.6680    139.6765      1.2649   4.5682811798e+01   4.9589466924e+01    0.1302076   0.09734266 -73.81 0.0003803563    1.562    0.360
         9 -11.7683     74.0487    188.6106   1.1267293783e+02   2.6222539683e+01    0.4657442    0.2420456  68.38  0.002084235    2.377    0.579
        10 -10.5732    140.0881    249.6774   1.0665353315e+02   4.6454669727e+00    0.2317647    0.1805245  57.24  0.001563604    1.247    0.198
        11 -13.0257     72.0511    174.5486   1.1134949113e+02   2.9648340289e+01     1.057192    0.5479735 -33.25  0.002930206    5.075    0.803
        12 -14.7887     85.4706    229.6909   1.1479650302e+02   1.6270877366e+01     1.756076     1.270408  83.70  0.005072183    1.367    0.268
        13 -14.5484     47.8322    222.7877   1.2131087666e+02   2.2542546885e+01     1.393475    0.7537911  89.80   0.00272979    1.792    0.442
        14 -16.4857     50.0216    198.8155   1.1887904184e+02   2.7149316876e+01     15.68757     6.089078 -85.59   0.01993056    3.442    0.709
        15 -13.8740     16.9121    194.3996   1.2516611916e+02   3.1661277831e+01    0.7845785    0.2914125 -65.91  0.003712714    2.398    0.583
        16 -14.9188     29.7813    248.5027   1.2610221115e+02   1.9876902778e+01    0.7929713    0.5459926  29.38  0.005606663    2.036    0.509
        17 -11.2784    140.4679    174.1409   9.5275676952e+01   1.8334791480e+01    0.5125345    0.2706598  60.45  0.001916018    2.764    0.638
        18 -16.2584     60.1130    247.4819   1.2093103016e+02   1.6466283240e+01     8.895744     2.860782  29.75  0.009250253    9.721    0.897
        19 -13.0319     83.0609    162.4299   1.0696153240e+02   3.0859983175e+01      1.36264    0.4853791  54.33 0.0003812562    4.185    0.761
        20 -13.8302     71.2917    157.6098   1.0914390577e+02   3.3697406001e+01    0.5784099    0.5577812 -26.92  0.002729818    1.282    0.220
        21 -17.0837      8.2718    244.5582   1.2936187342e+02   2.2812662306e+01     1.717954     1.635313  72.30   0.01168253    1.645    0.392
        22 -12.1365     89.7016    155.3329   1.0413941288e+02   3.1505171445e+01     0.597472    0.4366371 -26.30  0.002907916    1.962    0.490
        23  -9.3812     94.9339    187.6505   1.0789031326e+02   2.3335573102e+01    0.1846332    0.1512403  55.89 0.0004080368    1.119    0.106
        24 -11.2978    133.5594    144.1104   9.0841053391e+01   2.6229162617e+01     1.193311    0.2962981 -54.13  0.002797528    5.817    0.828
        25 -10.9517    174.3306    148.8920   8.2370099845e+01   1.6760406339e+01    0.3769028    0.3127682 -50.22  0.001427303    1.273    0.214
        26 -10.3424     41.1537    147.1531   1.1529266546e+02   3.9889411282e+01    0.2751224    0.2097816 -78.27  0.001085959    1.106    0.096
        27 -11.3791     44.3030    144.3626   1.1411709198e+02   4.0216693645e+01    0.4247808     0.221073  50.91  0.001208827    2.062    0.515
        28 -10.9237    103.3305    140.2685   9.7773779232e+01   3.2806904014e+01    0.5293216    0.3399543 -26.42  0.002178846    2.389    0.581
        29 -12.3986     90.6816    140.3385   1.0115085828e+02   3.4919640884e+01    0.2864729    0.2559321 -51.14 0.0003518181    1.140    0.122
        30 -10.6084     84.8616    144.1484   1.0341434213e+02   3.4924780227e+01    0.2991368    0.2216209  75.23   0.00075504    1.521    0.343
        31  -9.0758    154.3098    185.6538   9.4301100894e+01   1.3398466475e+01    0.1426319    0.1107013  78.12 0.0007044962    1.705    0.414
        32 -12.3327     45.4307    129.8447   1.1170281855e+02   4.3594123508e+01    0.3601256    0.3303337  63.51  0.002320662    1.189    0.159
        33 -10.7506    146.8467    183.6264   9.5575383348e+01   1.5192805416e+01    0.2838818    0.2096052  65.89  0.001418396    1.611    0.379
        34 -11.6300    136.0144    128.8699   8.6710795197e+01   2.9153519553e+01    0.9317648    0.2185716 -50.74  0.002251967    5.084    0.803
        35 -10.4628    106.0592    130.4688   9.4951024070e+01   3.4640986433e+01    0.4009068     0.294404 -59.86  0.001939027    1.344    0.256
        36  -9.9058    113.2405    207.8506   1.0667621575e+02   1.6226814225e+01    0.1976144    0.1589678  69.60 0.0006595249    1.214    0.177
        37 -10.3673    112.1063    130.5977   9.3351348699e+01   3.3498236199e+01    0.3307998    0.2680908   5.36  0.000838468    1.595    0.373
        38 -10.4754    160.3907    127.7139   8.0499091670e+01   2.4152871239e+01    0.3448672    0.2690002 -85.33  0.001545112    1.752    0.429
        39 -11.0570     99.3773    126.6855   9.5939281920e+01   3.6725638305e+01    0.2840848    0.2448172 -10.71  0.000417555    1.409    0.290
        40  -8.9532     95.4090    127.4357   9.7206362129e+01   3.7229740424e+01    0.1473001    0.1363452 -73.41 0.0001111607    1.040    0.039
        41 -11.4303    119.3892    123.2383   8.9673928747e+01   3.3810503711e+01    0.6724771    0.4115223 -16.08  0.002266152    3.383    0.704
        42  -9.7849    159.9801    163.7226   8.8788238958e+01   1.6695330213e+01    0.2561616    0.1645292 -83.98 0.0008923689    3.453    0.710
        43  -9.9760    108.1860    119.2490   9.1762878064e+01   3.6888485452e+01    0.2105843    0.1989984 -23.70 0.0004076279    1.117    0.105
        44  -9.8617    168.2269    113.1246   7.4962387099e+01   2.5407429592e+01    0.3550738    0.2393734 -72.15  0.001165969    2.309    0.567
        45 -12.6400     43.6943    109.1691   1.0867682789e+02   4.8776146930e+01    0.4606412     0.440502 -88.45  0.001931009    1.146    0.127
        46 -10.6441    134.6500    112.0878   8.2808656509e+01   3.3174428007e+01    0.3696757    0.1457231 -44.89  0.001238094    2.484    0.597
        47 -12.1079    117.8324    108.7698   8.6426945327e+01   3.7424406468e+01    0.7989121    0.5656027 -67.96  0.003519315    1.746    0.427
        48 -11.5523     32.9190    108.5229   1.1186730748e+02   4.9979933177e+01    0.4240825    0.2109763 -69.52  0.002010481    1.759    0.432
        49 -10.1595    134.5226    104.5700   8.0807397026e+01   3.4839821426e+01    0.5346283    0.1526649 -43.74  0.001528786    3.424    0.708
        50 -11.2646    241.2880    100.0967   5.8120705901e+01   1.1330230618e+01    0.4157568    0.1081224 -36.50  0.001044691    3.269    0.694
        51 -10.1180    205.3202    110.2580   6.6612034785e+01   1.7418557536e+01    0.3409196    0.2260229  36.21  0.001016224    1.702    0.413
        52 -10.5233     33.4342    100.0313   1.1018602466e+02   5.1954590332e+01    0.2291948    0.1735381  52.55  0.001359429    1.566    0.362
        53 -11.7876     53.1832     93.7404   1.0240152230e+02   5.1390091752e+01    0.6191438    0.3718837 -70.35  0.002957281    1.822    0.451
        54  -9.1607    108.4085     93.2081   8.4797700523e+01   4.2762920428e+01    0.2049656    0.1415955 -55.96 0.0003901031    1.542    0.351
        55 -10.8435     41.9565     91.3086   1.0560448324e+02   5.3190494283e+01    0.3265981    0.1769718 -43.74  0.001047124    1.707    0.414
        56 -10.3503     99.4783    180.7686   1.0585986378e+02   2.4119331832e+01     0.246941    0.2232953  70.63 0.0005360472    1.012    0.012
        57  -9.9364    157.6880     81.0276   6.8316098211e+01   3.4209323275e+01    0.2255028    0.2007916 -33.81 0.0005401174    1.115    0.103
        58  -9.0802    184.3726     77.2780   6.1696288608e+01   2.8312717459e+01    0.1586949    0.1176623  24.75 0.0007008574    1.693    0.409
        59  -9.4845     57.9542     67.4501   9.3620670241e+01   5.6672686174e+01    0.1914372    0.1327763  31.58  0.001025417    1.602    0.376
        60 -11.4082     13.1146     59.4841   1.0882095108e+02   6.2678435550e+01    0.3389767    0.2492534  68.71  0.001136031    1.989    0.497
        61 -11.5887     11.6778     52.9004   1.0775019678e+02   6.4158938833e+01    0.2960824    0.1498801 -26.70   0.00157689    2.114    0.527
        62  -8.9598    182.4982    241.4679   9.7656329025e+01  -8.3242940028e-01    0.1230653    0.0988113  30.49   0.00017912    1.016    0.016
        63 -10.5332    172.3166    239.5745   9.9293521364e+01   1.0584581935e+00    0.2703101    0.2015546 -63.03  0.001655225    1.953    0.488
        64  -9.8693    107.8119    203.7945   1.0728064751e+02   1.7910570123e+01    0.1838342    0.1391784  70.80  0.000584721    1.332    0.249
        65 -10.8841    149.4595     45.4213   5.8885348525e+01   4.2175365985e+01     0.301032    0.2484477 -80.71 0.0006224822    1.424    0.298
        66 -13.6517    188.3147     44.3622   5.1580798616e+01   3.2468555246e+01     1.276379    0.7990694  35.33  0.001043931    2.038    0.509
        67 -11.5187     21.7785     33.8474   9.7286198168e+01   6.7204915024e+01    0.3152752    0.1613778  26.92  0.001755614    2.218    0.549
        68 -11.6600    148.0021     51.9912   6.1359309026e+01   4.1558088530e+01    0.5869539    0.3739024 -80.04  0.001023886    2.708    0.631
        69  -9.6130    189.8032     15.0796   4.3076396726e+01   3.5681101871e+01    0.2132268     0.169618 -66.91 0.0006440065    1.233    0.189
        70 -16.8346      6.3659    211.1044   1.2811556346e+02   2.9243775277e+01     5.565467    0.7528456 -68.98   0.02131089    4.896    0.796
        71  -9.6264    111.8124    217.6085   1.0823752354e+02   1.4575218334e+01    0.1818509    0.1720778 -66.98 0.0005163373    1.240    0.194
        72 -11.3303    208.5223    197.1143   8.5299502349e+01   1.4486170871e+00    0.2627396    0.2345037 -12.34 0.0006978203    1.138    0.122
        73  -9.8513     82.1865    194.9244   1.1165759989e+02   2.3693133637e+01    0.2403839    0.1726759  46.53  0.001389147    1.302    0.232
