#   1 NUMBER                 Running object number                                     
#   2 MAG_AUTO               Kron-like elliptical aperture magnitude                    [mag]
#   3 X_IMAGE                Object position along x                                    [pixel]
#   4 Y_IMAGE                Object position along y                                    [pixel]
#   5 X_WORLD                Barycenter position along world x axis                     [deg]
#   6 Y_WORLD                Barycenter position along world y axis                     [deg]
#   7 A_WORLD                Profile RMS along major axis (world units)                 [deg]
#   8 B_WORLD                Profile RMS along minor axis (world units)                 [deg]
#   9 THETA_WORLD            Position angle (CCW/world-x)                               [deg]
#  10 FWHM_WORLD             FWHM assuming a gaussian core                              [deg]
#  11 ELONGATION             A_IMAGE/B_IMAGE                                           
#  12 ELLIPTICITY            1 - B_IMAGE/A_IMAGE                                       
         1 -13.7539    245.6083     55.3559   6.6155144966e+01   1.7449041031e+01      3.49875     1.057696 -43.91   0.01341634    2.836    0.647
         2 -12.6921    240.7674     20.4423   5.9373072080e+01   2.3262867918e+01     1.169414    0.8310323 -65.71  0.007221477    1.207    0.172
         3 -11.9691    238.9551      9.6509   5.7358745447e+01   2.4941443645e+01    0.8578651    0.5775204 -29.94  0.005132308    1.881    0.468
         4 -12.4779      9.1823     17.7184   1.1588269743e+02   6.9817636521e+01    0.5776736    0.3951758 -28.23  0.004305395    1.117    0.104
         5 -10.8177    227.4696      8.8781   5.8204252887e+01   2.7618284430e+01    0.4064746     0.268428 -14.42  0.002200062    2.492    0.599
         6 -10.4844      2.7586     16.0105   1.1836068621e+02   7.0498881716e+01    0.2192951    0.1673063  -9.26 0.0007777713    1.190    0.159
         7  -9.0710    117.5923      9.2611   7.3916538476e+01   5.3822383785e+01    0.2064678    0.1217126 -26.62 0.0006741795    1.948    0.487
         8 -11.9363      4.1534     22.1209   1.1991881360e+02   6.9479607683e+01    0.5245506    0.2222531 -49.32  0.003054304    2.060    0.515
         9  -8.5243    160.5228      8.9868   6.6053786724e+01   4.3716613963e+01    0.1722585    0.1347047 -20.58 0.0006705611    1.575    0.365
        10 -10.2609    110.9526      5.1668   7.3968731551e+01   5.5634779371e+01    0.2034844    0.1741926  12.36            0    1.232    0.188
        11  -8.2001     64.6121      4.8245   8.6783562711e+01   6.4679459700e+01    0.1418021    0.1017524 -27.05 0.0003399167    1.594    0.373
        12  -9.5894     50.9171      3.7816   9.1305112957e+01   6.6937905785e+01    0.1776763    0.1313989   1.84 0.0002950181    1.127    0.113
        13  -8.3440    153.2800      3.6283   6.5639811827e+01   4.5951806339e+01    0.1293039   0.09012955 -68.96 0.0007011666    1.696    0.410
        14  -8.2275    158.6987      2.3328   6.4475519434e+01   4.4752217222e+01    0.1296603   0.08946447 -72.95 0.0006976904    1.654    0.395
        15  -9.0636    136.8444     24.9330   7.4976865408e+01   4.7841075616e+01     0.202602    0.1624719  35.30 0.0002451033    1.231    0.188
        16  -9.2982    168.0522    249.9589   1.2110240433e+02  -1.6894541866e+00    0.1958226    0.1588813  36.09 0.0003348234    1.033    0.032
        17  -9.8542    246.7448    226.7563   1.0194308180e+02  -1.1220734324e+01    0.2592601    0.1905161  61.08  0.001394801    2.539    0.606
        18  -9.4999    247.7473    217.9543   1.0014411305e+02  -1.0120015589e+01    0.3316893    0.2621838 -58.36  0.001926527    2.080    0.519
        19  -8.4597    240.2876    216.2449   1.0120226190e+02  -8.6990463576e+00    0.1732909    0.1534238  81.70  0.001037829    1.911    0.477
        20  -9.5834    217.7352    213.8352   1.0508136222e+02  -4.5528403990e+00    0.3711894    0.2471513  44.21  0.001250166    1.533    0.348
        21  -8.7355    212.6443    212.3179   1.0580942178e+02  -3.4071473050e+00    0.2618413    0.1749088 -51.34  0.001321992    1.921    0.480
        22  -8.5472    233.7870    214.5964   1.0211639841e+02  -7.3954182628e+00    0.1766485     0.116692  44.56 0.0009432199    1.654    0.395
        23 -10.3772    247.6830    207.9237   9.8266087825e+01  -8.6237879704e+00    0.4682022    0.3645199 -59.72  0.002635094    2.067    0.516
        24  -9.2542    241.9003    210.1254   9.9749637709e+01  -8.0332235336e+00    0.3008351    0.2414326  52.95  0.001772761    1.689    0.408
        25  -8.2008    229.6804    208.3360   1.0171631878e+02  -5.7265745633e+00     0.121941    0.1097608  87.70 0.0007049488    1.704    0.413
        26 -10.0539    250.1274    200.7538   9.6441746571e+01  -7.9174672827e+00     0.366758    0.1749782 -36.00  0.001058842    1.996    0.499
        27  -8.7775    242.8570    201.0657   9.7830139568e+01  -6.7833083959e+00    0.3460017     0.220697 -48.34  0.001773809    1.960    0.490
        28  -8.2044    228.3247    202.6662   1.0088602569e+02  -4.5749545297e+00    0.1251533    0.1111876  89.15 0.0007051033    1.711    0.416
        29  -8.6231    237.8570    199.3037   9.8416783721e+01  -5.6656434226e+00    0.2005188    0.1707636  54.68  0.001177913    1.539    0.350
        30  -9.6539    247.2756    194.5245   9.5738570916e+01  -6.4766843849e+00    0.3287397    0.2526161  62.89  0.001574675    2.030    0.507
        31  -9.4548    249.4048    186.2822   9.3714060955e+01  -5.5050669904e+00    0.3279972    0.2477268 -56.87  0.001264254    1.834    0.455
        32  -9.7607    244.2369    188.6325   9.5120039556e+01  -5.0146958576e+00    0.3356881    0.2932414  60.26  0.001189415    1.548    0.354
        33 -10.8247    241.9404    181.3105   9.4058957479e+01  -3.3993260115e+00    0.7286903    0.4211631 -58.14  0.002997562    3.016    0.668
        34  -9.0760    224.9076    193.9424   9.9833209016e+01  -2.5065929245e+00    0.2065255     0.178748  87.53   0.00113624    1.734    0.423
        35  -8.3364      1.3435    194.6934   1.4865569153e+02   3.3668653882e+01    0.1207817   0.06322467  68.72 0.0007042662    1.691    0.409
        36  -8.1073    185.2917    193.3613   1.0786817536e+02   5.1641505801e+00    0.1504316    0.1126886  -0.92 0.0007028268    1.698    0.411
        37  -9.9479    230.6942    188.5100   9.7626503999e+01  -2.6208995391e+00    0.3001094    0.2370862 -58.74  0.001611267    1.698    0.411
        38  -9.0341    211.0570    189.4118   1.0167920773e+02   8.6828674576e-01    0.2752276    0.1781205  53.93  0.001130276    1.839    0.456
        39  -8.8579    220.6337    188.3504   9.9548032850e+01  -7.4996078662e-01    0.2018409    0.1749089 -88.71  0.001092635    1.667    0.400
        40  -9.5348    215.6637    187.9759   1.0046001038e+02   2.5069024458e-01    0.1994943    0.1832317 -14.87 0.0009598636    1.072    0.068
        41 -10.0902    190.8327    185.9887   1.0520913856e+02   5.4868071640e+00    0.4574511    0.1698468  45.52  0.001600269    2.631    0.620
        42  -8.5331    224.6678    185.3094   9.8139059217e+01  -9.6426645903e-01    0.1324856    0.1148062 -89.53 0.0004890062    1.670    0.401
        43  -9.3502    184.1912    184.1320   1.0627063957e+02   7.1981580470e+00    0.3382328    0.2421376 -84.97  0.001430337    2.375    0.579
        44  -8.4142    218.4053    184.2041   9.9144093448e+01   4.0847592444e-01    0.1934583    0.1319295 -49.52  0.000935285    1.675    0.403
        45  -9.5435    211.5957    183.6586   1.0039833598e+02   1.8155721723e+00    0.3247623    0.2490898  59.03  0.001339827    1.599    0.375
        46  -9.3017    235.7201    181.8706   9.5324943542e+01  -2.3876940181e+00    0.3143361    0.2171196  72.81  0.001369028    2.872    0.652
        47  -9.3836    237.3505    188.7146   9.6409332996e+01  -3.8378759161e+00    0.2203586    0.2137428 -28.91 0.0007531719    1.242    0.195
        48  -8.6214    247.8733    179.3474   9.2585427773e+01  -4.1035026954e+00    0.1953326    0.1744245  60.16 0.0008817472    1.466    0.318
        49  -8.8487    232.9950    175.5293   9.4526691792e+01  -7.8720935916e-01    0.2035078    0.1356998  43.52 0.0008953497    1.565    0.361
        50  -8.7191    228.0905    172.0930   9.4736198681e+01   7.4658551100e-01    0.2100761    0.1783036 -81.54  0.001112537    1.658    0.397
        51  -9.1973    237.7757    170.9333   9.2677465835e+01  -8.6348463945e-01     0.247819    0.1882294 -52.21 0.0008798902    1.525    0.344
        52 -10.8739    197.3313    158.4785   9.7970238652e+01   9.6038216666e+00    0.5069824    0.3820945 -86.86  0.002248936    1.991    0.498
        53 -10.9523    200.0820    165.6096   9.8958621979e+01   7.5948220634e+00    0.5178224    0.3721811 -74.11  0.001738012    2.138    0.532
        54  -9.2644    233.5223    154.4926   8.9950408902e+01   2.8924139580e+00    0.3234746    0.2315591 -88.16  0.001321116    2.510    0.602
        55  -9.0479    240.7496    164.8546   9.0857275710e+01  -3.4542692091e-01    0.3880717    0.2451152  59.70  0.001192753    2.211    0.548
        56 -10.6802    238.3482    159.5442   9.0162107291e+01   1.0473522615e+00     0.713996    0.4768275 -19.09   0.00344542    1.707    0.414
        57  -8.7945    246.3333    169.7415   9.0882194351e+01  -2.2099673090e+00    0.4504635    0.2695967 -47.64   0.00216996    1.810    0.447
        58  -9.3977    250.5195    159.0734   8.7920059900e+01  -1.1262991693e+00    0.3647347    0.1936661 -41.64  0.001494463    1.751    0.429
        59 -10.0830    246.9193    163.3375   8.9440489360e+01  -1.2120167593e+00    0.4438178    0.2860599  53.88  0.001934751    1.904    0.475
        60 -10.3781    245.7229    159.0135   8.8738112459e+01  -2.3990638688e-01    0.4965951    0.3518167 -48.11  0.002599003    1.471    0.320
        61  -9.7659    218.9444    169.2641   9.5909541989e+01   3.0421568120e+00    0.3331582    0.2750083  75.97  0.001183594    1.644    0.392
        62  -9.5261    212.8058    169.8999   9.7267829570e+01   4.1480403226e+00    0.2536663    0.2226619  56.87 0.0008546287    1.281    0.219
        63  -9.5186    225.9874    164.4976   9.3521889164e+01   2.5363894690e+00    0.3167462    0.2147563  69.18  0.001150013    2.339    0.572
        64  -9.6861    213.3385    164.2880   9.5951611562e+01   5.1080400951e+00    0.3683916    0.2764074 -64.03  0.001760329    1.736    0.424
        65 -10.1462    205.3994    162.5659   9.7188505782e+01   7.0814404259e+00    0.4407267    0.3231723 -78.08  0.001937204    2.130    0.531
        66  -9.3684    176.8723    160.1226   1.0281509680e+02   1.3699379581e+01    0.2447328    0.2180832  86.98  0.001231435    1.284    0.221
        67 -10.5397    205.2082    169.6531   9.8764493800e+01   5.7391545604e+00    0.4539186    0.3322377 -70.37  0.001761527    1.997    0.499
        68  -8.4020    222.3525    157.1286   9.2619921608e+01   4.6321740117e+00    0.2061176    0.1293079 -48.65 0.0004926241    1.679    0.405
        69  -8.3889    216.7559    157.1798   9.3718778452e+01   5.7659068608e+00    0.2360256    0.1631599 -81.78 0.0009381704    2.705    0.630
        70  -9.1970    226.7160    157.2331   9.1811545303e+01   3.7351654544e+00    0.2276517    0.1820659 -56.47 0.0008663401    1.421    0.296
        71  -8.9356    234.2532    165.1531   9.2107459517e+01   8.2100837778e-01    0.2432879    0.1918595  83.93  0.001212185    1.962    0.490
        72  -9.6071    242.4213    134.7351   8.4064005983e+01   4.7223635322e+00    0.3550938    0.2642549 -47.38  0.001124354    1.285    0.222
        73  -9.0360    250.3068    152.8329   8.6638539583e+01  -4.6362343067e-03    0.3967665    0.1852356 -49.23  0.001618483    2.403    0.584
        74  -9.8971    244.1949    149.1403   8.6894977538e+01   1.7916195489e+00    0.5181714    0.2970697 -48.68    0.0022129    1.811    0.448
        75  -8.5734    249.4411    148.4869   8.5859989660e+01   9.1637154246e-01     0.209933    0.1185056 -45.77 0.0009582904    1.719    0.418
        76  -9.4796    247.2322    144.2410   8.5321535564e+01   2.0828829609e+00    0.2750389    0.2346598 -81.76 0.0007973516    1.493    0.330
        77  -9.8523    243.6139    140.9859   8.5228956130e+01   3.3622872175e+00    0.3768551    0.3061944 -57.39  0.001096863    1.334    0.250
        78  -9.0635    222.1606    152.7141   9.1685104390e+01   5.5036865156e+00    0.2627482     0.182311  50.61  0.001261325    1.544    0.352
        79  -9.5812    216.4656    143.5829   9.0735116115e+01   8.4415966909e+00    0.5636427    0.2992445  64.88  0.001988119    3.111    0.679
        80  -9.0926    224.5193    134.0426   8.7050971446e+01   8.5462112816e+00    0.3878616    0.2173167  54.74  0.001655911    1.976    0.494
        81  -8.4044    228.4287    152.2513   9.0400564764e+01   4.3172625249e+00    0.2031642    0.1313786 -48.54 0.0009048609    1.601    0.375
        82 -10.2513    224.7538    147.4454   9.0024855930e+01   5.9650047352e+00    0.6750945    0.3828514  59.40  0.002799614    2.279    0.561
        83 -10.3628    219.7584    128.3536   8.6621211504e+01   1.0655652630e+01    0.6474666    0.3867898 -68.27  0.002408435    2.830    0.647
        84  -9.5367    224.0168    140.7953   8.8672905543e+01   7.3748971680e+00    0.3420778    0.2953801 -49.52  0.001126551    1.158    0.136
        85 -10.7152    218.4267    138.3088   8.9159177781e+01   9.0376731340e+00    0.6155297     0.435433 -81.38  0.002647652    2.221    0.550
        86  -8.9125    196.9740    151.0183   9.6368799442e+01   1.1190614673e+01    0.2415646     0.193444 -82.44  0.001078815    1.647    0.393
        87 -10.3439    235.6782    147.9348   8.8130804632e+01   3.6653579698e+00    0.5218502    0.4069713 -87.05  0.001946614    1.865    0.464
        88  -9.4478    218.1854    133.2057   8.8034515118e+01   1.0070476955e+01    0.3692163    0.2377318 -60.80  0.001041406    1.953    0.488
        89  -8.9399    191.5034    149.0441   9.7083787399e+01   1.2799352992e+01    0.2374471    0.1519888 -44.44 0.0008499214    1.572    0.364
        90  -9.2413    172.2428    149.5988   1.0150112274e+02   1.6976824895e+01    0.2194313    0.1484849  36.53 0.0005767753    1.542    0.351
        91  -9.9349    155.8559    144.4027   1.0417502122e+02   2.1777081607e+01    0.4435193    0.2377844 -54.81  0.001663393    2.099    0.524
        92  -8.2569    200.3603    145.6964   9.4444037326e+01   1.1523235540e+01     0.156922    0.1231873 -88.53 0.0007038274    1.725    0.420
        93  -8.5813    194.6552    144.3108   9.5319827005e+01   1.3070273066e+01     0.158437    0.1244116 -87.75 0.0007045587    1.704    0.413
        94  -9.0537    182.2010    142.7821   9.7665231987e+01   1.6191168861e+01    0.2591487    0.1734406 -86.79 0.0009191249    2.709    0.631
        95  -8.8601    230.0156    141.5540   8.7741626928e+01   5.9855205980e+00    0.2887654    0.1890847 -52.07  0.001064471    1.630    0.387
        96  -9.0631    250.5783    140.8286   8.4030643599e+01   2.0492150988e+00    0.2680778    0.1627741 -50.05  0.001115067    1.694    0.410
        97  -9.4337    248.8821    136.2012   8.3311480273e+01   3.1915580090e+00    0.3514804    0.2339008 -51.25  0.001028585    1.533    0.348
        98  -9.9982    248.1579    130.1712   8.2120492839e+01   4.4026643138e+00    0.3695916    0.3055755 -65.71  0.001195412    1.346    0.257
        99  -8.9604    239.0036    141.0137   8.6027163995e+01   4.2664327417e+00    0.2213286    0.1717172 -71.22 0.0007746891    1.666    0.400
       100  -9.0742    208.6408    138.7724   9.1165626856e+01   1.1078324330e+01    0.2982327    0.2269569 -71.17  0.001263886    1.677    0.404
       101  -9.8137    234.8981    136.0894   8.5654398855e+01   5.9956436859e+00    0.3767371     0.279041 -70.14  0.001412055    1.766    0.434
       102  -8.7392    198.8257    136.9837   9.2736131270e+01   1.3624525155e+01     0.259292    0.1756864 -66.36  0.001073743    1.983    0.496
       103  -8.6715    192.4197    137.2844   9.4148967546e+01   1.5014413351e+01    0.2190775    0.1462481 -52.60 0.0009407015    1.598    0.374
       104  -8.5512    155.8334    136.2422   1.0225121051e+02   2.3602294627e+01    0.2710545    0.1781418  87.97 0.0009363316    2.781    0.640
       105  -8.4451    187.6707    135.7147   9.4793871900e+01   1.6422958149e+01    0.1576955    0.1248677  10.72 0.0004490587    1.612    0.380
       106  -9.0492    180.1346    133.8539   9.6001464245e+01   1.8547375424e+01    0.2555468    0.2191553 -87.70  0.001229731    1.349    0.258
       107  -9.5018    206.0342    131.2993   8.9937855042e+01   1.3135476576e+01    0.3331134    0.2443637  89.19  0.001152671    1.944    0.486
       108 -10.1093    240.3008    127.3922   8.2797746065e+01   6.4777143500e+00    0.4903466    0.3635232 -42.04  0.001762413    1.239    0.193
       109  -8.9528    235.6265    124.2542   8.2880547944e+01   8.0166893955e+00     0.334279    0.1912371 -53.90  0.001274815    1.921    0.480
       110  -8.6144    234.1764    130.1346   8.4449273020e+01   7.2406351664e+00    0.1969845    0.1616922 -58.14 0.0006253104    1.269    0.212
       111  -8.4546    202.6345    152.3192   9.5481266533e+01   9.6978815960e+00    0.1564943    0.1225716 -88.10 0.0002566876    1.781    0.438
       112  -8.8208    192.4703    129.9971   9.2399361451e+01   1.6494625874e+01    0.2419625    0.1522704 -43.57 0.0006101067    1.578    0.366
       113  -8.9786    186.2747    129.4290   9.3583293199e+01   1.8047385488e+01    0.2810284    0.1901717 -62.00  0.001060653    1.800    0.444
       114 -10.0461    199.8387    126.5558   9.0050917538e+01   1.5489700924e+01    0.3088672    0.2387142 -71.05  0.001189852    1.561    0.359
       115  -8.7517    227.5222    125.5456   8.4572985900e+01   9.4996758672e+00    0.2697528    0.1254791 -49.24  0.001026778    2.250    0.556
       116  -9.4525    180.1619    125.2218   9.3888649680e+01   2.0349876483e+01    0.4234867    0.2770086 -63.94  0.001703703    1.976    0.494
       117 -12.0727    246.4241    116.4867   7.9399234721e+01   7.1780888172e+00     2.490139    0.9213961 -54.93  0.007118289    4.856    0.794
       118 -11.0610    234.4122     62.0947   6.8991748330e+01   1.8944112756e+01    0.7456099    0.3156917 -51.47  0.003039745    2.361    0.577
       119 -11.4317    247.3358    102.1474   7.6105691681e+01   9.4988324984e+00     1.485399    0.5333191 -41.65  0.005654724    2.465    0.594
       120 -11.7434    237.9021     76.6954   7.1794221709e+01   1.5836914594e+01     1.008048     0.607175 -35.45  0.004865593    1.706    0.414
       121  -9.8710    225.6763    248.3558   1.0962709676e+02  -1.0969313809e+01    0.3476316    0.1874255  27.55  0.001864113    1.646    0.392
       122 -10.4475    231.3747    111.9694   8.0804829648e+01   1.1168623243e+01    0.4813296     0.446068  83.32  0.002454329    1.123    0.109
       123  -8.5825    190.0000    109.0531   8.7750327995e+01   2.1284261515e+01    0.2546149   0.08846154 -40.22 0.0007934726    2.881    0.653
       124  -8.1803    183.0000    109.0204   8.9201970357e+01   2.2977598763e+01    0.2588413   0.08953546 -40.54 0.0007979869    2.912    0.657
       125 -10.4288    222.3810    104.9232   8.0681398209e+01   1.4456638415e+01    0.4788423    0.3221768 -60.06   0.00201962    1.628    0.386
       126 -10.5669    224.4167     92.8462   7.7506946674e+01   1.6158216705e+01    0.4954255    0.2594311 -54.85  0.001991634    2.099    0.524
       127 -10.0219    224.8866     99.6088   7.9015471064e+01   1.4849228915e+01    0.3679907    0.2430521 -49.07  0.001366105    1.447    0.309
       128  -9.2242    220.8902     98.2882   7.9367694778e+01   1.6000988937e+01    0.4242554    0.2241962 -52.83  0.001735647    2.011    0.503
       129 -10.4953    218.7200     91.5173   7.8119356777e+01   1.7712727724e+01     0.743861      0.39021 -64.82  0.002663303    2.954    0.661
       130 -10.0390    215.8540     94.5135   7.9316354256e+01   1.7850399129e+01    0.4569181    0.2411835 -55.21  0.001523553    2.145    0.534
       131  -9.6448    229.5878    103.3395   7.9114076465e+01   1.3122169743e+01    0.3144991    0.2390411 -74.14  0.001579276    1.491    0.329
       132  -8.3203    202.6550     98.3184   8.2590347361e+01   2.0291736690e+01    0.1611662    0.1164791 -77.74 0.0007049061    1.724    0.420
       133  -9.2791    188.4776     93.0459   8.3970083709e+01   2.4721043243e+01    0.4087387    0.2459642 -52.94  0.001341247    1.798    0.444
       134  -7.8692    164.3313     94.3280   8.9430415246e+01   3.0414328308e+01    0.1617385    0.1251121  15.04 0.0007051494    1.713    0.416
       135 -11.5532    245.1474     83.1615   7.2239491921e+01   1.3179662059e+01     1.224227    0.5679748 -53.53  0.005106165    2.231    0.552
       136  -9.0770    231.0620     91.0482   7.6047222822e+01   1.4959554607e+01    0.2608052    0.1737714 -44.47 0.0009332374    1.401    0.286
       137  -8.8813    188.4227    123.7444   9.1735444615e+01   1.8713221403e+01     0.309617    0.1472135 -46.77  0.001126976    2.145    0.534
       138 -10.1423    250.1509    245.0509   1.0455213407e+02  -1.4150778526e+01    0.3168874    0.1697666 -29.06  0.001052151    1.875    0.467
       139  -8.6963    225.9419     88.1002   7.6154745624e+01   1.6635353958e+01    0.2319821    0.1785988 -68.06 0.0006150979    1.328    0.247
       140  -8.4888    175.4896     88.0648   8.5302776126e+01   2.8853863900e+01    0.2315049    0.1533561 -40.71 0.0006056337    1.546    0.353
       141  -9.1230    188.2062     87.2400   8.2518038488e+01   2.5854257151e+01    0.3029765    0.2031412 -50.94 0.0007636398    1.539    0.350
       142  -8.9780    210.9150     82.6142   7.7263090207e+01   2.1120212825e+01    0.5578756    0.1536619 -49.95  0.001436363    5.089    0.804
       143  -8.5977    206.1451     85.1498   7.8696220720e+01   2.1829587336e+01     0.214938    0.1672975 -65.87 0.0007653182    1.333    0.250
       144  -8.4764      9.5714     84.1661   1.3391860124e+02   5.7610944013e+01     0.166633   0.07959959 -52.46 0.0004948439    1.558    0.358
       145  -9.8333    237.8638    119.5366   8.1447685132e+01   8.4055750011e+00    0.4563374     0.282578 -54.41  0.002105227    1.708    0.415
       146  -8.4433    192.7687     83.0534   8.0566926647e+01   2.5475010818e+01    0.1999746    0.1246704 -40.73 0.0008717632    1.619    0.382
       147  -8.5341    225.4514     81.9425   7.4791903514e+01   1.7801342207e+01    0.2110554    0.1051527 -58.11 0.0008070555    2.423    0.587
       148  -8.4956    220.0000     79.8913   7.5146182858e+01   1.9421973706e+01    0.2418336   0.07959554 -37.70 0.0008083138    2.983    0.665
       149 -10.1735    216.9463     99.7396   8.0382321244e+01   1.6650883297e+01    0.5509104    0.3657347 -68.41  0.002435479    1.869    0.465
       150  -8.4499    200.7793     77.7513   7.7776750649e+01   2.4419869808e+01    0.2404497    0.1028378 -47.42 0.0008745701    2.414    0.586
       151  -8.4135    183.8192     77.8401   8.0898155882e+01   2.8612915089e+01    0.2125234    0.1730359 -77.18 0.0006315201    1.332    0.249
       152  -8.5090    174.3733     78.1353   8.2850895523e+01   3.0921066858e+01    0.2282655    0.1349265 -49.88 0.0009477052    1.822    0.451
       153  -8.3768    166.6323     77.8534   8.4391797639e+01   3.2898826558e+01    0.2235791    0.1376088 -49.23 0.0009466514    1.749    0.428
       154  -8.6103    223.4674     76.0604   7.3713969809e+01   1.9247564302e+01    0.2155684     0.135446 -40.02 0.0007656829    1.560    0.359
       155  -8.2132    203.2907    121.6318   8.8177361649e+01   1.5669575170e+01    0.1609235    0.1189312 -72.74 0.0007025105    1.713    0.416
       156  -9.5168    227.6278     73.7871   7.2575272269e+01   1.8651871487e+01    0.2023345    0.1187591 -49.14 0.0004699348    1.612    0.380
       157  -9.6975    222.0190     71.0006   7.2740582120e+01   2.0416416913e+01    0.3044792    0.1874988 -46.03 0.0007980267    1.545    0.353
       158 -10.2535    223.3482     66.8168   7.1569143203e+01   2.0773695573e+01    0.3387243    0.2197496 -36.47   0.00126163    1.601    0.376
       159  -8.4624    211.3625     76.7499   7.5758373978e+01   2.2011291065e+01    0.1958675    0.1390234 -31.32 0.0009392053    1.569    0.363
       160  -9.9509      8.8454     71.8663   1.3170587780e+02   6.0198901211e+01    0.1804068    0.1229099 -41.05 0.0004061281    1.188    0.158
       161  -7.9764    218.2951     68.6475   7.2733933502e+01   2.1679208437e+01    0.1531017    0.1008072 -68.79  0.000507078    1.685    0.407
       162  -8.7424    193.6377     67.7523   7.6464095994e+01   2.7854089541e+01    0.2077084    0.1300006 -48.38 0.0008875676    1.627    0.385
       163  -8.8058    203.1333     66.7050   7.4609518294e+01   2.5669343823e+01    0.2669939    0.1864293 -53.54  0.001305902    1.436    0.303
       164  -7.9394    187.6372     63.2833   7.6347536908e+01   3.0071282582e+01    0.1550994    0.1094258 -80.74 0.0007018071    1.682    0.406
       165  -8.7187    157.5780     61.7340   8.1754213284e+01   3.7848880269e+01    0.2743946    0.1511476 -30.23  0.001139573    2.072    0.517
       166  -9.4708    217.4038     58.2382   7.0395556547e+01   2.3520227741e+01    0.3082674    0.1908555 -40.44 0.0007822263    1.613    0.380
       167  -8.4464    206.5893     59.2168   7.2211716458e+01   2.5994679443e+01    0.1898578    0.1414309 -24.57 0.0009503051    1.654    0.395
       168  -8.6154     19.6831     59.3481   1.2466409076e+02   6.1988556228e+01    0.1050074   0.09041176  83.71 0.0005640765    1.728    0.421
       169 -11.3579      9.4875     57.0024   1.2803250280e+02   6.3091841474e+01    0.3859516    0.1923484 -31.83  0.001813127    1.796    0.443
       170 -11.6449    226.5157     53.6174   6.8097452175e+01   2.2052408182e+01     0.740542    0.4308321 -50.12  0.003187349    1.627    0.385
       171  -8.0358    185.3207     53.6690   7.4213474186e+01   3.2125305499e+01    0.1533705    0.1060869 -74.15 0.0007048951    1.694    0.410
       172  -7.9786     32.9688     57.7811   1.1904993843e+02   6.1204619764e+01     0.135961   0.09337796  14.53 0.0008336582    1.543    0.352
       173  -9.4836    214.8777     47.3942   6.8182223748e+01   2.5725708248e+01    0.3302225    0.1789208 -39.10  0.001545606    1.862    0.463
       174 -10.6776      8.4921     43.4649   1.2479868308e+02   6.5648877984e+01    0.2169287    0.1666708  70.02  0.001397101    2.470    0.595
       175  -9.0269    242.7984    118.9362   8.0512906049e+01   7.4866415732e+00    0.2813228    0.1773885 -55.75  0.001317748    1.698    0.411
       176  -8.0957     92.3041     36.7158   9.0350603309e+01   5.6123531900e+01    0.1171916    0.1069715  88.42 0.0001989009    1.559    0.358
       177  -9.7514    248.2986    240.6330   1.0412380186e+02  -1.3320863336e+01    0.2319655     0.160801 -36.48  0.001445804    1.679    0.405
       178 -10.6138      7.8896     32.7619   1.2179507321e+02   6.7532316253e+01    0.2511254    0.1285795 -17.61 0.0008670938    1.920    0.479
       179  -8.5171     55.7121     32.2924   1.0133841329e+02   6.2816120356e+01    0.1006494   0.09939464 -26.07 0.0001821298    1.544    0.352
       180  -8.1372    186.6099    116.2952   9.0274397277e+01   2.0653501771e+01    0.1658999    0.1237289 -87.90 0.0007011111    1.781    0.439
       181  -8.5223    204.0332    243.4971   1.1298273753e+02  -6.8200633031e+00    0.2056479    0.1080929  37.04  0.001037239    1.605    0.377
       182  -7.8793     40.3319     25.3073   1.0478792098e+02   6.5779246620e+01    0.1229267   0.07459454  -4.98 0.0004629239    1.665    0.399
       183  -9.6993    118.2284     24.8674   7.9086242363e+01   5.2144198380e+01    0.1835193    0.1763837  52.48 0.0004593437    1.157    0.136
       184  -9.9856     83.9058     21.6015   8.7296645939e+01   5.9563246168e+01    0.3354032    0.1994433  56.05  0.001745033    1.970    0.492
       185  -8.2201    155.7028     16.6594   6.8987125599e+01   4.4151767326e+01    0.1382063   0.09078531  37.79 0.0007033111    1.662    0.398
       186  -9.0055     97.0103     15.0296   8.0985287093e+01   5.7697131524e+01    0.1893202    0.1547207  30.64   0.00120394    1.026    0.026
       187  -8.3114     23.4924     15.5590   1.0823747276e+02   6.8925602043e+01    0.1118733   0.08240315  -9.94  6.16076e-05    1.008    0.008
       188  -9.3094     29.7729     13.0432   1.0430064706e+02   6.8613394072e+01    0.1731838    0.1262642   5.54 0.0003594549    1.127    0.113
       189  -9.4396    217.6627    224.3508   1.0702051949e+02  -6.2087414124e+00    0.3582668     0.306267  88.72  0.002068595    1.950    0.487
       190  -8.8489    163.3481    242.3189   1.2092501077e+02   3.8069808169e-01    0.1335492   0.09712579  13.05 0.0007048598    1.733    0.423
       191  -9.2885    239.7771    240.4169   1.0564685033e+02  -1.2043659288e+01    0.2095407    0.1565789 -44.81  0.001143924    1.845    0.458
       192  -8.8743    191.7971    237.8132   1.1447569818e+02  -3.8751337500e+00    0.3598063     0.198403  63.69  0.001251305    4.631    0.784
       193  -8.8575    217.7383    235.4856   1.0896579387e+02  -7.9021934357e+00    0.2429972    0.1106899  42.46 0.0009426238    2.061    0.515
       194  -9.1260    250.2639    231.8754   1.0222350643e+02  -1.2446012382e+01    0.1723901    0.1529225  22.19 0.0005161784    1.327    0.246
       195  -8.4611    245.3494    231.6694   1.0308244368e+02  -1.1691532189e+01    0.1087594    0.1007919  65.92 0.0006552531    1.768    0.434
       196  -9.3809    235.1926    229.9565   1.0466183784e+02  -9.8981451832e+00    0.2631089    0.2182387 -57.23  0.001122847    1.895    0.472
       197  -7.5902    207.4923    231.4815   1.1028109207e+02  -5.5858589994e+00    0.1344628    0.1107221  18.44 0.0001352392    1.056    0.053
       198  -8.5535    216.5983    228.4700   1.0796278810e+02  -6.6629174113e+00    0.1873453    0.1372194   2.08 8.575725e-05    1.420    0.296
       199 -10.5152    219.9908    121.9207   8.5084821592e+01   1.1827236429e+01    0.5740108    0.3551152 -72.87  0.002179642    2.749    0.636
