#   1 NUMBER                 Running object number                                     
#   2 MAG_AUTO               Kron-like elliptical aperture magnitude                    [mag]
#   3 X_IMAGE                Object position along x                                    [pixel]
#   4 Y_IMAGE                Object position along y                                    [pixel]
#   5 X_WORLD                Barycenter position along world x axis                     [deg]
#   6 Y_WORLD                Barycenter position along world y axis                     [deg]
#   7 A_WORLD                Profile RMS along major axis (world units)                 [deg]
#   8 B_WORLD                Profile RMS along minor axis (world units)                 [deg]
#   9 THETA_WORLD            Position angle (CCW/world-x)                               [deg]
#  10 FWHM_WORLD             FWHM assuming a gaussian core                              [deg]
#  11 ELONGATION             A_IMAGE/B_IMAGE                                           
#  12 ELLIPTICITY            1 - B_IMAGE/A_IMAGE                                       
         1 -12.7050    174.5236     41.7739   1.1178136055e+01   3.5730636939e+01     1.862905    0.8998463  35.12  0.006269603    4.104    0.756
         2 -13.3763    191.3075     41.4476   8.8961346176e+00   3.1715557897e+01     1.702414     1.296674  13.24  0.005260719    1.943    0.485
         3 -12.8436    209.1124     46.6339   8.1644126909e+00   2.6942795788e+01     1.933881    0.8273125 -68.05    0.0044045    4.229    0.764
         4 -14.0956     10.1995     69.8459   7.5050584632e+01   6.2576896056e+01     1.367144     1.258123 -46.40  0.008936038    1.069    0.065
         5 -12.6267     47.6303     31.8010   4.2700887850e+01   6.6831514746e+01     1.346724    0.8734055  53.43  0.006621123    2.071    0.517
         6 -14.3566     36.7119     68.9482   6.2029351389e+01   6.0551126246e+01     3.006245     0.856267  34.10   0.01047664    3.406    0.706
         7 -12.2919     25.7973     40.8990   5.8651546793e+01   6.8009550326e+01     1.218644    0.3767027 -51.61  0.004755494    2.767    0.639
         8 -13.6446     10.7745     35.1671   6.5783219315e+01   7.0531692718e+01     1.277646    0.8409793  23.01  0.003862274    1.628    0.386
         9 -12.9608     79.8889     22.8860   2.4843426299e+01   6.1807621701e+01     1.664835     0.987932 -54.31  0.007338976    2.466    0.595
        10 -13.4108     63.8352     34.2836   3.6290407915e+01   6.3513539904e+01     2.380316    0.8064964 -38.67   0.00868691    3.042    0.671
        11 -12.9084     70.1264     25.8493   2.9771024763e+01   6.3535937604e+01    0.9911916    0.9430326  84.78  0.004032822    1.284    0.221
        12 -13.1572     56.6775     59.6470   4.9795834735e+01   5.9942555163e+01     1.473316     0.906701 -68.09  0.006223101    2.432    0.589
        13 -12.3082     78.9134      9.7739   1.8871250174e+01   6.3549891993e+01     0.611278    0.2370585  57.51  0.001214177    2.245    0.555
        14 -11.6047     76.9617      5.0444   1.7103953773e+01   6.4463988146e+01    0.5431374    0.2555175  63.47 0.0003410129    2.047    0.511
        15 -12.3912     53.4726     21.4550   3.4688347686e+01   6.7472329540e+01    0.9853309    0.6905192  83.51  0.003776115    3.441    0.709
        16 -13.5833    242.4707     61.6738   8.1931724236e+00   1.8039286535e+01    0.8389433    0.6015463 -45.12  0.000717273    1.140    0.123
        17 -12.9325     35.2034     20.6858   4.3914764260e+01   7.0645151513e+01     4.878977     2.002619  20.13   0.01520765    5.166    0.806
        18 -12.4985    210.9650     21.4161   1.8542608128e+00   2.9638039225e+01    0.4894898    0.4372072  52.52  0.001918742    1.400    0.286
        19 -11.5589    217.6113     28.0956   2.8827281147e+00   2.7402580128e+01    0.5364159    0.2659527 -51.61  0.001137881    1.762    0.432
        20 -12.5908    226.1385     22.3498   8.8424398504e-01   2.6245419084e+01    0.4443524    0.2791122 -87.44  0.001334526    1.566    0.361
        21 -12.4508    176.3159     23.4658   5.7662654468e+00   3.7565053698e+01    0.2970833    0.2842278   0.74 0.0001890522    1.290    0.225
        22 -11.6100     20.1168     22.7497   5.4491372971e+01   7.2200638222e+01    0.6589788    0.3410734 -53.42   0.00331374    2.053    0.513
        23 -11.4916    203.8473     17.1277   1.4015854971e+00   3.1720541322e+01    0.5220463    0.2476089 -84.63  0.001995655    2.352    0.575
        24 -11.7862    141.1345     14.3554   7.5263888220e+00   4.7489135032e+01    0.3303079    0.2404152  16.88 0.0003533354    1.832    0.454
        25 -11.3163    232.1890      3.3680   3.5632485610e+02   2.7021279270e+01    0.8907465    0.1913628 -49.71  0.003556087    3.325    0.699
        26 -12.6994    221.4883      8.4075   3.5806002092e+02   2.8747266606e+01     0.662187      0.20054 -49.45  0.001021946    2.639    0.621
        27 -14.0560    244.4679      7.9271   3.5662394516e+02   2.4097904274e+01    0.9592804     0.375933 -72.55  0.003446429    2.801    0.643
        28 -11.6803    233.6498     11.1973   3.5792274160e+02   2.5913156184e+01    0.3045727    0.1810938  69.31  0.001037839    1.790    0.441
        29 -12.0311    228.3111      9.9950   3.5798638115e+02   2.7141133492e+01    0.4248606    0.1857717 -51.64   0.00111186    1.860    0.462
        30 -11.0668    108.6435      9.8933   1.1488283165e+01   5.6286395361e+01    0.5061797     0.315798 -16.63   0.00252461    1.883    0.469
        31 -10.7138    124.9482      9.7710   8.4400490268e+00   5.2122526500e+01    0.6142936    0.4539571  33.70  0.002382495    1.531    0.347
        32 -10.6948    130.5725      8.3706   7.0374631331e+00   5.0799969529e+01     0.304892    0.1958448  49.40  0.001260628    1.534    0.348
        33 -11.5016    111.6878      3.9670   8.5122921039e+00   5.6042503113e+01    0.5885105    0.3133196 -87.05  0.002134929    2.426    0.588
        34 -11.1651    114.9894     12.9677   1.1448546607e+01   5.4373326953e+01    0.2582252    0.2174014 -80.81  0.001473156    1.248    0.199
        35 -11.4546    116.4923      9.5573   9.8365826297e+00   5.4317555712e+01    0.2995508    0.2759583  44.61 0.0008738225    1.127    0.113
        36  -9.4270    187.1849     14.3724   2.1586408353e+00   3.5918322164e+01     0.251714    0.1019676 -24.70  0.001046078    2.791    0.642
        37 -11.1240    160.1520     14.3252   4.9950002720e+00   4.2611989921e+01    0.2257179    0.1992328 -41.44 0.0004915642    1.215    0.177
        38 -11.1210    149.4258     13.0647   5.9503811014e+00   4.5481299944e+01    0.4180673    0.2135459  84.88  0.001821825    2.048    0.512
        39  -9.8495    167.1378     12.6146   3.6864095101e+00   4.1023898187e+01    0.3149838    0.1055938 -40.71  0.001245929    2.689    0.628
        40 -10.5609     88.8084     11.7562   1.6966133737e+01   6.1012593626e+01     0.264049    0.2004883 -17.88  0.001467527    1.462    0.316
        41  -9.8598    133.9327     12.3511   7.9246486186e+00   4.9552294224e+01    0.3158826    0.1592588  84.62  0.001316648    2.212    0.548
        42 -10.0685    100.9828      7.3900   1.2058283039e+01   5.8446489007e+01    0.4556415    0.2159829 -41.72  0.001426616    2.413    0.586
        43 -10.5133     26.2827      9.4269   4.3064191472e+01   7.3700079953e+01    0.2785161    0.1908222   9.29   0.00151067    1.419    0.295
        44 -11.6179    193.7264      7.7640   3.5987903315e+02   3.5045988646e+01    0.2666961    0.2275924  63.96 0.0008603549    1.317    0.240
        45 -12.3603    173.3937      6.5030   1.3009937064e+00   4.0069893489e+01    0.3658292    0.2932186  66.11 0.0006203331    1.258    0.205
        46 -11.7413    174.0000      3.0318   2.7491451492e-01   4.0246658589e+01    0.2633378    0.1657757 -28.36  0.001075533    1.715    0.417
        47 -10.2234     47.2998      7.6806   2.9969420109e+01   7.0470418213e+01    0.4367598    0.3281085   7.50  0.002608082    1.305    0.234
        48 -10.3513     47.4408      1.6052   2.6197743238e+01   7.1132460202e+01    0.3879067    0.1293649  43.58  0.001600136    2.572    0.611
        49  -9.2602    215.6952      8.2640   3.5840367782e+02   3.0014260239e+01    0.1273237   0.07290147 -62.98 0.0001998264    1.525    0.344
        50 -11.1669      3.6289      5.6457   5.8101500317e+01   7.6819327422e+01    0.4240232    0.2167423 -11.82  0.001994539    2.193    0.544
        51  -9.2646     91.2753      6.6286   1.3975525708e+01   6.0912448598e+01    0.1876066     0.128169 -27.66 0.0007251502    1.624    0.384
        52  -9.6320     93.3810      3.7705   1.2173542163e+01   6.0650062281e+01    0.2330707    0.1604121  21.84  0.001045302    1.653    0.395
        53 -10.5824     94.2611     15.3500   1.7133458575e+01   5.9316730015e+01    0.3483908    0.2645169  -6.30   0.00149822    1.515    0.340
        54 -10.3526    183.9853      3.4992   3.5955380724e+02   3.7775178986e+01    0.2483706    0.1909647  73.58   0.00126339    1.253    0.202
        55 -11.3611    217.4582      1.6762   3.5678433791e+02   3.0293024906e+01    0.2433472    0.1683584  85.66 0.0006502279    1.346    0.257
        56  -9.5116    213.2572      2.0213   3.5711655993e+02   3.1175133598e+01     0.216212    0.1472367  68.59 0.0006837142    1.540    0.351
        57 -11.9386     85.5582      1.5072   1.3005887302e+01   6.2743231392e+01    0.4265477    0.1389807  59.51  0.001180639    2.423    0.587
        58 -11.6996    167.3783     65.0216   1.8958929963e+01   3.4059676881e+01    0.5644761    0.4330438  86.29  0.001862406    1.429    0.300
        59 -13.8338    194.0160     86.1976   2.0119002929e+01   2.4383601838e+01     1.521557     1.171474 -49.18  0.008138821    1.230    0.187
        60 -13.3093    203.9406     69.9717   1.4576738687e+01   2.4765449144e+01    0.7630152    0.6308869 -78.29  0.004290707    1.250    0.200
        61 -13.2169    171.8884     79.0758   2.2069375065e+01   3.0642427520e+01     1.996173    0.4788169  51.08  0.005810375    4.061    0.754
        62 -11.8357    176.4663     70.0409   1.8784234122e+01   3.1060374462e+01    0.8722833    0.5212848 -69.82  0.003561458    2.368    0.578
        63 -13.1862    202.9576     60.3803   1.2312615505e+01   2.6404411928e+01     1.324212    0.7211195 -87.56  0.005448588    2.786    0.641
        64 -12.2788    197.2648     48.3148   9.9612467864e+00   2.9400686210e+01    0.8372212    0.4818662  37.08  0.001981983    2.671    0.626
        65  -9.6439    218.6021    239.7747   4.6467211566e+01  -3.9662702879e+00    0.1341007   0.09888928 -32.27 0.0006653937    1.614    0.380
        66 -13.3310    216.3543     58.0124   1.0107701795e+01   2.3810951617e+01    0.9844766    0.8471885 -17.32   0.00304391    1.364    0.267
        67 -11.9075    208.8223     58.1841   1.1034675992e+01   2.5418590247e+01    0.4295375    0.2852185 -64.28   0.00170926    1.560    0.359
        68 -10.7318    170.4715     98.0493   2.7420279129e+01   2.7585697507e+01    0.3868955    0.2598468 -51.67  0.001778633    1.549    0.354
        69 -12.0275     57.8408     99.3452   6.0840572414e+01   5.0393192860e+01    0.4250137    0.1796437  29.14  0.001579241    2.504    0.601
        70  -9.7953     46.6357     99.2829   6.5177837055e+01   5.1883699854e+01    0.1504214    0.1058665  61.41 0.0007017353    1.685    0.407
        71 -12.0559     11.4388     97.1677   7.8888588246e+01   5.5643320367e+01    0.3954556    0.3201847  44.04  0.002361096    1.349    0.258
        72 -12.6670     72.8196     73.4194   4.7740700389e+01   5.4191877027e+01     0.986056    0.6562436  42.98  0.004589641    1.532    0.347
        73 -12.3016     83.4338     75.5809   4.4446790509e+01   5.1718415999e+01    0.7854475    0.5861683 -20.15  0.001880554    1.617    0.382
        74 -12.8296     88.5474     63.1557   3.8377165092e+01   5.3259834426e+01     1.122801    0.9225012  -6.20  0.003420834    1.408    0.290
        75 -12.3893     11.9501     24.7643   6.1009237218e+01   7.2581022429e+01    0.6260777    0.3667535   8.95 0.0008138956    1.752    0.429
        76 -14.1743     66.0670     82.9577   5.3335244325e+01   5.3162252775e+01     1.585959     1.403711  12.00  0.006701893    1.183    0.154
        77 -13.0646     37.5258     81.5791   6.4943913864e+01   5.7398372865e+01    0.8573409     0.593568 -28.69  0.001046454    1.578    0.366
        78 -10.4430    180.9937    243.9893   5.3972228981e+01   1.9056088625e-01    0.1718611    0.1353526  46.32  0.001140828    1.702    0.412
        79 -10.4189     88.4968    238.9922   7.2553187742e+01   1.3577721010e+01    0.1509989   0.09778716 -32.46 -0.000284436    2.371    0.578
        80 -10.0696     15.8301    238.4086   8.7893521096e+01   2.2084736292e+01    0.1406101   0.09801029  23.55  0.000465777    1.622    0.384
        81 -13.2347     14.7565     46.2987   6.6931426248e+01   6.7816672007e+01    0.9775355     0.815101  44.44   0.00592722    1.465    0.317
        82  -9.9026    157.6976    222.6986   5.5610253445e+01   6.5828454120e+00    0.1275647   0.08863448   2.45 0.0002136311    1.589    0.371
        83  -9.8969    236.7151    146.0079   2.6838818278e+01   6.6326987754e+00    0.1768271    0.1382195 -24.19  0.000363457    1.073    0.068
        84 -12.7923     55.9677     44.3315   4.4212937639e+01   6.3159700679e+01     1.549972    0.4832222  32.77  0.004843905    3.989    0.749
        85  -9.1517    249.9835    132.2021   2.2156585711e+01   6.6235440341e+00    0.1299897   0.09833904  42.71 0.0008192284    1.582    0.368
        86 -13.7066     34.8166     56.6311   5.9240099467e+01   6.3609403746e+01     1.795358    0.7170296  26.12   0.00728504    2.612    0.617
        87  -9.5806    183.1241    125.3822   3.1650324660e+01   1.9772654836e+01    0.1884706    0.1387152  59.83  0.000359033    1.605    0.377
        88 -11.0066    181.0503    118.6987   3.0479507262e+01   2.1441162284e+01    0.2862822    0.2079582  49.27 0.0006332792    1.449    0.310
        89 -10.4434    181.9576    115.4809   2.9527883484e+01   2.1847000252e+01    0.3666265    0.2832322  81.57   0.00178915    1.754    0.430
        90 -10.4899     72.9958    119.0114   5.9777407625e+01   4.3125280360e+01    0.2192957    0.2112289  79.69  0.001196953    1.027    0.026
        91  -9.2476    250.4469    118.5535   1.9331556124e+01   8.5408523901e+00    0.1240705    0.1011195 -29.40 7.981729e-05    1.017    0.017
        92 -13.0414     78.8930     41.5519   3.3484768657e+01   5.9253974458e+01     1.303899    0.4223723  43.77  0.004425427    2.973    0.664
        93 -12.2690     76.6358     52.1897   3.8653818767e+01   5.7831072703e+01    0.5679972     0.306943  52.09 0.0002538312    2.056    0.514
        94 -12.6973     80.7615     48.1789   3.5512510818e+01   5.7715836947e+01     1.098539    0.4097873  46.33  0.003576703    2.578    0.612
        95 -12.9958     80.6535     59.2345   3.9805658929e+01   5.5666006192e+01    0.5607308    0.4055806  -2.33  0.002325963    1.862    0.463
        96 -12.5767     75.1179     58.6210   4.1691711931e+01   5.6885351429e+01    0.3298291    0.2939867  38.00 0.0003863443    1.115    0.103
        97 -11.8693     49.7762     94.8181   6.2939835507e+01   5.2625431721e+01    0.3045894    0.2555134  55.07 0.0006858477    1.297    0.229
        98 -12.2609     45.0577     91.2750   6.4031573008e+01   5.4108187886e+01    0.4188441    0.3639264  79.95  0.002268245    1.274    0.215
        99 -10.0350    249.9881     93.8275   1.4263575432e+01   1.2194331343e+01    0.2133448     0.165937 -72.15  0.001342877    1.545    0.353
       100 -11.6693     54.6218     93.5953   6.0721429534e+01   5.2287686538e+01    0.2887698    0.2600524  82.45 0.0009898342    1.208    0.172
       101 -12.5981     73.0866     96.7167   5.4459462386e+01   4.8690028682e+01    0.6691182    0.4167451 -71.85  0.002758775    2.063    0.515
       102 -10.1319    165.8962    101.4936   2.9256658076e+01   2.7975329737e+01    0.2237178    0.1490624  50.87 0.0005317309    1.537    0.349
       103 -11.7028    216.0599     91.1513   1.7987940278e+01   1.8931572126e+01    0.3451619     0.184269 -36.88 0.0008788166    1.658    0.397
       104 -13.6560    204.2061     79.1144   1.6799326380e+01   2.3299266733e+01     1.104448    0.4452779  56.40  0.004481485    2.621    0.618
       105 -10.1289    173.0939     90.8160   2.5002594123e+01   2.8304164854e+01    0.2253604      0.19946 -75.28 0.0005331957    1.199    0.166
       106 -12.6178     46.2018     54.0796   5.2679352209e+01   6.2709935004e+01    0.6403489    0.3865325   7.26  0.002822912    2.233    0.552
       107 -10.4962    167.9212     90.0034   2.5796547128e+01   2.9644337585e+01    0.3336413    0.2231006  64.32  0.000903743    1.662    0.398
       108  -9.6130     86.7771     89.7562   4.7618377807e+01   4.7883296625e+01    0.2480187    0.1971666   9.37  0.001084835    1.514    0.340
       109 -12.0684    223.4236     87.4911   1.6136363542e+01   1.8030640628e+01    0.4962188    0.2895264  29.84  0.002187958    2.871    0.652
       110 -10.6553    212.3833     89.1597   1.8044239488e+01   1.9993154990e+01    0.2028462    0.1095972 -45.25 0.0006557832    1.697    0.411
       111  99.0000     39.4448     41.3510   5.1207272725e+01   6.6274643729e+01     0.818481    0.6139566  22.87  0.004225819    1.321    0.243
       112 -11.3801     51.9345     86.9714   6.0152148250e+01   5.4300214515e+01    0.2993113    0.2328659 -27.93 0.0003232807    1.385    0.278
       113 -11.9596     48.1487     85.1620   6.1264666854e+01   5.5246411317e+01    0.6401986    0.2772466  19.62  0.002180698    3.001    0.667
       114 -11.6132    161.4319     84.4464   2.5584999912e+01   3.2172880324e+01    0.7319888    0.4502886  41.44  0.003173015    1.806    0.446
       115 -13.3266    112.9561     82.5564   3.6996926756e+01   4.3963025214e+01     1.348352     1.022747 -12.09  0.006057892    1.733    0.423
       116 -12.2251    133.6290     71.3032   2.7905708887e+01   4.1281798673e+01     1.643318      0.61398  60.95  0.004465105    3.528    0.717
       117 -11.9834    145.7064     66.6520   2.3689674592e+01   3.9132561168e+01    0.9148664    0.7655919  -3.82  0.003543594    1.473    0.321
       118 -10.6041    155.0630     64.9699   2.1250073576e+01   3.7097191838e+01     1.089849    0.2884269 -37.49  0.003295161    3.563    0.719
       119 -10.8540    152.0963     59.3502   2.0136852766e+01   3.8749269864e+01    0.4002547    0.2740724  -4.07  0.001706758    2.247    0.555
       120 -13.6874    116.8041     62.0139   2.9204164021e+01   4.7043173101e+01     1.000185    0.8411498  34.20   0.00178738    1.242    0.195
       121 -12.4847    104.1134     66.0359   3.4271224089e+01   4.9274746081e+01    0.4376948      0.35865  21.86 0.0003587626    1.367    0.268
       122  -9.7530     49.8897    117.1081   6.7478197742e+01   4.6877878289e+01    0.1961224    0.1641517 -39.35            0    1.267    0.211
       123 -11.5588    147.7563     84.7733   2.8628695907e+01   3.5367131185e+01    0.4731712    0.4227641  87.01  0.001226422    1.191    0.160
       124 -11.7232    147.3160     79.2914   2.7133353534e+01   3.6493872335e+01     0.342288    0.3021121 -48.53 0.0002668262    1.131    0.116
       125 -10.5599    247.6997     83.6957   1.2381870694e+01   1.4034191649e+01    0.2923668    0.2023487  52.34  0.001773854    1.746    0.427
       126 -12.7652    221.0239     79.6078   1.4630466974e+01   1.9702698460e+01     1.092523     0.474977  36.06  0.003426319    5.613    0.822
       127 -12.2090    215.9449     79.4791   1.5262540219e+01   2.0760868702e+01    0.3314744    0.2532449 -18.35 0.0009301708    1.492    0.330
       128 -12.4297    218.0772     74.8042   1.3882841783e+01   2.1023582962e+01    0.4033224     0.320897  22.41  0.002279325    1.697    0.411
       129 -12.4619    220.4461     69.8153   1.2417816642e+01   2.1268082960e+01    0.4188451    0.3066865 -56.62   0.00128541    1.286    0.222
       130  -9.8337     83.3674     83.6116   4.6996403746e+01   4.9943909470e+01    0.2922517     0.141867  44.02 0.0008423641    2.086    0.521
       131 -12.1824    235.8465     85.8088   1.4196320140e+01   1.5894607403e+01    0.5976893    0.3167901  77.07  0.002674418    3.067    0.674
       132 -11.8087    238.0305     80.9090   1.2863031282e+01   1.6197216155e+01    0.2456775     0.219163   2.58            0    1.369    0.270
       133 -12.5930     97.1759     68.5729   3.7348389689e+01   5.0327915106e+01    0.5415891    0.4654203 -42.19  0.002791937    1.191    0.160
       134 -11.2348     99.9914     80.7989   4.0446696324e+01   4.7189180524e+01    0.3819736    0.3437544  22.04  0.001411124    1.161    0.139
       135 -11.0594     99.5505     76.9348   3.9355783987e+01   4.8100911352e+01    0.4335185    0.2671449 -26.75  0.001736074    2.108    0.526
       136 -11.2049     96.1757     75.8427   4.0106849954e+01   4.9054014618e+01     0.421982    0.3303771 -86.19  0.001687363    1.735    0.423
       137 -13.1321    232.1106     74.4523   1.2109045513e+01   1.8256990285e+01     2.090448     0.669023 -34.25  0.008224719    2.722    0.633
       138 -11.2221    234.3167     36.9594   3.5073059179e+00   2.2828416799e+01     0.447959    0.2488882 -70.02  0.001887266    1.904    0.475
       139 -12.8389    221.2943     39.3467   5.1881759190e+00   2.5235422478e+01    0.9475136    0.5908406  86.51 0.0006118701    1.705    0.414
       140 -10.2536    203.2383    115.8900   2.5747047379e+01   1.7426047518e+01    0.4272807    0.2360919  73.40   0.00148688    4.126    0.758
       141 -11.5271    225.8798     49.8237   7.1741927863e+00   2.2918079782e+01    0.5139339    0.3157128 -60.31  0.002165925    1.572    0.364
       142 -12.5530    237.4507     50.7289   6.2747933537e+00   2.0460067757e+01    0.4636404    0.3306431 -65.70  0.001094559    1.329    0.248
       143 -11.3559    229.9340     47.5005   6.2524781340e+00   2.2388120698e+01    0.2555674    0.2232395 -66.13  0.001069092    1.080    0.074
       144 -11.9592    234.4695     46.1072   5.5228327212e+00   2.1649889305e+01    0.3737366    0.2125244  89.68 0.0008989201    2.086    0.521
       145 -10.3012    156.4156     76.8706   2.4470124915e+01   3.4729478401e+01    0.3365114    0.2124095  61.30   0.00106594    1.644    0.392
       146 -10.2192    103.9734     75.5168   3.7488314471e+01   4.7425396481e+01     0.228494    0.2103397 -40.12 0.0004474638    1.107    0.097
       147 -11.0702    250.1620     73.6427   9.9943111029e+00   1.4992614862e+01     0.361486    0.2138145 -37.00  0.001153978    1.385    0.278
       148 -10.2329    248.5556     69.2103   9.2155682307e+00   1.5887867527e+01    0.2638851    0.2044476 -17.69 0.0009063335    1.496    0.332
       149 -10.4945    105.9008     71.2944   3.5501448708e+01   4.7843593931e+01    0.2623298    0.2045775 -51.30 0.0005618252    1.356    0.263
       150  -9.9685    162.9740     70.7368   2.1404687464e+01   3.4194624694e+01    0.2120345    0.1905702  73.14 0.0008011839    1.106    0.096
       151 -10.0097    161.4623     66.5149   2.0471773432e+01   3.5265077932e+01    0.3031881    0.1444352 -35.27 0.0008524685    2.107    0.525
       152 -10.9500     93.6676    116.0257   5.2269469340e+01   4.0311846913e+01    0.2348474    0.2101999 -21.57   0.00040243    1.232    0.188
       153 -10.1395    137.0130     62.0734   2.4180069957e+01   4.2071193670e+01    0.3452695    0.2896151 -19.74  0.000896168    1.352    0.260
       154 -10.2787    141.1836     61.6356   2.3109677461e+01   4.1105182767e+01    0.3236715    0.1458421  55.90 0.0009922199    2.135    0.532
       155 -10.7985    127.8594     58.3328   2.5109206261e+01   4.4978098482e+01    0.6259763    0.3598828  42.43  0.002610551    1.852    0.460
       156 -11.2140    162.3014     57.5645   1.7697498179e+01   3.6484494240e+01    0.4671165    0.2790112  44.24  0.001296771    1.890    0.471
       157 -13.1077    193.9746     67.2432   1.5289601573e+01   2.7414013775e+01     1.057151    0.8522997   3.61  0.004004653    1.666    0.400
       158  99.0000    108.5772     55.7304   2.9311571360e+01   5.0120062154e+01    0.8800981    0.5132571  51.10  0.003803757    1.637    0.389
       159  -9.5255    111.4478     52.4776   2.7329736388e+01   4.9986450130e+01    0.2189592     0.135249  43.26  0.000507846    1.615    0.381
       160 -11.5248     98.4609     55.2907   3.2205818479e+01   5.2557263679e+01    0.5401541    0.3547224 -48.12  0.002308358    1.662    0.398
       161 -10.5221    102.0007     53.4948   3.0443621287e+01   5.2057143602e+01    0.3839795    0.2724508  28.81  0.001074664    1.616    0.381
       162 -10.4546    248.4678     55.7721   6.3713951079e+00   1.7692646358e+01     0.372374    0.2059819  61.68  0.002098372    2.092    0.522
       163 -10.5972    245.3504     50.4344   5.5076090868e+00   1.8969121477e+01    0.2507778    0.1566972 -34.89  0.000513074    1.411    0.291
       164  99.0000    246.9741     46.7619   4.5879204021e+00   1.9128188401e+01    0.2362773    0.1217744  68.75  0.001286022    2.179    0.541
       165 -10.0413    250.4220     48.3234   4.6340591797e+00   1.8283711932e+01    0.2997817    0.1631139 -30.02  0.001453525    1.759    0.431
       166 -10.2755    250.5274     44.4673   3.8178266159e+00   1.8746985731e+01    0.1859106    0.1287276 -36.65 6.010675e-05    1.276    0.216
       167 -11.2443    246.6987     42.1578   3.6339752659e+00   1.9755839722e+01    0.3301344    0.1847642 -57.28 0.0008118153    1.601    0.375
       168 -11.2545    155.8849     42.1670   1.4160814872e+01   4.0352261670e+01    0.4820679    0.2928171  44.06  0.002179171    1.867    0.464
       169 -11.8727    149.9612     42.0964   1.5161283027e+01   4.1871226368e+01    0.3841977    0.3278933 -39.46 0.0004235327    1.216    0.177
       170 -11.0823    146.7028     39.1776   1.4808348897e+01   4.3105666359e+01    0.4435858     0.326703  32.16  0.002185985    1.668    0.401
       171 -11.8988    161.3605     40.4866   1.2758882491e+01   3.9193577587e+01    0.4514216    0.3028859  45.20  0.001129783    1.666    0.400
       172 -11.9982    160.5456     35.8834   1.1492380578e+01   4.0008192453e+01    0.7249786    0.2342202  58.84  0.002572967    2.745    0.636
       173 -11.8788    144.9879     44.0096   1.6685285031e+01   4.2872460310e+01    0.2875672     0.239649  29.75 0.0003522276    1.406    0.289
       174  -9.6955     69.4193     55.3260   4.2732812892e+01   5.8625602223e+01    0.2898148    0.1828718  42.70  0.001347315    1.584    0.369
       175 -10.5967    167.6783     51.8837   1.5122013440e+01   3.6004851010e+01    0.2966612    0.2287752  28.04  0.001193497    1.680    0.405
       176 -10.8231    135.7793     52.8780   2.1465311885e+01   4.3883574312e+01    0.6015142    0.2145236  61.80  0.001960842    2.988    0.665
       177 -10.1477     90.3113     51.2131   3.3332633392e+01   5.5115553297e+01    0.1992895    0.1853807  13.56 0.0004367698    1.075    0.069
       178 -10.4769    161.4608     48.8627   1.5258795640e+01   3.7996779648e+01    0.3606395    0.2667389   1.31  0.001716139    1.931    0.482
       179 -10.1640     99.5012     47.4764   2.8938597181e+01   5.3660855882e+01     0.247868    0.2408633  13.43  0.000937299    1.048    0.046
       180 -11.5528    145.7257     52.3126   1.9203610905e+01   4.1455897950e+01    0.6799994    0.3924352  25.96  0.001380576    3.124    0.680
       181 -10.7080    128.1358     46.1771   2.0904994424e+01   4.6847556219e+01    0.2123151    0.1731406 -78.22 0.0005660239    1.368    0.269
       182 -10.1877    122.9983     43.6840   2.1215848315e+01   4.8517114607e+01    0.4549464    0.2603138  35.38   0.00185249    2.192    0.544
       183  -9.9292    105.4380     44.2881   2.5973183272e+01   5.2763525867e+01     0.396538    0.2386216 -61.11  0.001590412    2.455    0.593
       184  -9.6038    100.6342     41.2070   2.6163685310e+01   5.4392355321e+01    0.2050796    0.1404793 -17.83 0.0009458639    1.756    0.430
       185 -10.3093    240.9960     39.7378   3.5714355466e+00   2.1156963589e+01    0.2063014    0.1397265 -42.95 0.0005637697    1.221    0.181
       186  -9.6164    134.0347     41.1866   1.7911867206e+01   4.6074578051e+01    0.8868525    0.5174708 -80.18  0.003367326    2.749    0.636
       187  -9.7748     96.5517     37.3619   2.5838809593e+01   5.5941956821e+01    0.2689698    0.1253945 -44.80  0.001044461    2.468    0.595
       188 -11.8162     92.1852     33.8156   2.5706274910e+01   5.7487172589e+01     0.529568    0.3393263  41.36  0.002529768    1.505    0.336
       189 -10.9815    122.3026     32.9377   1.7491713177e+01   5.0197381611e+01    0.5769341    0.2420741 -38.66  0.001519103    2.446    0.591
       190  -9.6942    249.7441     35.5712   2.0196385128e+00   1.9980142932e+01    0.1663665    0.0986426 -81.62 0.0009618509    1.822    0.451
       191 -10.9474    131.8358     33.8020   1.5809887712e+01   4.7642781820e+01    0.2798353    0.2074969 -48.65 0.0007697491    1.419    0.295
       192 -10.8691     74.5353     33.4971   3.1620996584e+01   6.1472288254e+01    0.4493125    0.2642577  52.14   0.00209059    1.703    0.413
       193 -10.4225    112.1706     32.8922   1.9821785171e+01   5.2764020026e+01    0.3082037     0.189313  52.75 0.0007461703    1.487    0.328
       194 -11.4588    142.2685     46.6960   1.8083471162e+01   4.3177624472e+01    0.2286624    0.2032049 -86.84 0.0001731457    1.116    0.104
       195 -10.2623    163.4860     30.9892   9.5861631356e+00   3.9881441817e+01    0.3494305     0.179321 -55.07  0.001145591    2.121    0.529
       196  -9.7642    241.9741     30.1301   1.4334353463e+00   2.2123309580e+01    0.2449791    0.1795043 -84.81  0.001006349    1.343    0.255
       197 -10.3887    237.4248     30.6902   1.8885278155e+00   2.2959013540e+01    0.2564168    0.1577993 -84.02  0.000984945    1.677    0.404
       198 -10.4138    227.1386     30.7104   2.6952680110e+00   2.5061200133e+01    0.4061565    0.2118714  51.01  0.002035793    2.499    0.600
       199  -9.4915    242.3889    112.7828   1.9183460643e+01   1.0720697462e+01    0.1873222    0.1050133 -27.20  0.000954007    1.699    0.411
       200 -11.4563    137.6525    112.5294   3.8702716008e+01   3.2070398809e+01    0.5193049    0.2603993  33.94  0.001852422    2.457    0.593
       201 -10.1456    212.4821     28.3994   3.3998266127e+00   2.8491506622e+01    0.2954153    0.1832956 -35.60  0.001628843    1.511    0.338
       202 -10.2826    152.4007     29.5780   1.0787752827e+01   4.2879973784e+01    0.2311256    0.2032626  83.47 0.0001916718    1.039    0.038
       203  -9.4848    153.4815     25.4793   9.3312377077e+00   4.3092113242e+01     0.199069    0.1223116 -44.54  0.000587387    1.629    0.386
       204 -10.7783    103.6774     27.2070   1.9709410080e+01   5.5616943360e+01    0.3604406    0.2811222 -84.87  0.001858936    1.551    0.355
       205 -10.4068    102.4813     23.4549   1.8476492003e+01   5.6376042692e+01    0.1998039    0.1751769 -36.92 0.0004942782    1.247    0.198
       206  -9.5011    111.4327     25.4848   1.7119123907e+01   5.3896305797e+01     0.447908    0.2729929 -61.44  0.001957976    2.211    0.548
       207 -10.7114    113.6289     23.2989   1.5765712983e+01   5.3602019019e+01    0.3135948    0.2212338 -64.60 0.0009545514    1.714    0.417
       208  -8.5597    167.9090     26.6142   7.6932775442e+00   3.9293707035e+01    0.3510541    0.1614925  78.57  0.001431148    2.315    0.568
       209 -10.0584    158.9489     26.5988   8.8941686884e+00   4.1562990513e+01    0.2116833     0.190835 -11.56 0.0005970856    1.325    0.245
       210 -11.0674    135.0597     26.8211   1.2772104575e+01   4.7685124810e+01    0.3517269    0.2565405  75.20  0.001147703    1.304    0.233
       211 -10.4579    233.8702     24.7393   8.5111866068e-01   2.4371615309e+01    0.3195965    0.2123539 -18.01   0.00183852    1.940    0.485
       212 -10.2808    211.3319    112.0214   2.3523951147e+01   1.6492087813e+01    0.2231402    0.1888885  53.19 0.0006012099    1.326    0.246
       213  -9.6011    191.2875    112.4163   2.7034697627e+01   2.0452623087e+01    0.1504918    0.1097068  -2.92 0.0006969808    1.833    0.454
       214 -10.1395    147.7479     24.9665   1.0030779343e+01   4.4626075237e+01    0.3547458    0.2215042  21.49 0.0008812523    2.509    0.601
       215  -9.8148    233.4691    109.0125   1.9577020609e+01   1.2843332395e+01    0.1731207    0.1633877 -25.26 9.296264e-06    1.110    0.099
       216  -9.8499    184.8573     24.3539   5.0634670718e+00   3.5375513219e+01    0.2805004    0.1971679 -10.39  0.001463472    1.919    0.479
       217 -12.2645    244.1073     22.7644   3.5972779414e+02   2.2555868825e+01    0.5836198    0.2111923  75.74  0.002057129    2.968    0.663
       218 -10.6873    244.3289     18.8370   3.5889149362e+02   2.2952348200e+01    0.2271428    0.1577695 -83.18 0.0009759091    1.370    0.270
       219 -10.9617    124.2106     22.6648   1.3323690384e+01   5.0970688138e+01    0.4640462    0.3529596 -44.27  0.001239473    1.403    0.287
       220 -10.3035     97.6521     21.9445   1.9098542450e+01   5.7742510861e+01    0.3609919    0.1948724 -20.90  0.001594351    2.179    0.541
       221 -10.1327    190.9672     23.4818   4.1966999929e+00   3.4010840262e+01    0.2018856    0.1211232  79.86  0.001029767    1.608    0.378
       222 -11.4168    202.2860     20.8445   2.4557426538e+00   3.1665445898e+01    0.3464431    0.2479419 -71.28  0.001300785    1.256    0.204
       223 -11.2380    195.5616    107.2834   2.5044545161e+01   2.0467553512e+01     0.577504    0.3645546 -71.35  0.002369634    2.691    0.628
       224 -10.5396    118.0183     21.0125   1.3945946432e+01   5.2746724062e+01    0.4280926    0.2485035 -76.55  0.001746939    2.555    0.609
       225 -10.0308    151.5344     20.9344   8.1743321350e+00   4.4108880772e+01    0.2860119    0.1759284 -84.14  0.001337975    1.782    0.439
       226 -10.8856    192.7549     18.9993   2.8530226706e+00   3.4091842012e+01    0.4539509     0.190448  54.36  0.001954342    2.642    0.621
       227  -9.8790    163.2694     20.3362   6.4230828392e+00   4.1180536866e+01    0.1915602    0.1385049 -68.12  0.001019249    1.354    0.262
       228  -9.5538    169.6332     18.8664   5.2237032032e+00   3.9740218329e+01    0.1889812    0.1093997 -43.88 0.0003559696    1.656    0.396
       229  -9.7580    136.0806     19.3006   9.9959680320e+00   4.8278448450e+01    0.2782547    0.1550014  56.21 0.0003122881    1.641    0.391
       230 -12.1257    161.2233    106.7531   3.1621785726e+01   2.8013446213e+01       0.4212    0.2584854 -45.35  0.001132392    1.616    0.381
       231 -10.8889    130.4417     19.1466   1.0898414988e+01   4.9754431492e+01    0.2870501    0.1850501  77.89 0.0002579195    1.517    0.341
       232 -12.5554    145.4327    103.1932   3.4306215105e+01   3.2285169091e+01    0.6402408    0.5768432  64.86  0.002633859    1.154    0.134
       233 -10.1541    209.5523    104.3276   2.2032038316e+01   1.8114936204e+01    0.5280261    0.3258191 -65.34  0.002332274    2.404    0.584
       234 -12.4514    155.8763    105.1343   3.2386901752e+01   2.9531964002e+01    0.9214898    0.3474884 -51.79  0.002783135    3.532    0.717
       235 -10.6409    159.7285     99.5505   3.0058425767e+01   2.9747346534e+01    0.3705492    0.2341549 -60.84  0.001287587    2.011    0.503
       236 -10.6616    155.7912     96.0031   2.9967384305e+01   3.1335420650e+01     0.513743    0.2577808  43.62  0.001659076    2.106    0.525
       237  -9.6560    229.5931     15.7218   3.5916484457e+02   2.6261537893e+01    0.1705409   0.08781455 -44.54 0.0009343573    1.567    0.362
       238  -9.7085    172.7272     16.5401   4.2079042812e+00   3.9219667958e+01    0.1820346    0.1159458 -87.33 0.0009226726    1.526    0.345
       239 -11.5587    150.0913     95.1946   3.1031272578e+01   3.2813500400e+01    0.7445375    0.3933211 -61.52  0.001985518    3.072    0.674
       240 -10.3708     16.0753    105.8217   7.8232515450e+01   5.3110273793e+01    0.2601198    0.1787155 -26.86  0.001370755    1.694    0.410
       241 -11.0416    109.5763    104.2710   4.4306977191e+01   3.9949077676e+01    0.2756024    0.1972715 -39.21 0.0009431148    1.464    0.317
       242 -11.2237    140.8177     95.9065   3.3433216166e+01   3.4820957681e+01    0.4682461    0.3733025 -85.91  0.002048028    1.571    0.363
       243 -13.3048    122.1221     99.9432   3.9472094653e+01   3.8212853231e+01    0.8550016    0.5635948 -26.57  0.003142623    1.928    0.481
       244 -13.3661    131.0548     94.8459   3.5613878408e+01   3.7284491471e+01     1.058478    0.6898742  50.96  0.004609358    1.538    0.350
       245 -11.3560    131.8207     87.0700   3.3162069939e+01   3.8693078834e+01    0.7802529     0.322462  53.88  0.002431054    2.583    0.613
       246 -12.0337    137.0674     81.3041   3.0130499185e+01   3.8580830753e+01    0.7428172    0.5369431 -76.29  0.001542691    1.862    0.463
       247 -10.8976    132.0608     83.0404   3.1901654281e+01   3.9435333526e+01    0.2690281     0.247431  61.44 0.0003509527    1.081    0.075
       248 -13.2321      3.9613     54.1280   7.5069330216e+01   6.6665229083e+01     1.056035    0.6304983 -67.96  0.005774552    1.501    0.334
       249 -11.4468    127.0861     89.7926   3.5207701480e+01   3.9240071984e+01    0.4852184    0.3023617  38.13  0.001122281    1.723    0.420
       250 -12.2575    121.8416     86.8311   3.5760096249e+01   4.1055814820e+01    0.6438892     0.440322 -40.18  0.002872975    1.496    0.332
       251 -11.8956    126.2548     83.5815   3.3580566615e+01   4.0693996549e+01    0.7184694    0.3434825 -33.47  0.002135106    2.477    0.596
       252 -10.5355    228.5294     97.4400   1.7704428341e+01   1.5525030322e+01     0.202384    0.1928193  24.27 3.299223e-05    1.208    0.172
       253 -11.1401    222.6827    100.3197   1.9155804074e+01   1.6189031648e+01    0.2401867    0.1945394 -83.55  0.001127435    1.536    0.349
       254 -11.5878    225.5923     98.7777   1.8402702215e+01   1.5874330813e+01    0.6966357    0.2010437 -45.94  0.002346998    3.614    0.723
       255 -13.0749    114.0502     94.5916   4.0270265411e+01   4.1155316013e+01    0.7079937    0.5013501  57.51  0.003151577    1.533    0.348
       256 -12.2449     95.6598     90.0068   4.4673210008e+01   4.6069126201e+01     0.626426    0.4934235  56.82 0.0009344288    1.366    0.268
       257 -12.3256    102.3792     96.4026   4.4349062092e+01   4.3240044983e+01    0.4012605    0.3596308 -21.33 0.0005391561    1.206    0.171
       258 -12.3831    106.8588     95.8977   4.2808673776e+01   4.2415883712e+01    0.6675569    0.3536059 -37.93  0.002295186    2.107    0.525
       259 -12.9847     85.3660     98.6971   5.0615099131e+01   4.6044747735e+01    0.7820423    0.4255868  29.82  0.003058207    2.080    0.519
       260 -10.2280    244.3761     98.6920   1.5952244008e+01   1.2463148285e+01    0.3390156    0.1383058 -28.63  0.001429065    2.560    0.609
       261 -11.9385    177.1993     84.8836   2.2661501103e+01   2.8402873603e+01    0.9617609    0.4632915  35.50  0.002563335    3.368    0.703
       262 -12.2063    174.4821     56.3420   1.5305471556e+01   3.3671736678e+01    0.4225317    0.2856668  60.92 0.0007287998    1.472    0.321
       263 -10.8578     36.5636    248.7429   8.4179125410e+01   1.8048425831e+01    0.1894311    0.1014941 -73.09  0.001146275    2.117    0.528
       264 -13.0512    186.2199     58.9435   1.4236141158e+01   3.0466962567e+01     1.342794     0.917634  55.57  0.005743861    1.528    0.345
       265 -11.1270    113.5434    246.1170   6.7912560838e+01   8.9929655825e+00    0.2824777    0.2034509 -27.56  0.001440977    1.864    0.464
       266 -11.5216    203.0245     33.6713   5.5917721917e+00   2.9981600137e+01    0.4092792    0.3011155  68.70 0.0001983062    1.390    0.280
