#   1 NUMBER                 Running object number                                     
#   2 MAG_AUTO               Kron-like elliptical aperture magnitude                    [mag]
#   3 X_IMAGE                Object position along x                                    [pixel]
#   4 Y_IMAGE                Object position along y                                    [pixel]
#   5 X_WORLD                Barycenter position along world x axis                     [deg]
#   6 Y_WORLD                Barycenter position along world y axis                     [deg]
#   7 A_WORLD                Profile RMS along major axis (world units)                 [deg]
#   8 B_WORLD                Profile RMS along minor axis (world units)                 [deg]
#   9 THETA_WORLD            Position angle (CCW/world-x)                               [deg]
#  10 FWHM_WORLD             FWHM assuming a gaussian core                              [deg]
#  11 ELONGATION             A_IMAGE/B_IMAGE                                           
#  12 ELLIPTICITY            1 - B_IMAGE/A_IMAGE                                       
         1 -14.8491      3.1264    134.9969   1.4326322082e+02   4.6462336679e+01     7.724971     0.355872 -70.55    0.0159244   11.804    0.915
         2 -13.6409    199.0280     29.2621   6.8207395500e+01   3.2123567478e+01     1.483101     1.201744  52.46  0.006361149    1.309    0.236
         3 -13.8150    215.8905      8.1414   6.1212390723e+01   3.0520584608e+01    0.9768187    0.7360787  72.42  0.003111575    1.206    0.171
         4 -11.1721     95.5747    153.1514   1.2312312258e+02   3.1478756440e+01     0.360839    0.3246856 -43.03 0.0008449001    1.234    0.190
         5 -12.7916    243.3770    245.9402   1.0885962688e+02  -1.2720467857e+01     1.296215    0.4880238  28.68  0.005629327    2.926    0.658
         6 -12.5863    237.8961    247.6796   1.1011378020e+02  -1.2125748641e+01    0.8285725    0.3168904  30.63  0.003750962    2.605    0.616
         7 -13.6858      7.8248    244.6785   1.5086278556e+02   2.3136474801e+01     1.680078     1.024267 -84.94    0.0115892    1.332    0.249
         8 -14.8133     32.9666    229.3445   1.4582736380e+02   2.3295573506e+01    0.9609756    0.8224518 -62.83  0.007214658    1.631    0.387
         9 -11.8796    172.4081    248.3185   1.2221930889e+02  -1.6054632894e+00     0.388456    0.2343665  38.95  0.002166323    1.398    0.284
        10 -11.4855    152.5840    249.2694   1.2606962513e+02   1.6225717022e+00    0.3665788    0.1758256  32.31  0.001663917    2.392    0.582
        11 -10.8946     81.5162    249.2042   1.3905939212e+02   1.3068182172e+01    0.2266124     0.142001  51.26  0.001190443    1.323    0.244
        12 -11.0668     85.4884    246.7471   1.3812145334e+02   1.2931266069e+01    0.2415785    0.1458669  74.96  0.001397861    1.644    0.392
        13 -10.6817     75.8023    248.2697   1.3997321047e+02   1.4067419643e+01    0.3458851    0.1159097 -63.07  0.001609947    3.078    0.675
        14 -11.0598    161.6865    249.1571   1.2434872117e+02   9.0923989608e-02    0.2366995    0.1503707  49.75  0.001343188    1.378    0.274
        15 -11.6834     50.1896    235.4867   1.4333213406e+02   1.9980094601e+01    0.2820169     0.205173  83.48  0.001265591    1.104    0.094
        16 -12.4963    119.1315    232.5870   1.3025892806e+02   1.0228432711e+01    0.7163993    0.1534769  44.34  0.002372621    3.834    0.739
        17 -12.5677     94.1013    228.3643   1.3457761995e+02   1.5112940440e+01      1.11398    0.1672703  48.84  0.002942156    6.516    0.847
        18 -11.8894    139.6938    249.2284   1.2847390941e+02   3.8111594398e+00    0.3234525    0.3025367  57.64  0.002268534    1.160    0.138
        19  -9.6975    174.2842    222.7371   1.1791483647e+02   2.2413867779e+00    0.3102346    0.1904648  78.11  0.001151909    3.962    0.748
        20 -12.9564     44.9629    215.9158   1.4259566127e+02   2.4567456633e+01    0.9156733     0.505236  67.63  0.004654043    1.649    0.394
        21 -12.5160      9.4562    207.4098   1.4833540289e+02   3.0229496661e+01    0.6153912    0.4970854  29.07  0.003004802    1.850    0.459
        22  -8.7791    152.5025    213.0768   1.2073697832e+02   8.0131077533e+00      0.17768    0.1374784 -53.66 0.0003243613    1.427    0.299
        23 -10.5306     58.2016    212.5146   1.3977241050e+02   2.3578918879e+01    0.2313585    0.1559204 -77.82  0.001412433    1.326    0.246
        24 -11.0532     55.0057    205.4848   1.3967603262e+02   2.5492272411e+01    0.4462563    0.1658506  55.69  0.001918091    2.781    0.640
        25 -12.1417     57.1073    199.9010   1.3866489520e+02   2.6424605024e+01    0.2808262     0.228888 -87.45 0.0004916757    1.084    0.077
        26 -10.6373      7.5573    193.2621   1.4766339123e+02   3.3352539828e+01    0.2395332     0.139684  70.28  0.000741069    1.483    0.326
        27 -12.3342     63.9340    191.2253   1.3625844359e+02   2.7425512701e+01    0.2688898    0.2277766 -81.45 0.0003951635    1.120    0.107
        28 -10.9852     74.9267    177.9358   1.3210960211e+02   2.8892661516e+01     0.245446    0.2149738 -81.44 0.0003345945    1.078    0.072
        29 -13.2489     61.1118    176.3925   1.3499252776e+02   3.1168486490e+01    0.5090843    0.2686261 -48.13  0.001604617    2.252    0.556
        30 -14.1225      8.8980    154.8648   1.4405930862e+02   4.1606211192e+01      1.93485     0.792285 -85.71  0.009049422    2.468    0.595
        31 -11.7493    124.2689    249.6758   1.3139163435e+02   6.3041697702e+00    0.5445229     0.144282  49.33  0.001989014    3.407    0.706
        32  -9.9385     98.8952    148.8210   1.2146194857e+02   3.1941344870e+01    0.2385004    0.2212981 -65.30 0.0004614884    1.065    0.061
        33 -12.1469     84.2491    151.9969   1.2572998192e+02   3.3574801855e+01     0.312614     0.244363 -49.58 0.0007478223    1.308    0.235
        34 -12.2000     67.5730    143.4711   1.2842873854e+02   3.8025623158e+01    0.6381274    0.4140629  67.29  0.002313509    1.867    0.464
        35 -10.4811    108.5323    137.6366   1.1669364820e+02   3.2870088827e+01    0.4757234    0.3268761 -16.31  0.001531361    2.453    0.592
        36 -10.8179     95.2595    135.1628   1.1961586774e+02   3.5782220503e+01    0.2491446    0.2337934 -46.58 0.0003241781    1.113    0.101
        37  -9.7816    115.2369    129.5527   1.1313998347e+02   3.3493937793e+01    0.3889496     0.224839 -26.26  0.001379172    2.990    0.666
        38 -10.1142     26.0842    128.8625   1.3677166155e+02   4.6071513640e+01    0.1878154    0.1458774  84.88 0.0006632875    1.301    0.231
        39  -9.3167    105.9712    124.0763   1.1430081961e+02   3.6488187721e+01    0.2083943    0.2010551 -54.39            0    1.039    0.037
        40  -8.5955     68.6505    114.7611   1.2251593202e+02   4.4606987142e+01    0.1312155    0.1019172 -20.70 0.0002770474    1.571    0.363
        41  -8.6551     65.4032     80.5638   1.1504838253e+02   5.2498172390e+01    0.1320017    0.1156833 -37.57 0.0001835866    1.034    0.033
        42 -11.1050    158.6468     76.6864   8.8290404283e+01   3.4985628339e+01    0.2906403    0.2666909 -80.23 0.0007069216    1.149    0.130
        43 -12.3478     83.1594    168.3684   1.2876942108e+02   2.9883045787e+01    0.7860255    0.6845127 -33.62  0.004547603    1.467    0.318
        44 -12.4645     99.8732    248.2791   1.3569475163e+02   1.0461790323e+01    0.6039107    0.3152976  32.11   0.00292257    2.596    0.615
        45  -9.1506     95.5604    172.7649   1.2658329514e+02   2.6884423459e+01     0.189331    0.1274009 -76.13 0.0005443962    1.542    0.352
        46 -13.4666     32.9870    246.5209   1.4703072211e+02   2.0006846676e+01     1.360075    0.7641526  39.90   0.00871119    1.969    0.492
