#   1 NUMBER                 Running object number                                     
#   2 MAG_AUTO               Kron-like elliptical aperture magnitude                    [mag]
#   3 X_IMAGE                Object position along x                                    [pixel]
#   4 Y_IMAGE                Object position along y                                    [pixel]
#   5 X_WORLD                Barycenter position along world x axis                     [deg]
#   6 Y_WORLD                Barycenter position along world y axis                     [deg]
#   7 A_WORLD                Profile RMS along major axis (world units)                 [deg]
#   8 B_WORLD                Profile RMS along minor axis (world units)                 [deg]
#   9 THETA_WORLD            Position angle (CCW/world-x)                               [deg]
#  10 FWHM_WORLD             FWHM assuming a gaussian core                              [deg]
#  11 ELONGATION             A_IMAGE/B_IMAGE                                           
#  12 ELLIPTICITY            1 - B_IMAGE/A_IMAGE                                       
         1  -7.8396     83.4005     11.1928   7.6245457885e+01   6.1716267869e+01    0.1750606    0.1143374 -34.42 0.0005671938    1.626    0.385
         2  -8.5769     55.8024     10.2466   8.5818052446e+01   6.6667991747e+01    0.2014312    0.1507617 -32.90 0.0007398046    1.373    0.272
         3  -7.9310     47.4750     10.2464   8.9340783451e+01   6.7887319471e+01     0.161625    0.1046718 -40.65 0.0009371364    1.654    0.395
         4  -8.0380     27.9958     10.3089   9.8505912638e+01   7.0249781138e+01    0.1591928    0.1263926 -16.45 0.0005298725    1.046    0.044
         5  -8.4542     90.9110      8.9933   7.2939788412e+01   6.0456890701e+01    0.1957929    0.1611052 -59.60 0.0008966498    1.713    0.416
         6  -7.8166    101.2286      8.3608   6.9776253230e+01   5.8326818895e+01     0.176227    0.1245617  65.50  0.000405531    1.625    0.384
         7  -8.0865     12.5398      8.4968   1.0572098149e+02   7.1940331893e+01    0.1122352   0.08590861 -30.20 7.010822e-05    1.048    0.046
         8  -8.2629      5.5217      8.4667   1.0954244897e+02   7.2437566220e+01    0.1112929   0.08235772 -33.75 5.280711e-05    1.013    0.013
         9  -8.7189     33.4894      5.1079   9.3241567777e+01   7.0425046077e+01    0.2752121    0.1708618 -53.28  0.001474446    2.603    0.616
        10  -8.4579     79.1321      3.8161   7.4154214287e+01   6.3374344078e+01    0.2913202    0.1344518 -40.90  0.001088777    2.777    0.640
        11  -7.9927     44.5216      3.0207   8.6989059452e+01   6.9283354156e+01    0.1460121   0.09709392 -49.25 0.0006161641    2.297    0.565
        12  -7.7225    115.3403      2.6372   6.3935354164e+01   5.5670323026e+01    0.1378469    0.1014565 -61.30 0.0007032583    1.835    0.455
        13  -7.4038    147.2771      1.7058   5.7555343053e+01   4.7879593506e+01    0.1336955    0.1020804 -63.97 0.0003034155    1.528    0.345
        14  -8.4002     62.4146      1.4554   7.8800499025e+01   6.6683980251e+01    0.1760352    0.1187353  55.28 0.0004144683    1.925    0.481
        15  -8.2490     15.8318      3.5541   1.0163699882e+02   7.2474326553e+01      0.12898    0.1002693  26.28 0.0005415441    1.602    0.376
        16  -9.3829     10.5568    244.8466   1.3865952685e+02   2.4525781853e+01    0.4517763    0.1076701  64.86  0.002054113    4.152    0.759
        17  -8.5482     94.0724    249.8098   1.2551861767e+02   1.3953611680e+01    0.2459536    0.1135432  63.42  0.001333742    2.373    0.579
        18  -8.4519    139.4802    244.9442   1.1719555540e+02   8.0631142158e+00    0.1418965    0.0920197  83.06 0.0008082928    2.470    0.595
        19  -8.2767     67.5155    245.0804   1.2961898603e+02   1.8175578970e+01    0.1378709   0.09333054 -82.40 0.0006743397    1.545    0.353
        20  -9.3233    248.4925    242.4679   9.8229740824e+01  -8.1877232352e+00    0.2219616    0.1867632 -32.30  0.000977086    1.796    0.443
        21  -8.9558    202.0539    242.6716   1.0597691694e+02  -1.3680201848e+00    0.2585795    0.1663635 -34.70   0.00109699    1.946    0.486
        22  -8.7139    169.1331    243.4779   1.1180458807e+02   3.6621088841e+00    0.2017555    0.1519008  58.25 0.0006312419    1.471    0.320
        23  -9.0285     77.8897    243.2843   1.2774395085e+02   1.7132392209e+01    0.2602929    0.1280471  72.18  0.001465244    2.351    0.575
        24  -9.2098    194.5608    240.2278   1.0693099965e+02   8.0958668171e-02    0.3052039    0.1950178 -48.92  0.001270793    2.269    0.559
        25  -9.7668    160.2657    240.5528   1.1300705493e+02   5.4416440809e+00    0.3477079    0.2360078  87.38  0.001375202    2.789    0.641
        26  -8.1035     49.4888    242.9778   1.3245619229e+02   2.0693812002e+01    0.1496664   0.06380964  75.27 0.0008104877    2.622    0.619
        27  -9.5446    182.5281    240.2354   1.0903292684e+02   1.9694190298e+00    0.4178106     0.248984  45.49  0.001717721    1.418    0.295
        28  -7.8353    153.4982    242.0224   1.1438563294e+02   6.3029569101e+00    0.1398572   0.09634414  85.37 0.0008085794    2.426    0.588
        29  -7.9142     88.3463    242.2164   1.2586980795e+02   1.5907333249e+01    0.1401493   0.09002423  89.02 0.0007170203    1.720    0.419
        30  -9.4669    241.5519    238.3453   9.8723070234e+01  -6.8024444760e+00    0.4762122    0.2088358 -10.66  0.002028162    4.349    0.770
        31  -8.6038    146.6521    239.8815   1.1535083076e+02   7.6696872222e+00    0.2840749     0.172541  74.90  0.001077019    2.919    0.657
        32  -8.9511      1.7576    238.7472   1.3976397918e+02   2.6335890130e+01    0.2165518   0.08978482  77.11 0.0009346676    1.951    0.487
        33  -8.3217    209.2339    238.4037   1.0414119083e+02  -1.9843254216e+00    0.1576968    0.1435753 -68.44 0.0007951704    1.794    0.443
        34  -8.7110    135.4993    239.0507   1.1724921617e+02   9.5188590439e+00    0.1854745    0.1291954  57.54  0.000697405    1.323    0.244
        35  -8.3877    129.1505    238.8990   1.1836818993e+02   1.0514013035e+01    0.1835396    0.1273357  60.15  0.001125091    1.357    0.263
        36  -7.9618     41.0000    238.9801   1.3360951537e+02   2.2317051800e+01    0.1502753    0.0509183 -75.13 0.0008093817    2.991    0.666
        37  -9.0464    230.7807    237.2251   1.0032638146e+02  -5.1157557999e+00    0.2148934    0.1960343  70.58  0.001063632    1.931    0.482
        38  -9.3342    217.0164    235.5387   1.0239099130e+02  -2.8562826560e+00    0.2595923    0.2229943  73.48  0.001783314    2.019    0.505
        39  -9.9678    213.6769    231.6773   1.0238548686e+02  -1.8982637284e+00    0.4031682    0.2271242 -39.48  0.002342743    2.259    0.557
        40  -8.1989     13.1824    238.3719   1.3800470572e+02   2.5322816380e+01    0.1419761   0.05879487  50.01  0.000947457    1.726    0.421
        41  -9.2256    247.9605    235.3204   9.7215197045e+01  -7.4157632687e+00    0.2612084    0.2457709 -46.92  0.001812167    1.914    0.478
        42  -9.3878    246.3965    229.4991   9.6550223936e+01  -6.6018398510e+00    0.3932254    0.1908602 -28.31  0.002156305    2.239    0.553
        43  -9.1143    203.2024    234.3357   1.0459348754e+02  -5.6927299559e-01     0.294425    0.1929336 -50.72  0.001358254    2.354    0.575
        44  -9.7609    175.7873    233.3777   1.0930727054e+02   3.9295512249e+00    0.3898176    0.2396551 -61.50  0.002157661    2.761    0.638
        45  -8.6218    170.3008    235.8342   1.1061754346e+02   4.4829306236e+00    0.1788633    0.1080912 -55.83 0.0007010002    2.399    0.583
        46  -9.3892    109.1364    234.6772   1.2151987918e+02   1.4160711980e+01    0.4635484    0.1727173  53.29  0.001657654    2.536    0.606
        47  -7.8015     58.0427    237.0000   1.3065656784e+02   2.0657320115e+01    0.1707451   0.04867052  39.07 0.0008038712    2.952    0.661
        48  -8.5146    122.9678    234.4520   1.1900046401e+02   1.2128397882e+01    0.2119095    0.1332708  89.16 0.0007563297    2.335    0.572
        49  -8.3771     99.5617    234.5570   1.2322488932e+02   1.5566050906e+01    0.2225307    0.1218768  66.15 0.0009729884    1.956    0.489
        50  -9.0366     78.8167    234.7214   1.2691186741e+02   1.8396884210e+01    0.2436047    0.1349533  66.68  0.001071214    1.707    0.414
        51  -9.2933      8.2676    234.6124   1.3861627056e+02   2.6413593457e+01    0.1517266   0.09729525 -70.02  0.001193319    1.820    0.450
        52  -8.9761     68.1078    232.2195   1.2858747876e+02   2.0205046514e+01     0.375781    0.1657638  69.66  0.001920513    2.696    0.629
        53  -8.7274    194.3233    232.3979   1.0587014803e+02   1.0765568841e+00    0.2125328    0.1570458 -26.67 0.0008706013    1.630    0.387
        54  -9.0841    141.4874    231.0624   1.1523875095e+02   9.7649064779e+00    0.5765247    0.2214015  57.67  0.001998255    4.859    0.794
        55  -8.2593    132.6813    233.0895   1.1708532441e+02   1.0842721658e+01    0.1739603    0.1324732  73.62 0.0009007987    1.472    0.321
        56  -9.2670    236.2876    230.2132   9.8328641989e+01  -5.1894216415e+00      0.35209    0.1764484 -25.09 0.0009194391    2.238    0.553
        57  -9.4181    186.5067    230.7865   1.0702873424e+02   2.5387601032e+00    0.2685374    0.2167129 -87.76  0.001152309    2.090    0.522
        58  -7.9075    157.8426    232.0432   1.1237368843e+02   7.0063734411e+00    0.1722956    0.1265336  77.74 0.0006913835    1.953    0.488
        59  -8.2290     92.4215    231.9012   1.2425783308e+02   1.7007429750e+01    0.2426719   0.09491497  61.56  0.001032502    3.412    0.707
        60  -8.4693      1.8498    231.1396   1.3948003118e+02   2.7584258226e+01    0.1596136   0.08412396  65.73  0.000733009    1.335    0.251
        61  -9.2255    151.3256    228.9993   1.1317729857e+02   8.4966653987e+00    0.2777833    0.1868341  88.09  0.001315452    2.578    0.612
        62  -9.3567    148.8111    224.6916   1.1309133149e+02   9.5462410750e+00    0.3317392    0.2237941  74.01  0.001315611    2.120    0.528
        63  -8.2645    229.9621    228.9921   9.9195804099e+01  -4.1046326925e+00    0.1544178    0.1380413  52.45 0.0006648176    1.659    0.397
        64  -8.8998    162.4384    228.0806   1.1101647416e+02   6.8255821050e+00    0.3113084    0.1970109  62.11  0.001294456    2.007    0.502
        65  -8.8239    127.9567    227.4479   1.1730592788e+02   1.2450738842e+01    0.2603102    0.1563629  60.38  0.001236296    1.706    0.414
        66  -8.2046    119.9977    227.9794   1.1883804431e+02   1.3597348199e+01    0.1922088    0.1208383  66.75  0.001127433    1.745    0.427
        67  -8.2274    223.4644    226.8660   9.9965621936e+01  -2.8674961861e+00    0.2465949    0.1417571 -13.50  0.001390156    2.156    0.536
        68  -9.3461    225.6418    221.9679   9.8815865102e+01  -2.6424944978e+00    0.2285543    0.1977289  34.50  0.001056171    1.325    0.245
        69  -8.5419    200.2994    226.3306   1.0392100138e+02   8.7519344975e-01    0.2230929    0.1485433 -34.16 0.0008323568    1.805    0.446
        70  -8.1020     49.2425    226.9443   1.3148962044e+02   2.3408982485e+01    0.2375843    0.0776551  56.07  0.001176095    2.628    0.619
        71  -8.8050     94.2933    224.3995   1.2321367989e+02   1.7996034092e+01    0.3561731    0.1659121  66.17  0.001684253    2.805    0.643
        72  -8.9571    180.6788    224.4044   1.0716800148e+02   4.3402655612e+00    0.2750874    0.1732015  54.20  0.001240925    1.741    0.426
        73  -7.7441     78.3292    225.6671   1.2624457682e+02   1.9985188415e+01    0.1218694   0.06670367  64.95 0.0003855024    1.720    0.419
        74  -7.9649     38.4492    224.9862   1.3322105930e+02   2.4975199663e+01    0.1511633   0.06401695  74.93 0.0006477928    2.475    0.596
        75  -9.0196    216.5446    223.0345   1.0055732247e+02  -1.3304586151e+00    0.2933886    0.2023393 -28.20  0.001406037    1.657    0.396
        76  -8.6903    173.1793    223.1577   1.0836405148e+02   5.7554211557e+00    0.2254196    0.1931374 -85.90 0.0008902507    1.642    0.391
        77  -7.7878    113.7547    224.0435   1.1956482632e+02   1.5188291218e+01    0.1284414   0.09881171 -71.75  0.000378293    1.505    0.336
        78  -8.8230    104.8141    223.5783   1.2118195167e+02   1.6606203247e+01    0.2824139    0.1714939  79.46    0.0015911    2.071    0.517
        79  -9.1166    160.4902    221.4491   1.1047969708e+02   8.1104504329e+00    0.4868352    0.2215615  57.80   0.00184477    3.385    0.705
        80  -8.1155    140.1790    223.0938   1.1450197012e+02   1.1191491255e+01    0.1684707    0.1216348  57.97  0.000600103    1.320    0.243
        81  -7.7722     59.6747    223.3786   1.2940865590e+02   2.2778811895e+01    0.1224635   0.06184787  66.25 0.0007022856    1.837    0.456
        82  -8.8383    239.1723    221.9191   9.6518272040e+01  -4.7231520620e+00    0.1887816    0.1476396  46.08 0.0008298207    1.617    0.382
        83  -9.4130    192.2325    221.0683   1.0457391171e+02   2.8768990137e+00    0.2527331    0.2090608 -53.55 0.0009226477    1.677    0.404
        84  -8.9823     82.9944    220.9004   1.2496979647e+02   2.0178191656e+01    0.3020849    0.1333198  63.75  0.001445292    2.655    0.623
        85  -8.9856      7.8233    222.1026   1.3817885424e+02   2.8579610839e+01    0.2517937    0.0610771  43.30  0.001370069    2.764    0.638
        86  -9.1464    120.8714    219.6834   1.1773278487e+02   1.4812220956e+01    0.4313413    0.2114068  63.47  0.001955925    2.832    0.647
        87  -8.2652     72.8694    220.7607   1.2681891577e+02   2.1560872345e+01    0.2175706    0.1152228  75.08 0.0008380442    2.093    0.522
        88  -8.0341     27.5233    220.5659   1.3482987107e+02   2.6920453824e+01    0.2046699   0.08586439 -79.06  0.001222498    2.210    0.547
        89  -8.7931    249.7314    219.1052   9.4308572273e+01  -5.9991547654e+00    0.1830181    0.1725934   1.24  0.001026309    1.530    0.346
        90  -8.2990    202.6108    220.2216   1.0257534292e+02   1.2741456766e+00    0.1458846    0.1092084 -12.70 0.0003568365    1.506    0.336
        91  -9.0100    206.0487    226.1269   1.0287410966e+02  -2.6457372124e-02     0.194222    0.1702137 -50.81 0.0007582695    1.653    0.395
        92  -8.3135    210.0465    219.0651   1.0107024987e+02   2.0340627549e-01    0.1821034    0.1487354  24.40 0.0005197774    1.046    0.044
        93  -9.2706    132.6879    215.7685   1.1499944353e+02   1.3576544697e+01    0.4346637    0.2557532  78.53  0.001875576    3.082    0.675
        94  -8.6037     62.2352    217.4330   1.2848890468e+02   2.3514450155e+01    0.2586155    0.1201932  62.95  0.001309188    2.056    0.514
        95  -8.4926     51.5970    217.2350   1.3040244259e+02   2.4844545364e+01    0.2448085    0.1285911  79.24  0.001078658    1.891    0.471
        96  -8.6389    169.1552    216.3814   1.0813839559e+02   7.4069995300e+00    0.2361869    0.1917908 -78.81 0.0007992578    1.766    0.434
        97  -8.4905    142.9117    216.4210   1.1312458734e+02   1.1798011889e+01     0.213553    0.1637481  87.97 0.0007328711    1.694    0.410
        98  -7.7516    111.5905    216.8452   1.1917334360e+02   1.6725644601e+01    0.1537033    0.1074181 -86.46 0.0007639172    1.690    0.408
        99  -8.1537     18.5014    216.9912   1.3617275797e+02   2.8463366166e+01    0.1482806   0.08128432 -86.83 0.0008331246    1.566    0.361
       100  -8.8092    232.5160    214.1981   9.6364199780e+01  -2.8168659529e+00    0.3066968    0.1927485 -15.50  0.001594953    1.705    0.413
       101  -8.5400    185.4081    214.5435   1.0482830672e+02   4.9140995451e+00    0.1985076    0.1840636  36.12 0.0006014605    1.187    0.158
       102  -7.9584    154.2281    215.1926   1.1079616701e+02   1.0106314456e+01    0.1667648    0.1311838  62.83 0.0005965874    1.370    0.270
       103  -9.0030     92.9380    213.9214   1.2242305660e+02   2.0009499400e+01    0.2825407    0.1662539  81.23  0.001216406    2.076    0.518
       104  -9.5089    214.0854    212.3267   9.9263310036e+01   3.9133295225e-01    0.3438724    0.2569244  55.60  0.001605462    1.751    0.429
       105  -9.4159     72.8900    211.9074   1.2604064847e+02   2.3143405580e+01     0.554665     0.186383  58.99  0.002178523    3.811    0.738
       106  -8.3894    224.8271    213.0623   9.7498284422e+01  -1.4546271843e+00    0.1695748    0.1545897  28.31  0.000793337    1.318    0.241
       107  -8.7774    161.6300    212.4486   1.0899234288e+02   9.2777196114e+00    0.2055326    0.1849259  61.63 0.0006861194    1.219    0.179
       108  -7.5222    242.6804    212.2989   9.4326002864e+01  -4.1835751932e+00    0.1014439   0.09265024  47.51 0.0003319846    1.619    0.382
       109  -9.1020    204.3486    210.7791   1.0075631901e+02   2.2191781140e+00    0.2550696    0.2199771 -55.15 0.0008406016    1.656    0.396
       110  -9.3314    175.7651    210.2542   1.0597473268e+02   7.1841738272e+00    0.3561318    0.2369754  70.05  0.001469282    2.504    0.601
       111  -8.8516      8.5040    212.0035   1.3762278497e+02   3.0300446127e+01     0.203081   0.07561073  62.03  0.001045831    2.162    0.537
       112  -8.6165      5.5674    208.0788   1.3794232555e+02   3.1273112718e+01    0.2631444   0.08616588  82.46  0.001290898    3.135    0.681
       113  -8.6053    192.4328    210.6085   1.0291053831e+02   4.2676002623e+00    0.2175831     0.172889  86.36  0.001239983    2.158    0.537
       114  -8.9567    147.9008    210.3519   1.1133751070e+02   1.1940221050e+01    0.2740046    0.2076882  87.41  0.001312935    1.786    0.440
       115  -9.0231    116.2922    210.4126   1.1751219399e+02   1.7105028002e+01    0.3150299    0.1958951  73.14  0.001146096    2.011    0.503
       116  -8.2306     32.3145    210.2012   1.3338725848e+02   2.8286206490e+01    0.2545556   0.08130276 -86.38  0.001093951    3.881    0.742
       117  -9.1431    236.5976    208.5901   9.4715852736e+01  -2.8020196603e+00    0.2528494    0.2329226 -71.45  0.001229391    1.884    0.469
       118  -8.5323     85.8951    209.9461   1.2337037827e+02   2.1726836430e+01    0.2565334     0.148228  69.05  0.001441502    1.807    0.447
       119  -9.9187    124.4825    206.4134   1.1540006494e+02   1.6491952163e+01    0.3531796    0.2043378  67.77 -5.119154e-05    2.285    0.562
       120  -9.3217    246.3153    207.2397   9.2847646851e+01  -4.1680341476e+00    0.2374033     0.181659 -14.73 0.0006753666    1.296    0.228
       121  -9.5366    250.0838    201.9414   9.1289130800e+01  -4.1426436603e+00     0.344082    0.1751078 -24.94  0.001425927    1.996    0.499
       122  -8.0253    228.7453    208.2423   9.6003745447e+01  -1.5005792471e+00    0.3042478    0.1166236  25.61  0.001058967    4.274    0.766
       123  -8.4609    139.0620    208.1370   1.1275556171e+02   1.3791249683e+01    0.2363559    0.1501865  58.57  0.001026183    1.617    0.382
       124  -9.2181     99.4688    206.2784   1.2033132999e+02   2.0425096829e+01    0.3373165    0.1974765  77.71  0.001276012    2.192    0.544
       125  -9.4236    195.1497    203.7567   1.0128897886e+02   4.7636831788e+00     0.389326    0.3244938  71.62  0.001779062    1.710    0.415
       126  -9.2146    192.3112    197.3471   1.0074165593e+02   6.1931795407e+00    0.3000067    0.2503402 -68.33  0.001315373    1.751    0.429
       127  -8.6142     56.5680    205.4105   1.2857103723e+02   2.6420592046e+01    0.3085476    0.1400104  67.94  0.001429124    2.401    0.583
       128  -8.9114    183.9363    204.0465   1.0344556101e+02   6.6828772556e+00     0.286589    0.2190104  70.09  0.001023477    1.870    0.465
       129  -8.7695    131.1686    203.8823   1.1373603313e+02   1.5833118742e+01    0.3109587    0.1895458  69.05  0.001393843    2.188    0.543
       130  -8.2439    109.0420    205.0458   1.1829256506e+02   1.9189252355e+01    0.2001236    0.1281291  69.17 0.0005496258    1.709    0.415
       131  -7.9341     92.4124    205.2839   1.2161197973e+02   2.1648026180e+01    0.1588837    0.1054568 -87.13  0.000938958    1.652    0.395
       132  -9.6767    164.0000    203.0666   1.0712866318e+02   1.0336064701e+01    0.4268254    0.2459252  56.19  0.001097165    1.957    0.489
       133  -8.5043    211.0762    202.1810   9.8093617937e+01   2.2267827259e+00    0.1995411    0.1671667 -72.88 0.0006886428    2.012    0.503
       134  -8.0210     17.2188    203.2353   1.3567269358e+02   3.1092655438e+01    0.1665017   0.06505586  88.36 0.0008833297    2.451    0.592
       135  -9.2520    243.0563    200.8039   9.2257463672e+01  -2.9034439503e+00    0.2883976    0.2125656 -29.34 0.0009644067    1.513    0.339
       136  -8.1339    222.0180    201.5905   9.6030668397e+01   4.4690498941e-01    0.1769661    0.1660618 -65.08 0.0006803263    1.617    0.382
       137  -8.9024    140.3436    200.8751   1.1148195942e+02   1.4805472011e+01    0.3132401     0.211667 -84.38  0.001195531    2.237    0.553
       138  -8.5873     79.8094    201.0965   1.2366076831e+02   2.4217281490e+01    0.3266033     0.162542  76.09  0.001501608    2.825    0.646
       139  -8.5092     48.3434    201.9061   1.2985096800e+02   2.8060970495e+01    0.2115747   0.09130864 -83.72  0.001078847    2.475    0.596
       140  -7.8821     10.3104    202.6558   1.3686443361e+02   3.1842253330e+01    0.1136648    0.0538245  66.35 0.0006420339    1.702    0.412
       141  -9.2509    237.1849    198.7584   9.2887719704e+01  -1.7086403239e+00    0.2756308    0.1986029 -39.20  0.001140728    1.754    0.430
       142  -8.4801    177.1561    199.3378   1.0397759309e+02   8.5943760919e+00    0.2308415    0.1804111  65.25 0.0007425933    1.597    0.374
       143  -9.4907    149.5591    198.6478   1.0930773093e+02   1.3592197436e+01    0.3867089    0.2622356  80.77  0.001346638    2.336    0.572
       144  -8.9226    124.1192    199.4089   1.1454557723e+02   1.7789732542e+01    0.2838167    0.1898452  79.48  0.001105731    1.958    0.489
       145  -9.1922    113.0089    198.7531   1.1671254364e+02   1.9710276708e+01    0.4058472     0.224723  66.45  0.001769839    2.299    0.565
       146  -9.1240     88.6210    198.6059   1.2163379533e+02   2.3445597755e+01    0.3170478    0.1882118  73.79  0.001444448    1.905    0.475
       147  -8.2787    202.3382    197.9896   9.8972071677e+01   4.3242475248e+00    0.2135908    0.1702152  57.93 0.0008688622    1.568    0.362
       148  -9.1944     61.4638    196.9710   1.2689135892e+02   2.7424817164e+01    0.3664356    0.1730397  71.06  0.001397069    2.512    0.602
       149  -8.6750    215.9364    195.7856   9.6093209194e+01   2.2543097539e+00    0.2416761     0.170771 -54.08 0.0008129957    2.197    0.545
       150  -7.9856    133.0273    196.0124   1.1226042766e+02   1.6905095526e+01    0.1970103    0.1416648  71.09 0.0004136929    1.609    0.378
       151  -7.8526     53.4728    196.4698   1.2841761916e+02   2.8500492567e+01    0.1189356   0.08806986  70.04 0.0002067993    1.088    0.081
       152  -9.4231    245.9440    193.7137   9.0489362157e+01  -2.5118639714e+00    0.2746702    0.2296046 -70.20  0.001456601    2.375    0.579
       153  -7.4763    209.2968    195.6524   9.7278490280e+01   3.4303394885e+00     0.115915     0.102887  78.28 0.0007034214    1.677    0.404
       154  -8.7593    185.4411    194.9403   1.0164271047e+02   7.7862778054e+00    0.2275394    0.1906188  63.94 0.0006918038    1.467    0.318
       155  -8.8823    160.7331    194.0560   1.0635259879e+02   1.2384006626e+01     0.284151    0.2260192  78.91 0.0009607758    1.641    0.391
       156  -8.1786    230.8479    194.3400   9.3184580556e+01  -1.0213581439e-01    0.1643463     0.144482  -4.50  0.000548352    1.188    0.158
       157  -8.7143     76.9581    193.8686   1.2348033856e+02   2.5996436443e+01    0.1994463    0.1530044  87.84 0.0005417062    1.218    0.179
       158  -9.0328     43.7866    193.3210   1.3005054763e+02   3.0236907352e+01    0.3631359    0.1541508  65.54   0.00179632    2.497    0.599
       159  -8.6571    224.4962    194.3152   9.4296904920e+01   9.7802374968e-01    0.2579592    0.1912849 -47.23  0.001244986    1.865    0.464
       160  -8.0265    198.9801    191.9435   9.8539653645e+01   5.7959931354e+00    0.1819368    0.1588099  76.23 0.0005544483    1.616    0.381
       161  -8.3989    179.0973    191.7181   1.0232390449e+02   9.4379892907e+00    0.1999152    0.1826337 -62.12 0.0004855861    1.366    0.268
       162  -8.4436    172.3322    191.7717   1.0366554661e+02   1.0661896237e+01    0.2315537    0.1923398  78.64  0.001017519    1.586    0.370
       163  -9.0638    139.3931    190.6449   1.1015718585e+02   1.6766396515e+01    0.3300611    0.2197447  75.51  0.001108209    2.133    0.531
       164  -9.4669      6.9777    191.0578   1.3686923824e+02   3.4322273214e+01     0.327695    0.1191728  80.36  0.001656045    2.733    0.634
       165 -10.3948     92.1876    188.5272   1.1972689426e+02   2.4867640647e+01     0.897891    0.3318877  53.01  0.003581478    2.825    0.646
       166  -8.4648     21.5117    191.3580   1.3418759901e+02   3.2940043481e+01    0.2235757   0.07818635  57.20  0.001134565    2.529    0.605
       167  -8.2976    148.4780    189.4329   1.0809712189e+02   1.5373788565e+01    0.2192679    0.1644604  73.12 0.0006588986    1.648    0.393
       168  -8.9585    129.3133    188.8525   1.1198021856e+02   1.8839692833e+01    0.2979498    0.2018687  86.52  0.001169827    2.074    0.518
       169  -8.5124    237.1987    188.5021   9.1008767562e+01  -4.1940185375e-01    0.2141117    0.1598441 -21.48 0.0005545998    1.341    0.254
       170  -9.0388    216.8259    188.1504   9.4546647125e+01   3.1496358298e+00    0.2713341     0.244405 -85.89 0.0009493436    1.718    0.418
       171  -9.3332    155.9811    187.5182   1.0624813900e+02   1.4355082277e+01    0.3433807    0.2163625 -61.86  0.001257454    2.123    0.529
       172  -9.7935    120.9115    186.8776   1.1345460710e+02   2.0634090494e+01    0.4756937    0.2753005 -79.41  0.002145541    2.693    0.629
       173  -8.7902     34.0017    187.8277   1.3154066566e+02   3.2379373978e+01     0.262129    0.1187285  83.85 0.0009293302    2.318    0.569
       174  -7.7814    247.3199    188.6652   8.9323971380e+01  -2.1162575795e+00    0.1066155     0.101874 -73.32 0.0007049461    1.702    0.412
       175  -8.1797    230.6628    187.5832   9.1971716656e+01   8.1164455999e-01    0.1852598    0.1518895 -46.98 0.0007177792    1.682    0.406
       176  -8.9633    191.2799    187.2411   9.9168723207e+01   7.9065943430e+00    0.2916311    0.2302855 -64.46  0.001112979    1.831    0.454
       177  -8.8631    165.0275    186.9899   1.0431857447e+02   1.2790814583e+01    0.2668785    0.2127263 -88.05 0.0009655444    1.753    0.430
       178  -9.0887     54.4466    186.7503   1.2735824191e+02   3.0299151161e+01    0.3526874    0.1730004  77.51  0.001393279    2.395    0.582
       179  -9.2061    109.6460    186.1483   1.1573502322e+02   2.2626600496e+01    0.3628017    0.2277016  73.48  0.001253578    1.983    0.496
       180  -9.1210    249.2263    185.2997   8.8373320762e+01  -2.0107969856e+00    0.2423248    0.1847526 -29.84 0.0008503706    1.442    0.306
       181  -8.9735    183.1219    185.3055   1.0041163060e+02   9.7192452552e+00     0.260616    0.2233789 -42.00 0.0008655202    1.347    0.257
       182  -8.8995    210.2250    184.5387   9.5087970706e+01   4.8465422092e+00    0.2133599     0.173294 -25.35 0.0002880253    1.310    0.237
       183  -9.3976    202.5439    184.7146   9.6557749337e+01   6.2210999918e+00    0.2502227    0.2183901 -61.17  0.001041963    1.573    0.364
       184  -8.9930     66.6081    184.5307   1.2462985365e+02   2.9227407743e+01    0.3321335    0.1833302  66.68  0.001166637    1.858    0.462
       185  -8.8132    224.1113    183.4583   9.2355722029e+01   2.5112607226e+00    0.2385495    0.1644062 -33.89 0.0009171112    1.570    0.363
       186  -8.2535    196.9908    183.9239   9.7467860329e+01   7.3631286796e+00    0.1935488    0.1622842  72.48 0.0006355335    1.656    0.396
       187  -8.9220    174.2737    183.6716   1.0187929349e+02   1.1633690732e+01    0.2582651     0.210074  79.85 0.0008287427    1.675    0.403
       188  -8.0853      1.8145    183.7757   1.3744569619e+02   3.6157574275e+01    0.1510956   0.08763624  64.20  0.001052989    1.374    0.272
       189  -9.1204    240.9381    181.5849   8.9059744553e+01  -1.5705468337e-01    0.3040005    0.2317403 -41.19  0.001522694    1.661    0.398
       190  -8.9961     44.4936    182.4544   1.2900356489e+02   3.2319282255e+01    0.3265547    0.1665555  68.02  0.001157379    1.944    0.486
       191  -8.3442     19.4280    182.7095   1.3403003910e+02   3.4834784808e+01    0.2140407   0.07647596  86.02 0.0009477257    3.222    0.690
       192  -9.1931    147.6444    180.7664   1.0685484046e+02   1.7075757871e+01    0.3413714    0.2363364  74.54  0.001095676    2.016    0.504
       193  -7.4664     83.2736    182.5925   1.2089242373e+02   2.7347716201e+01    0.1335212   0.08286032  74.75  0.000697515    1.769    0.435
       194  -9.3749     25.7051    178.9397   1.3252818547e+02   3.4993187701e+01     0.579249    0.2024326  77.83  0.002197583    4.465    0.776
       195  -8.6562    137.5525    179.3155   1.0875369160e+02   1.9171858941e+01     0.278617    0.1946258  77.36 0.0009992735    1.927    0.481
       196  -8.8173    205.1653    177.8365   9.4769521749e+01   6.7715718307e+00       0.2472     0.172894 -38.26 0.0007477502    1.582    0.368
       197  -9.3827    191.6266    178.5355   9.7503806915e+01   9.2066820447e+00    0.3004626    0.2288976  59.38 0.0008326629    1.574    0.365
       198  -8.4355    169.4633    178.9512   1.0201127805e+02   1.3333892685e+01    0.1864101    0.1365608 -47.00 0.0007309879    1.552    0.356
       199  -9.0468     35.8045    176.6115   1.3029035925e+02   3.4449728796e+01    0.4298545    0.1697827  76.81  0.001772253    3.599    0.722
       200  -9.7063    248.4849    176.4729   8.6800040637e+01  -7.7207203769e-01    0.3944035    0.2675578 -44.47  0.002004608    1.967    0.492
       201  -8.6913    250.5081    172.8584   8.5755499212e+01  -6.4720594180e-01    0.2247571    0.1669979 -23.78 0.0005970743    1.306    0.234
       202  -8.5558    231.1332    177.3059   8.9929593876e+01   2.1154762901e+00    0.2219203    0.1758056 -29.01 0.0005056948    1.346    0.257
       203  -8.5468    217.6773    177.4666   9.2372393315e+01   4.5145985014e+00    0.2297662      0.19704 -65.70 0.0007217386    1.748    0.428
       204  -8.6449    129.4058    177.5355   1.1021639301e+02   2.0957752607e+01    0.2833846    0.1937591  82.09 0.0008929034    2.019    0.505
       205  -8.9323    183.1469    176.0937   9.8720609213e+01   1.1214191360e+01    0.2377249    0.2178072 -71.59 0.0004789653    1.371    0.271
       206  -9.5652    104.4495    175.0354   1.1529126302e+02   2.5662441561e+01    0.4971112    0.2593753  65.73  0.001991856    2.686    0.628
       207  -8.1474     97.7859    177.3747   1.1708447748e+02   2.6240681632e+01     0.173451     0.117262  32.18  0.000465337    1.655    0.396
       208  -8.9399     89.2082    176.7918   1.1888309347e+02   2.7660928214e+01    0.2720274    0.1736629  70.57 0.0009154564    1.693    0.409
       209  -9.9865     57.3093    173.2305   1.2541876421e+02   3.2717491722e+01    0.7770308     0.332981  79.36  0.002828864    4.335    0.769
       210  -8.3602     55.9742    164.5100   1.2476493675e+02   3.4720176297e+01    0.3332637    0.1940749  15.39  0.001573276    3.168    0.684
       211  -8.7129     12.8611    176.7031   1.3492858542e+02   3.6624413386e+01    0.2194828   0.09920513  72.48  0.001086101    2.052    0.513
       212  -7.4248    211.6616    176.3406   9.3263574763e+01   5.7873636826e+00    0.1258069     0.108714  85.41  0.000705025    1.765    0.433
       213  -9.2600    158.7663    174.9264   1.0350405657e+02   1.6063888826e+01    0.3780686    0.2748824  84.53  0.001474907    2.097    0.523
       214  -9.4408     81.6976    154.9036   1.1756333152e+02   3.3389687581e+01    0.4446073    0.2744235  72.93  0.001635799    1.935    0.483
       215 -10.7290     75.9127    170.3455   1.2099494741e+02   3.0903718859e+01     1.071651     0.407223 -78.05  0.003534894    4.834    0.793
       216  -8.5470     78.8344    158.6567   1.1877817721e+02   3.2985972872e+01     0.334312    0.1976911  17.73  0.001478756    2.979    0.664
       217  -8.3406    224.4756    174.4650   9.0556219835e+01   3.7064469030e+00    0.2088806    0.1194224 -44.08 0.0005551039    2.149    0.535
       218  -8.2869    194.1737    172.6504   9.5884223452e+01   9.6628842032e+00    0.3031778    0.1524412  24.58  0.001146923    2.946    0.661
       219  -9.4415    175.6480    172.3750   9.9535951991e+01   1.3281856877e+01    0.3172408      0.24277 -40.90  0.001105701    1.441    0.306
       220  -8.3979    143.1064    172.7288   1.0645193318e+02   1.9401329600e+01    0.2224459    0.1876071 -79.43 0.0005836816    1.374    0.272
       221  -8.5964    134.8436    172.0962   1.0813881621e+02   2.1035101154e+01    0.2162801    0.1748159  72.27 0.0007992632    1.343    0.256
       222  -9.5308    121.4160    170.3690   1.1081326871e+02   2.3761289297e+01    0.4050512    0.2708069 -78.31  0.000988542    1.917    0.478
       223  -9.1241     44.9444    171.0213   1.2786379745e+02   3.4621105956e+01     0.350804    0.1754767  79.37   0.00121364    2.243    0.554
       224  -8.4518    205.8180    170.3523   9.3189677934e+01   7.7958186702e+00    0.2142366    0.1825049 -42.12 0.0005430295    1.370    0.270
       225  -8.4507    198.6635    170.4791   9.4586794318e+01   9.1470995942e+00    0.2392022    0.2057783 -79.83 0.0009239241    1.674    0.403
       226  -7.7165     68.6764    171.2973   1.2271651618e+02   3.1680319428e+01    0.1307033   0.08118282  68.39 0.0004139139    1.625    0.384
       227  -9.0606    243.7531    169.4741   8.6209637936e+01   9.5842182278e-01    0.2936926    0.1950721  28.56 0.0009171615    1.398    0.284
       228  -8.4809    237.1437    169.6789   8.7377557398e+01   2.0961078979e+00    0.2039562    0.1721306 -29.41 0.0005801737    1.309    0.236
       229  -8.7556    230.0964    169.3868   8.8548240722e+01   3.4053081883e+00    0.3628812    0.1661992 -43.29  0.001563291    2.675    0.626
       230  -9.1499    167.2577    168.7134   1.0057835728e+02   1.5549175298e+01    0.3340311    0.2353511  70.24  0.001022803    1.983    0.496
       231  -8.6901    149.7439    169.4156   1.0443209804e+02   1.8783923697e+01     0.282166    0.2137828 -70.29  0.001097821    1.650    0.394
       232  -8.8691    111.8957    167.8776   1.1254635659e+02   2.5894271818e+01    0.3746131    0.2123907  73.77  0.001249449    2.908    0.656
       233  -8.3793     88.7895    168.6870   1.1788680496e+02   2.9400388620e+01    0.2463416    0.1506355  84.75 0.0007563214    2.061    0.515
       234  -8.2374    218.8427    168.2488   9.0341624124e+01   5.6494432154e+00    0.1877073    0.1763714  23.82 0.0005385668    1.178    0.151
       235  -8.9802    191.9540    166.5855   9.5130379218e+01   1.1081432350e+01    0.2492442    0.2018985 -44.53 0.0006288953    1.403    0.287
       236  -8.7933    184.9721    166.6763   9.6543132689e+01   1.2436515183e+01    0.2528184    0.2021632 -49.68 0.0007093651    1.458    0.314
       237  -8.5708    140.6630    166.3395   1.0585838957e+02   2.1078639450e+01    0.2663969    0.1801234  56.77 0.0007068003    1.523    0.343
       238  -9.6726    135.6655    163.9623   1.0654109515e+02   2.2473473419e+01    0.3899143    0.2702516  64.30 0.0009197417    1.646    0.393
       239 -10.1707     95.0854    162.9546   1.1562339009e+02   2.9646042301e+01    0.7973083    0.4234148  79.35  0.002962795    3.635    0.725
       240  -9.1162     20.6849    166.2862   1.3261381857e+02   3.8054915779e+01    0.3382858    0.1385173  63.23  0.001263988    2.496    0.599
       241  -8.2065     12.8934    167.6134   1.3432582884e+02   3.8464108128e+01    0.1523121   0.07854019  49.69 0.0007872611    1.759    0.431
       242  -8.4092    233.9514    164.9589   8.6977713247e+01   3.3293659550e+00     0.185486    0.1653032 -66.42 0.0006009191    1.663    0.399
       243  -8.7610    159.5443    164.4438   1.0139999891e+02   1.7827420917e+01    0.2735086    0.2326356  74.73 0.0007698085    1.371    0.270
       244  -9.4320     33.6244    163.4930   1.2961177863e+02   3.7404558027e+01    0.4978686    0.1592144  54.90  0.002088163    3.392    0.705
       245  -9.6428    243.9979    159.5735   8.4155345559e+01   2.2626548494e+00    0.3809009    0.2062695  33.94  0.001875033    1.818    0.450
       246  -8.3618    240.0208    164.0198   8.5740618424e+01   2.3623624099e+00    0.2010546    0.1732338   1.37 0.0005688324    1.041    0.040
       247  -8.6169    212.8948    163.6191   9.0501903740e+01   7.4793231331e+00    0.2489683    0.1904157 -39.70 0.0007963403    1.451    0.311
       248  -8.5623    204.9465    162.7539   9.1826920364e+01   9.1572056698e+00    0.2428422     0.198415 -41.63  0.000608216    1.382    0.276
       249  -9.4392      3.4693    162.4151   1.3592015509e+02   4.0289139390e+01    0.3542641     0.138165  54.91  0.001942006    2.315    0.568
       250  -9.1902    177.6160    160.8177   9.6878484825e+01   1.4907740334e+01      0.32054    0.2561879 -78.31 0.0009476664    1.771    0.435
       251  -8.9008    151.6778    161.0363   1.0245400326e+02   1.9999887591e+01    0.3012511    0.2311486 -73.97 0.0008543841    1.669    0.401
       252  -7.6573    222.0228    161.7512   8.8439218964e+01   6.0165233071e+00    0.1689198    0.1082473  41.91  0.000429754    1.489    0.329
       253  -8.5875     60.6706    160.5057   1.2323398187e+02   3.5004403778e+01    0.3210884    0.1533556  65.54  0.001362202    2.643    0.622
       254  -8.7650    227.4097    159.0820   8.6918611808e+01   5.3918558788e+00    0.3040245    0.2051036 -53.42  0.001203699    2.160    0.537
       255  -9.7381    105.7199    157.8918   1.1235262619e+02   2.9004753255e+01    0.4706435    0.3001444  85.95  0.001186147    2.196    0.545
       256  -9.8351    250.1453    157.8341   8.2777611212e+01   1.4051418405e+00     0.325767    0.1718584 -29.45 0.0007994866    1.800    0.444
       257  -8.5585    237.0026    159.0027   8.5224576739e+01   3.6142630193e+00    0.1904628    0.1659501 -64.62 0.0007995971    1.695    0.410
       258 -10.2103    211.7703    157.7585   8.9499643524e+01   8.6089958208e+00    0.2713144    0.2549894  16.29 0.0004654052    1.104    0.094
       259  -9.2910    167.6967    157.5097   9.8295449497e+01   1.7492431903e+01    0.3644193    0.2771801 -85.88   0.00121288    1.959    0.490
       260  -8.4500    128.3227    159.0455   1.0731661110e+02   2.4810657693e+01    0.2526351    0.1822504  67.36 0.0007815163    1.575    0.365
       261  -8.3494    196.3703    157.8726   9.2484917810e+01   1.1649881614e+01    0.2054315    0.1730226 -54.08  0.000649105    1.445    0.308
       262  -8.5114    188.2654    157.7770   9.4080969629e+01   1.3296257378e+01    0.2396355    0.1713526 -42.11 0.0005275257    1.515    0.340
       263  -8.4797    217.9960    156.5875   8.8098044227e+01   7.5734540102e+00    0.2514791     0.183231 -47.49 0.0008608661    1.668    0.400
       264  -8.9000    157.7689    156.1378   1.0016358147e+02   1.9734868528e+01    0.3258479    0.2236885 -63.39  0.001011339    1.875    0.467
       265  -9.4094    119.5560    155.2285   1.0865655565e+02   2.7180028652e+01    0.4246175    0.2751312 -83.82  0.001510467    2.235    0.553
       266  -8.2493    204.7333    155.3243   9.0323574506e+01   1.0392686403e+01    0.2436215    0.1640295 -45.50 0.0006356011    1.699    0.411
       267  -8.6000    144.6133    155.0957   1.0287728149e+02   2.2526378347e+01    0.2820157    0.2097971  71.96 0.0009462472    1.660    0.398
       268  -9.1615     49.5591    155.1941   1.2517578786e+02   3.7480683644e+01    0.3736078     0.191227  67.20   0.00183103    2.237    0.553
       269  -9.1997    246.0459    163.2335   8.4564315766e+01   1.3974784917e+00    0.2646278    0.1963855 -28.96 0.0005303682    1.347    0.257
       270  -8.5530    239.7096    153.3272   8.3573319444e+01   3.9219577723e+00    0.1738453    0.1393837  58.26 0.0002660122    1.617    0.382
       271  -9.7673    132.8332    152.9796   1.0515567519e+02   2.5207320798e+01     0.434539    0.3239669  81.91  0.001300969    1.717    0.418
       272  -9.1254    133.4793    148.5302   1.0414434485e+02   2.5995070048e+01    0.3825255      0.20433 -43.91  0.001656438    2.034    0.508
       273  -9.3899     67.8545    153.7273   1.2069133658e+02   3.5559282792e+01    0.4079616    0.2263897  71.61  0.001521607    2.245    0.555
       274  -7.9794    232.6099    153.7664   8.4886437889e+01   5.1890250472e+00    0.1812046    0.1203651 -39.87 0.0004903907    1.633    0.388
       275  -8.6264    151.9098    152.3515   1.0069846451e+02   2.1629418033e+01    0.3247223    0.1902479 -30.97  0.001381027    2.242    0.554
       276  -9.7148    248.8713    149.9229   8.1328951165e+01   2.7188684626e+00    0.3734545     0.185377 -30.99  0.001131021    1.903    0.474
       277  -9.5568     29.4594    150.7856   1.2935485270e+02   4.0531628319e+01    0.4186704    0.1794237  68.10  0.001877574    2.880    0.653
       278  -7.8782     20.2494    152.4774   1.3159563621e+02   4.1002802450e+01    0.1498512   0.08822072  52.92 0.0009246988    1.616    0.381
       279 -10.6208    242.7326    149.9150   8.2340539543e+01   3.8469666602e+00    0.8480653    0.3136848 -30.26  0.003367288    2.689    0.628
       280  -8.8894    240.2369    145.4142   8.1792306734e+01   4.9607830145e+00    0.2235474    0.1976559  15.48 0.0003691274    1.073    0.068
       281  -9.1905    242.6850    143.3157   8.0928804460e+01   4.8006620273e+00    0.2856658    0.1951693  -7.54  0.001104538    1.552    0.356
       282  -8.9147    189.3947    150.3398   9.2286527299e+01   1.4347858157e+01    0.2899965    0.2337661 -58.71 0.0008505464    1.541    0.351
       283  -8.0118    182.4080    151.2767   9.3914478501e+01   1.5623183461e+01    0.1885244    0.1371012 -51.53 0.0004673545    1.598    0.374
       284  -8.3804    162.3032    150.5079   9.8026042660e+01   1.9890322940e+01    0.2817493    0.1721213 -58.17 0.0009012612    2.094    0.523
       285  -8.7612     98.3089    150.7429   1.1292496027e+02   3.1750313643e+01    0.2854409    0.1984588  77.04   0.00103392    1.693    0.409
       286  -7.9130    237.4532    150.4692   8.3350133134e+01   4.7544787827e+00    0.1359085    0.1178969   3.65 8.520627e-05    1.009    0.009
       287  -8.3554    213.0596    149.8684   8.7579750136e+01   9.6003012793e+00    0.1939381     0.192168  78.48 0.0003369427    1.236    0.191
       288  -9.7688     39.8417    147.9773   1.2664268138e+02   4.0115835508e+01    0.4745882    0.2080997  62.37  0.001931806    2.771    0.639
       289  -8.8837      3.0118    150.0231   1.3520786870e+02   4.2892894510e+01    0.1835239   0.09726954  69.85 0.0007590448    1.701    0.412
       290  -8.5978    198.7618    148.7618   9.0079079644e+01   1.2688186812e+01    0.2605887    0.1907926 -46.12 0.0006115137    1.535    0.349
       291 -10.2063     89.2138    146.2896   1.1439994698e+02   3.4155901891e+01    0.6471394    0.3543576  85.77  0.002442035    3.373    0.704
       292 -10.4031     54.7681    144.2650   1.2259286387e+02   3.9284383552e+01    0.8273663    0.4039387  79.08  0.002904828    3.182    0.686
       293  -9.2081    233.5929    147.7393   8.3426878950e+01   5.8883055201e+00    0.2539694    0.1931687 -32.34 0.0007854522    1.322    0.244
       294  -7.8844    229.2889    148.6686   8.4377753426e+01   6.5806787186e+00     0.127428    0.1097163 -64.41 0.0004129602    1.624    0.384
       295  -8.8771     78.0283    147.2897   1.1730825823e+02   3.5587328711e+01    0.2473969    0.1661127  84.90  0.001111294    1.680    0.405
       296  -8.2368    223.3048    146.9869   8.5076878429e+01   8.0087488998e+00    0.1933937    0.1666757 -14.74  0.000388184    1.110    0.099
       297 -10.2074    149.1248    145.1100   9.9840007859e+01   2.3611968257e+01    0.5493529    0.3759547  81.16  0.001621636    2.350    0.574
       298  -9.8927    138.9634    144.8996   1.0213737537e+02   2.5676521843e+01    0.4634354    0.3041318 -71.67  0.001084786    2.137    0.532
       299  -9.2264    140.4236    136.8432   1.0010193027e+02   2.7035871931e+01    0.3102481    0.2294471  -6.30  0.001412721    2.006    0.501
       300 -10.2255    106.4954    144.2236   1.0978951808e+02   3.1804888530e+01    0.6686068    0.4133787  89.30  0.002111187    2.566    0.610
       301  -8.9694     13.2667    146.3240   1.3265292763e+02   4.2900462843e+01    0.2799965    0.1329965  68.46  0.001095368    2.143    0.533
       302  -8.0035    206.7552    146.5541   8.8049622522e+01   1.1413908787e+01    0.1863001    0.1349097  54.90 0.0007941236    1.541    0.351
       303  -8.3319    175.4834    146.1531   9.4264539576e+01   1.7982890037e+01    0.2245545     0.198066  74.64 0.0006268074    1.335    0.251
       304 -10.9767     68.9749    140.4115   1.1851118134e+02   3.8365066731e+01    0.9671612    0.3779496 -61.54  0.003926512    2.343    0.573
       305  -9.0015    247.0688    143.9148   8.0337708755e+01   3.8929920329e+00    0.2684485    0.1737157 -22.40 0.0005056259    1.467    0.318
       306  -8.3292    250.4937    141.0076   7.9155648255e+01   3.6677898372e+00    0.2170179    0.1674541  11.23 0.0005120259    1.266    0.210
       307  -8.8530    165.5993    144.1992   9.5968656025e+01   2.0408486977e+01    0.2784498    0.2284258  84.28 0.0005382357    1.571    0.363
       308  -9.8462    124.9771    142.6730   1.0499924735e+02   2.8823606558e+01    0.5034251    0.3269998 -83.53  0.001472978    2.415    0.586
       309  -7.9382    194.4360    143.9634   8.9884583183e+01   1.4402670961e+01    0.2103916    0.1402635 -38.43 0.0005502903    1.555    0.357
       310  -9.5018      2.5713    141.4632   1.3469731016e+02   4.4732717278e+01    0.4025404    0.1591251  80.57  0.001699981    2.674    0.626
       311  -8.8661    230.4962    140.9846   8.2487865905e+01   7.5028897869e+00    0.3647363    0.1299229 -33.76  0.001365959    2.739    0.635
       312  -8.2714    181.9879    141.9641   9.1979460416e+01   1.7377734270e+01    0.2216934    0.1820291 -84.92 0.0005767512    1.672    0.402
       313  -9.9230     23.3476    138.1756   1.2955066399e+02   4.3836294313e+01    0.4725821    0.2213512  70.43  0.001898339    2.492    0.599
       314  -8.3172    218.3161    139.0456   8.4224520531e+01   1.0256665414e+01    0.1963293    0.1783402  -9.81 0.0005234985    1.057    0.054
       315  -8.7134    172.4157    138.3081   9.3190731935e+01   2.0083252455e+01    0.2981103    0.2278118 -81.61 0.0007363768    1.917    0.478
       316  -9.1614    241.2581    137.3101   7.9848882295e+01   5.9461710827e+00    0.3454584    0.1681416 -18.78  0.001386905    2.586    0.613
       317  -8.2270    207.4805    138.0029   8.6006892992e+01   1.2673838964e+01    0.2102271    0.1382991 -36.82 0.0006695909    1.541    0.351
       318  -8.7249    197.5101    137.6205   8.7852124230e+01   1.4845732823e+01    0.2667789    0.2328952 -60.55 0.0007970383    1.384    0.277
       319  -8.1783    162.7004    136.5933   9.4932790897e+01   2.2474196375e+01    0.2287007    0.1795456 -69.59 0.0005377003    1.607    0.378
       320  -8.8479    150.8660    136.2429   9.7534092368e+01   2.5024525000e+01    0.3666279     0.222632  24.42  0.001473518    2.317    0.568
       321 -10.4758     83.5454    132.9627   1.1354984154e+02   3.7984912555e+01    0.5663649    0.3255219 -75.13  0.001348421    2.055    0.513
       322  -8.9126     84.6823    122.8155   1.1135842453e+02   4.0105153385e+01    0.3789566    0.2403878  14.01  0.001665468    2.591    0.614
       323  -9.3961     38.9543    136.2454   1.2549746070e+02   4.2806956007e+01     0.300277    0.1726244  68.50 0.0009459334    1.900    0.474
       324  -9.0875    250.6971    130.1621   7.6741421086e+01   5.1686372617e+00    0.4911478    0.1203458 -32.05   0.00152584    3.835    0.739
       325  -9.0022    248.3730    135.3256   7.8252972595e+01   4.8715889832e+00    0.3037815    0.1908603 -35.54 0.0007441339    1.540    0.351
       326  -8.6412    246.9412    130.3393   7.7374760631e+01   5.8637853167e+00    0.2471726    0.1722613 -40.97  0.000605024    1.508    0.337
       327  -8.2210    187.6548    135.8692   8.9434506558e+01   1.7262095554e+01     0.204548    0.1340082 -47.26 0.0005054765    1.683    0.406
       328  -8.5612    179.4548    134.2177   9.0759793004e+01   1.9330566750e+01     0.270769    0.2207692 -73.72 0.0007848712    1.608    0.378
       329  -8.6642    237.4624    133.7564   7.9688890522e+01   7.2133489976e+00    0.2565422    0.1228648 -37.00  0.001055936    2.023    0.506
       330  -7.8015    231.3428    134.2612   8.0840216058e+01   8.3566109367e+00    0.1423956   0.09993727  16.50 0.0003510907    1.594    0.373
       331  -9.2095    112.8604    133.3238   1.0609754907e+02   3.3059369132e+01    0.3459296    0.2389195  75.30 0.0009337062    1.918    0.479
       332  -9.2191    143.1366    131.8512   9.8362365956e+01   2.7508558744e+01    0.3328458    0.2450811 -73.74 0.0007543201    1.774    0.436
       333 -10.2221    132.3178    131.1567   1.0080904999e+02   2.9836289660e+01    0.6215142    0.4465083 -77.51  0.002088626    1.859    0.462
       334 -10.5220     98.1329    129.4498   1.0909226373e+02   3.6468607771e+01    0.9073745    0.2760578 -55.13  0.003077219    3.226    0.690
       335  -8.2105    204.6657    130.5453   8.4830786251e+01   1.4519957091e+01    0.2342599     0.173268 -55.17 0.0006030098    1.673    0.402
       336  -9.6726    153.0750    129.2096   9.5434463841e+01   2.5967577502e+01    0.4481777    0.2578543 -56.17 0.0008676776    2.108    0.526
       337  -9.6685     73.0613    129.2848   1.1565577676e+02   4.0324014170e+01     0.430262    0.2582206  79.22  0.001346878    2.342    0.573
       338  -9.5835     71.1682    119.5915   1.1443869980e+02   4.2790979279e+01    0.6688421    0.3482356 -81.11  0.002508772    2.926    0.658
       339 -10.1436     12.7134    129.0428   1.3125128474e+02   4.6694145052e+01    0.4763696    0.2268733  76.65  0.002011629    2.301    0.565
       340  -8.4120    220.7060    130.1078   8.1758423006e+01   1.1185498848e+01    0.2196224    0.1698276 -46.10 0.0006605124    1.441    0.306
       341  -8.4435    211.5089    129.4603   8.3286312366e+01   1.3233928926e+01    0.2447121    0.1283371 -45.49 0.0005404277    2.140    0.533
       342  -8.2525    192.7084    130.1362   8.7080863642e+01   1.7183337584e+01     0.226428    0.1802522 -55.83 0.0005427122    1.485    0.327
       343  -9.2245    168.3808    129.4727   9.2043401610e+01   2.2623153135e+01    0.2932957    0.2452228 -75.23 0.0005179883    1.487    0.327
       344  -7.7747      1.4296    130.2052   1.3409719234e+02   4.7221164419e+01    0.1598366   0.08275424  88.20  0.000698283    1.656    0.396
       345 -10.4333     60.0713    125.2597   1.1844901940e+02   4.2935811254e+01    0.6824783    0.3747527  80.71  0.002497543    2.770    0.639
       346  -8.8706     58.8430    115.6172   1.1715697023e+02   4.5289878987e+01    0.3615049    0.2216748 -19.97  0.001432359    3.045    0.672
       347 -10.7777     44.8442    123.5725   1.2228407059e+02   4.5059047245e+01     1.049178    0.4999133  77.80  0.004008546    3.742    0.733
       348  -9.9371    118.0444    125.5800   1.0314431902e+02   3.3787857369e+01     0.526017    0.3325971  74.26  0.001532512    2.538    0.606
       349  -8.5437    228.5506    125.2990   7.9269887926e+01   1.0308245796e+01    0.2670648    0.1277475 -37.33   0.00112246    2.024    0.506
       350  -8.9599    179.5311    124.9549   8.8566670752e+01   2.1020142270e+01    0.3225179    0.2517332  83.26 0.0009275854    1.773    0.436
       351 -10.4274     28.1423    120.9963   1.2640306707e+02   4.7247247607e+01    0.9022614    0.4149847 -86.17  0.003599644    2.409    0.585
       352  -7.9057    188.4391    124.1945   8.6533919225e+01   1.9179416216e+01      0.20328     0.139735 -49.43 0.0005588001    1.624    0.384
       353  -7.7499    203.0000    121.9043   8.3102704107e+01   1.6349928217e+01     0.230226   0.08268349 -36.00 0.0004650839    2.780    0.640
       354  -8.6426    171.9936    121.5532   8.9360829333e+01   2.3332802154e+01    0.2645607     0.209489 -57.50 0.0003715763    1.446    0.308
       355  -9.1715    158.5723    121.5574   9.2358512494e+01   2.6300687626e+01    0.3249277    0.2583213 -88.05  0.001001741    1.673    0.402
       356 -10.1297    141.5708    118.4133   9.5608488459e+01   3.0597075659e+01    0.4797896    0.2996973 -63.15  0.001177041    2.115    0.527
       357  -9.8595    130.9978    118.7487   9.8301487345e+01   3.2717062686e+01    0.5317081    0.3627436 -87.34  0.001851168    2.405    0.584
       358  -9.5700      2.8983    117.4938   1.3263337293e+02   4.9891371853e+01    0.4402814    0.1928531  75.49  0.002164883    2.641    0.621
       359  -7.3308    231.5354    117.5350   7.6947968370e+01   1.0888842057e+01    0.1400681    0.1308778 -17.00 0.0001020628    1.060    0.056
       360 -10.0106    109.2089    114.3245   1.0291788046e+02   3.7887286189e+01    0.5469673    0.3624672 -80.40   0.00141081    2.233    0.552
       361  -9.1631    109.7813    107.2724   1.0108583871e+02   3.9324768769e+01    0.4595631    0.2811705  23.03  0.001896876    2.346    0.574
       362  -7.9726    219.5048    116.4989   7.8764539500e+01   1.3624482081e+01    0.1459835    0.1339132   1.61 0.0008103664    1.039    0.037
       363  -8.2092    193.1192    115.5863   8.3486547684e+01   1.9658673957e+01      0.25227    0.1968516 -47.23 0.0006316453    1.370    0.270
       364  -8.5511    185.7230    116.1588   8.5124160298e+01   2.1236179582e+01    0.2353093    0.1855595 -57.74  0.000609263    1.485    0.326
       365 -10.3040    249.3930    114.5804   7.3414655402e+01   7.6732435653e+00    0.5807689     0.263561 -47.67  0.002276494    2.826    0.646
       366 -10.7596    248.7025    104.3570   7.1141479321e+01   9.3026391174e+00    0.5240708    0.2993835 -31.37  0.002519677    1.595    0.373
       367  -8.5887     78.5402    105.2659   1.0945434248e+02   4.5005225399e+01    0.2940124    0.2148516 -24.65 0.0009157337    1.776    0.437
       368  -7.9610    167.4757    114.5143   8.8610586037e+01   2.5685806914e+01    0.1503844    0.1482053  62.17 0.0001578796    1.056    0.053
       369  -9.8567    121.7509    112.4455   9.9153889275e+01   3.5908803768e+01    0.4872203    0.3296941 -72.09 0.0008349826    2.000    0.500
       370  -9.8082    119.9883    105.7258   9.7952395234e+01   3.7694781371e+01    0.4141293    0.3272433   6.37  0.002008913    1.650    0.394
       371 -10.6372    109.5201     99.2973   9.9152478807e+01   4.1101954654e+01    0.9152594    0.4811217  64.27  0.002175488    3.710    0.730
       372  -8.6755    107.3206     92.9406   9.8091476700e+01   4.2879156614e+01    0.2861543    0.2451942 -46.03 0.0008418069    1.130    0.115
       373  -7.6832    153.2701    115.6443   9.2133986956e+01   2.8635520988e+01     0.152395    0.1205474 -78.25 0.0003877844    1.638    0.389
       374 -10.3119    133.5377    109.2738   9.5337620128e+01   3.4181239401e+01    0.6210484    0.3557408 -56.80  0.001973637    2.053    0.513
       375  -9.7526     14.1399    111.3406   1.2901034242e+02   5.0511966598e+01    0.3972653    0.1941344  72.76  0.001534841    2.530    0.605
       376  -8.5329    174.7730    111.9195   8.6359559996e+01   2.4514592917e+01    0.2786117    0.2057488 -56.79 0.0006500888    1.583    0.368
       377  -8.6263    159.1507    111.7736   8.9794852459e+01   2.8092415637e+01     0.258269    0.2041826 -54.83  0.000599001    1.380    0.275
       378 -10.1546     66.3376    109.6537   1.1391039494e+02   4.5707836600e+01    0.6356348    0.3041111 -61.89  0.002403433    1.941    0.485
       379  -8.4241     43.5303    109.4427   1.2046734331e+02   4.8417743551e+01    0.2382861    0.1269946  27.94  0.001216456    2.221    0.550
       380  -8.2917    189.1287    107.7699   8.2313020401e+01   2.1956852762e+01    0.2678399    0.1946333 -46.06 0.0006260835    1.446    0.309
       381  -7.7412    196.7016    107.6850   8.0797686841e+01   2.0219619878e+01    0.1536777    0.1158386  11.92 0.0002344644    1.608    0.378
       382  -9.8516    140.0274    104.4234   9.2459829078e+01   3.3795381012e+01    0.4953609    0.3197001 -52.33  0.001541899    1.665    0.399
       383 -10.5468     45.6453    102.5086   1.1865441996e+02   4.9781348650e+01    0.7191526    0.3878495  76.55  0.003016205    3.154    0.683
       384 -10.6795     23.0919    102.8825   1.2539050420e+02   5.1747752362e+01    0.7149383    0.3538863  71.58  0.002840518    2.928    0.658
       385  -8.5266    166.6587    104.2751   8.6152595487e+01   2.7821387516e+01    0.2583248     0.228855 -70.18 0.0006579931    1.285    0.222
       386  -9.5085    150.6751    103.2289   8.9553773409e+01   3.1679182902e+01    0.4646035    0.3124908 -66.30  0.001531355    2.078    0.519
       387  -8.9785      6.6370    102.7488   1.3009887218e+02   5.2911900365e+01    0.2660089    0.1447913  86.79  0.001062305    1.817    0.450
       388  -7.8217    175.4341    102.2157   8.3698580092e+01   2.6158413600e+01    0.2129346     0.142404 -49.51 0.0007349577    1.629    0.386
       389  -8.2471    159.8288    101.0916   8.6845469993e+01   3.0007709802e+01    0.2343145    0.2064642 -67.72 0.0005213831    1.277    0.217
       390  -9.2329     81.9837    100.0160   1.0725413814e+02   4.5669285295e+01    0.3549721    0.2516791 -81.85  0.000846237    1.789    0.441
       391 -10.1143     64.0766     96.3340   1.1182297659e+02   4.9032263497e+01    0.5891896    0.3471645 -81.08  0.001835055    2.421    0.587
       392  -8.4323     64.4516     87.8421   1.0976470991e+02   5.0890197098e+01    0.3083656    0.1680945 -29.91  0.001293091    2.673    0.626
       393  -9.4845     95.0236     97.1281   1.0272240688e+02   4.4190792496e+01    0.3531421    0.2466266 -62.10 0.0005615724    1.513    0.339
       394 -10.3266     92.7360    111.3648   1.0675346512e+02   4.1412211585e+01    0.9236941    0.3722612 -53.09  0.002968028    2.352    0.575
       395  -9.9149    128.4688    102.1374   9.4796470648e+01   3.6727225002e+01    0.3711001    0.2949566 -80.99 0.0009948559    1.599    0.374
       396  -8.3268    176.3001     93.3873   8.1138507952e+01   2.7557611921e+01    0.2657703    0.1773774 -54.50 0.0005737419    1.762    0.432
       397  -8.0324    164.8100     94.3293   8.3880765918e+01   3.0122057217e+01    0.2097296    0.1912263 -56.93 0.0002781322    1.167    0.143
       398  -9.3718    139.1474     92.5417   8.9455879730e+01   3.6378950174e+01    0.4138452    0.2923652 -84.01 0.0008957367    2.284    0.562
       399 -10.6560    124.1193     90.6482   9.2821499127e+01   4.0008725464e+01    0.8395488    0.6017395 -18.42  0.001906095    1.778    0.438
       400  -9.0094     46.3228     92.4873   1.1654525987e+02   5.1987298280e+01    0.3416338    0.2106274   1.82  0.001679585    2.560    0.609
       401  -9.5673      5.0692     92.0284   1.2926161332e+02   5.5374048065e+01     0.355876    0.1851369  73.87  0.001466179    2.354    0.575
       402  -8.3437    157.8047     92.0533   8.4833074113e+01   3.2199219765e+01    0.2310548    0.2097818 -67.31 0.0004446807    1.211    0.174
       403  -9.7939     34.8369     89.8976   1.1968548562e+02   5.3695338807e+01    0.4539444      0.23865 -82.76  0.001584407    2.383    0.580
       404  -9.1002     22.8661     90.3510   1.2355036869e+02   5.4583623066e+01    0.2627491    0.2194096   5.43  0.001809496    1.517    0.341
       405  -8.0633    151.1204     89.1781   8.5582268045e+01   3.4306233456e+01     0.212194    0.1814747 -69.51 0.0004713478    1.354    0.261
       406 -10.1835     86.3511     86.0039   1.0242192157e+02   4.8069751981e+01    0.6244586     0.371736 -57.59   0.00152327    1.731    0.422
       407  -8.0013    164.0197     87.5017   8.2146640336e+01   3.1569822599e+01    0.2043312    0.1395105  82.55 0.0005729868    2.259    0.557
       408  -9.7643     48.5756     84.3668   1.1410719641e+02   5.3571739907e+01    0.4807995    0.2918978  72.67  0.001964755    2.738    0.635
       409  -9.0039    228.2836     85.0479   6.9517053966e+01   1.6603978386e+01    0.2360923    0.2065398  68.63 0.0003206545    1.255    0.203
       410  -7.7769    179.0251     85.2872   7.8331772015e+01   2.8331310498e+01    0.2273224    0.1621841 -56.72  0.000635763    1.644    0.392
       411 -10.0173    105.0041     82.1900   9.5751736415e+01   4.5576882829e+01    0.7893295    0.3792426 -45.75  0.002041695    2.011    0.503
       412  -8.2655    157.8423     84.0823   8.2555289880e+01   3.3674088616e+01     0.232583     0.206704 -64.89 0.0004332768    1.246    0.197
       413  -9.2689    140.9027     82.7372   8.6196487268e+01   3.7892225666e+01    0.4187821    0.2130126 -46.60 0.0009574505    2.072    0.517
       414 -10.0412     78.7068    112.3368   1.1091076976e+02   4.3377139204e+01    0.6281131    0.3775517 -89.17  0.002610383    2.691    0.628
       415  -9.3870     10.0107     81.1943   1.2620211090e+02   5.7482202519e+01    0.3482466    0.1796983  62.69  0.001414131    2.726    0.633
       416  -7.6387    185.3283     82.6592   7.6339794657e+01   2.7240385904e+01    0.1602294    0.1196582 -70.28 0.0007051502    1.738    0.425
       417  -9.6181     24.6197     80.4193   1.2125318610e+02   5.6667456636e+01    0.4576845    0.2426642 -87.53  0.001591426    2.522    0.603
       418  -8.4471    150.1979     80.7313   8.3349242331e+01   3.6107289762e+01    0.2679702    0.2044944 -50.79 0.0006659144    1.404    0.288
       419  -8.9460    119.3544     80.3063   9.1120482302e+01   4.3092656642e+01    0.3783746    0.2536951 -51.94  0.001154317    1.593    0.372
       420  -8.9775     74.4246     80.1281   1.0459981602e+02   5.1195802796e+01    0.3658734    0.2183817 -67.33  0.001107577    2.123    0.529
       421  -8.2777    166.6950     79.8472   7.9361901310e+01   3.2296681422e+01    0.2111324     0.193242 -42.81 0.0003741852    1.113    0.101
       422 -10.1222     63.7127     74.4878   1.0661525163e+02   5.3915931480e+01    0.7266237    0.3063447 -64.54  0.002550986    3.573    0.720
       423  -7.6928    174.7058     78.3265   7.7236133703e+01   3.0593636614e+01     0.156405    0.1204173 -69.21 0.0005719534    1.624    0.384
       424  -8.0400    157.3583     76.7505   8.0510434370e+01   3.5116779419e+01    0.2080844    0.1465441 -26.23 0.0005955403    1.523    0.343
       425  -9.5392    128.1607     74.7209   8.7043104774e+01   4.2286342999e+01    0.5918609    0.2482424 -42.03  0.001421944    2.367    0.578
       426  -8.5877    140.3240     75.4217   8.4143134926e+01   3.9400202277e+01    0.2508266    0.1781765 -57.18 0.0005650539    1.671    0.401
       427  -9.2776    115.3192     73.6464   9.0217537237e+01   4.5243641398e+01    0.4487726    0.2412447 -37.59  0.001808445    1.863    0.463
       428  -9.8000     82.3119     72.4504   9.9869522816e+01   5.1603658495e+01    0.5519466    0.3178636 -58.57  0.001467477    1.984    0.496
       429  -8.2739    163.5372     73.2861   7.8109066075e+01   3.4215247272e+01    0.2798503    0.1454462 -39.85 0.0007794449    1.927    0.481
       430  -8.4183    151.3927     73.2558   8.0823488781e+01   3.7178213119e+01    0.2239853     0.140392 -46.05 0.0009500126    1.683    0.406
       431  -9.1543    105.9980     71.8514   9.2346589602e+01   4.7475487475e+01     0.306429    0.2103126 -53.34 0.0008051303    1.581    0.367
       432  -9.4398     95.1044     71.0098   9.5377841233e+01   4.9700541633e+01    0.4343206    0.2425846 -58.07 0.0007965487    2.270    0.560
       433  -8.5439     42.5326     72.9789   1.1352974401e+02   5.6723161066e+01    0.1967759    0.1095671 -59.41 0.0005448429    1.560    0.359
       434  -7.4641    175.4985     72.5756   7.5403803582e+01   3.1369350398e+01    0.1514538    0.1482182  39.91 0.0001490116    1.012    0.011
       435  -9.4797     51.5143     69.5808   1.0951304444e+02   5.6486274224e+01    0.4465446    0.2430055 -71.44  0.001733911    2.552    0.608
       436  -9.1697     29.3705     70.3469   1.1757324481e+02   5.8508341923e+01    0.4878834    0.2167251 -26.92  0.001932981    3.911    0.744
       437  -8.9189     16.6235     70.1656   1.2205891218e+02   5.9491402632e+01    0.2513317    0.1699241  86.93 0.0009470865    1.743    0.426
       438  -7.7866    157.0000     70.0125   7.8555696309e+01   3.6385086641e+01     0.247491   0.08762458 -34.96 0.0004543484    2.854    0.650
       439  -8.8513    147.0341     68.2501   8.0298379823e+01   3.9108132852e+01    0.3160474    0.2132099 -43.05 0.0005647841    1.522    0.343
       440  -8.6068    138.7689     66.2909   8.1675786832e+01   4.1413891401e+01    0.2598239    0.1967414 -48.14 0.0006380233    1.407    0.289
       441  -8.9315    121.5733     66.0036   8.6052281563e+01   4.5362677615e+01    0.2919054    0.2324392 -62.82 0.0007330787    1.524    0.344
       442  -8.8426     64.3490     63.5930   1.0328018628e+02   5.6127320233e+01     0.367081    0.2242339 -17.47  0.001667592    2.373    0.579
       443  -8.7801     37.1402     64.0790   1.1327004907e+02   5.9174643134e+01     0.285359    0.1863377 -71.88 0.0008976889    1.689    0.408
       444  -9.0400    110.1536     63.7329   8.8522609478e+01   4.8201037380e+01    0.2811988    0.2425926 -64.48  0.000721204    1.366    0.268
       445  -7.6361    187.6999     63.3452   7.0385324367e+01   2.9783500214e+01    0.1584672    0.1146219 -64.55 0.0007037247    1.679    0.405
       446  -8.0057     85.9978     64.0000   9.6057116611e+01   5.2704970282e+01    0.2209963   0.07998412  40.60 0.0008004807    2.929    0.659
       447  -8.0984    158.1582     61.8438   7.5771037252e+01   3.7472189477e+01    0.2060589    0.1757962  13.80 0.0002786175    1.286    0.222
       448  -9.7067     73.1885     59.4283   9.8884550369e+01   5.5687436093e+01    0.4030645    0.2387965 -57.74  0.001068392    1.973    0.493
       449  -8.2250     88.9226     59.5926   9.3660445485e+01   5.3054211150e+01    0.2275424    0.1578239 -46.34 0.0005083592    1.422    0.297
       450  -9.4652     97.8561     60.4920   9.1131588340e+01   5.1241319849e+01    0.3231549    0.2982685 -41.47  0.001349771    1.116    0.104
       451  -8.7543    146.9895     59.0123   7.7367391333e+01   4.0689704948e+01    0.2333495    0.1834798 -67.16 0.0006017079    1.581    0.367
       452  -9.8806     23.4690     56.5359   1.1655077702e+02   6.1937670656e+01     0.430967    0.2559702 -89.05  0.002060102    2.729    0.634
       453  -8.6001    130.6664     57.9757   8.0996213234e+01   4.4743898493e+01    0.2136163    0.1826195 -34.47 0.0004062882    1.176    0.150
       454  -9.4508      7.5410     57.4007   1.2287309999e+02   6.2775941223e+01    0.2534995    0.1874623  84.12 0.0009666712    1.611    0.379
       455  -9.3668    119.0596     55.2553   8.3146337498e+01   4.7828402547e+01    0.4573611     0.212281 -46.41  0.001194556    2.432    0.589
       456  -9.4310     54.3107     55.6714   1.0448621737e+02   5.9055890596e+01    0.3406228    0.2100046 -61.98  0.001187824    1.868    0.465
       457  -8.3063    140.0174     56.2521   7.8104062896e+01   4.2830268459e+01    0.2050217    0.1995683  43.20 0.0004139687    1.046    0.044
       458  -8.8854     44.1515     55.5897   1.0830343842e+02   6.0248235850e+01      0.23938     0.181403 -76.05    0.0007323    1.680    0.405
       459  -8.9599    127.9064     53.1665   8.0075484786e+01   4.6188372912e+01     0.244984    0.2075517 -32.76 0.0004785594    1.186    0.157
       460  -8.7627    105.6525     53.1748   8.6246719975e+01   5.1036567642e+01    0.3081395    0.2299507 -60.52 0.0009112449    1.739    0.425
       461  -9.5953     92.3430     50.5096   8.9407314260e+01   5.4113564721e+01    0.4713643    0.2301203 -47.34  0.001552456    2.224    0.550
       462  -8.4128    144.5784     49.0332   7.4626541182e+01   4.2870633822e+01    0.2255378    0.1456223 -32.34 0.0004666755    1.573    0.364
       463  -8.3565    129.8142     49.1227   7.8191996825e+01   4.6402336084e+01    0.2208348    0.2008722 -55.31 0.0004844946    1.226    0.184
       464  -7.4057    149.7037     48.7184   7.3378406006e+01   4.1650048935e+01    0.1520473    0.1126484  24.51 0.0002213292    1.539    0.350
       465  -8.7975    120.8994     47.5885   7.9964113143e+01   4.8695631117e+01    0.2652685    0.2053809 -37.33  0.000470745    1.314    0.239
       466  -8.5669    112.1665     46.8303   8.2090656997e+01   5.0744952237e+01    0.2472887    0.1873984 -44.38 0.0007450995    1.412    0.292
       467  -8.9136     81.9495     46.5630   9.1411003624e+01   5.6688792620e+01    0.2528603    0.1891086 -45.57 0.0006271946    1.380    0.275
       468  -8.3093     45.0830     44.8454   1.0455383035e+02   6.2295907206e+01    0.1778739    0.1591623 -55.38 0.0005056472    1.259    0.206
       469  -8.8796     16.5618     44.8476   1.1633416095e+02   6.4851790477e+01    0.1973605    0.1681806  89.20  0.000722556    1.486    0.327
       470  -9.0654    132.9658     43.5262   7.5454260498e+01   4.6523771787e+01    0.2836704    0.1968481 -47.88 0.0007300836    1.627    0.385
       471  -9.0192     58.2864     42.6190   9.8566450196e+01   6.1072794417e+01    0.3102998    0.2128126 -64.46  0.001200486    2.102    0.524
       472  -8.3463     92.6913     42.6282   8.6392769807e+01   5.5409683835e+01    0.2219802    0.1576701   5.45 0.0009836797    1.690    0.408
       473  -9.2407     69.4881     41.5812   9.3963051152e+01   5.9625264935e+01    0.3299527    0.2269826 -56.00 0.0009158875    1.825    0.452
       474  -9.4553      5.0534     42.0010   1.2046688681e+02   6.6107317724e+01    0.3037435    0.1927057 -87.94   0.00129331    2.092    0.522
       475  -8.7792    105.9835     41.3235   8.1835399128e+01   5.2948884291e+01    0.2970253    0.1858191 -41.79 0.0007014404    1.675    0.403
       476  -7.9577    140.4548     41.5167   7.2994980278e+01   4.5006124434e+01    0.1476737    0.1408126  28.58 4.824118e-05    1.004    0.004
       477  -8.4495     36.8178     40.7499   1.0656879754e+02   6.3974168763e+01    0.2115965     0.153017 -74.66 0.0007300578    2.005    0.501
       478  -8.9788     95.2614     37.7267   8.3700114852e+01   5.5706479935e+01    0.3421524    0.1972213 -46.40  0.001231922    1.998    0.500
       479  -8.5542    223.5500     36.7286   5.7625423502e+01   2.4499537430e+01    0.2678143    0.1399392 -20.69  0.001136855    2.190    0.543
       480  -8.2928     80.6015     36.8134   8.8160961701e+01   5.8597109731e+01    0.1866989    0.1200097 -45.08  0.000503929    1.668    0.400
       481  -9.4741     26.1782     35.3484   1.0933792803e+02   6.6006243621e+01    0.3126809    0.1750179 -57.68 0.0008752358    1.712    0.416
       482  -8.2708    133.4143     36.1819   7.2732520656e+01   4.7480366991e+01     0.203965    0.1329591 -40.52 0.0006399376    1.631    0.387
       483  -8.1595    125.8857     35.8489   7.4423939623e+01   4.9322876514e+01    0.1868858    0.1719478 -62.73 0.0003891792    1.263    0.208
       484  -8.8052    111.9178     34.6808   7.7630056590e+01   5.2677672183e+01    0.2778685    0.1762044 -48.08 0.0007808313    1.902    0.474
       485  -9.0153     48.5177     33.5709   9.9083958402e+01   6.3994342061e+01    0.2193213     0.204982 -54.34 0.0005917496    1.363    0.266
       486  -8.2723    119.0497     33.0890   7.5123115768e+01   5.1299030570e+01    0.2162651    0.1727432 -63.82 0.0005240295    1.635    0.388
       487  -8.9784     60.4240     32.4865   9.3854040521e+01   6.2573280095e+01     0.273672    0.2001433 -50.02  0.001003448    1.571    0.363
       488  -8.9214     72.2695     31.3721   8.8922643153e+01   6.0909159083e+01    0.2371567      0.18657 -57.03 0.0006277732    1.726    0.421
       489  -7.5671    139.3071     31.6520   6.9776464028e+01   4.6650943403e+01    0.1494985    0.1121334 -64.24  0.000704314    1.703    0.413
       490  -9.1111     12.8254     30.1241   1.1369298352e+02   6.8015489830e+01    0.3178642    0.1514762 -64.65  0.001548077    2.252    0.556
       491  -8.4992     41.9784     30.0302   1.0047344297e+02   6.5409408480e+01     0.151126    0.1215327 -28.00 0.0004138339    1.025    0.024
       492  -8.2277    101.6057     29.3614   7.8466785822e+01   5.5663516731e+01    0.1949034    0.1656796 -64.06 0.0006769447    1.565    0.361
       493  -8.8961     81.6334     27.5810   8.4044376611e+01   5.9859720959e+01    0.2921493    0.2049567 -57.92 0.0009105925    2.184    0.542
       494  -8.7399      3.6356     27.6788   1.1726505172e+02   6.9022241037e+01    0.2050541    0.1458571 -69.69 0.0006826679    1.502    0.334
       495  -7.7490    109.7184     27.3491   7.5372923552e+01   5.4188424769e+01    0.1369078    0.1093825 -59.95 0.0007014425    1.647    0.393
       496  -9.0138     91.7599     26.2699   8.0185058069e+01   5.8114567961e+01    0.3170578    0.1951558 -39.60 0.0008634065    1.729    0.422
       497  -7.5602    145.7203     25.3985   6.6218789580e+01   4.5831885814e+01    0.1515079    0.1067157 -58.78 0.0006991657    1.762    0.432
       498  -8.4286    104.4644     22.9587   7.5051447494e+01   5.5917369972e+01    0.2008988    0.1318154 -26.12 0.0005496335    1.526    0.345
       499  -7.7564     34.4807     23.4512   1.0117215914e+02   6.7392940256e+01    0.1197657   0.09824353 -26.33  2.76689e-05    1.053    0.050
       500  -9.0180     63.5860     21.2535   8.7854865891e+01   6.3888290074e+01    0.2638673    0.1974211 -46.54  0.000958896    1.625    0.385
       501  -8.7980     48.1832     21.7504   9.4362324891e+01   6.6047566268e+01    0.2200222    0.1783901 -35.91 0.0006932367    1.250    0.200
       502  -8.4728    120.4572     21.2465   7.0215477512e+01   5.2511478915e+01    0.1955012    0.1273619 -38.15 0.0009453142    1.663    0.399
       503  -8.8487     74.1440     19.7285   8.3250617893e+01   6.2339390784e+01    0.2670164    0.1845151 -47.05 0.0007165566    1.831    0.454
       504  -8.1295     19.7787     21.5843   1.0738639922e+02   6.9098786647e+01    0.1355948    0.1051934  27.92 0.0004514862    1.593    0.372
       505  -7.8405     11.5274     20.5395   1.1106750146e+02   6.9900319972e+01     0.113006   0.08807853 -38.22 0.0001177612    1.051    0.049
       506  -8.0616     87.7980     17.8035   7.7812227504e+01   6.0038539644e+01    0.1694133    0.1515662 -37.01 0.0003428555    1.313    0.238
       507  -8.0061     38.7559     18.5844   9.7142825558e+01   6.7733516707e+01    0.1441897    0.1111531  33.86 0.0005096798    1.561    0.360
       508  -7.8843    112.7752     16.9719   7.0405361163e+01   5.4795135740e+01    0.1725906    0.1122356 -21.23 0.0003215245    1.581    0.367
       509  -8.0142     30.0330     16.0016   1.0009740295e+02   6.9118841710e+01    0.1609525    0.1417642 -64.79 0.0006933356    1.704    0.413
       510  -8.3826     17.0656     14.3005   1.0582776605e+02   7.0599509960e+01    0.1528964    0.1253687 -22.34 0.0005960501    1.109    0.098
       511  -7.8379    119.5874     11.5079   6.6575607983e+01   5.3807858053e+01    0.1359308    0.1265398  30.51 -8.74587e-05    1.047    0.045
       512  -8.7167    248.9701    248.9084   9.9118196855e+01  -8.8587944320e+00    0.1769014    0.1347104 -12.39  0.001371862    1.428    0.300
       513  -8.5145    218.8003    248.4389   1.0395672014e+02  -4.5232285423e+00     0.172453     0.147357 -47.43  0.001139981    1.867    0.464
       514  -7.8579     76.3288     10.6849   7.8345115993e+01   6.3124405087e+01    0.1184405    0.1034327 -61.06 0.0007044889    1.676    0.403
       515  -7.9081    191.5114    249.5320   1.0870509984e+02  -5.4407575424e-01    0.1146229   0.08593943  36.58 4.425804e-05    1.073    0.068
       516  -9.2820    175.7640    247.7236   1.1118055162e+02   2.0930322206e+00     0.266185    0.2141768  71.88  0.001363086    1.734    0.423
       517  -8.4136    156.4283    248.5585   1.1463866835e+02   4.9719150690e+00    0.2006327    0.1379047  72.28 0.0008162822    2.096    0.523
       518  -8.8349    132.3193    247.9502   1.1877027473e+02   8.7233440221e+00    0.2286637    0.1447306  66.43  0.000642677    1.822    0.451
       519  -8.1182    113.0822    249.0426   1.2220858442e+02   1.1397003078e+01    0.1725181    0.1066574  66.54  0.001105014    1.679    0.404
       520  -9.1356    104.1660    247.4476   1.2359612017e+02   1.2906401750e+01    0.3473046    0.1869124  86.15  0.001874792    2.933    0.659
       521  -8.8772    243.0158    246.5376   9.9718941591e+01  -7.8132629588e+00    0.2596343    0.1403783 -19.54  0.001648312    2.064    0.515
       522  -9.2290    232.9092    246.0998   1.0129419845e+02  -6.3376434501e+00    0.4024083    0.2092198   2.80    0.0020722    2.843    0.648
       523  -9.2492    211.0488    246.6376   1.0500116075e+02  -3.1787719837e+00    0.1897469     0.161923 -52.17 0.0007376297    1.866    0.464
       524 -10.0213    224.2312    243.9988   1.0241959065e+02  -4.8592790957e+00    0.3762672    0.2442021 -33.83  0.002379541    1.941    0.485
       525  -9.1880    147.2996    246.1470   1.1595660482e+02   6.6985271739e+00     0.327039    0.1843196  66.23  0.001707315    2.711    0.631
       526  -9.0728    120.1285    245.5276   1.2064956205e+02   1.0886260187e+01    0.2953689    0.1733242  75.21  0.001679137    2.399    0.583
