#   1 NUMBER                 Running object number                                     
#   2 MAG_AUTO               Kron-like elliptical aperture magnitude                    [mag]
#   3 X_IMAGE                Object position along x                                    [pixel]
#   4 Y_IMAGE                Object position along y                                    [pixel]
#   5 X_WORLD                Barycenter position along world x axis                     [deg]
#   6 Y_WORLD                Barycenter position along world y axis                     [deg]
#   7 A_WORLD                Profile RMS along major axis (world units)                 [deg]
#   8 B_WORLD                Profile RMS along minor axis (world units)                 [deg]
#   9 THETA_WORLD            Position angle (CCW/world-x)                               [deg]
#  10 FWHM_WORLD             FWHM assuming a gaussian core                              [deg]
#  11 ELONGATION             A_IMAGE/B_IMAGE                                           
#  12 ELLIPTICITY            1 - B_IMAGE/A_IMAGE                                       
         1 -13.5803    167.8889     57.3097   6.2804753243e+01   3.5578046130e+01     2.578534      1.55502  18.34  0.007285183    2.772    0.639
         2 -12.9583    182.4830     42.0477   5.5363696583e+01   3.4059872001e+01    0.9396221    0.6928248 -41.73  0.002573709    1.309    0.236
         3 -13.8390    204.4083     11.0284   4.3140264853e+01   3.2103129408e+01     1.234574     1.033539   3.18  0.005080374    1.415    0.293
         4 -12.8013    231.3483      3.7729   3.8913494337e+01   2.6226880211e+01     1.702759    0.4849906  78.45  0.005930328    3.847    0.740
         5 -11.1084    189.8885     14.9336   4.5834039706e+01   3.5434561698e+01    0.3277194     0.255248 -68.24 0.0009143968    1.291    0.225
         6 -10.5776     11.8687    215.8365   1.2855027347e+02   2.8597992745e+01    0.1335044    0.1146104  80.66 0.0006435959    1.366    0.268
         7 -11.7705    248.2478    245.3624   9.0383448328e+01  -8.1637757096e+00    0.2981201    0.2014928  -1.73  0.001771108    1.323    0.244
         8 -10.9525     81.8154    195.2114   1.1380994431e+02   2.4329159411e+01    0.3592082    0.3108425  35.66  0.001917008    1.381    0.276
         9  -9.9612    223.0018    198.2844   8.6873386431e+01   5.9373244698e-01    0.1710004    0.1393524  17.27 0.0004857462    1.031    0.030
        10 -12.4015     68.4019    193.0508   1.1632528361e+02   2.6589862895e+01    0.4537495    0.4228806 -52.17  0.001665982    1.470    0.320
        11  -9.4596     79.0673    214.0965   1.1623137029e+02   2.1142206609e+01    0.1674369    0.1294861  64.52  0.000275898    1.032    0.031
        12 -10.1203    156.3450    189.8137   9.7822522272e+01   1.3292644082e+01      0.18516    0.1636251 -77.01 0.0006857537    1.359    0.264
        13 -11.3980    150.4812    188.4400   9.8777952387e+01   1.4562334196e+01    0.3064256    0.2494618 -84.75  0.001156527    1.559    0.359
        14  -9.6632     58.2655    190.3032   1.1813467362e+02   2.8447945461e+01    0.1896354    0.1565473  78.44 0.0006008822    1.073    0.068
        15  -9.4242     59.4082    187.1984   1.1760810773e+02   2.8938060253e+01    0.2050811     0.153459  62.72  0.000759178    1.119    0.107
        16  -9.5623    242.3127    184.6785   8.1136853631e+01  -7.8594037781e-01    0.1057791    0.1001951 -54.54 0.0002993974    1.653    0.395
        17 -10.9983    151.4062    180.5100   9.7272718257e+01   1.5806986080e+01    0.3448035    0.2514968 -81.08  0.001234269    1.983    0.496
        18 -11.4596    145.4511    181.2079   9.8622150619e+01   1.6749016337e+01    0.3027632    0.2817434   1.97     0.001006    1.207    0.172
        19 -12.4621    141.9415    176.1179   9.8500830806e+01   1.8324255724e+01     0.715139    0.4596593 -87.50   0.00307823    2.828    0.646
        20 -11.0255    188.6344    176.4498   8.9107030924e+01   9.6741569345e+00    0.5760264    0.3862213 -57.45  0.002420986    2.125    0.529
        21 -12.3145    124.9121    172.3663   1.0153935079e+02   2.2079157785e+01     0.558122     0.389275  83.82  0.002796215    1.891    0.471
        22 -13.9772     12.1825    206.0689   1.2805418926e+02   3.0381174009e+01    0.5040901    0.2287683  39.45  0.003152805    2.020    0.505
        23  -8.9196    194.4888    172.5308   8.7235471051e+01   9.2194852346e+00    0.1348377    0.1207082  18.07 2.329151e-06    1.010    0.010
        24  -9.6327    240.3060    169.3296   7.8467574349e+01   1.5241524168e+00    0.1344248   0.08680063   6.35 0.0003428328    1.657    0.396
        25 -10.7494    160.9957    205.5415   9.9378402749e+01   9.9142388067e+00    0.1803332    0.1720643 -15.42  0.001063402    1.197    0.165
        26  -9.8135      7.7450    161.0972   1.2647167582e+02   3.9916248917e+01    0.1664188    0.1529651  71.88 0.0007985582    1.342    0.255
        27 -11.3006     95.4865    156.5026   1.0567587380e+02   3.0383053109e+01    0.2691896     0.246666  88.45  0.001644576    1.050    0.048
        28 -12.4194    100.4405    150.4253   1.0347829661e+02   3.0923943558e+01    0.6097564    0.4847901 -29.27  0.003256956    1.686    0.407
        29  -9.7939      3.2635    155.6172   1.2710184971e+02   4.1464087894e+01    0.1444775    0.1361757  40.00 0.0004437289    1.477    0.323
        30 -11.5569    133.8364    145.6676   9.4622574099e+01   2.5934026901e+01      1.28591    0.3018921 -54.24  0.003053599    6.467    0.845
        31 -10.6903    113.5472    151.9325   1.0060565849e+02   2.8344331438e+01    0.3963783    0.2440231  66.12  0.001287892    2.045    0.511
        32 -11.3174    193.3960    195.7885   9.1705073494e+01   5.8690756953e+00     1.120845    0.5697477 -58.10  0.004134437    4.854    0.794
        33  -9.8292    174.8677    149.1335   8.6326211728e+01   1.7047312654e+01    0.2133711    0.2006715  84.59 0.0005611686    1.230    0.187
        34 -10.4351    144.0840    147.0500   9.2555099707e+01   2.3645781352e+01    0.4910773    0.1998299 -58.36  0.001551735    3.808    0.737
        35  -9.2513    115.7714    144.5964   9.8697776320e+01   2.9550979118e+01    0.1996717    0.1278319  53.84 0.0004616775    1.602    0.376
        36 -11.7303    110.4010    137.0875   9.8537185778e+01   3.2192710395e+01    0.5118256    0.3336374 -35.26  0.002323706    1.960    0.490
        37  -9.3389    128.7168    139.5865   9.4570722422e+01   2.8218843521e+01    0.2052964     0.134574  53.83 0.0007127402    1.582    0.368
        38 -11.8288     99.1934    136.3073   1.0121480767e+02   3.4330936712e+01     0.303724    0.2890636 -31.60 0.0006399552    1.230    0.187
        39 -11.2327    105.8196    130.8631   9.8428823814e+01   3.4426364300e+01    0.4006017    0.3412716 -80.14   0.00112367    1.174    0.148
        40 -10.4945    135.0000    120.4318   8.8706368114e+01   3.1103272825e+01     0.484086   0.08521444 -46.11  0.001121933    5.596    0.821
        41 -10.5288    136.0000    129.4568   9.0598164215e+01   2.8955107710e+01    0.4218852   0.08437113 -47.00  0.001056797    4.984    0.799
        42  -9.3156    186.8173    186.6099   9.1324944843e+01   8.3986373287e+00    0.1901671    0.1555678  39.61 0.0006444702    1.150    0.130
        43 -10.5366    160.4768    127.6644   8.4518472136e+01   2.4184157147e+01    0.4300103    0.2435902 -51.63  0.001768618    1.945    0.486
        44 -10.7012    116.5455    128.4545   9.5174908618e+01   3.3001882161e+01    0.2913421    0.2568443 -19.50 0.0007813412    1.359    0.264
        45 -10.6012    104.7342    123.9964   9.7251303671e+01   3.6197995523e+01    0.2867243     0.233779 -35.87 0.0006889781    1.386    0.278
        46 -10.1277    120.9505    122.9994   9.2825174758e+01   3.3376778376e+01    0.2376687    0.1885028 -10.34 0.0008891354    1.731    0.422
        47  -9.6387    153.0746    120.2759   8.4379816295e+01   2.7281748328e+01    0.2156381    0.2066779  53.40  0.001158038    1.060    0.057
        48 -11.5857    204.1445    200.3316   9.0533816909e+01   3.4129982775e+00    0.6018898    0.1609669  36.26  0.002069467    3.933    0.746
        49  -9.6276    111.5940    117.9217   9.4064919193e+01   3.6325202226e+01    0.2337947     0.203762  33.50 0.0004419833    1.261    0.207
        50  -9.8649    231.2679    113.7984   6.7588959374e+01   1.1321133807e+01    0.2448209    0.2220335  18.06 0.0007631977    1.132    0.117
        51  -9.9087    167.8671    112.6334   7.9126087045e+01   2.5518040366e+01    0.3781688    0.2684607 -73.00  0.001090165    2.062    0.515
        52 -10.5953    134.5506    104.7647   8.4796879734e+01   3.4571728772e+01    0.4616563    0.1491451 -42.60  0.001419374    3.051    0.672
        53 -11.4158    118.8786    110.3445   9.0292747783e+01   3.6619471025e+01    0.5660604    0.3567222  69.05   0.00225991    2.327    0.570
        54  -9.8150    205.3383    110.2207   7.1083532497e+01   1.7472360643e+01    0.2988664    0.2082671  42.83 0.0008653767    1.497    0.332
        55  -8.9504     75.6501    103.7163   1.0090120275e+02   4.5818921975e+01    0.1405354    0.1087162 -25.11 0.0007017941    1.654    0.395
        56  -9.9238     63.4784     99.0101   1.0356798472e+02   4.8690470632e+01    0.1989255    0.1906712  85.66  0.000469442    1.125    0.111
        57  -9.6777    128.2804     95.5574   8.3841262269e+01   3.7901037281e+01    0.2938556    0.1533722  51.66  0.001133092    2.071    0.517
        58  -9.8690    190.4953     90.0019   6.8390243512e+01   2.4404361545e+01    0.2838327    0.2294886  83.70   0.00100952    1.524    0.344
        59  -9.2759    151.5864     82.2101   7.4151652952e+01   3.5262938671e+01    0.2139857    0.1500588 -25.11 0.0003729158    1.548    0.354
        60  -9.7812     77.0338     74.8602   9.2824434996e+01   5.2325143974e+01    0.2149136    0.1937203 -50.37 0.0004691496    1.028    0.027
        61 -19.1524     30.4717    103.0134   1.1461648552e+02   5.1436895412e+01     16.91468    0.7354044 -67.89   0.02564881   17.845    0.944
        62 -18.7673     41.8922    238.0897   1.2458276154e+02   2.1555279171e+01     5.397329     4.505563  68.65   0.03916846    1.270    0.213
        63 -12.6332    187.6739     35.2090   5.2434299171e+01   3.3620868505e+01    0.6576006    0.5230777 -12.93    0.0016306    1.366    0.268
        64 -10.0074     13.6333     59.9328   1.1247408736e+02   6.2938771202e+01    0.1848896    0.1769653  79.46  0.000424617    1.273    0.214
        65  -9.6562    162.8516    235.3585   1.0315601113e+02   5.2759765218e+00    0.1662545    0.1561987 -84.31 0.0007092879    1.386    0.279
        66 -10.4620    167.2678    227.1794   1.0130093174e+02   5.7049333912e+00    0.2634692    0.1561065 -44.91  0.001324307    2.088    0.521
