#   1 NUMBER                 Running object number                                     
#   2 MAG_AUTO               Kron-like elliptical aperture magnitude                    [mag]
#   3 X_IMAGE                Object position along x                                    [pixel]
#   4 Y_IMAGE                Object position along y                                    [pixel]
#   5 X_WORLD                Barycenter position along world x axis                     [deg]
#   6 Y_WORLD                Barycenter position along world y axis                     [deg]
#   7 A_WORLD                Profile RMS along major axis (world units)                 [deg]
#   8 B_WORLD                Profile RMS along minor axis (world units)                 [deg]
#   9 THETA_WORLD            Position angle (CCW/world-x)                               [deg]
#  10 FWHM_WORLD             FWHM assuming a gaussian core                              [deg]
#  11 ELONGATION             A_IMAGE/B_IMAGE                                           
#  12 ELLIPTICITY            1 - B_IMAGE/A_IMAGE                                       
         1 -10.5282    159.6560      9.5965   5.6431092116e+01   4.4299847246e+01    0.2994633    0.1706781 -10.56 0.0006393711    1.908    0.476
         2 -11.3546     92.4183      6.7978   6.9120278309e+01   6.1062261864e+01    0.3425703    0.1284672 -21.29  0.001216111    2.651    0.623
         3 -12.2549     56.9714      2.7733   7.8777591013e+01   6.8275316319e+01    0.3537675    0.1693625  37.58  0.001724053    2.251    0.556
         4 -11.5370     68.0492      4.2609   7.5468098879e+01   6.6171906937e+01     0.329572    0.1753858 -22.31  0.001075022    1.701    0.412
         5 -14.4692     68.3801    145.1249   1.1726989358e+02   3.7136166776e+01     2.014332    0.9475832  51.27  0.006072117    2.088    0.521
         6 -15.2887    160.4093     73.6918   7.8779329536e+01   3.4878871484e+01     2.850431     1.779947 -16.39   0.01144129    2.035    0.509
         7 -15.1291    183.4008     82.7186   7.6847026167e+01   2.7702174943e+01     10.86108     3.996238 -48.52   0.03170112    3.739    0.733
         8 -12.3872    198.1646    151.3906   9.1057500553e+01   1.2988334398e+01    0.3078638    0.2389152  48.51 0.0009026786    1.294    0.227
         9 -18.1641    247.1389    125.0500   7.6931599444e+01   7.0417858015e+00     13.25692     1.747846 -31.45   0.03416148    5.995    0.833
        10 -11.3093    156.8244    148.2943   9.8444248171e+01   2.1678364977e+01    0.3191129    0.2057599  57.19  0.001564906    1.647    0.393
        11 -11.2408    133.0000    142.5016   1.0233866075e+02   2.7326402595e+01    0.6966568    0.1567325 -53.20  0.001867046    5.695    0.824
        12 -10.8228    143.9238    145.9443   1.0066385953e+02   2.4601501111e+01    0.3128674     0.190731 -72.94  0.001322681    2.608    0.617
        13 -12.2561    150.2119    140.4034   9.8228513074e+01   2.4433778094e+01    0.4748614    0.3467239  10.93   0.00228212    2.024    0.506
        14 -12.5553    133.2651    127.5183   9.9225976518e+01   3.0280902669e+01    0.8017346    0.5223999 -67.91  0.001874185    1.895    0.472
        15 -10.8267    135.0000    120.9494   9.7376538114e+01   3.1279236571e+01    0.4574218   0.08054883 -46.59  0.001125894    5.635    0.823
        16 -14.0265     57.4028    163.4929   1.2180774278e+02   3.4675043473e+01    0.5084373    0.3990242  81.59  0.000909779    1.015    0.015
        17  -9.8631    100.1418    132.8409   1.0797160770e+02   3.5104741143e+01    0.1684996    0.1584475 -36.99 0.0003894013    1.293    0.226
        18 -12.0564    136.6996     91.7138   8.9565429545e+01   3.6902088563e+01    0.3452803    0.3029133  89.45 0.0008865645    1.286    0.223
        19 -10.7322    113.3205     95.0065   9.6326700165e+01   4.0996920356e+01    0.2276486    0.2064163  -3.32 0.0003780961    1.311    0.237
        20 -13.3068    127.0740    105.2641   9.5504650213e+01   3.6114254486e+01    0.9421819    0.5127384 -60.16  0.003771111    2.230    0.552
        21 -13.3634    118.5842     93.7943   9.4643821643e+01   4.0229975619e+01     1.419689    0.5405238 -57.39  0.004188587    3.990    0.749
        22 -12.0341    111.9776    103.9853   9.8949355713e+01   3.9309749884e+01    0.5767996    0.4000736 -66.58  0.002249645    1.565    0.361
        23 -12.1284    116.2867    101.5564   9.7252025413e+01   3.9019431594e+01    0.7458258    0.3635591  56.96  0.002843027    2.634    0.620
        24  -9.8825    111.4713    112.0617   1.0097925554e+02   3.7650141798e+01    0.2113108    0.1335448 -51.05 0.0004814886    1.508    0.337
        25 -14.5747     69.7206    153.5855   1.1806356412e+02   3.5164114391e+01    0.8714647    0.5934196  84.88  0.002444315    1.384    0.277
        26 -14.0925     63.9819    158.5366   1.1988977504e+02   3.4876252541e+01    0.6209229    0.4475768  76.84  0.002532437    1.210    0.174
        27 -10.4574    155.5222    153.6837   9.9754172233e+01   2.0958414184e+01    0.2249711    0.1563655  65.12 0.0007781063    1.687    0.407
        28 -15.1092    204.6617     40.4011   6.0392950254e+01   2.8720550488e+01     14.14397          nan  56.41   0.02467961   10.865    0.908
        29 -10.4033    200.9478     87.7235   7.5045084519e+01   2.2640559484e+01    0.2699129     0.210513 -27.28 0.0004970639    1.221    0.181
        30 -11.5954    131.3987     97.5385   9.2447476370e+01   3.6838584153e+01    0.3795703     0.289433 -50.28 0.0006684603    1.269    0.212
        31 -13.1908    134.4670    107.7528   9.4354421625e+01   3.4095885465e+01     1.849803     0.269067 -46.48  0.004022013    6.912    0.855
        32 -11.4347    211.0057     83.5314   7.2158326064e+01   2.0902455492e+01    0.4395577    0.2926088 -17.28  0.001642884    1.567    0.362
        33 -10.1743    216.2201     83.5129   7.1302613718e+01   1.9669860822e+01    0.3212373    0.2279266  -5.92  0.001493886    1.577    0.366
        34 -11.3177    107.9540     76.5549   9.2546214461e+01   4.5962147065e+01    0.2957418    0.1977575 -30.76  0.001128549    1.654    0.395
        35 -13.6883    191.8788     69.5789   7.1389234588e+01   2.7764155786e+01    0.9777763    0.7187772 -30.31  0.004626711    1.291    0.225
        36 -12.2482    194.2106     58.6506   6.7653679348e+01   2.8856384648e+01    0.2910371    0.2395072 -49.79 0.0006203316    1.252    0.201
        37 -11.3041    114.7590     75.6396   9.0409999861e+01   4.4800172116e+01    0.2518697    0.1943122  60.45 0.0004720471    1.479    0.324
        38 -10.3272    200.6628     73.3426   7.0987120072e+01   2.4989345074e+01     0.343085    0.2245435 -63.31  0.001044766    2.095    0.523
        39 -11.7054    223.9137     61.4054   6.3939011424e+01   2.1035729854e+01    0.4539226    0.2641576 -51.21  0.001479525    1.946    0.486
        40 -12.6132    218.7162     70.9890   6.7415801963e+01   2.0931913609e+01    0.3934252     0.351935  16.42  0.001172741    1.158    0.136
        41 -11.3322    221.5096     66.5614   6.5746926793e+01   2.0893995750e+01    0.2384077    0.2231941 -72.11 0.0001870436    1.186    0.157
        42 -10.1356    210.5031     68.9767   6.8107214541e+01   2.3227661956e+01    0.1887498    0.1260434   8.84 0.0004062962    1.969    0.492
        43 -12.3472    205.0239     64.2923   6.7601975754e+01   2.5281680086e+01    0.3307934    0.3133028 -48.37  0.000848571    1.088    0.081
        44 -12.7207    203.7358     60.1108   6.6557308235e+01   2.6221603228e+01    0.4590245    0.3049658  31.76   0.00201414    1.775    0.437
        45 -10.2755    217.5356     63.6587   6.5499605642e+01   2.2274352781e+01    0.4886623    0.1981812  41.27  0.001639563    3.126    0.680
        46 -10.6644    212.2401     57.0966   6.4363740164e+01   2.4516262956e+01    0.3752866    0.1788177 -50.40  0.001355721    2.538    0.606
        47  -9.4259    223.4238     56.5276   6.2613170550e+01   2.1825561354e+01    0.1493376    0.1359738 -26.17 7.470718e-05    1.010    0.010
        48 -10.4943    204.1994     51.3313   6.3824632978e+01   2.7360722864e+01    0.1465536    0.1113433   2.13 0.0006481604    1.497    0.332
        49  -9.3952    220.2418     45.3539   5.9793323206e+01   2.4103463177e+01    0.3619706    0.1619714  48.95  0.001387516    2.394    0.582
        50 -11.1124    212.7218     44.9951   6.0685729262e+01   2.6047892988e+01    0.2111327     0.177489 -20.81 0.0009416668    1.143    0.125
        51 -10.7146    189.9494     35.7702   6.1040251866e+01   3.3175190366e+01    0.1971113    0.1659992 -26.49 0.0006362569    1.143    0.125
        52 -12.0716    192.1752    193.9642   9.9959717723e+01   7.9689914792e+00    0.7701267    0.4088382 -62.23  0.002722221    6.105    0.836
        53 -16.5527    133.1928     16.0853   6.3654580588e+01   5.0475854323e+01      14.3765     3.485209 -34.22   0.04401689    3.554    0.719
        54 -11.8068    211.1935     28.2251   5.5794335753e+01   2.8542768326e+01    0.4292065    0.2351911 -23.13  0.001834208    1.761    0.432
        55 -10.6664    212.5041     22.9827   5.4042405105e+01   2.8810089850e+01    0.4147308     0.265797   0.39  0.001838607    1.915    0.478
        56 -10.8329    206.0101     24.7710   5.5355194629e+01   3.0294668420e+01    0.2201509    0.1810924 -73.24  0.001136209    1.295    0.228
        57 -11.0260    211.7245     16.8141   5.2250488867e+01   2.9692096152e+01    0.2011692    0.1382331 -41.00 0.0009759064    1.369    0.270
        58 -10.2739    206.3750     16.9165   5.2867873232e+01   3.1075588428e+01    0.2082035    0.1759571  87.89  0.001109389    1.228    0.186
        59 -12.0512    230.4196    166.9248   8.8593704167e+01   4.7361657035e+00    0.3098219     0.213595 -35.59  0.001280242    1.614    0.380
        60 -10.9658    218.9713    234.4942   1.0164698956e+02  -9.3777600476e-01    0.1711332   0.08233189  41.31  0.001038555    1.611    0.379
        61 -15.8631     22.2551    182.1387   1.3014936733e+02   3.4811861727e+01     2.139053     1.334045  54.25   0.01559839    1.370    0.270
