#   1 NUMBER                 Running object number                                     
#   2 MAG_AUTO               Kron-like elliptical aperture magnitude                    [mag]
#   3 X_IMAGE                Object position along x                                    [pixel]
#   4 Y_IMAGE                Object position along y                                    [pixel]
#   5 X_WORLD                Barycenter position along world x axis                     [deg]
#   6 Y_WORLD                Barycenter position along world y axis                     [deg]
#   7 A_WORLD                Profile RMS along major axis (world units)                 [deg]
#   8 B_WORLD                Profile RMS along minor axis (world units)                 [deg]
#   9 THETA_WORLD            Position angle (CCW/world-x)                               [deg]
#  10 FWHM_WORLD             FWHM assuming a gaussian core                              [deg]
#  11 ELONGATION             A_IMAGE/B_IMAGE                                           
#  12 ELLIPTICITY            1 - B_IMAGE/A_IMAGE                                       
         1 -12.7054    213.6225     31.5692   3.5756259721e+02   2.8173300773e+01    0.7684669    0.3945347 -56.18  0.003678601    1.737    0.424
         2 -13.5116    217.6179     26.6777   3.5609287187e+02   2.7907450896e+01    0.8857297    0.5390643 -53.74  0.003466604    1.350    0.259
         3 -11.2822     67.1797      6.9957   1.2119465311e+01   6.7578258300e+01    0.2332121    0.1442226  23.04  0.001093546    1.990    0.497
         4  -9.7172     70.4874    233.6512   6.8083498916e+01   1.6884167547e+01    0.1214117   0.09772834  21.70 0.0001585865    1.244    0.196
         5 -13.0903    247.4243    245.6463   3.4985141564e+01  -5.5920142321e+00    0.6531179    0.3411329 -22.07   0.00471348    1.590    0.371
         6 -10.2815    160.6007    199.7908   4.3530757024e+01   1.0720658967e+01    0.2444534     0.195336 -71.51  0.001299142    1.990    0.497
         7 -10.0361    210.9661    198.9147   3.3733527942e+01   3.9260957870e+00    0.1787256    0.1414623  -1.86 0.0004788383    1.013    0.013
         8 -15.7803     68.4170    143.1329   5.8414557343e+01   3.7603685550e+01     2.845938     1.947978 -87.99   0.01304468    1.673    0.402
         9 -10.1958    191.4950    191.5842   3.6004223507e+01   7.6037080167e+00    0.3359643    0.2027703 -57.17  0.001601814    2.994    0.666
        10 -10.1956     54.8113    191.1354   6.8362210483e+01   2.7603220631e+01    0.2045211    0.1584691  71.40 0.0003249208    1.267    0.211
        11  -9.7912    234.2433    191.1978   2.8626453900e+01   2.0844615211e+00    0.1396279     0.120225 -17.59 0.0005008364    1.326    0.246
        12  -9.1291     45.2393    191.6181   7.0977057603e+01   2.8612604925e+01    0.1410892    0.0837388  62.51 0.0006925227    1.636    0.389
        13  -9.6095     91.7219    185.1512   5.7767199778e+01   2.3986019305e+01    0.2085302     0.169222  54.62  0.001152397    1.207    0.171
        14 -12.7024     53.5883    230.5190   7.1737957144e+01   1.9437933621e+01    0.3084261    0.1896587  79.35  0.001778306    1.857    0.461
        15 -10.4476    175.0373    179.6953   3.7132697843e+01   1.1957555391e+01    0.2631598    0.2249992  17.70  0.001251717    1.087    0.080
        16 -12.0613    172.4674    174.5805   3.6728524922e+01   1.3242982097e+01    0.5453152    0.3909599 -10.46  0.001324309    1.515    0.340
        17 -11.5670    179.8760    169.3481   3.4256538654e+01   1.2964827391e+01    0.5668316    0.4945132 -26.89   0.00309856    1.144    0.126
        18 -12.0966     89.2977    215.5421   6.2005335456e+01   1.7980168349e+01    0.5330639    0.3126425 -58.65  0.002352892    2.003    0.501
        19  -9.6558     71.9320    176.6879   6.2087868144e+01   2.8758000185e+01    0.2094026     0.156185  35.62  0.001097201    1.211    0.174
        20 -10.0620     49.1603    221.6944   7.2188206456e+01   2.1675725256e+01    0.1118395    0.0749342  66.29 0.0001589266    1.458    0.314
        21 -10.4861     60.9484    219.2395   6.9185567819e+01   2.0812738582e+01     0.142602    0.1203229  50.44 0.0002774581    1.072    0.067
        22 -11.4366     67.8529    214.0681   6.7075186966e+01   2.1027604028e+01    0.1829266    0.1535873  45.72 0.0003391951    1.036    0.035
        23 -10.6750     90.0027    222.0152   6.2507707732e+01   1.6639865758e+01    0.3062183    0.2252144  19.20  0.001411003    1.329    0.248
        24 -10.6044     99.6097    160.3288   5.1841890875e+01   2.8421763705e+01    0.3438954    0.2292233 -72.47  0.001451684    1.815    0.449
        25 -12.2473    133.5721    145.5975   3.9901129737e+01   2.5706753198e+01     1.233867    0.2989406 -53.48  0.002984071    5.975    0.833
        26 -11.5630     90.4816    148.6820   5.2462739873e+01   3.2731809784e+01    0.3934785    0.3260687  73.89 0.0004756991    1.307    0.235
        27 -13.1095     95.8716    143.7430   4.9936468385e+01   3.3026466162e+01    0.8254949    0.6932717 -24.86  0.002134824    1.399    0.285
        28  -9.0304    171.6758    143.3450   3.0701172647e+01   1.9028341254e+01    0.1378114    0.1135972 -82.85 0.0007050311    1.739    0.425
        29 -11.2554    106.1862    138.9991   4.5953374662e+01   3.2329027297e+01    0.5085825    0.3049923  73.22  0.001290958    3.076    0.675
        30 -12.3613    106.9976    133.2424   4.4503003035e+01   3.3551560384e+01    0.5396109    0.4724715 -39.69  0.002359695    1.212    0.175
        31 -11.2055    111.6922    150.3317   4.6651234694e+01   2.8671278087e+01    0.3276313    0.2373147  66.32  0.001192202    1.710    0.415
        32 -12.1265     95.7390    131.2096   4.7459986384e+01   3.6130378218e+01    0.4520612    0.3105557 -52.86 0.0005416031    1.493    0.330
        33 -11.3096    135.5658    130.9739   3.6198521994e+01   2.8481908430e+01    0.5038027    0.2710904 -53.71  0.001927588    2.043    0.511
        34 -11.6411    114.6675    125.6081   4.0573856689e+01   3.3869087112e+01    0.3881439    0.3040197  20.62 0.0008420559    1.466    0.318
        35 -10.1171    161.6779    126.8216   2.9134166620e+01   2.4090732109e+01    0.2587928    0.2008569  29.74 0.0007537482    1.380    0.275
        36 -10.2740    131.1001    126.1175   3.6215931446e+01   3.0442182074e+01    0.2397319    0.2103682  -7.21 0.0006190895    1.288    0.224
        37 -10.2890    135.0000    120.5180   3.3874461440e+01   3.0858467876e+01    0.4902176   0.08695473 -46.04  0.001128424    5.659    0.823
        38 -10.6079    102.4054    120.5050   4.3012240676e+01   3.7496371573e+01    0.2925821    0.2579608  -3.86  0.000363454    1.329    0.248
        39 -10.0778    162.2972    119.8608   2.7363606866e+01   2.5318203992e+01    0.3039978    0.2369622 -76.87  0.001054041    1.707    0.414
        40 -10.0205    159.5018    116.0384   2.7038187818e+01   2.6640384166e+01    0.2510362    0.2081736  75.43 0.0004029529    1.450    0.310
        41 -10.6164    109.3764    115.2084   3.9621538809e+01   3.7372374171e+01    0.4292836    0.2973695  79.91  0.001312535    2.140    0.533
        42 -10.0848    155.9785    111.4732   2.6674184574e+01   2.8280208370e+01    0.2772492    0.2012344 -59.30  0.000711513    1.550    0.355
        43 -11.0688    134.6690    107.6807   3.0716499046e+01   3.3682438085e+01     0.812856     0.133036 -47.26  0.001694108    6.866    0.854
        44 -12.0048    115.7880    108.8307   3.6118426708e+01   3.7516921142e+01    0.6416206    0.3759163  64.25  0.002350859    2.446    0.591
        45 -11.9942    112.2320     99.6204   3.4674970205e+01   4.0377030529e+01    0.7317325    0.4199113  70.77   0.00211237    3.258    0.693
        46  -9.5346    148.0394    107.0219   2.7320751364e+01   3.0885485861e+01     0.241643     0.184297 -80.72 0.0005817157    1.725    0.420
        47  -9.7024     84.8311    104.7595   4.4915293822e+01   4.4755404108e+01    0.2212801    0.1820541  73.72 0.0004571545    1.353    0.261
        48 -10.0635     64.3625     99.5925   5.1238877620e+01   4.9667574255e+01    0.3002015    0.1394076  38.12  0.001034954    2.089    0.521
        49 -10.7688     40.5172    231.2131   7.4781734357e+01   2.0730692703e+01    0.1743711    0.1666659 -45.01  0.001274855    1.398    0.285
        50 -11.9180     59.9108    227.4413   7.0055157335e+01   1.9310624643e+01    0.1725493    0.1716375 -12.28 0.0004897828    1.284    0.221
        51 -10.2582     98.4394     88.5981   3.5785176660e+01   4.5883591589e+01    0.4521612    0.2711273  70.35  0.001578232    2.748    0.636
        52  -9.2608    155.6850     87.3007   2.0360212765e+01   3.2979782068e+01    0.1532879    0.1149972 -75.28 0.0003062871    1.613    0.380
        53 -12.4108     47.8902    228.9237   7.2952229211e+01   2.0381417228e+01    0.2474771     0.232189 -53.27  0.001775068    1.389    0.280
        54 -13.1216    173.4325     67.5956   1.1646293266e+01   3.2227879036e+01    0.7666287    0.5344674  56.84  0.000973995    1.506    0.336
        55  -9.2199     98.8047     64.5984   2.7784459133e+01   5.0970755829e+01    0.2187885    0.1454257  61.95 0.0004396226    1.633    0.388
        56 -13.8356    190.8275     54.0958   5.5438391508e+00   3.0247819572e+01     1.169484    0.9348082  32.68  0.003839842    1.661    0.398
        57 -12.1719    196.7015     48.6684   3.4393863674e+00   2.9680043065e+01    0.4100802    0.3646053 -11.08  0.001377603    1.382    0.276
        58 -14.7773    121.5376    232.1057   5.6448697750e+01   1.0700352957e+01      5.62167     4.348619 -75.39    0.0355887    1.863    0.463
        59 -10.1219     60.6017     60.9259   4.1241406498e+01   5.9817360944e+01    0.2477845    0.2068032  22.06 0.0004477937    1.256    0.204
        60 -10.9579    152.6990    207.4508   4.6393859154e+01   1.0571200462e+01    0.2557337    0.1729707 -12.03  0.001313802    1.717    0.418
        61 -19.4146     20.4681    138.7820   7.4052258945e+01   4.4356690769e+01     18.98251     3.473119 -79.66   0.04730507    6.049    0.835
        62 -11.2312     61.2425     21.5901   2.2846903910e+01   6.7122302541e+01    0.3088861    0.2324515  70.24 0.0009439944    1.594    0.373
