#   1 NUMBER                 Running object number                                     
#   2 MAG_AUTO               Kron-like elliptical aperture magnitude                    [mag]
#   3 X_IMAGE                Object position along x                                    [pixel]
#   4 Y_IMAGE                Object position along y                                    [pixel]
#   5 X_WORLD                Barycenter position along world x axis                     [deg]
#   6 Y_WORLD                Barycenter position along world y axis                     [deg]
#   7 A_WORLD                Profile RMS along major axis (world units)                 [deg]
#   8 B_WORLD                Profile RMS along minor axis (world units)                 [deg]
#   9 THETA_WORLD            Position angle (CCW/world-x)                               [deg]
#  10 FWHM_WORLD             FWHM assuming a gaussian core                              [deg]
#  11 ELONGATION             A_IMAGE/B_IMAGE                                           
#  12 ELLIPTICITY            1 - B_IMAGE/A_IMAGE                                       
         1 -10.0190     74.5387     55.1279   2.9135662058e+02   6.6960381391e+00   0.08195993   0.02577501 -44.65  0.005421297    3.839    0.740
         2 -10.7440     37.3812      9.8271   2.9151990939e+02   7.4416913579e+00   0.04647173   0.02453239 -69.89  0.002510734    2.184    0.542
         3 -10.8398     18.4866      6.3008   2.9172211806e+02   7.5971372762e+00   0.07718378   0.03797427  54.80  0.005010421    2.818    0.645
         4 -10.4038     10.1872     18.8809   2.9189710498e+02   7.5035522164e+00   0.07662237   0.03572898 -23.88  0.004434702    5.687    0.824
         5 -10.3668      4.7864     41.8308   2.9210086304e+02   7.2734406543e+00    0.0451202   0.02256094 -71.07   0.00367943    2.409    0.585
         6  -9.4813      2.1596     14.4300   2.9196504029e+02   7.6033462554e+00   0.02635624   0.01403052 -79.61  0.002177456    2.702    0.630
         7 -10.4236      5.0832      4.6692   2.9187090925e+02   7.6973559914e+00   0.02795927    0.0269775  62.60  0.001438713    1.069    0.064
         8  -8.8266     43.6158     53.2156   2.9171070944e+02   6.9065917559e+00   0.05559339   0.02113821 -61.42  0.004383658    2.648    0.622
         9  -9.5751    250.3943     42.0606   2.8920076270e+02   5.7673516891e+00   0.01192521  0.008863254 -61.33  0.001294346    1.373    0.271
        10 -10.0228     73.3867     17.5743   2.9114107433e+02   7.1333184357e+00   0.04533946   0.01353592 -62.47  0.003069734    3.469    0.712
        11  -8.4353     72.0620      8.3352   2.9110032169e+02   7.2472066205e+00   0.01275295  0.009982403 -58.95 0.0004327213    1.295    0.228
        12  -9.2689     77.8653      4.3246   2.9100715295e+02   7.2576757273e+00   0.02950223   0.01195574 -51.01  0.001483443    2.419    0.587
        13  -8.7993     67.7868      9.1314   2.9115577341e+02   7.2641950261e+00   0.01937918  0.008891392  31.65  0.001139223    2.052    0.513
        14  -9.6973     62.8607     20.9024   2.9128593580e+02   7.1594637338e+00   0.03052052   0.01729902 -78.25  0.001788883    2.326    0.570
        15  -9.7422     64.4665     13.3848   2.9122103894e+02   7.2357594446e+00   0.02091934    0.0157839 -64.97  0.002190941    1.375    0.272
        16  -9.1119     46.6068     20.5223   2.9147596489e+02   7.2629660889e+00    0.0295303   0.01135026 -46.10  0.002268334    2.802    0.643
        17  -9.2178     96.1165     15.1102   2.9085714989e+02   7.0226279132e+00   0.03888564  0.009355241 -53.89  0.002588559    3.632    0.725
        18  -7.9644     97.6654      5.7007   2.9078132661e+02   7.1208859008e+00   0.01251187  0.009524724  -6.82 0.0005910476    1.530    0.346
        19  -8.3227     95.6930      3.3134   2.9079006386e+02   7.1602779064e+00   0.01210057   0.01050411  41.70 0.0007018191    1.145    0.127
        20  -8.8287    128.4999     25.0619   2.9053511735e+02   6.7104763624e+00   0.02256238   0.01125173 -59.56  0.001614949    2.000    0.500
        21  -9.2496    102.9538     20.7013   2.9081045749e+02   6.9167858879e+00   0.02354748   0.01129067 -65.27  0.001409728    2.244    0.554
        22  -8.7160    104.6731     14.6381   2.9075307598e+02   6.9756943288e+00   0.01721275  0.007750303 -46.17  0.001436381    2.344    0.573
        23 -10.0594     52.2163     13.1384   2.9136451117e+02   7.3133282194e+00   0.04697372   0.02660215 -15.23  0.003770906    2.955    0.662
        24  -9.5876    119.1120     20.9242   2.9062078574e+02   6.8153461648e+00   0.02145926   0.01371276 -69.63  0.001523336    1.716    0.417
        25  -8.9437    110.5796      6.3959   2.9063284885e+02   7.0339113268e+00   0.02563946   0.00785796 -55.05  0.001874884    2.997    0.666
        26  -8.6812    112.1192     15.5379   2.9067053172e+02   6.9198265210e+00   0.01557806   0.01024635 -66.32 0.0005954246    1.607    0.378
        27  -9.1876    113.6256     10.3183   2.9062081330e+02   6.9703643155e+00   0.01955948   0.01292136  -9.88 0.0004439123    2.020    0.505
        28  -9.6644    133.3126     11.5182   2.9039543035e+02   6.8360512603e+00   0.02596598   0.01207518 -74.54  0.001991643    3.045    0.672
        29  -9.4637     85.1520     13.0692   2.9097437057e+02   7.1130298586e+00   0.02125917   0.01342128  73.38  0.001532138    2.300    0.565
        30  -8.1252    121.1845      6.3660   2.9050727888e+02   6.9693248242e+00   0.01065789  0.006550496  26.83 0.0004780541    1.598    0.374
        31  -8.7395    125.0370     13.0961   2.9050289190e+02   6.8686881211e+00   0.01532068   0.01326189  -0.35  0.001434224    1.221    0.181
        32  -9.0444    126.4480      8.7924   2.9045989604e+02   6.9093111153e+00    0.0149985  0.009952703 -30.20  0.001482375    1.790    0.441
        33  -9.4526    125.5789      4.9715   2.9044680164e+02   6.9583707626e+00   0.01588531   0.01414791 -38.65  0.001227708    1.149    0.130
        34  -7.7127     80.4686     12.4855   2.9102620907e+02   7.1483326029e+00   0.01172232  0.006696601 -79.50  0.001019913    2.351    0.575
        35  -7.6036    241.6853      9.6566   2.8910494026e+02   6.1916199128e+00     0.007142  0.004971713 -26.77 0.0007047696    1.710    0.415
        36  -8.3301    102.0073      8.1086   2.9074469153e+02   7.0667608797e+00   0.01264401  0.009493742 -84.59 0.0007436978    1.565    0.361
        37  -8.4676    104.5241      2.3312   2.9067960814e+02   7.1174972795e+00   0.01819804   0.01176747 -28.02  0.001737987    1.910    0.476
        38  -7.9281    143.8647      6.1578   2.9023794095e+02   6.8327261019e+00   0.01405496  0.008390209  78.23  0.001174808    2.720    0.632
        39  -8.8649    115.3368      4.4953   2.9056497722e+02   7.0265452396e+00   0.01317446   0.01066079  76.69 0.0005849904    1.433    0.302
        40  -9.5102     63.9465      3.0710   2.9116420685e+02   7.3570285287e+00   0.02002959   0.01326571  75.92  0.001719346    2.089    0.521
        41 -11.1985     24.1652     32.0344   2.9181179265e+02   7.2678050658e+00    0.1027069   0.03019856 -47.16  0.006903348    3.666    0.727
        42  -8.6777     88.9463      2.7547   2.9086645815e+02   7.2079273480e+00   0.01225356  0.009233862 -60.97  0.001004582    1.352    0.261
        43  -8.4465    136.7551      1.6013   2.9029408205e+02   6.9284571143e+00  0.009565185  0.005868696  38.41 0.0006879005    1.585    0.369
        44  -8.2993    197.8940    127.0207   2.9033871602e+02   5.1168383544e+00  0.009569623  0.009302291  -4.94 0.0002895205    1.030    0.029
        45  -9.2951     41.3182    122.0833   2.9215698840e+02   6.1307887493e+00   0.02592259   0.01356345 -81.89  0.001642994    2.984    0.665
        46  -9.6641     27.2378    122.6761   2.9232699665e+02   6.2097182583e+00   0.02892982   0.01645823  69.55  0.002179532    2.887    0.654
        47 -10.6190    243.5577    118.1628   2.8974662105e+02   4.9380592963e+00   0.01442858   0.01358442  29.67 0.0003146698    1.040    0.038
        48  -9.8565    140.6897    118.0167   2.9095856226e+02   5.5705845884e+00   0.03069598   0.01738269 -74.72  0.001090429    2.173    0.540
        49 -10.4748    133.5030    109.5682   2.9099189239e+02   5.7114477221e+00   0.03854804   0.01942377 -69.32  0.003146515    2.294    0.564
        50 -10.1319     91.7842    113.1390   2.9150630780e+02   5.9255686840e+00    0.0300016   0.02092272  82.94  0.001618361    1.877    0.467
        51  -8.6886     92.9007    103.5292   2.9143459395e+02   6.0289668331e+00   0.02823391   0.01462763   3.42  0.002106661    3.308    0.698
        52 -10.1596     78.1533    113.0669   2.9166689794e+02   6.0096237833e+00   0.02551512   0.01578441  83.89  0.002060241    2.437    0.590
        53  -7.8898     78.2477    105.2937   2.9161846385e+02   6.0982087896e+00   0.01705123  0.008307479 -26.06  0.001155469    3.978    0.749
        54  -7.6471    152.4660    121.5186   2.9084093635e+02   5.4583290237e+00  0.006611186   0.00647891  19.65 0.0001501369    1.002    0.002
        55  -7.7465      1.3804    116.0074   2.9259214967e+02   6.4434928324e+00   0.01011531   0.00639188 -61.10 0.0006854629    1.605    0.377
        56  -9.7183     14.4098    111.6333   2.9241154843e+02   6.4144686283e+00   0.02237563   0.01462885  73.96  0.001381836    2.124    0.529
        57  -7.3804    167.0000    113.9636   2.9062338356e+02   5.4559162102e+00   0.01059306   0.00382385 -62.04 0.0005407204    2.829    0.646
        58  -9.2144     55.1409    112.0252   2.9193248106e+02   6.1619517490e+00   0.02400123   0.01761884  85.39  0.001859667    1.693    0.409
        59  -9.2664     64.3073     85.1806   2.9166074667e+02   6.4139483870e+00   0.03059794   0.02251014 -35.29  0.003290322    1.477    0.323
        60  -8.9430     59.4447    109.7740   2.9186792458e+02   6.1615352034e+00    0.0193794   0.01335973 -87.82   0.00103147    1.840    0.456
        61  -9.2355     64.9717    102.9401   2.9176101995e+02   6.2062165355e+00   0.02303062   0.01639504  88.06  0.002353066    1.776    0.437
        62 -10.4589     62.8763     95.8043   2.9174234967e+02   6.3008430228e+00   0.04012122   0.02152386  71.68  0.001590378    3.673    0.728
        63  -8.8729     23.9813    112.4331   2.9230325613e+02   6.3470623722e+00   0.01103161  0.008819682 -63.14 0.0005645214    1.283    0.221
        64  -7.9323    158.6455    112.0032   2.9070999597e+02   5.5295789618e+00   0.01085492  0.008896212  44.29 0.0005288507    1.226    0.184
        65  -9.2672    149.7100    110.5120   2.9080634717e+02   5.6014063547e+00   0.01630914   0.01187733  60.82   0.00120291    1.591    0.372
        66  -9.5299     31.5108    107.8029   2.9218610583e+02   6.3543521887e+00   0.02125591  0.009325763  37.90  0.001802233    2.171    0.539
        67 -10.8219     20.6101    100.4810   2.9227047438e+02   6.5046940259e+00   0.06055083   0.03416661  81.31  0.004177392    3.220    0.689
        68  -9.9594     20.2251     84.7293   2.9217925052e+02   6.6877113980e+00   0.04850409   0.01694491 -52.19  0.002767729    2.729    0.634
        69 -10.4244     25.5400     77.9810   2.9207533588e+02   6.7327561818e+00   0.04061258   0.02508807  70.42  0.002055062    2.360    0.576
        70 -10.7598     31.9380     64.4850   2.9191750415e+02   6.8485496859e+00   0.08607641   0.04108795 -24.46  0.005449709    4.729    0.789
        71  -9.8894     34.5266     90.8128   2.9204712799e+02   6.5308800842e+00    0.0281802   0.01492596 -82.35  0.001608376    2.936    0.659
        72 -10.0059     36.4337     81.3128   2.9196677081e+02   6.6282173897e+00   0.04727861   0.02499572  -9.99  0.003310551    3.921    0.745
        73  -9.1664     39.9951    106.8047   2.9207974353e+02   6.3141354227e+00   0.01819128  0.009598802 -66.25 0.0008927056    2.044    0.511
        74  -9.7554    139.3952    103.5372   2.9088556083e+02   5.7445328198e+00   0.02959454   0.01465762 -61.68  0.001184413    2.054    0.513
        75  -9.5053      6.1024    103.6525   2.9246128993e+02   6.5565430929e+00   0.02411487   0.01573071  70.47  0.001928993    2.091    0.522
        76  -8.1270    189.2430    104.9006   2.9030571844e+02   5.4234282244e+00  0.009938818  0.008807386  58.19 0.0005313973    1.185    0.156
        77  -8.7273    157.6648     90.9037   2.9059283434e+02   5.7774551079e+00   0.02464106  0.008642225 -48.09  0.001834222    2.936    0.659
        78  -9.6017    149.3583    103.1689   2.9076571083e+02   5.6877471485e+00   0.02106635   0.01356648 -79.04 0.0009302148    1.901    0.474
        79  -8.2244    149.8240     97.1845   2.9072370717e+02   5.7534987779e+00   0.02684187   0.01372368 -17.94  0.001779617    4.328    0.769
        80  -8.4750     13.9691    104.8754   2.9237570266e+02   6.4946801947e+00   0.01032743  0.008809472 -22.18 0.0004900398    1.257    0.204
        81  -8.2003    165.8985    103.9484   2.9057527655e+02   5.5774748381e+00   0.01000068  0.009535196  70.33 0.0005318397    1.093    0.085
        82  -9.4344     81.4975    100.3752   2.9155011422e+02   6.1347819574e+00   0.02080878   0.01327523  87.88  0.001110237    2.214    0.548
        83  -7.9058     82.0118     93.9882   2.9150513468e+02   6.2048897146e+00   0.01569626  0.009367262 -25.72  0.001394395    2.285    0.562
        84  -7.9522     73.7358    102.8735   2.9165704373e+02   6.1535070556e+00   0.01215167  0.008170535 -69.58 0.0006580699    1.612    0.380
        85  -9.8347    245.9926     99.5794   2.8960441131e+02   5.1359582802e+00   0.02586597   0.01655834  71.51  0.001765021    2.201    0.546
        86  -9.3033    239.4672     95.9545   2.8965911545e+02   5.2175733608e+00   0.02143726  0.009047982 -59.85  0.001074082    2.347    0.574
        87  -8.3542    159.0030    101.2091   2.9063992918e+02   5.6511314596e+00   0.01105888  0.009749115  78.92 0.0004353253    1.245    0.197
        88  -7.4305    193.3941     99.7704   2.9022544327e+02   5.4567552643e+00  0.008781299  0.006103496 -49.81  0.000279887    1.451    0.311
        89  -9.3684     94.2064     97.1829   2.9138050658e+02   6.0937702368e+00   0.01603626   0.01267502  70.60  0.000620557    1.470    0.320
        90  -8.6360     95.5513     91.3375   2.9132899686e+02   6.1525823877e+00   0.02059588   0.01147861 -29.04  0.001751237    2.495    0.599
        91  -8.3727    164.4645     94.4443   2.9053419641e+02   5.6952021239e+00   0.01267367   0.01001584  64.11 0.0007263401    1.432    0.302
        92  -9.6510    138.6285     92.6593   2.9082826363e+02   5.8739355239e+00   0.02002607   0.01608419  89.51  0.001090622    1.436    0.304
        93  -7.4691    148.9949     92.9418   2.9070760623e+02   5.8072117473e+00  0.007935497  0.007841517 -44.93 0.0006648326    1.031    0.030
        94 -10.1437      4.2503     89.5004   2.9239720122e+02   6.7301428126e+00   0.03562829   0.02032846 -86.46  0.002274011    2.677    0.626
        95  -9.5190      6.4291     78.4155   2.9230403976e+02   6.8440311022e+00   0.03252922    0.0201572 -11.45  0.002918798    2.327    0.570
        96  -9.3367    111.1104     89.5884   2.9113451790e+02   6.0775278961e+00   0.03004935   0.01725639   3.17  0.002563468    2.510    0.602
        97  -8.1901    150.5212     89.1463   2.9066642773e+02   5.8413680680e+00   0.01063159  0.008793428  57.91 0.0006109851    1.300    0.231
        98 -10.0988     85.2234     86.5760   2.9142202335e+02   6.2702735888e+00   0.02310433   0.01530336  65.48 0.0008431923    1.946    0.486
        99  -9.3758     87.3808     78.5063   2.9134734290e+02   6.3496203344e+00   0.02817488   0.01741223  -2.19  0.001859861    2.260    0.558
       100  -8.1870    174.3835     88.2594   2.9037939864e+02   5.7052740547e+00  0.009335649  0.006529925 -76.38 0.0009511836    1.636    0.389
       101  -8.5810    163.5013     87.0637   2.9050051075e+02   5.7856951792e+00   0.01563916   0.01100562 -87.01 0.0009657542    1.767    0.434
       102 -10.4000     89.2067     38.3313   2.9108068586e+02   6.7989065865e+00   0.04482878   0.02109537   9.98  0.003227153    3.459    0.711
       103  -8.8178     87.4728     58.4894   2.9122419628e+02   6.5785134811e+00   0.01810014   0.01215162 -74.45 0.0006510891    1.698    0.411
       104 -10.4247     85.0585     48.0627   2.9118912844e+02   6.7127537993e+00   0.03172058   0.01842616  64.44 0.0009618546    2.519    0.603
       105 -10.3802     48.1597     82.8113   2.9183723055e+02   6.5395858492e+00   0.05644538   0.02354538 -60.45  0.003315725    2.385    0.581
       106 -10.8689    191.9414    248.8897   2.9115089676e+02   3.7559405656e+00   0.03396376   0.01262476  32.55  0.002694351    2.467    0.595
       107 -10.6069     54.7743     70.8675   2.9168627763e+02   6.6362110352e+00   0.03741755   0.01928276  51.25  0.001110155    2.341    0.573
       108  -9.8312     54.9133     63.2449   2.9163819095e+02   6.7227515435e+00   0.04432337   0.02187103  20.58  0.003815249    2.227    0.551
       109  -8.6684     68.5929     60.8284   2.9146168834e+02   6.6669956011e+00     0.016635   0.01172977  58.92 0.0008748706    1.646    0.392
       110  -9.8662     61.8383     60.9039   2.9154202539e+02   6.7073479080e+00   0.02258911   0.01320885  22.93  0.001146484    1.748    0.428
       111 -10.2804    103.8692     82.6411   2.9117770605e+02   6.2014537137e+00   0.02446531   0.01597003 -82.25 0.0009205869    1.929    0.482
       112  -9.4332    104.4754     72.5307   2.9110888453e+02   6.3136488876e+00   0.03688137   0.01178048 -47.61  0.002605442    3.289    0.696
       113  -8.6994    157.5383     83.5366   2.9054935675e+02   5.8626655929e+00   0.01845027   0.01111677 -55.56  0.001435377    1.649    0.393
       114  -8.7913    157.0308     76.5326   2.9051258535e+02   5.9460412239e+00   0.01715613    0.0105947  79.98 0.0008664926    2.479    0.597
       115  -8.4054    156.4481     70.2162   2.9048089088e+02   6.0219901159e+00   0.01317029  0.009034032 -73.63 0.0007215528    1.637    0.389
       116  -9.4301    140.2358     82.1081   2.9074490577e+02   5.9850386069e+00   0.03324354    0.0109996 -57.44  0.002505168    2.840    0.648
       117  -8.9905    139.8636     75.5889   2.9070951154e+02   6.0620364149e+00   0.02530793   0.01360002 -60.48  0.001829584    1.875    0.467
       118  -8.3014    170.2712     83.0545   2.9039614045e+02   5.7901349167e+00  0.009556915  0.008711502 -68.44 0.0009245721    1.135    0.119
       119  -9.0989     74.1750     79.3085   2.9150832527e+02   6.4210640628e+00   0.02965734   0.01401742 -63.50  0.001809242    2.207    0.547
       120  -8.8635    149.9509     80.0688   2.9061775396e+02   5.9489019706e+00   0.02129288  0.009566193 -59.81  0.001158172    2.211    0.548
       121  -8.9814    118.9591     80.4415   2.9098602020e+02   6.1343813414e+00   0.01441059   0.01095049 -67.82 0.0005410346    1.385    0.278
       122  -7.8688    119.6245     76.1698   2.9095209945e+02   6.1792756796e+00   0.01282296  0.009626978 -42.20  0.000765447    1.383    0.277
       123 -10.1101     65.6023    111.1268   2.9180339007e+02   6.1084629490e+00   0.03457092   0.02140918  72.52  0.001783982    2.387    0.581
       124  -8.5129    166.3602     78.6609   2.9041546414e+02   5.8644618832e+00   0.01271907  0.008041092 -59.29 0.0006598557    1.592    0.372
       125  -7.6874    223.4821     78.5511   2.8974108935e+02   5.5151128862e+00  0.006667316  0.006399363  -7.22 2.848341e-05    1.051    0.049
       126  -7.8183    213.1766     78.0825   2.8985970014e+02   5.5837866936e+00   0.01015676  0.008598761 -23.60 0.0005283271    1.271    0.213
       127  -8.1694    184.1351     78.1655   2.9020270043e+02   5.7611167619e+00   0.01030145  0.008883248 -23.25 0.0005755036    1.236    0.191
       128  -9.4478    127.1946     75.1776   2.9085662372e+02   6.1443198154e+00   0.01915889    0.0132976  70.43 0.0008683218    1.850    0.460
       129  -8.7718    129.1124     69.2599   2.9079785440e+02   6.2004015617e+00   0.02652018   0.01394334 -19.49  0.001907866    3.656    0.727
       130  -8.3047    130.4407     64.9436   2.9075581641e+02   6.2417339562e+00   0.01208182  0.009277347 -83.84 0.0008461614    1.504    0.335
       131 -10.8212     44.6337    102.4381   2.9199835399e+02   6.3359669619e+00     0.042087   0.02188798  65.51  0.002894132    3.511    0.715
       132  -8.5752    162.8808     73.3798   2.9042427764e+02   5.9463074663e+00   0.01577179   0.00991768 -86.64  0.001162684    2.176    0.540
       133  -9.9753     81.6124     72.4853   2.9137882155e+02   6.4538809520e+00   0.02057844   0.01461601  83.69 0.0009254212    1.810    0.447
       134  -9.1869     82.7667     65.1093   2.9132020553e+02   6.5313848436e+00   0.02700151   0.01442114 -29.70  0.002215242    2.696    0.629
       135  -9.0302     40.9147     20.5364   2.9154342321e+02   7.2975027473e+00   0.01235176  0.009669005 -56.39 5.571678e-05    1.288    0.224
       136 -10.7331     16.0384     66.4463   2.9211754484e+02   6.9228393316e+00   0.07328727   0.02753006 -59.66  0.005120507    2.600    0.615
       137 -10.0456    170.6024    248.6288   2.9140057636e+02   3.8894504521e+00   0.01897848  0.009174862  38.68  0.001678347    1.995    0.499
       138  -9.4168    157.5557    248.6329   2.9155426447e+02   3.9691654500e+00   0.01632572  0.008193586 -41.40  0.001401863    2.268    0.559
       139 -10.8515     21.9901     53.8599   2.9197050239e+02   7.0309175948e+00   0.04608556   0.02484612  85.97  0.002811236    3.681    0.728
       140  -9.4249    154.9916    245.7481   2.9156695463e+02   4.0179286243e+00   0.01637771    0.0069019 -62.28  0.001311586    2.431    0.589
       141  -9.8192     14.9189     44.5438   2.9199744966e+02   7.1807255815e+00   0.02453223   0.01810566 -21.38 0.0009349871    1.589    0.371
       142  -9.8149      8.0057     47.2032   2.9209546793e+02   7.1922938303e+00   0.04285221   0.01053284  33.48   0.00266948    3.430    0.708
       143  -8.6658    148.3500    246.8472   2.9165186624e+02   4.0459123803e+00   0.01342533  0.006643678 -72.86  0.001099497    2.565    0.610
       144  -9.4033     68.7397    245.2938   2.9258071107e+02   4.5495739689e+00   0.01193316   0.01079892 -31.07 0.0002585184    1.140    0.123
       145  -9.3196    177.9273    240.7825   2.9126665161e+02   3.9346400677e+00   0.01050869  0.008849883 -26.09 0.0006209121    1.273    0.214
       146  -9.5600      6.5365     32.5008   2.9202332240e+02   7.3697163424e+00   0.01541693   0.01257626  29.81  0.000689021    1.194    0.163
       147 -10.1375      7.2191     28.3569   2.9198999500e+02   7.4130452247e+00   0.02448723   0.01565793  43.70  0.001033207    1.588    0.370
       148  -8.9502    115.3199     71.9927   2.9097746714e+02   6.2534905440e+00   0.02647159   0.01057462 -55.89  0.001450787    2.396    0.583
       149  -8.2113    169.5016     70.8851   2.9033089670e+02   5.9342937947e+00   0.01883893  0.006982779 -65.03  0.001199539    2.998    0.666
       150  -9.3205    146.9876     69.5178   2.9058832284e+02   6.0879697355e+00   0.01751422   0.01279101  78.94  0.001308265    1.723    0.420
       151  -9.7723     94.7343     68.4084   2.9119886078e+02   6.4204490523e+00   0.02108726   0.01344531 -78.77 0.0008430859    1.924    0.480
       152  -9.3956     96.6413     58.9644   2.9111871033e+02   6.5170373217e+00   0.03905977    0.0163446 -35.34   0.00262917    3.933    0.746
       153  -9.4968    138.9331     57.0277   2.9060716762e+02   6.2804273411e+00     0.018725   0.01244629 -66.32 0.0005509926    1.588    0.370
       154  -8.5800    138.5019     62.0012   2.9064263511e+02   6.2260837312e+00   0.01588403   0.01025104 -30.07  0.001194605    1.876    0.467
       155  -9.2110    109.7488     63.9074   2.9099395949e+02   6.3802381707e+00   0.01601981   0.01289978  88.80  0.000771599    1.433    0.302
       156  -8.8464    110.5818     58.2103   2.9094934674e+02   6.4404320578e+00    0.0180806   0.01319819 -18.37  0.001030365    1.640    0.390
       157  -8.4647    157.2996     63.0159   2.9042685940e+02   6.0992677883e+00   0.01310356   0.01164102  15.88  0.001368223    1.127    0.113
       158  -7.7899    122.2929     61.3544   2.9083015886e+02   6.3327424769e+00   0.01022529  0.007283475 -23.38 0.0005868016    1.676    0.403
       159  -7.8393    152.4919     60.0316   2.9046539201e+02   6.1629291174e+00   0.01015294  0.006709949 -65.79  0.001025849    1.591    0.371
       160  -8.5698    149.8493     48.1222   2.9042383458e+02   6.3155546837e+00   0.01441968    0.0094552 -67.39 0.0008069895    1.628    0.386
       161  -8.9837    146.4681     59.0129   2.9053030215e+02   6.2115165733e+00   0.01392301   0.01016674 -76.71 0.0006074753    1.546    0.353
       162  -9.2946    147.6138     54.6144   2.9048990263e+02   6.2548876634e+00   0.02569751  0.009094359 -58.97  0.001978302    2.726    0.633
       163  -8.9990    130.2093     57.3396   2.9071212150e+02   6.3302830393e+00   0.02479835   0.01179285 -62.23  0.001601937    2.155    0.536
       164  -8.8735    196.0303     56.6540   2.8993090404e+02   5.9345024336e+00   0.01132461  0.009527761 -58.60 0.0002004538    1.207    0.172
       165  -8.9465    121.0520     46.8828   2.9075645832e+02   6.5061523595e+00   0.01452856  0.009583851 -58.65 0.0005298645    1.525    0.344
       166  -8.2979    122.1699     41.6644   2.9071137423e+02   6.5590894033e+00   0.02124736  0.008841647 -37.22  0.001482517    3.569    0.720
       167  -9.1598    118.1663     55.4728   2.9084300981e+02   6.4253948825e+00   0.01766187   0.01213949  61.81 0.0007329967    1.761    0.432
       168  -8.0416    118.7481     51.2354   2.9081026398e+02   6.4703863778e+00   0.01389499  0.008239243  12.16 0.0009822361    2.020    0.505
       169  -9.9873     49.7989     53.5326   2.9163949610e+02   6.8652667003e+00   0.03480297   0.01978895 -72.14   0.00233137    2.060    0.515
       170  -9.5582     56.2342     43.4028   2.9150161257e+02   6.9421172307e+00   0.03661513   0.01864302 -22.23  0.002568106    3.847    0.740
       171  -9.4589    162.8876     53.2850   2.9030143072e+02   6.1764778918e+00   0.02189439  0.009386945 -63.59  0.001491225    2.454    0.592
       172 -10.1098     37.6805     42.1797   2.9171367596e+02   7.0692403643e+00   0.02483491    0.0160197  72.72  0.001539958    2.179    0.541
       173 -10.0825     35.6968     37.9696   2.9171148758e+02   7.1295708358e+00   0.03701894   0.02184433 -22.80 0.0004045288    2.432    0.589
       174  -7.9145    152.9577     53.9372   2.9042265877e+02   6.2298907461e+00    0.0106925   0.00775119  61.41 0.0005500201    1.611    0.379
       175  -9.0120    105.3997     51.6065   2.9097028385e+02   6.5478031018e+00   0.02838366   0.01162695 -55.62   0.00200921    2.343    0.573
       176  -9.0547    121.1892     66.3573   2.9087373551e+02   6.2821644353e+00   0.01667929   0.01177823 -88.24 0.0007178004    1.770    0.435
       177  -9.1064    139.2289     39.9156   2.9049912960e+02   6.4746405577e+00   0.02202591   0.01606239  70.30  0.001564556    1.688    0.408
       178  -8.9165    138.0386     66.4234   2.9067510934e+02   6.1782495491e+00   0.01410075    0.0111911 -88.57 0.0006567605    1.457    0.313
       179  -9.2328    141.8816     48.5856   2.9052077092e+02   6.3590763293e+00   0.01529475   0.01082538 -70.65  0.000392917    1.533    0.348
       180  -9.2250    157.3637     48.9513   2.9034016524e+02   6.2599898513e+00   0.01894241   0.01078701 -70.34  0.001253622    1.999    0.500
       181  -9.5278    130.3954     46.5326   2.9064391876e+02   6.4529574015e+00   0.03162419  0.009710643 -56.25  0.001645492    2.998    0.666
       182  -8.5931    111.8303     46.8254   2.9086508973e+02   6.5632462448e+00   0.01257516   0.01073201  68.98 0.0005410505    1.294    0.227
       183  -8.0619    113.1675     42.2239   2.9082118504e+02   6.6077806514e+00   0.01559743  0.008875996 -21.77  0.001284121    2.711    0.631
       184  -9.2927    188.1037    233.8336   2.9110458108e+02   3.9520726088e+00   0.01462794  0.009862049 -88.67  0.001427046    1.931    0.482
       185 -10.0327     69.5144     40.5570   2.9132716112e+02   6.8936883714e+00   0.04015194   0.02182173 -58.49  0.002396273    1.830    0.454
       186  -7.6105    135.3947    231.0230   2.9170846508e+02   4.3066157258e+00  0.009967821  0.006447711 -61.05  0.000347492    1.570    0.363
       187  -9.3357    145.3068     37.6028   2.9041319688e+02   6.4638810100e+00   0.03180714   0.01558298  59.41  0.002341688    3.390    0.705
       188  -8.9055    104.7911     40.8175   2.9091160784e+02   6.6751385084e+00    0.0164498   0.01170458 -82.58 0.0008756875    1.681    0.405
       189  -8.3555    106.3028     36.3300   2.9086633374e+02   6.7172983615e+00   0.01414974   0.01052247 -16.82 0.0009004747    1.593    0.372
       190  -8.9262     52.9148     40.0716   2.9152056913e+02   7.0005343275e+00   0.01878249  0.009355853 -49.41  0.001515682    2.017    0.504
       191  -7.7595    100.2778     36.6633   2.9093959782e+02   6.7503314716e+00   0.01109539   0.00800838  82.81 0.0009948325    1.759    0.432
       192  -9.3016    100.9676     32.1966   2.9090416416e+02   6.7972795489e+00   0.01857493   0.01771024  22.63  0.001873495    1.027    0.026
       193  -8.5749    132.9233     36.0003   2.9054970020e+02   6.5581141416e+00   0.01192237   0.01090514   0.83 0.0004812024    1.120    0.107
       194  -9.4536    133.8932     31.0932   2.9050825061e+02   6.6083710969e+00   0.01209851   0.01111735 -22.91  0.001460648    1.124    0.110
       195  -8.6469    135.9886     26.7895   2.9045718341e+02   6.6448154629e+00    0.0195739  0.008594744 -57.89  0.001664055    2.223    0.550
       196  -8.7136    118.8966     34.5563   2.9070663572e+02   6.6605486226e+00   0.01537605  0.009152103 -58.96 0.0007350816    1.684    0.406
       197  -8.1324      3.2011    234.2341   2.9328668728e+02   5.0753042224e+00  0.009957009  0.008744698 -16.77  0.001165705    1.210    0.173
       198  -8.5134     46.3217    224.0976   2.9271674987e+02   4.9294262831e+00   0.01149097  0.009316511  32.62 0.0003742763    1.200    0.167
       199  -7.1929     43.3345    211.2828   2.9267438845e+02   5.0947204921e+00  0.006904621  0.005052432 -20.99 0.0007009145    1.618    0.382
       200  -8.9818     71.1685     26.0957   2.9121934232e+02   7.0492639179e+00   0.02270835   0.01103467  26.99  0.001746289    2.024    0.506
       201 -10.0901     76.1564     31.8072   2.9119520249e+02   6.9533774533e+00   0.02890087   0.01535153  54.04  0.001196289    2.393    0.582
       202  -9.8091     79.5160     23.9804   2.9110768046e+02   7.0225103639e+00   0.03014515   0.01748757  -4.49  0.002096503    2.708    0.631
       203  -9.0709     84.6870     21.9504   2.9103411902e+02   7.0141656505e+00   0.01453265   0.01160996 -52.85 0.0007993733    1.262    0.207
       204  -8.4694    152.9563     34.4338   2.9030347205e+02   6.4532765493e+00   0.01243938   0.01032097  15.91  0.001171692    1.226    0.184
       205 -10.0677     10.3289    207.6080   2.9304160814e+02   5.3376841835e+00   0.03373107   0.01673091  16.14  0.002780395    2.466    0.594
       206  -9.5318     60.1972     33.6608   2.9139530663e+02   7.0295657536e+00   0.02584911   0.01390425 -70.99  0.001726192    2.177    0.541
       207  -8.5652     63.3561     26.5668   2.9131464644e+02   7.0915584665e+00   0.01991495  0.009921029  23.98  0.001315359    2.061    0.515
       208 -10.3360    189.5867    191.7384   2.9083104126e+02   4.4257346510e+00   0.03310557   0.01896819  76.81 0.0005851975    3.061    0.673
       209  -7.2051     65.2202    200.6352   2.9235162497e+02   5.0836251956e+00  0.006597215  0.005047561  76.43 0.0003287454    1.574    0.365
       210  -9.1233    110.2637     32.9115   2.9079863009e+02   6.7322229096e+00   0.01762235   0.01188403 -84.19  0.001054774    1.862    0.463
       211  -7.2472     13.2733     34.6160   2.9195645463e+02   7.3045076699e+00  0.006994731  0.005037109  68.37 0.0006996764    1.710    0.415
       212  -7.9219     45.4643     15.5014   2.9145885096e+02   7.3274390400e+00   0.01034133  0.009827836  29.11 0.0008164132    1.031    0.030
       213 -10.1535     46.1921     29.5980   2.9153623952e+02   7.1615293204e+00    0.0239482   0.01524712 -87.41  0.001416744    2.137    0.532
       214  -7.5139    218.5379    187.5041   2.9046424641e+02   4.2969037254e+00  0.006607996  0.006482804  13.90 0.0002908628    1.005    0.005
       215  -9.0555    153.4864     40.9474   2.9033703108e+02   6.3754342680e+00   0.01610638   0.01242312  71.88  0.000894447    1.539    0.350
       216  -7.2237    191.4898     30.4175   2.8982399834e+02   6.2627724828e+00  0.006649235  0.006361501  -0.90 0.0002170496    1.051    0.048
       217  -9.3170    153.0210     28.3722   2.9026564534e+02   6.5222864730e+00   0.02547657   0.01359651 -29.56   0.00208244    2.718    0.632
       218  -8.4476      3.6514    183.2525   2.9297301664e+02   5.6578773665e+00   0.01485904  0.007819396 -53.92  0.001371692    1.868    0.465
       219  -9.1748     91.4117     26.2610   2.9098091053e+02   6.9236944927e+00    0.0195782   0.01279498  82.51 0.0009803585    2.157    0.536
       220  -8.5059     92.2035     20.9324   2.9093899949e+02   6.9798818465e+00   0.01637043   0.01066724 -29.81  0.001303659    1.850    0.459
       221  -7.8376    188.8323    176.1149   2.9074479763e+02   4.6095169288e+00   0.01021425  0.008716134  65.70 0.0004194096    1.281    0.220
       222  -7.4832    231.5047    170.5062   2.9020796807e+02   4.4122420215e+00  0.006697553  0.006407494  48.43 0.0008100321    1.055    0.052
       223  -7.7548     16.6926    152.0534   2.9262992307e+02   5.9367370947e+00  0.008984354  0.008301415 -51.93 0.0002309421    1.097    0.088
       224  -9.4403    144.3395     24.3591   2.9034365861e+02   6.6214630650e+00   0.02007146    0.0105079 -57.83  0.001854155    1.891    0.471
       225  -8.1103    109.1039     24.7741   2.9076262598e+02   6.8325169181e+00   0.01962069    0.0113996  75.69  0.001594614    2.915    0.657
       226  -8.4635    133.4807    146.2811   2.9121582772e+02   5.2905348234e+00    0.0213501  0.007369337 -68.09   0.00142752    3.784    0.736
       227  -9.6936     67.1837    144.5654   2.9198805320e+02   5.7151685946e+00    0.0260993    0.0165106  53.88  0.002095651    1.820    0.451
       228  -9.3559    237.1693    145.8510   2.8999088401e+02   4.6600469370e+00   0.01288868   0.00919588  20.73  0.001361781    1.428    0.300
       229  -8.6241    140.0152     22.7303   2.9038478927e+02   6.6666169601e+00   0.01179019   0.00876727 -88.18 0.0005885078    1.620    0.383
       230  -7.1721    202.4791    139.4985   2.9036079202e+02   4.9456881219e+00  0.006655505  0.006448759  -6.35 1.963479e-05    1.036    0.035
       231  -8.3021    111.5653     21.2033   2.9071170660e+02   6.8583463491e+00    0.0163672  0.006113715 -58.62  0.001284916    2.587    0.613
       232  -8.9615    133.0501    138.1768   2.9117155930e+02   5.3861269332e+00   0.01084102   0.01001204 -35.84 0.0002798022    1.104    0.095
       233  -8.3217    240.5262    138.5125   2.8990656915e+02   4.7235291989e+00  0.006694209  0.006399098  49.52 3.580615e-05    1.058    0.055
       234  -8.3405    112.0100    133.5588   2.9139178471e+02   5.5677580762e+00   0.01622118   0.01033749  79.97  0.001273995    2.288    0.563
       235  -7.4043    151.0000     20.9370   2.9024404745e+02   6.6198046403e+00   0.01073397  0.003821896 -61.99 0.0007917749    2.869    0.651
       236  -8.0579    139.7643     18.0247   2.9035897991e+02   6.7220280018e+00  0.008647311  0.005639357 -62.66  0.000348991    1.575    0.365
       237  -9.0035    131.8848     17.3085   2.9044771354e+02   6.7785142604e+00   0.02256393   0.01008791  40.77  0.001909916    2.210    0.548
       238  -8.5289    135.7726    130.9439   2.9109537203e+02   5.4524279437e+00   0.02416874  0.008776953 -68.53  0.001669479    3.575    0.720
       239  -6.9339    189.3366     15.6834   2.8975923903e+02   6.4446264539e+00  0.007127015  0.004956826  60.03 0.0004118867    1.698    0.411
       240 -10.2939    131.7036    119.7434   2.9107515244e+02   5.6057776669e+00    0.0395277   0.01977072  57.64  0.002360552    2.995    0.666
       241  -8.5756    129.5114    123.4749   2.9112376790e+02   5.5763963727e+00    0.0123929    0.0106355 -49.50 0.0007932754    1.179    0.152
       242  -9.5371     98.5672    128.6657   2.9152072163e+02   5.7060323134e+00   0.03319116   0.01660282  59.59  0.002509138    3.213    0.689
       243  -7.7817     97.2996    122.0172   2.9149521874e+02   5.7900420026e+00   0.01412178  0.006525034 -47.77 0.0006566852    2.220    0.550
       244 -10.2978     70.2243    126.2968   2.9184106745e+02   5.9062359950e+00   0.03482419   0.02869005 -36.24  0.002266968    1.271    0.213
       245  -7.9496    141.0884     12.9470   2.9031227843e+02   6.7720392243e+00   0.01132301  0.007909623 -21.97  0.001136037    1.749    0.428
       246 -10.0476     58.3297    124.6587   2.9197163090e+02   5.9975720205e+00   0.03562343   0.01877417  64.58  0.002577767    3.264    0.694
       247  -9.9741    117.1953    124.5620   2.9127578326e+02   5.6392555059e+00   0.03506627    0.0227727 -78.78  0.002394987    1.869    0.465
       248  -9.9539    108.5100    114.4563   2.9131678360e+02   5.8082598806e+00   0.02831555   0.01673111  78.78  0.001550596    2.792    0.642
       249 -11.0720    120.7955    110.2035   2.9114579695e+02   5.7819118876e+00   0.06130252   0.03808774 -74.10   0.00361092    1.879    0.468
       250 -10.0080    127.6477    102.5572   2.9101827948e+02   5.8276698213e+00   0.03717502   0.01814489 -46.30   0.00291953    2.142    0.533
       251  -8.8491    109.8288    107.2194   2.9125711956e+02   5.8831946438e+00   0.02730471     0.016841   7.01  0.002545127    2.041    0.510
       252 -10.2469    107.8563     99.2081   2.9123159623e+02   5.9871231744e+00   0.03241642   0.02034581  56.54  0.002126107    1.913    0.477
       253 -10.4032    123.1029     92.0681   2.9100798936e+02   5.9757407335e+00   0.03591721   0.03201815 -51.03  0.003077514    1.136    0.119
       254  -8.8652    126.0349     83.8707   2.9092336215e+02   6.0517744075e+00   0.02580514   0.01411847 -19.03   0.00198627    3.183    0.686
