#   1 NUMBER                 Running object number                                     
#   2 MAG_AUTO               Kron-like elliptical aperture magnitude                    [mag]
#   3 X_IMAGE                Object position along x                                    [pixel]
#   4 Y_IMAGE                Object position along y                                    [pixel]
#   5 X_WORLD                Barycenter position along world x axis                     [deg]
#   6 Y_WORLD                Barycenter position along world y axis                     [deg]
#   7 A_WORLD                Profile RMS along major axis (world units)                 [deg]
#   8 B_WORLD                Profile RMS along minor axis (world units)                 [deg]
#   9 THETA_WORLD            Position angle (CCW/world-x)                               [deg]
#  10 FWHM_WORLD             FWHM assuming a gaussian core                              [deg]
#  11 ELONGATION             A_IMAGE/B_IMAGE                                           
#  12 ELLIPTICITY            1 - B_IMAGE/A_IMAGE                                       
         1 -12.0814    215.2522     36.3912   3.8474187233e+01   2.7579361433e+01    0.9298371    0.6957381 -65.03  0.005105583    1.190    0.160
         2 -10.7410      1.8268     31.0815   9.8470908476e+01   6.9765937813e+01    0.7062739     0.133384 -58.25  0.002282106    5.587    0.821
         3 -11.6234    235.9100     17.2214   3.2431362459e+01   2.5495365810e+01    0.6591165    0.4750557 -59.31  0.002813486    1.141    0.123
         4  -9.5099      2.0699      3.8821   8.6818485321e+01   7.4243896595e+01    0.3370803    0.1273268 -43.69  0.001796633    2.394    0.582
         5 -10.1357    135.2117    230.2118   9.6974571145e+01   6.9975550834e+00    0.2437972    0.2080874  30.34  0.001485658    1.055    0.052
         6 -10.9696     66.9915    241.1640   1.1277413104e+02   1.4864876539e+01    0.6829664    0.3784951  23.30  0.002552795    2.385    0.581
         7 -11.5856     83.0495    243.8565   1.0973819865e+02   1.2173427017e+01    0.7102686    0.6367958  13.11  0.004465379    1.410    0.291
         8  -9.0861     28.4041    244.7151   1.2059655004e+02   1.8804125057e+01    0.2547581    0.1658867  87.05  0.001141781    1.372    0.271
         9 -10.3534     69.4892    246.7572   1.1276281346e+02   1.3443217480e+01    0.3599039    0.2968253  53.39  0.001677727    1.064    0.060
        10 -11.3638     54.8782    249.5091   1.1587028677e+02   1.4779597423e+01     1.593179    0.4627602  27.28  0.004653653    7.138    0.860
        11 -10.8212     58.4017    243.0011   1.1466353678e+02   1.5606376589e+01    0.3519705    0.2878399  71.88 0.0008425876    1.081    0.075
        12 -12.9390      9.2495    207.5393   1.2209854083e+02   2.8513754845e+01     1.423393    0.9132386 -87.71  0.003868852    1.297    0.229
        13 -11.9367     11.0679    232.2498   1.2314588308e+02   2.3095741648e+01     1.125731    0.4766062  81.85  0.004454741    2.281    0.562
        14 -11.3472     25.6335    205.0867   1.1846873927e+02   2.7475894460e+01    0.4618766    0.3521297 -41.28  0.001109927    1.810    0.448
        15 -13.9206     35.4440    193.3619   1.1527825982e+02   2.9145123384e+01     8.500779     3.208796  81.37   0.02578884    5.279    0.811
        16 -11.4936    114.4672    229.8074   1.0144506768e+02   1.0320046748e+01    0.6490178    0.3019499  41.37  0.002979307    1.860    0.462
        17  -8.3317     58.8305    229.9193   1.1345742139e+02   1.8208078779e+01    0.1726129    0.1600312  84.80  0.000576625    1.197    0.165
        18 -10.5415    146.0594    228.2938   9.4342981993e+01   5.6309121481e+00    0.4933105    0.1838926  31.01  0.001866365    2.770    0.639
        19 -10.7884     86.1633    222.6459   1.0680833314e+02   1.6024075675e+01    0.5572305    0.3521764  72.62 0.0008412917    1.850    0.460
        20  -8.5074     77.2928    226.0371   1.0913285764e+02   1.6564384217e+01    0.2081297    0.1797342   4.88 0.0008218992    1.541    0.351
        21 -11.1797     98.3441    228.4187   1.0480292111e+02   1.3041456292e+01    0.5032436    0.2773347  41.88  0.002536552    1.574    0.365
        22  -8.6104    120.3355    221.5097   9.9023380458e+01   1.1056431035e+01    0.2217281    0.1276161 -55.81 0.0009979333    1.924    0.480
        23  -9.0721     78.0030    221.0411   1.0843643449e+02   1.7525108998e+01    0.2104434    0.1805836  59.10  0.001314054    1.017    0.017
        24  -9.4108     43.5234    218.7290   1.1572110268e+02   2.2473200615e+01     0.225124    0.1782337  70.39 0.0003224346    1.051    0.048
        25 -10.3897     15.2893    249.2325   1.2324420156e+02   1.9315428984e+01    0.3211801    0.2395743  63.42  0.001005565    1.055    0.052
        26 -11.7311      3.0616    244.1338   1.2517567534e+02   2.1503655461e+01      1.71775    0.4035794 -80.28  0.007256354    3.948    0.747
        27 -10.4147     10.0972    245.0320   1.2396710660e+02   2.0648100350e+01     0.461048    0.2405685  78.21  0.001534569    1.635    0.388
        28 -10.0884     20.5941    195.1223   1.1880841086e+02   3.0255707207e+01     0.307307    0.1930926 -82.20  0.001195114    1.370    0.270
        29  -7.7824     99.7511    181.3660   9.7845574511e+01   2.3284593367e+01    0.1996155    0.1386338  26.51 0.0006655445    1.590    0.371
        30 -10.1048     55.3652    178.3449   1.0879075294e+02   3.0448405478e+01    0.4147494    0.2845042 -31.56  0.001938203    2.049    0.512
        31 -10.1902     61.4696    172.6915   1.0646776889e+02   3.1069611306e+01    0.3754216    0.2790933 -34.47 0.0009680848    1.696    0.410
        32 -10.6940    103.4178    238.4860   1.0489726134e+02   1.0295844966e+01     0.407128    0.2072143  25.66  0.001844586    2.332    0.571
        33  -8.5786     95.5971    169.8381   9.6977442722e+01   2.6757263890e+01    0.2136406    0.1405874 -73.51 0.0009488983    1.715    0.417
        34 -10.0007      8.3528    168.9268   1.1956914403e+02   3.7530183516e+01    0.3449716     0.168173 -54.71  0.001437819    2.059    0.514
        35 -10.2059     83.7668    163.5013   9.9066668569e+01   3.0205492467e+01    0.7059009    0.3241204 -70.30    0.0025392    2.696    0.629
        36 -11.1101     79.9066    156.6967   9.8952799243e+01   3.2508255715e+01    0.7089823    0.6181779  -4.16  0.001449942    1.385    0.278
        37  -9.9545     72.2036    163.1261   1.0216598484e+02   3.2009006733e+01    0.3044456    0.2820736 -63.41 0.0004694956    1.084    0.077
        38 -11.6205     58.6158    159.3354   1.0531923246e+02   3.4801072219e+01    0.5418612    0.3104579 -41.13   0.00134026    2.097    0.523
        39  -9.0407     33.0556    157.1899   1.1204037330e+02   3.8241486941e+01    0.2735988    0.1563584 -67.15  0.001061707    1.506    0.336
        40 -10.1566     87.2410    233.5357   1.0779139565e+02   1.3621763364e+01    0.3019957    0.2046968  19.76  0.001341817    1.862    0.463
        41 -11.1007     70.2181    145.5794   9.9742917403e+01   3.6756831582e+01    0.5746148    0.4514877 -42.59   0.00162391    1.324    0.245
        42 -10.9223     67.5256    142.5220   9.9981222661e+01   3.7915914994e+01    0.4954344    0.4058424  48.10  0.001499668    1.286    0.223
        43  -9.1281     95.5244    142.8428   9.1836793990e+01   3.3498898167e+01    0.3577745    0.2846458 -20.60  0.001713559    1.522    0.343
        44 -10.5667     83.0489    141.0866   9.5111402123e+01   3.5987459617e+01    0.3341911    0.2783678 -49.07 0.0004873694    1.166    0.142
        45 -10.1954     57.6566    130.0195   1.0066475227e+02   4.2423078581e+01    0.3769636    0.2080203 -62.11  0.001673451    1.651    0.394
        46  -9.1380    106.8990    131.3354   8.5997614628e+01   3.4322679102e+01    0.3563575    0.3072577  29.64     0.001116    1.217    0.178
        47 -10.3115     68.1541    129.4600   9.7275810198e+01   4.1164100292e+01    0.6555647    0.3778519  74.42  0.002331457    3.244    0.692
        48 -10.9747    126.2110    231.0796   9.9051907650e+01   8.2488701082e+00    0.4336545    0.3299613 -49.38  0.002523176    1.490    0.329
        49  -9.3449     94.4168    127.7553   8.8838491127e+01   3.7452959026e+01    0.2722428    0.2594201 -27.12 0.0004059105    1.069    0.065
        50  -8.0880    105.2955    119.9112   8.3696879792e+01   3.7390276785e+01    0.2176291    0.1910085 -42.26 0.0003450955    1.106    0.096
        51  -8.0104     32.6647    116.2900   1.0620086365e+02   4.8637558238e+01     0.135123   0.09890264  68.66 0.0002917552    1.635    0.388
        52  -8.1244    205.9730    110.5300   5.7475777423e+01   1.7767786688e+01    0.2083767    0.1467263  54.62 0.0004233687    1.559    0.359
        53 -11.1650      2.0000     83.4949   1.1132742347e+02   5.8700542183e+01     1.279059    0.1265444 -68.08  0.003256345    6.861    0.854
        54  -7.5830     41.3877     92.2860   9.8218463163e+01   5.3657122618e+01    0.1474254   0.09278227 -27.32 0.0007008082    1.750    0.429
        55  -8.0695     51.9775     90.3213   9.3795685339e+01   5.2906321797e+01    0.2250313   0.08899812  48.14 0.0007050042    4.360    0.771
        56 -11.3265      2.5235     66.3832   1.0780313599e+02   6.2547478388e+01    0.9453449     0.322805 -73.83  0.003466905    3.931    0.746
        57  -7.5213     32.6718     67.6843   9.5249373199e+01   6.0104385945e+01    0.1415274    0.0844657 -27.82 0.0007045078    1.676    0.403
        58  -9.5346     13.1219     60.2847   1.0171079059e+02   6.3273986088e+01     0.229514    0.1610304 -57.92 0.0006821299    1.306    0.234
        59  -7.9928     28.4736     52.8738   9.2550258367e+01   6.3569321489e+01    0.1840574    0.1098897 -48.53 0.0006700364    1.488    0.328
        60 -10.2677    199.7216     51.6126   4.3988231383e+01   2.9024328577e+01    0.2521458    0.2070775 -10.32  0.001403918    1.604    0.377
        61 -11.8311    207.4134     41.3478   4.0515281160e+01   2.8685471757e+01    0.6091414    0.4870488 -78.32  0.002830895    1.145    0.127
        62  -9.6646     21.2996    244.3797   1.2189765713e+02   1.9632128930e+01    0.2744097    0.1395334  38.67  0.001638096    1.770    0.435
        63 -11.2554    222.4544     29.6063   3.6218448817e+01   2.6860260427e+01    0.5192236    0.4011738  53.98  0.001403617    1.560    0.359
        64  -8.6788    129.3980     36.8932   5.1819577623e+01   4.7940278466e+01    0.2678629    0.2029124 -83.84 0.0008367339    1.662    0.398
        65 -10.3847    112.7028    237.2062   1.0276367938e+02   9.1547275652e+00    0.3565817    0.2270787  78.36  0.001474616    2.329    0.571
        66 -11.6039     33.7492    249.3699   1.1988176150e+02   1.7305768035e+01     1.787377    0.5862149  26.04  0.006485823    5.335    0.813
        67  -9.2778      2.7171     14.9824   9.1682192240e+01   7.2498857176e+01    0.1647744    0.1183267 -26.28  0.001072042    1.064    0.060
