#   1 NUMBER                 Running object number                                     
#   2 MAG_AUTO               Kron-like elliptical aperture magnitude                    [mag]
#   3 X_IMAGE                Object position along x                                    [pixel]
#   4 Y_IMAGE                Object position along y                                    [pixel]
#   5 X_WORLD                Barycenter position along world x axis                     [deg]
#   6 Y_WORLD                Barycenter position along world y axis                     [deg]
#   7 A_WORLD                Profile RMS along major axis (world units)                 [deg]
#   8 B_WORLD                Profile RMS along minor axis (world units)                 [deg]
#   9 THETA_WORLD            Position angle (CCW/world-x)                               [deg]
#  10 FWHM_WORLD             FWHM assuming a gaussian core                              [deg]
#  11 ELONGATION             A_IMAGE/B_IMAGE                                           
#  12 ELLIPTICITY            1 - B_IMAGE/A_IMAGE                                       
         1  -8.6678     39.8995      1.6794   9.3320234595e+01   6.8232634245e+01    0.2625295    0.1256763  33.17  0.001074972    1.855    0.461
         2  -9.5536     39.6725      7.4303   9.6032261160e+01   6.7670590147e+01    0.3262861    0.2593182  17.95  0.001712992    1.224    0.183
         3 -10.1165     51.4159     36.5063   1.0352913785e+02   6.2402898764e+01     0.615091    0.3799101 -50.17   0.00336116    2.210    0.547
         4 -10.7677     39.1435     29.9370   1.0570405331e+02   6.4895653954e+01    0.6085947    0.3541151 -46.75  0.003486397    2.083    0.520
         5  -9.7235     66.4771     30.6483   9.5924193011e+01   6.1031181770e+01    0.6431511    0.2355054 -30.89  0.002807128    2.727    0.633
         6 -11.7250    130.9446      4.7897   6.9988369925e+01   5.0870657184e+01     1.545116    0.9947622  -2.15  0.008572061    1.940    0.485
         7 -11.5093    109.6708      4.3428   7.3974589241e+01   5.5603695316e+01     1.879204    0.4253007  61.91  0.006171151    4.365    0.771
         8 -10.6114    121.0299      3.9161   7.1532808908e+01   5.3167578599e+01    0.6106964    0.3753666  61.60  0.002421078    1.427    0.299
         9 -13.9188    166.5132     10.1529   6.5987392292e+01   4.2030728549e+01     3.467412     1.753998  63.76   0.01711595    1.657    0.397
        10 -11.2764     84.1229      3.8739   7.9896703374e+01   6.0799925414e+01    0.7721544    0.4400657  45.40  0.003723023    1.463    0.317
        11 -11.7974     44.2845     21.1815   1.0016912100e+02   6.5449261683e+01     1.004643    0.8284407 -58.29  0.006554538    2.226    0.551
        12 -10.1053    116.3835     15.8778   7.6536191690e+01   5.3142407467e+01     0.841463    0.3891235 -36.12   0.00396555    2.436    0.590
        13 -10.3512    248.7786     15.3777   5.8427891596e+01   2.2285317594e+01    0.3384254    0.2666318 -38.04  0.002221709    1.466    0.318
        14  -9.5858     94.1180     17.7029   8.2556859389e+01   5.7599045016e+01    0.3810261    0.3485524  80.27  0.002061202    1.446    0.308
        15 -11.3151    155.7915     20.6609   7.0580474242e+01   4.3559948734e+01    0.9731565    0.4072394  61.72   0.00326954    2.044    0.511
        16  -9.4463     64.4281     16.4682   9.0937738462e+01   6.3067036355e+01    0.2746343    0.2410595 -61.10  0.001634035    1.900    0.474
        17  -8.7941     20.6284     13.8184   1.0685762869e+02   6.9099552104e+01    0.3748145    0.1638275 -28.64  0.002126225    1.997    0.499
        18  -9.5470    103.7216     11.8152   7.7978764166e+01   5.6219286977e+01    0.3827916    0.3422059   5.33  0.002045207    1.157    0.136
        19  -8.6582     69.0642     13.3994   8.8159776704e+01   6.2626854892e+01    0.2737106    0.1913287  39.81  0.001743764    1.335    0.251
        20 -10.2083    213.9448      4.9541   5.9283113658e+01   3.1257126710e+01    0.2911483    0.2093201  67.48  0.001789465    1.308    0.236
        21 -10.1467    204.6365      4.5982   6.0100227955e+01   3.3462929412e+01    0.2336661    0.2050796  64.96  0.001279691    1.245    0.197
        22 -10.5810    249.3715      4.9018   5.6326064489e+01   2.3371385651e+01    0.6086671    0.2911303 -42.59  0.003287661    1.896    0.473
        23  -9.7424     60.3893      2.6561   8.6425154542e+01   6.5087603718e+01    0.4969688    0.3660388   3.78  0.003458848    1.180    0.153
        24  -8.5940     54.8197      7.5571   9.0449779277e+01   6.5504566731e+01    0.2614097    0.1850393  55.16  0.001641541    2.039    0.510
        25  -8.9681     51.2426      3.8937   9.0100103719e+01   6.6401669502e+01    0.5213438    0.2722081   7.15   0.00279793    2.259    0.557
        26  -7.4404     29.0000      8.8907   1.0105943268e+02   6.8819108638e+01    0.1701646   0.05263446 -34.29 0.0008009071    2.932    0.659
        27 -10.1861     71.4370      5.4048   8.4118443345e+01   6.2982005814e+01     0.531498    0.2815199  38.74  0.002331272    1.591    0.372
        28  -9.2467    229.8985      5.6587   5.8017028048e+01   2.7545858372e+01    0.1878227    0.1711415 -48.78    0.0009782    1.333    0.250
        29  -9.0018     17.3062      2.3163   1.0319735648e+02   7.0842743522e+01    0.2424917    0.2039142 -41.40  0.001733245    2.006    0.502
        30  -8.7409     26.3879      2.5620   9.9275305043e+01   6.9833479572e+01    0.2256054    0.1525484 -17.42  0.001472996    1.239    0.193
        31 -11.3629     77.7437     14.9947   8.6124002720e+01   6.0954978723e+01     1.153158    0.4956321 -25.04   0.00565254    2.394    0.582
        32  -8.2086     93.0603     57.2265   9.7047387400e+01   5.2563030718e+01    0.2150308    0.1679372  78.68  0.001093994    2.055    0.513
        33  -8.4244    198.5723     54.9165   7.3155568202e+01   2.8672048624e+01    0.2307284    0.1880327  57.23 0.0006236865    1.245    0.197
        34  -8.3809    101.0110     52.9865   9.3289304866e+01   5.1720723458e+01    0.2273236    0.1589338  12.09 0.0008193929    1.696    0.410
        35  -8.0039     34.5097     52.3293   1.1545498047e+02   6.1792676436e+01    0.1882164    0.1064701  24.60  0.001072206    1.935    0.483
        36  -7.8634     23.1788     52.4125   1.1980962187e+02   6.2819829482e+01    0.1418952    0.1050019  31.05 0.0009435148    1.682    0.406
        37 -10.0465     83.8940     48.1253   9.6715984631e+01   5.5651005687e+01    0.5777929    0.3809409  52.78   0.00302373    1.845    0.458
        38  -8.5387    111.2431     45.8098   8.8052626533e+01   5.0703006199e+01     0.197198    0.1521038  19.89 0.0009446547    1.345    0.257
        39 -10.4508      3.6524     39.7635   1.2376858534e+02   6.6452619484e+01    0.5251035    0.3332103 -54.01  0.002875237    1.481    0.325
        40  -8.8892     97.7840     44.0775   9.1137721894e+01   5.3672782946e+01    0.1940717    0.1889443 -38.93  0.001231615    1.235    0.190
        41 -10.0077     81.2323     38.9769   9.4255599412e+01   5.7450381010e+01    0.5224817    0.3077685 -29.14  0.002761194    1.669    0.401
        42 -10.2285    183.8431    246.0140   1.1821798700e+02  -3.5556098651e+00    0.2868334    0.1617011  37.80  0.001514461    1.516    0.340
        43 -10.0209    163.4533    244.0005   1.2182887363e+02   2.6259975680e-01    0.2591831    0.1596978  52.80 0.0009715224    1.582    0.368
        44  -9.4511    199.8581    240.0905   1.1422859959e+02  -5.3599247423e+00    0.1887402    0.1711378  49.18 0.0009053676    1.272    0.214
        45 -10.0262    209.8517    224.1008   1.0958982449e+02  -4.5969487739e+00    0.1968262    0.1797686  45.91 0.0008058296    1.262    0.208
        46  -9.0910    108.8386     39.0825   8.6379698779e+01   5.2124065397e+01    0.2001737     0.191932 -72.00 0.0006253619    1.275    0.216
        47  -8.6453     69.8494     37.2566   9.7307273048e+01   5.9596350919e+01    0.3019013    0.2044428   2.35  0.001700556    1.575    0.365
        48  -9.4106    238.8405    203.0991   1.0024285490e+02  -6.2119117525e+00    0.1889968    0.1845053 -20.93 0.0008108893    1.289    0.224
        49  -9.5979     11.2770     34.2108   1.1878209226e+02   6.6881739828e+01    0.4578888    0.2783491 -26.44  0.002359836    1.341    0.254
        50  -8.9164     27.5160     35.3979   1.1243616424e+02   6.5315263296e+01    0.2313374    0.1863742 -18.56  0.001606726    1.079    0.073
        51  -9.1470     35.4873     19.9891   1.0316262728e+02   6.6691454372e+01    0.3005968    0.1961124   9.58  0.001819682    1.417    0.294
        52  -9.5958     86.8071     30.9778   8.9589621186e+01   5.7500152039e+01    0.3073334     0.243192  13.71  0.001893532    1.162    0.140
        53  -8.6326     20.3545    156.1581   1.4053195784e+02   4.0571856877e+01    0.1682571     0.140693 -70.57  0.001148858    1.153    0.133
        54 -11.8675      9.3029    141.1093   1.4138293080e+02   4.4940110830e+01    0.8170953    0.5130153 -49.76  0.005024931    1.603    0.376
        55 -12.6902    240.7972    133.1026   8.5161032026e+01   5.5044769761e+00     1.570082     1.184072  51.34  0.005547644    1.470    0.320
        56 -10.7529     12.1029    129.3045   1.3920332328e+02   4.7419872172e+01    0.4350047     0.206337 -71.14  0.002288176    1.680    0.405
        57 -10.3311     12.8628    120.2026   1.3773017597e+02   4.9430374713e+01    0.3134767       0.1587 -57.88  0.001735633    1.527    0.345
        58  -9.0684     73.0541    119.6805   1.2068002327e+02   4.3100875407e+01    0.2608619    0.1961421 -82.46  0.001339101    1.561    0.360
        59  -9.7074     10.4285     25.9259   1.1621820293e+02   6.8259364863e+01    0.3488113    0.1505032 -47.97  0.001968876    2.115    0.527
        60 -10.4023    225.1890     28.9993   6.3514063104e+01   2.5877036986e+01    0.4514752    0.3903566  77.81   0.00165322    1.167    0.143
        61  -8.8843    103.9932     25.8741   8.2980957298e+01   5.4737370172e+01    0.3386755    0.2246515  56.18  0.001526564    1.513    0.339
        62  -7.8370     25.7499     26.4381   1.0980295539e+02   6.6849456741e+01     0.144526   0.09251449   6.88 0.0005696152    1.516    0.340
        63 -10.2104      9.3781    117.4687   1.3827560465e+02   5.0292460054e+01     0.350904    0.1766036 -33.81  0.001798386    2.557    0.609
        64  -8.7042    110.6516     16.1291   7.7905019039e+01   5.4355813931e+01    0.2839158    0.1697339  54.77 0.0008878742    1.491    0.329
        65  -8.8940     20.1180     22.2943   1.1058014130e+02   6.7986768125e+01    0.2659252    0.1591076  28.21  0.001757027    1.847    0.459
        66  -9.8521     17.0900    104.0579   1.3394402973e+02   5.2740720505e+01    0.3747509    0.2651721 -68.93  0.002096367    1.212    0.175
        67  -8.5734     40.4710    141.5823   1.3367090160e+02   4.1999013477e+01    0.2756763    0.1600944  82.84  0.001301945    2.214    0.548
        68  -9.8059     29.5535    102.7661   1.2996779131e+02   5.2021422837e+01    0.3749185    0.2021576 -25.78  0.001796815    2.582    0.613
        69  -8.6638    125.6346     28.7584   7.8851144122e+01   4.9738121888e+01     0.291741    0.2271916   3.31    0.0013375    1.444    0.307
        70  -8.9753      2.2055     89.1351   1.3582639372e+02   5.6930763069e+01     0.314236    0.1908083 -76.30  0.001912304    1.607    0.378
        71 -12.1733     43.4162     81.7569   1.2076231745e+02   5.5211335460e+01     1.133106    0.9657694 -12.18  0.006697486    1.215    0.177
        72  -8.6391     97.4152     28.1453   8.5533906351e+01   5.5807296780e+01    0.4005646    0.2219361  -5.70  0.001832584    2.468    0.595
        73  -9.0308     19.9642     88.9900   1.3017443724e+02   5.5808571206e+01    0.1910562    0.1536112 -51.91  0.001296328    1.021    0.020
        74  -8.1642     12.3464     14.7252   1.1096741826e+02   6.9736822441e+01    0.1710735    0.1187377  28.01  0.001243406    1.764    0.433
        75 -10.9020      3.7641     76.1007   1.3283732782e+02   5.9557472595e+01    0.8183869    0.5142238  43.19  0.005151769    2.208    0.547
        76 -10.3282     24.5522     65.3381   1.2299088494e+02   6.0283820555e+01    0.7376029    0.2408596 -45.17  0.003360282    2.344    0.573
        77 -11.0526     17.1619     74.1628   1.2783452320e+02   5.9101653955e+01    0.5917585    0.3945536 -55.29  0.003787583    1.230    0.187
        78 -10.2281     11.0969     71.6337   1.2935443376e+02   6.0024172222e+01    0.5475985    0.2424565 -57.10   0.00295956    1.743    0.426
        79  -9.3744    227.8822     78.7704   7.4660365619e+01   1.7907650043e+01    0.3530897    0.2866013  26.21  0.001855728    1.694    0.410
        80  -7.3314    204.2751     76.3410   7.7697637164e+01   2.3873695615e+01    0.1411635    0.1179325  12.43 0.0005523211    1.616    0.381
        81 -10.3410     74.8311     69.3726   1.0673122848e+02   5.3547077469e+01    0.5047553    0.4318343  78.67  0.002893933    1.715    0.417
        82  -8.7994     83.2817     69.3379   1.0402452281e+02   5.2187273579e+01    0.2561207    0.2208833  46.33  0.001288646    1.330    0.248
        83  -9.3000     74.8642     27.4745   9.1929105090e+01   6.0057246418e+01    0.3271788    0.2916294 -10.85  0.001800272    1.191    0.161
        84  -8.8493     31.6724     69.6569   1.2160491875e+02   5.8819146931e+01    0.2438418     0.124297 -26.76  0.001192619    2.279    0.561
        85  -9.9115     16.3293     63.1544   1.2540843274e+02   6.1340776448e+01     0.317487    0.1934321 -64.95  0.001836755    1.780    0.438
        86  -9.2328     48.8766     62.0626   1.1326121811e+02   5.8461510685e+01    0.3482172    0.2812131 -13.90  0.002238441    1.146    0.128
        87  -7.7070     88.8152     61.6053   9.9797233554e+01   5.2601387521e+01    0.1830547    0.1282158  50.79 0.0009415324    1.654    0.395
