#   1 NUMBER                 Running object number                                     
#   2 MAG_AUTO               Kron-like elliptical aperture magnitude                    [mag]
#   3 X_IMAGE                Object position along x                                    [pixel]
#   4 Y_IMAGE                Object position along y                                    [pixel]
#   5 X_WORLD                Barycenter position along world x axis                     [deg]
#   6 Y_WORLD                Barycenter position along world y axis                     [deg]
#   7 A_WORLD                Profile RMS along major axis (world units)                 [deg]
#   8 B_WORLD                Profile RMS along minor axis (world units)                 [deg]
#   9 THETA_WORLD            Position angle (CCW/world-x)                               [deg]
#  10 FWHM_WORLD             FWHM assuming a gaussian core                              [deg]
#  11 ELONGATION             A_IMAGE/B_IMAGE                                           
#  12 ELLIPTICITY            1 - B_IMAGE/A_IMAGE                                       
         1 -15.6441    187.1470    115.2043   8.4285535958e+01   2.1553383084e+01     4.714261     2.965407 -29.41   0.02170733    1.678    0.404
         2  99.0000    194.1628     38.4208   6.1194876841e+01   3.1819950850e+01     15.75172     4.732991  67.01   0.03245156    3.739    0.733
         3 -11.4609    206.2778     22.0135   5.4504508434e+01   3.0621943353e+01    0.4324302    0.1793205 -19.96  0.001587136    2.560    0.609
         4 -15.3111    144.3533     61.4409   7.8049351771e+01   4.1081886488e+01     2.833878     1.652872  62.04   0.01175533    1.945    0.486
         5 -16.4969    242.3558     76.8270   6.5323434405e+01   1.4797016386e+01     9.375469     2.845152 -23.10   0.02857603    3.867    0.741
         6 -11.7077    151.9807    120.6277   9.2816452497e+01   2.8243526485e+01    0.3771012    0.3043654  25.55  0.001958393    1.424    0.298
         7 -12.6464    242.9807    249.5248   9.9148494469e+01  -5.1960771005e+00    0.7852837    0.2764539  24.97  0.003338878    4.457    0.776
         8 -14.3345     62.7771    161.0391   1.1970944445e+02   3.5097665136e+01    0.7500901    0.5231224  60.15  0.002896707    1.258    0.205
         9 -13.9417     68.2836    155.5379   1.1789499465e+02   3.5510037160e+01    0.7627765    0.4035783  63.20  0.001744536    1.941    0.485
        10 -11.5803    230.0620    166.6865   8.7816414378e+01   5.2474775613e+00    0.2605348    0.1719705 -43.89  0.001109172    1.935    0.483
        11 -12.0768    192.2862    194.1190   9.9078625394e+01   8.4302446805e+00    0.7463074    0.3932598 -62.40  0.002629967    6.212    0.839
        12 -14.3462    168.1671    114.3406   8.7872406306e+01   2.5921929894e+01    0.9583347    0.8917675 -27.13   0.00111831    1.100    0.091
        13 -15.3490     13.2430    187.0864   1.3141464990e+02   3.5395862330e+01      1.94587     0.969861  78.26   0.01302645    1.591    0.372
        14 -11.6830    144.7150    100.9126   8.9605859699e+01   3.3613196535e+01     0.400334    0.3729752  54.68  0.001336395    1.078    0.072
        15 -12.3653    112.4935    104.1262   9.8227286676e+01   3.9512736722e+01    0.4767411    0.3601992 -63.06   0.00204454    1.329    0.248
        16 -12.8318    117.1063    101.8621   9.6508990917e+01   3.9112729273e+01    0.3773987    0.3043271  84.22  0.001729726    1.421    0.296
        17 -10.8791    127.3576    104.4762   9.4617631334e+01   3.6543916711e+01    0.2491205    0.1344901 -46.56 0.0008595663    1.822    0.451
        18 -13.7755    162.0833     72.1480   7.7568297189e+01   3.4924546089e+01    0.7572835    0.4978134   1.53  0.001462949    2.387    0.581
        19 -12.6847    152.9191     95.4408   8.6293688103e+01   3.2845546425e+01    0.5417936    0.4564463 -34.50  0.002111215    1.200    0.166
        20 -11.1536    131.6159     97.2035   9.1726650514e+01   3.7149539751e+01    0.2814962    0.2440697  75.88 0.0006874976    1.244    0.196
        21 -10.8732    113.4814     95.0220   9.5709540958e+01   4.1250333983e+01    0.2163586    0.1368365 -48.04 0.0003562112    1.516    0.340
        22 -11.6381    158.2962     82.8607   8.1573987802e+01   3.3936208592e+01    0.3344354    0.3136666 -85.44 0.0003036523    1.138    0.122
        23 -13.1428    165.4899     86.2967   8.1027461881e+01   3.1613076416e+01    0.8262032    0.6024631 -23.71  0.003868802    1.491    0.329
        24 -12.2807    171.5025     81.3914   7.8379696204e+01   3.1032603756e+01    0.3179427    0.2701939 -42.26 0.0004934086    1.169    0.145
        25 -11.8952    137.6871     91.1835   8.8642326284e+01   3.7053080720e+01    0.5118505    0.3494899  81.03  0.001922591    2.193    0.544
        26 -11.3500    118.5305     90.9435   9.3327801455e+01   4.1110867015e+01    0.3048388    0.2394776 -21.32  0.001036914    1.571    0.363
        27 -10.5888    219.6326     88.8008   7.1784200492e+01   1.8304520994e+01    0.4217009    0.2619679  64.06  0.001616567    1.875    0.467
        28 -14.2042    185.6299     86.1052   7.6958052527e+01   2.6812964555e+01     2.168294     1.150027 -62.13  0.006968125    3.662    0.727
        29 -12.7347    149.5578     85.6197   8.4310328858e+01   3.5464635461e+01    0.3432812    0.2682221 -38.95 0.0007398118    1.260    0.206
        30 -11.1715    211.1555     84.2497   7.1941045521e+01   2.0972341349e+01    0.3492926    0.2729978   3.49  0.001736591    1.436    0.304
        31 -15.0812     30.5714    183.5102   1.2805737024e+02   3.4377507122e+01    0.8280428    0.6179924  71.62   0.00356065    1.056    0.053
        32 -11.0929    221.6862     78.6774   6.8770151971e+01   1.9298861722e+01    0.3973328    0.2398953 -52.97  0.001102835    2.005    0.501
        33 -12.3107    124.3526     75.2732   8.7324768355e+01   4.3070015679e+01    0.5393319    0.2906182 -54.65  0.001886574    2.153    0.536
        34 -15.9990    210.0812    132.0292   8.3998976213e+01   1.3907577131e+01     1.959572     1.831871 -69.30   0.01002174    1.315    0.239
        35 -12.3241    192.4796     55.7276   6.6821711497e+01   2.9869643418e+01    0.3693923     0.243535 -47.01 0.0009193058    1.571    0.363
        36 -11.7508    193.8925     73.1905   7.1774832036e+01   2.6872646365e+01    0.3001508    0.2578681 -40.06 0.0005372083    1.148    0.129
        37 -12.8363    193.1998     68.1048   7.0411212217e+01   2.7833194761e+01    0.7557748      0.65192 -38.40  0.003927443    1.134    0.118
        38 -11.3734    196.5211     60.5720   6.7618419225e+01   2.8128389836e+01    0.4493948     0.255978 -23.03  0.001433911    1.833    0.454
        39 -12.2512    218.9585     71.4093   6.7202926656e+01   2.0990813270e+01    0.3463897    0.3085934  21.25  0.001059638    1.170    0.145
        40 -10.9053    221.7104     67.0794   6.5602065481e+01   2.0938625601e+01    0.2354586    0.2063525 -17.75 0.0004383887    1.099    0.090
        41 -10.9234    205.0499     64.6644   6.7444639772e+01   2.5379611995e+01    0.2713606    0.2312073 -52.99 0.0009398885    1.224    0.183
        42 -10.7417    223.8839     61.3475   6.3705679067e+01   2.1203287787e+01    0.2906618    0.1953462 -57.38  0.001185092    1.732    0.423
        43 -10.1068    217.9924     63.4806   6.5139754886e+01   2.2345213665e+01    0.2817748    0.1172483  48.72  0.001039591    2.495    0.599
        44 -10.2422    213.1187     58.5359   6.4447310726e+01   2.4238475715e+01    0.3084066    0.1536075 -45.61  0.001211095    2.103    0.525
        45 -12.2825    205.8017     57.2093   6.5154755391e+01   2.6261107565e+01    0.5025676    0.2660918  37.17  0.001943726    2.350    0.575
        46 -12.2495    134.7199    108.2574   9.3787281708e+01   3.4272873318e+01     1.087595    0.2444698 -46.68  0.003002773    4.479    0.777
        47 -13.1874    190.2850    150.0052   9.1463793126e+01   1.5191486145e+01    0.6201217    0.3718074 -65.21    0.0024665    3.379    0.704
        48 -13.3721    180.5934     74.9760   7.4721807263e+01   2.9886332384e+01    0.7368491    0.3988832  34.79  0.002779913    2.377    0.579
        49 -11.0188    134.1280    147.7877   1.0231853059e+02   2.6564494380e+01    0.5203028    0.1321617 -53.96  0.001529625    5.069    0.803
        50 -11.2671     93.9510     29.9536   7.9528737319e+01   5.7591281541e+01    0.3038739    0.1771652 -34.28  0.001435276    1.588    0.370
        51 -13.5494     46.2064    173.2439   1.2428908493e+02   3.4654357413e+01    0.6339267    0.3193995  85.39  0.003579298    1.965    0.491
        52 -11.0388    159.7924     20.6009   6.0581014714e+01   4.3139932775e+01    0.2357875    0.1971683 -15.59 0.0002954947    1.218    0.179
        53 -14.1307     68.7316    145.1587   1.1648756196e+02   3.7613632921e+01     1.923178    0.9556493  60.05   0.00612184    2.159    0.537
        54 -12.0297    151.3424    106.4203   8.9520888382e+01   3.1101511307e+01    0.5458267    0.3437706 -75.23  0.001067794    2.830    0.647
        55  -9.8990     99.7952    133.8479   1.0751030731e+02   3.5410959497e+01    0.1811556    0.1427638  81.58 0.0004040205    1.276    0.217
        56 -10.4172    156.2274     15.6608   5.9362110468e+01   4.4641586371e+01    0.2943152    0.2665426  82.26  0.001341927    1.149    0.130
        57 -12.1609    133.9613    127.5085   9.8351409507e+01   3.0558913186e+01    0.6898535    0.4903628 -70.54  0.003422703    1.669    0.401
        58 -11.0808    135.0020    120.7594   9.6644230885e+01   3.1701649442e+01    0.3689043    0.1923507 -47.61   0.00125583    1.939    0.484
        59 -13.2166    161.0004    128.1118   9.2587841769e+01   2.4948871204e+01    0.5218328    0.4363396  45.75  0.001794369    1.154    0.134
        60 -13.6442     55.7531    166.2911   1.2172368932e+02   3.4909505264e+01    0.4120397    0.3612767  75.46  0.001001035    1.195    0.163
