#   1 NUMBER                 Running object number                                     
#   2 MAG_AUTO               Kron-like elliptical aperture magnitude                    [mag]
#   3 X_IMAGE                Object position along x                                    [pixel]
#   4 Y_IMAGE                Object position along y                                    [pixel]
#   5 X_WORLD                Barycenter position along world x axis                     [deg]
#   6 Y_WORLD                Barycenter position along world y axis                     [deg]
#   7 A_WORLD                Profile RMS along major axis (world units)                 [deg]
#   8 B_WORLD                Profile RMS along minor axis (world units)                 [deg]
#   9 THETA_WORLD            Position angle (CCW/world-x)                               [deg]
#  10 FWHM_WORLD             FWHM assuming a gaussian core                              [deg]
#  11 ELONGATION             A_IMAGE/B_IMAGE                                           
#  12 ELLIPTICITY            1 - B_IMAGE/A_IMAGE                                       
         1 -13.2869    169.8060     56.0659   6.1115534555e+01   3.5402616044e+01     1.721842       1.1438  23.92  0.005185795    2.058    0.514
         2 -13.4859    184.4458     41.5268   5.4130282575e+01   3.3775384980e+01     1.110349     1.000047  -7.75  0.003608667    1.241    0.194
         3 -13.8807    207.0232     10.6595   4.2493914016e+01   3.1766823115e+01     1.157261     1.037881  26.06  0.005261814    1.367    0.269
         4 -11.6286    190.8325     15.4474   4.5621902469e+01   3.5338419617e+01    0.4935521    0.3015095 -88.70  0.002325727    1.779    0.438
         5 -12.4314    234.7318      3.0748   3.8141552025e+01   2.5903302170e+01     1.472237    0.3545126  75.01  0.005007063    4.128    0.758
         6  -9.8524     57.1369    225.3045   1.2159407656e+02   2.1317466662e+01   0.09333652   0.06755544 -71.16  0.000153944    1.492    0.330
         7 -13.6287    245.9999    238.4089   8.8547080311e+01  -9.7084327763e+00      1.77739    0.7281502 -27.38  0.009314221    2.635    0.621
         8 -19.4110     34.7201    146.3262   1.1878268381e+02   4.0735665827e+01     19.12406     5.154701 -73.41   0.06751182    3.656    0.727
         9  -9.3572    156.2503    189.4350   9.7150467175e+01   1.2491782461e+01    0.1920462     0.121472  50.57 0.0006082141    1.530    0.347
        10 -11.5067     65.9523    194.1538   1.1705814610e+02   2.6355838905e+01    0.3392489    0.2266885 -47.23  0.001430975    2.026    0.506
        11 -12.4104     75.1980    248.9332   1.2025595207e+02   1.4774708327e+01    0.3206137    0.1475325 -61.70  0.001487349    2.518    0.603
        12 -10.3997    242.4146    185.1852   7.9632516367e+01  -2.5159160884e+00    0.1743434    0.1139292 -39.10 0.0007922144    1.689    0.408
        13 -11.9680     58.1173    214.6227   1.2054290709e+02   2.3232620523e+01    0.2438254    0.1578711  58.25  0.001083548    1.263    0.208
        14  -8.5171     81.2824    220.2704   1.1665595617e+02   1.9028285883e+01   0.09801761   0.09472921  16.68 0.0003172529    1.496    0.331
        15 -11.4123    151.0004    180.0145   9.6605768128e+01   1.5280769972e+01    0.4249135    0.2950326 -74.93  0.002009354    2.025    0.506
        16 -11.4011    145.4480    180.7282   9.7940029490e+01   1.6188731021e+01    0.3657586    0.2672833  26.76  0.001025397    1.534    0.348
        17 -12.2199    142.0704    175.9302   9.7826423361e+01   1.7786545094e+01    0.6026883    0.4381587 -86.21  0.002666479    1.870    0.465
        18 -10.7414    188.5330    176.2474   8.7989970818e+01   8.7226715627e+00    0.6343837    0.3923283 -56.80  0.002272954    2.226    0.551
        19 -11.6631     70.7773    207.1968   1.1741052846e+02   2.3030979112e+01    0.4603657    0.2825242  25.54  0.002438944    2.380    0.580
        20 -10.9822    236.4939    175.2965   7.8689078454e+01  -6.8811877774e-02    0.3380151    0.1174727  49.03  0.001226327    3.537    0.717
        21  -8.7788    194.4759    172.4856   8.6035864750e+01   8.2267138565e+00    0.1427884    0.1290029  14.67 0.0008098282    1.031    0.030
        22 -13.0211     10.2761    206.3329   1.2875412846e+02   3.0166422719e+01    0.4335433    0.2120074  39.95  0.002739114    1.996    0.499
        23  -9.6675    240.3335    169.3171   7.6789303157e+01   1.5006937311e-01    0.1409103   0.09396535   6.18 0.0003711346    1.692    0.409
        24 -10.0880      3.2360    162.2325   1.2740708604e+02   3.9926658059e+01    0.1552643    0.1369002 -89.59 0.0006122282    1.261    0.207
        25 -10.8259     94.1979    156.8507   1.0564904201e+02   3.0457450080e+01    0.2592216    0.2366939 -75.30 0.0003808078    1.079    0.074
        26  -9.3558    149.2366    156.0541   9.2367128455e+01   2.0492955140e+01    0.2416352    0.1731187 -81.60   0.00106569    2.000    0.500
        27 -11.7056     61.3416    204.6372   1.1902998649e+02   2.4801825358e+01    0.2657991    0.2060682 -55.61  0.001181889    1.628    0.386
        28 -11.1601    133.8468    145.8265   9.3845048219e+01   2.5781953262e+01     1.283507    0.3262828 -55.04  0.003032961    6.018    0.834
        29 -10.1682    188.0102    152.3532   8.3083866555e+01   1.3197070931e+01    0.2775791    0.2161519 -68.34  0.001338362    1.720    0.419
        30 -12.1492     99.6068    150.4964   1.0320642971e+02   3.1029926757e+01    0.6039846    0.4810713 -27.53  0.003136021    1.657    0.397
        31 -10.0780    113.3481    151.2065   9.9936556534e+01   2.8469065602e+01    0.2909329    0.2097887  87.21   0.00120053    1.722    0.419
        32  -9.9853    174.5641    149.1806   8.5228993573e+01   1.6639431704e+01    0.2855266    0.2118408  44.71 0.0007565432    1.322    0.244
        33 -11.0982    192.9542    194.8744   9.0654249026e+01   4.7299164119e+00     0.923724    0.5385832 -66.45  0.003297549    4.608    0.783
        34  -9.1858     87.8260    202.5161   1.1346926948e+02   2.1542329763e+01    0.1744815    0.1720908 -57.83 0.0006743279    1.355    0.262
        35  -9.2739    113.9683    142.7863   9.8120452983e+01   3.0277507615e+01    0.2505605    0.1622291  68.48  0.001069753    2.021    0.505
        36 -11.4619    109.7358    137.3972   9.8089252196e+01   3.2293405153e+01    0.5814295    0.3291845 -42.73  0.002472533    1.929    0.482
        37  -8.6044    127.6852    139.3345   9.3959605674e+01   2.8446877263e+01    0.1561599     0.117843  84.78 0.0007046724    1.689    0.408
        38 -11.7323     98.3739    136.5143   1.0086029034e+02   3.4498854020e+01    0.2896878    0.2826841 -19.90  0.001683119    1.174    0.148
        39 -10.1387    136.0000    130.3382   8.9859686087e+01   2.8774692117e+01    0.6748055   0.08671786 -47.25  0.001325272    7.744    0.871
        40 -11.0873    105.8880    130.8127   9.7699135698e+01   3.4519682482e+01    0.4034924    0.3299534 -70.86  0.001191466    1.233    0.189
        41 -10.1842    161.7151    128.5392   8.3281213986e+01   2.3625012960e+01    0.4541014    0.3070564  78.48   0.00178018    2.386    0.581
        42 -10.1170    116.2897    128.5063   9.4456795711e+01   3.3124508454e+01    0.3016895    0.2461717 -23.96 0.0006188567    1.482    0.325
        43 -10.5454    104.2297    124.0102   9.6645721173e+01   3.6405978314e+01    0.2992193     0.242699 -29.91 0.0008366022    1.429    0.300
        44  -9.8954    120.4448    123.2078   9.2141293398e+01   3.3530374104e+01     0.304516    0.2105076 -28.58  0.001038948    1.824    0.452
        45  -9.7503    152.4857    119.5982   8.3213015997e+01   2.7557001213e+01    0.3129376    0.1534296 -43.25 0.0007870439    2.027    0.507
        46  -9.5965    135.0000    119.9594   8.7600590852e+01   3.1282443875e+01    0.2588982   0.08728199 -46.24 0.0008000914    2.926    0.658
        47  -9.5091    111.0384    118.0171   9.3408245205e+01   3.6539352842e+01    0.2223423    0.2128361 -67.37 0.0003440993    1.006    0.006
        48  -9.8104    231.2525    113.7901   6.5857877928e+01   1.0880078031e+01    0.2473135    0.2308045  21.26 0.0006857598    1.124    0.110
        49  -9.8817    167.8237    112.8114   7.7909038545e+01   2.5471127818e+01    0.4100959    0.2737892 -81.76  0.001510256    2.686    0.628
        50 -11.3853    119.1633    110.6109   8.9368320513e+01   3.6640390712e+01    0.5909362      0.37603  67.08  0.002366375    2.260    0.557
        51 -10.4619    134.5194    105.0404   8.3841884523e+01   3.4648453537e+01    0.4238893     0.151787 -44.35  0.001364033    2.736    0.635
        52  -9.7755     16.7152    201.0903   1.2728938466e+02   3.0588521140e+01    0.1125752   0.08971341  61.95 0.0006027521    1.236    0.191
        53  -9.7854    205.4423    110.1932   6.9505473910e+01   1.7225397953e+01    0.3340717    0.2173806  41.21  0.001349412    1.637    0.389
        54 -10.2153     80.4605    194.6939   1.1409033250e+02   2.4225934346e+01    0.4726674    0.2101088  54.25  0.001938752    2.190    0.543
        55 -10.0372    186.8388     86.9158   6.6859911930e+01   2.5876489442e+01    0.3195658    0.2984547  85.04  0.001453744    1.129    0.114
        56  -9.4271     74.9424     73.9848   9.2435148179e+01   5.2684465261e+01    0.2074496    0.1862826 -33.72  0.001208361    1.012    0.012
        57 -12.0160    149.6073    188.5091   9.8396492960e+01   1.3900227648e+01     0.416886    0.3533632  85.02  0.001785864    1.373    0.272
        58 -10.8056     71.5333    243.2464   1.2044434453e+02   1.6226637332e+01    0.2135034    0.1359457  88.63 0.0006560899    1.558    0.358
        59  -9.2669     85.7488    239.8979   1.1766008716e+02   1.4858369062e+01     0.144685    0.1269157  63.37 0.0003384597    1.214    0.176
        60 -12.6626    189.5098     35.2174   5.1500804661e+01   3.3317349784e+01    0.5949695    0.5681169 -22.25  0.001361838    1.137    0.121
        61  -9.1916    167.5202    228.9527   1.0113652219e+02   3.8166377845e+00    0.1589649    0.1259626 -46.82 0.0007297342    1.539    0.350
        62 -11.8281     63.1892    221.3139   1.2015943761e+02   2.1291987073e+01    0.3997426    0.1927378  74.50  0.001247615    2.376    0.579
