#   1 NUMBER                 Running object number                                     
#   2 MAG_AUTO               Kron-like elliptical aperture magnitude                    [mag]
#   3 X_IMAGE                Object position along x                                    [pixel]
#   4 Y_IMAGE                Object position along y                                    [pixel]
#   5 X_WORLD                Barycenter position along world x axis                     [deg]
#   6 Y_WORLD                Barycenter position along world y axis                     [deg]
#   7 A_WORLD                Profile RMS along major axis (world units)                 [deg]
#   8 B_WORLD                Profile RMS along minor axis (world units)                 [deg]
#   9 THETA_WORLD            Position angle (CCW/world-x)                               [deg]
#  10 FWHM_WORLD             FWHM assuming a gaussian core                              [deg]
#  11 ELONGATION             A_IMAGE/B_IMAGE                                           
#  12 ELLIPTICITY            1 - B_IMAGE/A_IMAGE                                       
         1 -14.1150    173.4878     43.8569   6.8792771806e+01   3.6120799085e+01     1.562197     1.229219  33.22 0.0008043468    1.268    0.212
         2 -14.1466    185.9542     32.2104   6.2894940518e+01   3.4284116254e+01     1.179228    0.9351569  16.05  0.003894826    1.329    0.248
         3 -15.1731    191.2055     24.3930   5.9600888565e+01   3.3754113476e+01     3.390582     1.941033  17.16  0.001454519    2.281    0.562
         4 -10.1169     83.4601      6.4677   7.5055041257e+01   6.2025709631e+01    0.1342363     0.115274   1.73 4.906498e-05    1.017    0.017
         5 -10.8525    170.0236    239.2177   1.1112698639e+02   8.3383729902e+00    0.1602932     0.139338  36.08 0.0004587811    1.209    0.173
         6 -15.7241     74.8876    151.0013   1.1780194033e+02   3.6132083969e+01     4.468066     2.319816  77.56    0.0144945    2.985    0.665
         7 -12.3444     45.3130    215.8516   1.2926507586e+02   2.8319062889e+01    0.4276235    0.1263161  52.79  0.002247828    2.586    0.613
         8 -10.1346    164.8856    205.3417   1.0770947178e+02   1.3199748872e+01    0.3274652    0.1457632 -55.14  0.001536615    3.729    0.732
         9 -12.9861    121.1691    200.3073   1.1480857610e+02   2.0890535850e+01    0.4084043    0.3519527  -8.13  0.002336627    1.724    0.420
        10 -11.2770    115.2238    200.1823   1.1586463034e+02   2.1804630756e+01    0.2543955    0.1639195 -80.32   0.00157467    2.023    0.506
        11 -12.0316    112.5767    196.5824   1.1592833269e+02   2.2757562088e+01    0.4332717    0.2929141  10.62  0.002253962    3.227    0.690
        12  -9.8188     72.7054    202.9372   1.2371271783e+02   2.7194200331e+01    0.1409808    0.1237429  73.55  0.000565942    1.213    0.175
        13  -9.1293     87.2812    202.6585   1.2112151750e+02   2.5362560285e+01    0.1108454   0.06720934  69.05 0.0006085928    1.630    0.386
        14 -12.6979    193.7232    193.4551   1.0093378779e+02   9.8000852148e+00    0.7207202    0.5682002 -67.76  0.004065981    2.087    0.521
        15 -11.6743    203.1277    199.3726   1.0027588071e+02   7.4796338344e+00    0.4289479    0.1423576  39.01  0.001879439    2.529    0.605
        16 -19.3784     20.9732    135.9378   1.2797530906e+02   4.4946390795e+01      16.1438      1.83172 -73.47   0.04292321    9.122    0.890
        17 -13.4614     71.6912    193.8734   1.2309671158e+02   2.8808675981e+01    0.7141486    0.4778659  38.72  0.004983121    1.547    0.354
        18 -10.9929     78.2493    185.0308   1.2103693657e+02   2.9472234907e+01    0.3704582    0.2437827  79.53   0.00143834    1.526    0.345
        19 -11.5786    103.5608    194.8718   1.1738208272e+02   2.4350556664e+01    0.3996578     0.254789  60.22  0.002577198    1.419    0.295
        20  -9.7086    180.1904    192.9770   1.0321690710e+02   1.2214692958e+01    0.1775176    0.1400084  87.56  0.001077035    2.014    0.503
        21 -11.0293     60.5886    189.7291   1.2474935204e+02   3.0857051889e+01    0.2380342    0.1679016 -75.50  0.001578961    1.420    0.296
        22 -16.2649    112.1195    244.5688   1.2076548884e+02   1.6033201281e+01     5.030739     1.825726  37.40   0.02652568    2.741    0.635
        23 -11.7492    207.8233    183.8518   9.6908471471e+01   8.4739982640e+00    0.3108913    0.2780384 -26.14 0.0009710121    1.372    0.271
        24 -11.7105    210.9788    180.2649   9.5740424317e+01   8.3364704127e+00    0.4047623     0.261913 -19.88  0.002356983    1.758    0.431
        25 -10.1426     66.8269    233.2003   1.2695778029e+02   2.3307120888e+01    0.1450421    0.1045706  62.95 0.0002607088    1.031    0.030
        26 -10.3521    151.5001    183.4904   1.0696553749e+02   1.8514481584e+01    0.1234592    0.1031689  46.79 -9.818722e-05    1.019    0.019
        27 -11.7998    106.2929    209.8210   1.1849236122e+02   2.1639445819e+01      0.38912    0.3115759  57.29  0.002984526    1.033    0.032
        28 -10.6927     99.4227    180.6255   1.1650528721e+02   2.7309461056e+01    0.2014945    0.1750511  53.07 0.0005612336    1.134    0.118
        29  -9.0234     53.5797    181.4928   1.2534101492e+02   3.3097479013e+01    0.1028979   0.08569835  76.29 1.231407e-05    1.104    0.094
        30 -12.1141    183.5788    215.3530   1.0591481971e+02   8.8995761375e+00    0.2885996    0.2262699  -2.76  0.001588979    1.564    0.360
        31 -10.2090    194.5007    166.4887   9.6134176685e+01   1.3130829112e+01    0.2639438    0.2416126 -40.48  0.001724793    1.350    0.259
        32 -11.0838    198.0012    176.7474   9.7371030827e+01   1.1129051527e+01    0.2854476    0.2239038  25.45  0.001016365    1.128    0.114
        33 -11.5364    197.1047    172.3516   9.6743034479e+01   1.1863587175e+01    0.3680843    0.3010677 -18.19  0.001334896    1.350    0.259
        34 -14.8739     54.1226    229.5860   1.2870463446e+02   2.5283685474e+01     2.266545     1.688976   5.91   0.01520637    3.455    0.711
        35 -10.4442    177.0922    236.5346   1.0969408785e+02   7.5563527993e+00    0.1680312    0.1443788  74.31  0.001165717    1.582    0.368
        36 -10.8989    177.8135    169.9491   9.9825455913e+01   1.5783060012e+01    0.2321567    0.1611737 -38.10  0.001335663    1.669    0.401
        37 -11.2876    145.6588    168.2673   1.0569043224e+02   2.1897667297e+01    0.2350286    0.2133714  59.69 0.0008200203    1.095    0.087
        38 -11.2373    230.3391    166.6940   8.9966994271e+01   6.4040776952e+00    0.2660534    0.1488535 -41.47  0.001093045    2.392    0.582
        39  -9.7987     66.0042    237.0231   1.2733324936e+02   2.2861686910e+01    0.1359393   0.09847161  60.93 0.0003089303    1.040    0.039
        40 -11.8092    106.2018    202.1053   1.1769794036e+02   2.2829099139e+01    0.4031536    0.2120048  45.53  0.001609503    1.548    0.354
        41 -10.2584    224.9921    165.7627   9.0677358186e+01   7.4956873860e+00    0.1643712    0.1438852 -48.89  0.001038522    1.631    0.387
        42  -9.9140     78.7926    232.2436   1.2501445147e+02   2.2003018233e+01     0.114881   0.09723865  50.09            0    1.336    0.251
        43 -12.3518     98.2381    156.4440   1.1354882834e+02   3.1796660871e+01    0.5574685    0.3999551 -30.89   0.00261698    2.130    0.531
        44  -9.3487    141.8098    158.5616   1.0482752297e+02   2.4181366859e+01    0.1696177    0.1111468  54.37 0.0002583569    1.474    0.322
        45  -9.2767    129.3226    156.6910   1.0706793946e+02   2.6706471072e+01     0.129272   0.09397334  73.82 0.0006114263    1.648    0.393
        46 -10.1015    129.5776    140.2326   1.0409318477e+02   2.9603082755e+01    0.4345242    0.2862901  10.22  0.001895842    2.900    0.655
        47 -11.0567    134.0000    147.0269   1.0440184144e+02   2.7581974572e+01    0.6342759     0.193489 -50.60  0.002281809    3.742    0.733
        48 -11.0878    133.4855    141.9815   1.0357708155e+02   2.8576696193e+01    0.4026024    0.2346548 -67.38  0.001794173    2.573    0.611
        49 -11.2922    174.4656    148.3218   9.6394737786e+01   1.9650019292e+01    0.3192711    0.2613386 -49.11   0.00122449    1.439    0.305
        50 -11.8629    144.7635    145.9046   1.0192837583e+02   2.5796690417e+01    0.4217642     0.297881 -72.00  0.002170258    1.969    0.492
        51 -11.6580    108.7792    140.8612   1.0879247687e+02   3.3072967436e+01    0.4492045    0.3084121 -32.54  0.002386189    2.007    0.502
        52 -12.3308     97.2643    141.4373   1.1146493237e+02   3.4790875785e+01    0.2414672    0.2112277  39.90  0.000687903    1.226    0.184
        53 -11.7403    115.9833    130.9198   1.0535328419e+02   3.3756941405e+01    0.4941171    0.3719634   8.63  0.001648393    1.985    0.496
        54 -10.8228    120.3925    124.7664   1.0311696565e+02   3.4156292057e+01    0.2516771    0.1844161 -18.87 0.0008837325    1.959    0.490
        55 -11.8897    104.6804    128.9645   1.0759641551e+02   3.6046454454e+01    0.5202488    0.3409813 -86.66  0.001520546    2.172    0.540
        56 -10.7160    160.9254    128.7219   9.5019927663e+01   2.5565105341e+01    0.3629767    0.3522886 -11.59   0.00220567    1.087    0.080
        57 -11.7603    135.9224    125.1432   9.9656824865e+01   3.1188973590e+01    0.7269764    0.3383419 -46.15  0.003108873    2.255    0.557
        58 -10.3547    125.2059    127.1828   1.0250606152e+02   3.2822225116e+01    0.3384422    0.1982158  69.80  0.001382882    2.829    0.647
        59 -10.4693    111.0855    119.7171   1.0426879325e+02   3.6783210031e+01    0.2224927    0.2066417 -35.36 0.0003982746    1.176    0.150
        60 -10.4677    167.9093    112.7113   8.9844789807e+01   2.6786169075e+01    0.3579083    0.2730241  88.83  0.001401031    1.956    0.489
        61 -10.2957    205.3928    110.2469   8.1949656383e+01   1.8832884258e+01     0.299638    0.1881641  44.07 0.0008578682    1.498    0.333
        62 -10.3316    115.9913    109.7677   1.0092971789e+02   3.7864550802e+01    0.2462517    0.1518777 -14.30 0.0008992009    3.671    0.728
        63 -10.2339    134.5396    103.6114   9.5005042755e+01   3.5468534008e+01    0.3486556     0.137821 -44.90  0.001301921    2.586    0.613
        64  -8.9571     73.3132    103.2819   1.1049854742e+02   4.6029971446e+01    0.1205689   0.09660587 -26.98  0.000287337    1.572    0.364
        65  -9.2387    152.4908     79.4385   8.4281139588e+01   3.5906442413e+01    0.1496843    0.1414112  17.06 0.0001599159    1.022    0.022
        66  -9.3085    183.2908     78.3490   7.7569268322e+01   2.8742033578e+01    0.1593203    0.1125246  16.31 0.0007027566    1.667    0.400
        67 -12.3406    172.9143     71.8785   7.7705821297e+01   3.2260437118e+01     0.564168    0.3856148 -79.29  0.001281462    2.474    0.596
        68 -11.0554    163.8316    216.3878   1.0936096907e+02   1.1963818644e+01    0.2110194    0.1719374  20.97  0.001544633    1.343    0.256
        69  -9.1850    106.9942     62.0639   9.0303426918e+01   4.8770987829e+01    0.1674896    0.1556619 -24.52 0.0003407765    1.014    0.014
        70 -12.5808    116.5646    211.9127   1.1692878233e+02   1.9851847852e+01    0.3562848    0.2596159  80.82 0.0009355086    1.543    0.352
        71 -11.8183     41.1671    220.1331   1.3017981890e+02   2.8100947212e+01    0.2520691     0.107212  48.38 0.0009378645    1.747    0.428
        72 -10.9301    172.9538    245.1663   1.1134484903e+02   7.2634490122e+00      0.29106    0.1534115 -50.11  0.001888231    2.864    0.651
        73 -11.6671    216.5795     18.2231   5.4519496077e+01   2.7720721740e+01    0.2729602    0.2461712  85.61 0.0008265098    1.147    0.128
