#   1 NUMBER                 Running object number                                     
#   2 MAG_AUTO               Kron-like elliptical aperture magnitude                    [mag]
#   3 X_IMAGE                Object position along x                                    [pixel]
#   4 Y_IMAGE                Object position along y                                    [pixel]
#   5 X_WORLD                Barycenter position along world x axis                     [deg]
#   6 Y_WORLD                Barycenter position along world y axis                     [deg]
#   7 A_WORLD                Profile RMS along major axis (world units)                 [deg]
#   8 B_WORLD                Profile RMS along minor axis (world units)                 [deg]
#   9 THETA_WORLD            Position angle (CCW/world-x)                               [deg]
#  10 FWHM_WORLD             FWHM assuming a gaussian core                              [deg]
#  11 ELONGATION             A_IMAGE/B_IMAGE                                           
#  12 ELLIPTICITY            1 - B_IMAGE/A_IMAGE                                       
         1 -10.3843    226.3100     41.5011   6.5316979213e+01   2.4113621478e+01    0.3774479    0.2051293 -51.50  0.001865831    1.717    0.418
         2  -9.8269    212.9861     25.0223   6.3116255124e+01   2.9358755264e+01    0.5257416    0.3769265  -1.50  0.002741452    2.404    0.584
         3  -9.5172    194.3017     21.0223   6.4361494615e+01   3.4272840113e+01    0.2829513    0.2170031 -58.57  0.001421241    1.293    0.227
         4  -8.7716    160.9010      9.3879   6.5794942594e+01   4.3518749641e+01      0.24128    0.1698395  16.27  0.001325296    1.959    0.490
         5 -10.9661    214.0665    243.0150   1.1053998896e+02  -8.2602452334e+00    0.6426928    0.4113221  47.37  0.003611847    1.700    0.412
         6  -8.4121    124.6554    250.3188   1.2889522723e+02   5.5889135909e+00     0.134334   0.08478305  66.27 0.0007049238    1.724    0.420
         7 -10.8501    217.8604    237.3615   1.0887735094e+02  -8.0441310930e+00    0.8540336    0.4158918 -49.69  0.003914904    2.946    0.661
         8 -11.0328    212.1944    236.5619   1.0981076114e+02  -7.0102399323e+00    0.6672167     0.501946 -36.68    0.0040851    1.473    0.321
         9  -9.2519    100.0262    245.4639   1.3305343428e+02   1.0488327748e+01    0.2664748    0.1567332 -57.24  0.001465855    1.946    0.486
        10  -9.2875    177.0002    240.1114   1.1720948978e+02  -1.6274205370e+00    0.2847727    0.2451434   8.29  0.001027929    1.242    0.195
        11  -9.6555    245.4782    238.5105   1.0402582469e+02  -1.2415450420e+01    0.2231996    0.1846591 -36.60  0.001120481    1.502    0.334
        12  -9.7201    248.9338    235.6106   1.0290780259e+02  -1.2524601137e+01    0.3324674    0.1945173  32.52  0.001935638    1.573    0.364
        13 -10.3524    247.9005    226.6661   1.0150055099e+02  -1.1145968848e+01    0.5037709    0.2222967 -38.54  0.002466642    2.304    0.566
        14 -10.4643    250.3279    220.6566   9.9979597875e+01  -1.0653700143e+01    0.4706545    0.2305438 -36.03  0.001797321    1.983    0.496
        15  -9.9833    249.2366    215.2512   9.9174534547e+01  -9.7045984956e+00    0.2860843     0.169579 -42.41  0.001168663    1.855    0.461
        16 -10.0377    209.7251    223.2711   1.0797465349e+02  -4.5352207425e+00     0.586289    0.2972544 -48.69  0.002695489    2.449    0.592
        17  -8.1759    181.2459    222.4363   1.1347270174e+02   6.2581818960e-01    0.1953214    0.1182658  49.43 0.0009471755    1.651    0.394
        18  -7.9444    120.4745    218.4984   1.2550117214e+02   1.2399919833e+01    0.1371849    0.1217054  61.30 0.0001033762    1.030    0.029
        19 -10.2197    233.0386    213.5495   1.0178440599e+02  -6.8941010180e+00    0.6640615    0.4537037  30.89  0.003383146    1.387    0.279
        20  -9.5737    229.1363    205.5422   1.0099628456e+02  -4.9698083007e+00    0.3774468    0.1801693 -40.91  0.001356845    2.120    0.528
        21  -8.6774    185.3698    210.3659   1.1050619610e+02   2.0330968695e+00    0.2644837    0.2198383 -68.17  0.001238689    1.518    0.341
        22  -8.6549    149.7649    205.9957   1.1724678565e+02   9.6076767031e+00    0.2327994     0.166047 -88.24  0.001090219    1.958    0.489
        23  -9.6739    220.8633    204.2522   1.0231218850e+02  -3.3325608310e+00    0.3214372    0.1907999 -44.62  0.001178628    1.817    0.450
        24 -11.7924    221.7355    166.8861   9.4576199900e+01   3.1561179270e+00     2.349859     1.015943 -48.14  0.008976028    2.511    0.602
        25 -11.5384    249.2907    154.9002   8.7136738470e+01   1.3289174400e-01      1.38687    0.4328049 -41.08  0.004998627    2.859    0.650
        26 -11.5051    232.5462    195.4057   9.8395642649e+01  -3.8795886082e+00     1.603231    0.6000665 -49.07  0.005629316    3.747    0.733
        27  -8.9349    206.8910    189.8834   1.0222399380e+02   1.7434493948e+00    0.3127425    0.2268587 -54.55  0.001057754    1.627    0.385
        28  -8.8891    129.8424    189.2474   1.1876057405e+02   1.6962721292e+01    0.2915442    0.2337119  77.67 0.0006665627    1.341    0.254
        29 -11.2142    248.3869    196.0097   9.5656526099e+01  -6.6247163118e+00     1.001841    0.5696366 -38.28  0.005179671    1.671    0.402
        30  -8.5270    204.6990    181.5034   1.0096335021e+02   3.7308954824e+00    0.2900878    0.2369876  13.32  0.001534815    1.323    0.244
        31 -10.6586    246.0750    178.8199   9.2638491559e+01  -3.4216659818e+00     1.082668    0.8662043 -81.24  0.005825353    2.034    0.508
        32  -9.2582    214.1745    198.9160   1.0257173743e+02  -1.2276531703e+00    0.3380016    0.2662073  80.45  0.001726017    2.035    0.509
        33 -11.3325    246.1339    163.7513   8.9524964906e+01  -8.4526071285e-01     1.164487    0.5118368 -47.04  0.004780286    2.376    0.579
        34  -7.9768    110.7044    166.3162   1.1910966150e+02   2.5818567113e+01    0.1530947    0.1121947  80.56 0.0003571621    1.605    0.377
        35  -7.9040     43.6339    166.1504   1.3548476977e+02   3.5910791806e+01    0.1829434   0.09998511 -59.86 0.0003539472    1.622    0.383
        36  -8.1745     71.0057    165.4619   1.2876512354e+02   3.2529448869e+01    0.1953033    0.1367755  38.16 0.0004872343    1.559    0.359
        37  -9.7556    182.5693    162.1591   1.0146109464e+02   1.2117582810e+01    0.4368899    0.3166387 -69.09  0.001961356    1.779    0.438
        38  -8.7392    152.8099    161.1934   1.0792792460e+02   1.8654211902e+01    0.3320157    0.2329102  -3.50  0.001304273    2.480    0.597
        39 -11.4486    236.7436    188.8975   9.6334802502e+01  -3.5121851264e+00    0.9132879    0.8405424  24.64  0.005719704    1.156    0.135
        40 -10.6866    238.4902    144.5016   8.6729414694e+01   4.0244300084e+00    0.7366539    0.2363997  40.88  0.002381961    4.021    0.751
        41 -10.4851    240.8852    134.4359   8.4131910390e+01   5.3873199178e+00    0.6351863    0.3535209  30.45   0.00259558    2.744    0.636
        42  -7.9709    137.4833    143.5430   1.0769925042e+02   2.5897509020e+01    0.1546221    0.1515369 -84.35 0.0002116001    1.023    0.023
        43 -10.2569    205.5874    130.6771   8.9562213758e+01   1.3536728809e+01    0.6816962    0.5709592 -34.29  0.003505636    1.194    0.163
        44  -8.9193     75.5914    123.5223   1.1975251955e+02   4.1936638942e+01    0.2482687    0.2169657 -53.91 0.0005422537    1.050    0.048
        45  -9.1704    119.3183    120.7578   1.0692647648e+02   3.4875366208e+01    0.3366531    0.2743089 -35.58  0.001399503    1.285    0.222
        46  -9.8839    155.6449    125.1696   9.8897196428e+01   2.6051356186e+01    0.4661196    0.2382755 -54.94  0.001694802    2.241    0.554
        47  -8.4082    138.9820    121.5102   1.0202950065e+02   3.0567811703e+01    0.2286803    0.1387637  23.03 0.0008104781    2.664    0.625
        48  -7.6085    250.5123    113.5261   7.8068871986e+01   7.2124675112e+00    0.1394919    0.1219658 -50.81 0.0005683332    1.011    0.011
        49  -8.2975    192.0895    110.8470   8.7405194931e+01   2.0546020107e+01    0.2460424    0.2064258 -82.22 0.0007103538    1.309    0.236
        50  -9.1403    185.5219    106.7570   8.7687323959e+01   2.2899132780e+01    0.4508436     0.292888  73.28  0.001865068    1.976    0.494
        51  -9.4461    181.1357    103.2670   8.7687721915e+01   2.4626689935e+01    0.6268559    0.2787624 -32.78  0.002132751    2.745    0.636
        52  -9.5587    154.9245    105.9932   9.4134474654e+01   3.0284693134e+01    0.3442037    0.2182651 -25.60  0.001373882    2.062    0.515
        53  -8.5922    237.8923    103.7514   7.7790400826e+01   1.1536317460e+01    0.2862606    0.1636848 -60.62  0.001235306    2.056    0.514
        54 -10.7521    213.9212     90.9291   7.8584175565e+01   1.9162348911e+01     1.090502    0.3430835 -42.86  0.003650897    2.927    0.658
        55  -9.7249    250.3864     91.8327   7.3384325357e+01   1.0974135332e+01    0.2526389     0.169735 -35.75  0.001217587    1.469    0.319
        56  -8.9328    191.6670     90.4184   8.2343016841e+01   2.4530014528e+01    0.3327962    0.2793168 -72.51  0.001705282    1.224    0.183
        57 -11.3840    242.0260     78.2521   7.1528653444e+01   1.5002506063e+01    0.7775648    0.2054933 -48.97  0.002418078    3.933    0.746
        58 -11.5295    216.1077     75.2289   7.4480238093e+01   2.1354266430e+01    0.8848038    0.4295759 -46.24  0.003751681    1.946    0.486
        59  -8.3743    196.1908     79.2572   7.8693018834e+01   2.5421354135e+01    0.3110069    0.1879603 -48.64    0.0013249    1.636    0.389
        60  -8.3254    121.1953     78.9836   9.4940689197e+01   4.3197753935e+01    0.2519535    0.1767317  -5.56  0.001102838    2.030    0.507
        61  -8.7527    249.2372     81.9031   7.1389589157e+01   1.2865467958e+01    0.4995829    0.2226301 -30.12    0.0019307    2.925    0.658
        62 -12.5028    227.7289     65.3625   7.0528633102e+01   2.0259393250e+01     1.058194    0.6569804 -23.39  0.004864566    2.240    0.554
        63 -11.0948    204.8286     66.5799   7.4105565939e+01   2.5445532621e+01    0.6824279     0.399397  59.37   0.00316554    1.668    0.401
        64  -9.1935    184.0581     67.6421   7.7819041291e+01   3.0331849290e+01    0.6194053    0.2942254 -21.71  0.002007352    3.878    0.742
        65  -8.1346    140.7683     66.7465   8.6386140376e+01   4.0960703085e+01    0.2329908    0.1087123 -47.02 0.0007835805    2.413    0.586
        66  -7.5904     47.4994     62.4956   1.1304353681e+02   5.8653423074e+01    0.1276249     0.104713 -23.97 0.0008103944    1.037    0.036
        67  -9.6486    248.9191     57.9094   6.6305244360e+01   1.6709875819e+01    0.5039747    0.3470448 -20.66  0.002602293    2.136    0.532
        68 -10.0455    197.5600     58.3260   7.3175586913e+01   2.8496576700e+01     0.464074    0.2736171 -21.99  0.001990259    2.383    0.580
        69  -8.6122    170.7672     56.7163   7.7273897215e+01   3.5318935973e+01    0.2294197    0.1026943 -45.55 0.0008875385    2.366    0.577
        70 -10.2420    248.1453     49.2196   6.4567428613e+01   1.8155532098e+01    0.3255083    0.2301773  28.44  0.001627359    2.672    0.626
        71  -8.7619    249.8717    248.6901   1.0499271419e+02  -1.4352535235e+01     0.206017    0.1382209 -13.83  0.001287181    1.409    0.290
        72  -9.4142    194.2974     33.7747   6.7500510748e+01   3.2732501917e+01    0.2867562     0.249803 -16.93  0.001707461    1.460    0.315
        73  -8.5274    178.2626     33.8988   6.9835721859e+01   3.6627494612e+01    0.2676556    0.2114916 -52.37  0.001516406    1.314    0.239
        74  -8.9139    161.4702     34.7103   7.2783583828e+01   4.0628338779e+01    0.2786203    0.2480885  72.06  0.001451927    1.020    0.020
        75  -8.3929    173.1572     34.1791   7.0702773292e+01   3.7841869350e+01    0.1985088    0.1537779 -74.04  0.001085809    1.362    0.266
        76  -8.8791    218.3059     35.3269   6.4854646802e+01   2.6803186478e+01    0.1245537    0.1012746  38.94 0.0007035978    1.650    0.394
        77  -9.6225    243.5658    246.7017   1.0576858584e+02  -1.3216904937e+01    0.4721804    0.1449789 -30.72  0.001873591    3.920    0.745
        78  -9.0971    195.0906     25.6066   6.5381721947e+01   3.3547734686e+01    0.2756769    0.2114223 -16.90  0.001558405    1.734    0.423
        79  -8.8483    234.9921    246.7321   1.0730820087e+02  -1.1980808938e+01    0.2854542     0.147507 -51.37  0.001300335    3.579    0.721
        80  -8.5628    246.5100     18.8298   5.8537832075e+01   2.2562890691e+01    0.2395805    0.1736096  44.22  0.001416949    2.065    0.516
