#   1 NUMBER                 Running object number                                     
#   2 MAG_AUTO               Kron-like elliptical aperture magnitude                    [mag]
#   3 X_IMAGE                Object position along x                                    [pixel]
#   4 Y_IMAGE                Object position along y                                    [pixel]
#   5 X_WORLD                Barycenter position along world x axis                     [deg]
#   6 Y_WORLD                Barycenter position along world y axis                     [deg]
#   7 A_WORLD                Profile RMS along major axis (world units)                 [deg]
#   8 B_WORLD                Profile RMS along minor axis (world units)                 [deg]
#   9 THETA_WORLD            Position angle (CCW/world-x)                               [deg]
#  10 FWHM_WORLD             FWHM assuming a gaussian core                              [deg]
#  11 ELONGATION             A_IMAGE/B_IMAGE                                           
#  12 ELLIPTICITY            1 - B_IMAGE/A_IMAGE                                       
         1 -14.4859    154.2933     57.1419   8.2331821281e+01   3.8964208452e+01     1.453568     1.165076  50.30  0.002590055    1.194    0.162
         2 -14.9056    166.1199     42.5230   7.5521480125e+01   3.8040028792e+01     1.272921     1.117482   7.52  0.004080073    1.329    0.247
         3 -14.9459    183.6356      9.3433   6.3195404819e+01   3.7342249236e+01     1.941898    0.9852738  65.74  0.006171346    1.707    0.414
         4 -11.5914    125.0528    244.0962   1.2850174202e+02   9.0307065904e+00    0.1774039    0.1528201 -70.25 0.0006901928    1.426    0.299
         5 -20.1246     68.3633    175.0437   1.3213649758e+02   3.1136009071e+01      16.9899     6.677183 -67.13   0.07220966    2.541    0.606
         6 -10.9834    150.8258    180.7940   1.1402962229e+02   1.5719904222e+01    0.1927305    0.1629185  73.15  0.000451886    1.321    0.243
         7 -12.4948    126.6703    172.7013   1.1804971758e+02   2.1990562541e+01    0.5383477    0.3676831  61.66   0.00197125    1.567    0.362
         8 -13.7460    143.8801    173.2880   1.1420572171e+02   1.8556579785e+01    0.8104553    0.7075464  21.23  0.004036749    1.258    0.205
         9 -13.3721    194.1124    167.4777   1.0226541302e+02   9.5129569182e+00    0.7505488    0.4445834 -52.08  0.001857103    2.125    0.529
        10  -9.9353    150.7625    243.6954   1.2360144106e+02   4.9294279908e+00    0.1083478   0.08644482  15.36 0.0002704812    1.486    0.327
        11 -13.8688    135.3302    169.6631   1.1549174225e+02   2.0966107846e+01     0.912194    0.4445806  45.26   0.00246473    1.889    0.471
        12 -11.1722    110.6861    211.3849   1.2742770075e+02   1.7066026420e+01    0.2423795    0.1701855  66.16  0.001372646    1.414    0.293
        13 -12.0400    177.0246    169.4991   1.0620092623e+02   1.2618964093e+01    0.2722818    0.2066513 -59.13  0.001029114    1.617    0.382
        14 -10.9518    163.5348    169.5266   1.0910681267e+02   1.5360973880e+01    0.2632327    0.1292255  52.88  0.001026624    2.203    0.546
        15 -10.6827    108.9787    240.8035   1.3118190805e+02   1.2095665037e+01    0.2189054    0.1556809 -36.59  0.001306134    2.244    0.554
        16 -11.7191    230.1949    166.5214   9.5241638020e+01   2.6522885683e+00    0.3223748    0.1762356 -50.78  0.001397394    2.599    0.615
        17 -11.8372    141.8562    165.1413   1.1312698842e+02   2.0613577747e+01    0.3046861    0.2460462 -75.23 0.0008254833    1.448    0.309
        18 -10.4662     24.6386    165.2926   1.4123046030e+02   3.8483740559e+01    0.1761619    0.1575142  65.71  0.000777622    1.211    0.175
        19 -10.8111     14.4817    163.7124   1.4340307702e+02   3.9769466959e+01    0.2703133    0.1914604  35.61  0.001804697    1.607    0.378
        20  -9.9649      3.1926    164.3153   1.4595586447e+02   4.0576164605e+01    0.1042291   0.06665948 -66.97  0.000209215    1.467    0.318
        21 -11.0972    188.6778    158.2397   1.0143511979e+02   1.2272843285e+01    0.6279019    0.3572642  20.15  0.002261807    2.905    0.656
        22 -10.8545    188.9957    154.3076   1.0052426463e+02   1.2921491264e+01    0.4347446    0.2481464  31.85  0.001825489    1.980    0.495
        23 -12.9157    106.7045    205.6393   1.2752497337e+02   1.8825739083e+01    0.4208021    0.3437647 -81.21  0.001270881    1.300    0.231
        24 -12.3216    152.2690    150.5304   1.0773516267e+02   2.1479595586e+01    0.4446883    0.2880798  82.82  0.001181496    2.895    0.655
        25 -11.3302    198.8859    178.1201   1.0345859190e+02   6.7533117761e+00    0.2788486    0.2324358 -61.22 0.0006957229    1.570    0.363
        26 -11.8934    174.2601    148.4185   1.0234262646e+02   1.7181587496e+01    0.3983218    0.3200786 -58.58  0.001472237    1.426    0.299
        27 -10.8942    103.9938    201.4652   1.2755881847e+02   2.0092463119e+01    0.2277299    0.1882356  67.02 0.0007748455    1.087    0.080
        28 -12.0630     21.7952    239.8790   1.4687288998e+02   2.3836824756e+01    0.2011119    0.1284724 -85.99 0.0008848536    1.430    0.301
        29 -10.2612    153.4827    201.8151   1.1705421068e+02   1.1310597160e+01     0.220321    0.1374172 -55.51  0.001100968    1.943    0.485
        30 -11.3517      6.0233    137.0777   1.4311206622e+02   4.6344235063e+01    0.2664844    0.1797367 -44.32  0.001163631    1.771    0.435
        31 -10.0381     13.7813    137.2074   1.4115577945e+02   4.5730758603e+01    0.1459528    0.1179219 -59.33 0.0002503528    1.283    0.220
        32 -10.4967    139.5052    200.0531   1.1972551246e+02   1.4191929492e+01    0.3648141    0.2091376  36.68  0.001448682    1.642    0.391
        33 -12.4372    160.4827    127.7762   1.0064099424e+02   2.4333582161e+01    0.4940769    0.3150506 -47.96   0.00176007    1.644    0.392
        34 -10.2646    121.8281    198.6534   1.2331382343e+02   1.7618023409e+01    0.1841297    0.1728282 -68.23 0.0003925663    1.211    0.174
        35 -10.8972    111.7598    196.8552   1.2524544394e+02   1.9712196566e+01      0.51678    0.3004867  20.18  0.002092673    3.153    0.683
        36 -11.5004    153.2782    193.7094   1.1575685894e+02   1.2815745629e+01    0.3090279    0.2438161  55.49 0.0007156803    1.240    0.193
        37 -10.8777    131.2350    237.3062   1.2653182026e+02   9.1233935303e+00    0.1527775    0.1453127  81.00 0.0004047832    1.245    0.197
        38 -13.3232    113.9932    110.2179   1.0799842727e+02   3.8192316430e+01     0.427016    0.3629304  58.39 0.0004035959    1.213    0.176
        39 -13.6312    117.4776    109.4883   1.0685384352e+02   3.7640289253e+01    0.5495847    0.3935584  56.28  0.001897317    1.488    0.328
        40 -10.2482    139.0795    250.0928   1.2656375169e+02   5.8673904867e+00    0.1782815    0.1577121   9.20 0.0006984683    1.437    0.304
        41 -10.8251    167.5703    112.5598   9.5236481009e+01   2.5721103904e+01    0.3544559    0.2409383 -82.13  0.001371456    2.428    0.588
        42 -10.9947      7.0694    110.9599   1.4007496428e+02   5.2150006936e+01    0.1854724    0.1419325 -67.52 0.0006607929    1.088    0.081
        43 -10.8147    205.3682    110.2318   8.7017908275e+01   1.7241602162e+01    0.3054158    0.2075208  47.39 0.0008463454    1.488    0.328
        44 -11.2368      7.0624    102.0661   1.3895149905e+02   5.4152125461e+01    0.2180626    0.1976267  16.54 0.0008634317    1.386    0.278
        45 -12.3422    210.6558    187.9792   1.0309797056e+02   2.9492864974e+00    0.2732292    0.1679071 -43.54  0.001378833    1.872    0.466
        46 -11.9249    153.3500    186.3138   1.1446416815e+02   1.4178590977e+01    0.2665403      0.22895  56.74 0.0005602226    1.144    0.126
        47 -10.7847     13.4038    234.0195   1.4799853939e+02   2.5763927528e+01    0.1399976   0.09159261  86.13 0.0006819329    1.263    0.209
        48 -13.2993    204.5835    176.4972   1.0202369138e+02   5.9205121180e+00    0.6186292    0.4596966 -59.94  0.003029152    1.897    0.473
        49 -10.2380     98.4046     80.8101   1.0439102593e+02   4.7542744998e+01    0.2436342    0.1923042  51.77 0.0009401764    1.352    0.260
        50 -12.9404    203.5229    166.9264   1.0028829010e+02   7.7222044526e+00    0.7353115    0.5689818 -35.37  0.003592198    1.343    0.255
        51 -10.7608    133.8002    246.1937   1.2709596724e+02   7.3038750046e+00    0.1368509    0.1197931  34.35 0.0002933401    1.225    0.183
        52 -13.0629    170.3417     34.6677   7.2420761437e+01   3.7967360640e+01    0.4257561    0.3938398  36.03 0.0009092237    1.173    0.148
        53 -11.1148     13.4489     59.8416   1.2916481269e+02   6.2970170994e+01     0.190778    0.1686944  82.66  0.000431058    1.399    0.285
        54  99.0000     19.6138    231.7587   1.4682613985e+02   2.5528979286e+01    0.2181246    0.1390222 -54.83  0.001449334    2.341    0.573
        55 -10.9630    138.1401     31.4561   7.7324686376e+01   4.6670328995e+01    0.3007334    0.2171907  78.72  0.001478766    1.547    0.353
