#   1 NUMBER                 Running object number                                     
#   2 MAG_AUTO               Kron-like elliptical aperture magnitude                    [mag]
#   3 X_IMAGE                Object position along x                                    [pixel]
#   4 Y_IMAGE                Object position along y                                    [pixel]
#   5 X_WORLD                Barycenter position along world x axis                     [deg]
#   6 Y_WORLD                Barycenter position along world y axis                     [deg]
#   7 A_WORLD                Profile RMS along major axis (world units)                 [deg]
#   8 B_WORLD                Profile RMS along minor axis (world units)                 [deg]
#   9 THETA_WORLD            Position angle (CCW/world-x)                               [deg]
#  10 FWHM_WORLD             FWHM assuming a gaussian core                              [deg]
#  11 ELONGATION             A_IMAGE/B_IMAGE                                           
#  12 ELLIPTICITY            1 - B_IMAGE/A_IMAGE                                       
         1 -11.5482     81.4086     39.4925   5.1790900167e+01   5.7195216551e+01    0.7131293    0.3366898 -43.93   0.00317813    2.062    0.515
         2 -13.1508     44.6396     23.1716   5.8538925903e+01   6.5140204532e+01     1.008676    0.6518952 -52.76  0.005827338    1.830    0.454
         3 -12.2228    178.5699     23.8797   2.2789173457e+01   3.7337124451e+01    0.5588397    0.5113377 -24.75  0.003087834    1.127    0.112
         4 -11.9428    173.2993     20.8572   2.2650518822e+01   3.9071385769e+01     0.526679    0.3474168  42.33  0.002113004    1.503    0.335
         5 -12.7757    156.0544     11.9305   2.2496976195e+01   4.4521263520e+01     0.843963    0.5772348  43.59  0.004174789    1.377    0.274
         6 -13.1793    166.3554     10.4332   2.0265837175e+01   4.1997640916e+01    0.9418317    0.5968633  55.55  0.004505069    1.439    0.305
         7 -13.7584    164.9539      3.3611   1.8071461131e+01   4.3031501354e+01      2.86515    0.8184081  71.28  0.008494542    4.072    0.754
         8 -11.0285     78.6250     13.5057   4.1935326008e+01   6.1599662395e+01    0.3873307     0.182722 -17.38  0.001675162    2.416    0.586
         9 -10.7779     39.5403      7.8867   5.3902650917e+01   6.8142269938e+01    0.3031474    0.1541471 -25.72  0.001647653    1.773    0.436
        10 -11.2233    131.1970      3.9038   2.4138823792e+01   5.1513351324e+01    0.7028089    0.2348622  48.72  0.002638301    2.530    0.605
        11 -10.3083     70.8330      5.6230   4.0858939314e+01   6.3930526799e+01    0.3127725    0.1418798  43.94  0.001511818    2.235    0.552
        12 -10.2228    222.7301      3.8294   1.1187031193e+01   2.7878879671e+01    0.3154727    0.1101003 -25.80  0.001194851    2.764    0.638
        13 -10.5975    208.4826      4.4835   1.2842040141e+01   3.1482059084e+01    0.2528301    0.2021724  27.38  0.001054344    1.416    0.294
        14 -11.4095    204.8023      4.4223   1.3231046951e+01   3.2447592408e+01    0.4019474    0.2056099  62.66  0.001786629    1.784    0.439
        15 -10.7928    121.4819      4.5479   2.6430955240e+01   5.3757471238e+01    0.4083847    0.3744001  49.82   0.00246914    1.154    0.134
        16 -11.6109     84.5370      3.6881   3.5561707187e+01   6.1690588080e+01    0.6537845    0.2969531  53.78  0.002989171    2.419    0.587
        17  -9.7564    217.7462      2.0038   1.1180426887e+01   2.9325517750e+01    0.1897544    0.1790253 -67.97 0.0008509924    1.038    0.037
        18 -11.0872    202.8126    197.1070   6.2237992641e+01   4.6609651902e+00    0.2307438    0.2185468  -9.56  0.001287311    1.231    0.188
        19 -11.4688    204.5537    192.4275   6.1117466142e+01   4.9737507900e+00    0.4103493    0.2053006  35.36  0.001980783    1.851    0.460
        20 -12.0193    194.3434    185.2801   6.1701657822e+01   7.8927430772e+00    0.5871229    0.3618193  42.72  0.003133749    1.401    0.286
        21 -10.2240     37.0466    185.4820   9.1532412058e+01   3.2690971317e+01     0.149319     0.094142  45.27 0.0009981594    1.595    0.373
        22 -10.3901     26.4784    180.4910   9.3038618072e+01   3.4713832360e+01    0.1075145   0.07809296  80.71 0.0005429012    1.016    0.016
        23 -10.4647    101.0428    175.9409   7.8335517825e+01   2.6183581830e+01     0.173471    0.1488522  73.82  0.001146729    1.007    0.007
        24 -11.0516    173.2862    162.8359   6.1550480363e+01   1.5558176556e+01    0.5464944    0.3189024  33.77  0.002533114    1.823    0.452
        25 -10.0244     14.5469    160.4930   9.3747576423e+01   3.9680121595e+01    0.1072902   0.07836778  87.18 0.0001221907    1.006    0.006
        26 -11.4792    219.9665    156.2927   5.1324645008e+01   7.1103703963e+00    0.4473335    0.3543904  58.81  0.002461181    1.506    0.336
        27 -10.4275     20.5233    155.9583   9.2231811789e+01   4.0056684091e+01    0.1615928    0.1276133  73.04  0.001249306    1.160    0.138
        28 -11.2215    163.2799    150.9226   6.1216948701e+01   1.9677009180e+01     0.495882    0.3301907 -35.83  0.002444293    1.677    0.404
        29  -9.9872    173.5012    144.5085   5.7765608642e+01   1.8715949796e+01    0.1434731    0.1348346  38.61 0.0001141367    1.008    0.008
        30 -10.1884     53.6390    143.4130   8.3998341985e+01   3.9270844689e+01    0.2258112    0.1617525 -82.07    0.0011462    1.199    0.166
        31 -12.8286      9.4495    140.7801   9.3186367932e+01   4.4048630037e+01    0.4339732    0.4162115 -62.58  0.003735667    1.463    0.316
        32 -10.1216    165.1441    134.8192   5.7387115931e+01   2.2254328140e+01    0.2974001    0.2044461 -55.71  0.001209111    1.687    0.407
        33 -13.5851    240.4779    124.9816   4.0697744487e+01   7.4334325715e+00     1.427147     1.077062  55.99  0.007538395    1.513    0.339
        34 -13.8069    244.7062    110.4305   3.6516433025e+01   8.6340963172e+00     1.631494     1.172047 -44.72   0.00801612    1.543    0.352
        35 -11.8271     11.8146    124.6451   9.1192591314e+01   4.7202988263e+01    0.2549045    0.1447067 -73.24  0.001655685    1.340    0.253
        36 -10.9627      4.5297    124.3401   9.2791144321e+01   4.7788447549e+01    0.2002294     0.122151  82.54  0.001020847    1.429    0.300
        37 -11.6958    189.4908    116.0033   4.7847194745e+01   2.0248760201e+01    0.8710286    0.4812167 -10.86  0.002869334    3.507    0.715
        38  -9.7768    208.4087    123.5956   4.6043715851e+01   1.4657032397e+01    0.3574356    0.1274665  45.79  0.001234596    2.693    0.629
        39 -11.1697    212.8148    112.7417   4.2547947629e+01   1.5417371293e+01    0.5366253    0.3267749 -40.52   0.00239117    1.693    0.409
        40 -10.1227    224.2544    111.2832   4.0137575249e+01   1.3037040666e+01    0.3800067    0.1514804 -39.77  0.001381986    2.545    0.607
        41 -11.5932    222.9391    107.0899   3.9312806166e+01   1.3988109543e+01    0.5777943    0.2630855  46.25  0.002152418    2.171    0.539
        42 -10.5948    148.6519    111.1894   5.5434339702e+01   3.0342881459e+01     0.369452     0.223138 -53.47  0.001226555    1.847    0.459
        43 -10.0023     94.5823    111.7814   6.8797169776e+01   4.0505917534e+01    0.2016238    0.1233677 -65.53 0.0009528465    1.740    0.425
        44 -10.8092     17.1835    104.3087   8.7571961667e+01   5.1117298886e+01    0.2490803    0.1872636  39.36  0.001787039    1.625    0.385
        45 -10.2853     30.7144    101.8282   8.3706044438e+01   5.0564221933e+01    0.2330865    0.1443897 -48.96  0.001415289    1.578    0.366
        46  -9.6174    113.0000    100.4968   6.1425396532e+01   3.9726041387e+01    0.3252702   0.07835961 -47.49 0.0009375152    3.957    0.747
        47 -10.9544     18.0177    127.6790   9.0108500826e+01   4.6085230796e+01    0.1538035    0.1246828  88.75  0.000753116    1.098    0.089
        48 -10.5122     12.6999     89.9516   8.6781897022e+01   5.4505081086e+01    0.1685522    0.1176154 -71.26 0.0009487646    1.089    0.082
        49 -12.7307      4.9284     76.2947   8.6948085610e+01   5.7878782651e+01    0.6716269    0.4102626  86.42  0.003956817    1.781    0.439
        50 -10.8313      2.3002     88.7942   8.9456861434e+01   5.5390744031e+01    0.3247684    0.1794683 -82.21  0.002034494    1.538    0.350
        51 -10.9502      2.4949     83.9226   8.8755009921e+01   5.6407336862e+01    0.2836303    0.1472045 -72.20  0.001095142    1.440    0.306
        52 -12.5780     16.8879     74.6016   8.3083632955e+01   5.7493600492e+01    0.5105324    0.3630628 -23.66  0.003445376    1.764    0.433
        53 -12.4910     11.9965     71.2217   8.3974831141e+01   5.8528112264e+01    0.4223155    0.3077864 -19.72  0.002893511    1.748    0.428
        54 -10.1967    178.7446     92.5245   4.3845563996e+01   2.6926844697e+01    0.3135795    0.2592124 -52.80  0.001540031    1.324    0.245
        55 -10.6227    192.1531     87.0258   3.9626195004e+01   2.4600839773e+01     0.629816    0.2291618  54.41  0.002078673    2.773    0.639
        56 -12.8811     42.8782     80.7858   7.6436969333e+01   5.4002008742e+01    0.8908863    0.6496179 -25.65  0.004928811    1.669    0.401
        57  -9.7425    145.7711     80.8183   4.7799859357e+01   3.6845485551e+01    0.2620263    0.1658074   9.87 0.0009491626    2.791    0.642
        58 -10.1297    214.9401     79.6131   3.3438832129e+01   2.0166124301e+01    0.3273091    0.1858504 -47.01  0.001336322    1.953    0.488
        59 -10.0818    220.9447     77.9017   3.1974391593e+01   1.8954533353e+01     0.360058    0.2263457 -73.30  0.001369901    2.745    0.636
        60 -10.4035    169.6719     76.4407   4.1120978017e+01   3.1948551152e+01    0.3074835    0.2963537  -9.62   0.00129838    1.019    0.019
        61  -9.8570    207.6116     73.1906   3.2903139879e+01   2.2973602559e+01    0.2194894    0.1453999 -16.53 0.0009498455    1.670    0.401
        62 -10.6965     75.2659     69.2080   6.3606648070e+01   5.2520792590e+01    0.3829966    0.2889957  -8.49  0.002100534    1.657    0.397
        63 -11.8767    214.9046     67.2693   3.0019541645e+01   2.2035792231e+01    0.4795182    0.2684064 -28.68  0.002014787    1.750    0.429
        64 -10.0630     83.6828     69.0068   6.0986601488e+01   5.1291726030e+01    0.2068512    0.1642427 -43.35  0.001169532    1.124    0.110
        65 -10.8628     25.4705     64.3292   7.8308768937e+01   5.9035030392e+01    0.2427342    0.1997701 -67.25  0.001724566    1.147    0.128
        66  -9.8142    178.9958     66.4900   3.6216478207e+01   3.1275360969e+01    0.2404362    0.1528167  56.02  0.001030402    1.584    0.369
        67 -11.7848    232.9260     64.2832   2.6446909606e+01   1.8010320611e+01    0.3684469    0.3050267  39.57  0.001947942    1.263    0.208
        68 -10.5264    218.8371     62.0695   2.7941771158e+01   2.1805280231e+01    0.2810822    0.2079532 -20.51  0.001355404    1.371    0.271
        69  -9.3444    132.4644     63.5097   4.5670466348e+01   4.3004336364e+01    0.1500437    0.1421826  -9.28 0.0002556957    1.004    0.004
        70 -11.7732    215.0374     50.8603   2.5352640978e+01   2.4339101452e+01    0.4883222    0.3238048  30.11  0.001888083    1.808    0.447
        71 -10.1039    200.1954     63.8078   3.1491986673e+01   2.6280951063e+01    0.2179734    0.1794175  15.68  0.001065915    1.334    0.250
        72  -9.7713     76.3876     59.1930   6.0232586468e+01   5.4362125978e+01    0.1953023    0.1163516 -53.10 0.0009519837    1.687    0.407
        73  -9.3968    248.3257     58.3509   2.2790551254e+01   1.5144182888e+01    0.1492901    0.1058168  19.79 0.0007048339    1.758    0.431
        74 -11.8837    217.1064     57.1724   2.6831880241e+01   2.2936794384e+01    0.3800644    0.2866989  14.74  0.001814056    1.571    0.363
        75 -11.3030    198.0664     53.2196   2.8728514905e+01   2.8384888423e+01    0.6728725    0.4018174  -1.91  0.002583515    2.426    0.588
        76  -9.6424    138.1675     55.8423   4.1727903337e+01   4.3025758559e+01     0.219374    0.1765931  14.51  0.001082832    1.353    0.261
        77 -10.2430    220.9545     53.6896   2.5278025489e+01   2.2448302651e+01    0.2126156     0.193564  73.22  0.001052484    1.148    0.129
        78 -10.3558    164.5692     53.6881   3.5113653569e+01   3.6947690526e+01     0.289089    0.2258668   3.02  0.001371365    1.447    0.309
        79  -9.8456     35.0061     52.6799   7.2176042763e+01   6.0630132951e+01    0.1654966    0.1404351 -36.88  0.001140643    1.116    0.104
        80 -10.9348     85.4402     47.9753   5.3604311457e+01   5.5037269971e+01    0.4216041    0.3065762  38.37  0.002316882    1.500    0.333
        81 -11.2092    159.3137    231.8691   7.4925270238e+01   7.5442997625e+00    0.2103938    0.1288968  51.79 0.0008314444    1.350    0.259
        82 -11.3162    197.4130     42.9744   2.5756462778e+01   2.9974946143e+01    0.4296739    0.2117237 -12.42  0.001508953    2.814    0.645
        83 -10.2012    242.3884     43.2207   1.9579844850e+01   1.8522639624e+01    0.2092815    0.1187988 -37.51 0.0008655263    1.626    0.385
        84 -11.5554      3.2014     41.1235   8.0766645248e+01   6.5196560593e+01    0.3467542    0.2943701 -81.23   0.00239218    1.370    0.270
        85 -11.9704    190.8688     38.2541   2.5364580708e+01   3.2317426130e+01    0.6448629    0.2430322 -38.98  0.002254777    2.625    0.619
        86 -11.8765    182.7784     40.3996   2.7391891568e+01   3.4159391721e+01    0.5972732    0.4272607  77.34  0.002760387    1.597    0.374
        87 -11.4271    209.6669     59.9852   2.8799787544e+01   2.4425749013e+01    0.4825935    0.2595271 -34.72  0.001997528    1.785    0.440
        88 -11.8485     40.0638     29.3342   6.2752022695e+01   6.4587244626e+01    0.5300713    0.2364938 -43.60  0.002381723    1.788    0.441
        89 -10.8333      3.8637    230.4945   9.9345009975e+01   2.8186342789e+01    0.2019425   0.08392641  55.68  0.001471593    1.709    0.415
        90 -10.8721      5.9296     35.1067   7.8198319913e+01   6.6231919288e+01     0.219443    0.1459185  33.98  0.001288119    2.035    0.509
        91  -9.4426    166.3098     32.3619   2.7715667620e+01   3.9515612567e+01    0.1632582    0.1087672  25.00 0.0007040473    1.745    0.427
        92  -9.5440    100.5058     83.5217   6.0286042882e+01   4.5523763231e+01    0.1414006    0.1308347 -41.60 0.0002870653    1.006    0.006
        93 -10.2874    145.5108     27.8137   3.0223874313e+01   4.5381513563e+01    0.4617081    0.2444967 -69.25  0.001230963    5.989    0.833
        94  -9.8993     90.1416     27.9044   4.4466368584e+01   5.7518068438e+01    0.2038987    0.1847124 -37.80  0.001240472    1.278    0.218
        95 -11.7088    240.0330    228.7436   6.1151642368e+01  -5.3407518419e+00    0.2910586    0.2500665  58.18  0.002103423    1.746    0.427
        96  -9.7221    111.4060    228.7916   8.2602236185e+01   1.5508202742e+01    0.1324395    0.1029599 -54.31 0.0009550865    1.693    0.409
        97 -11.3198     77.4312     21.2935   4.5761212505e+01   6.0735340612e+01    0.4076117    0.1809512 -25.72  0.001764107    2.285    0.562
        98 -10.4108    157.0014     25.9893   2.7278591012e+01   4.2709803564e+01    0.2384473    0.1797997 -64.95  0.001138024    1.673    0.402
        99  -9.6166    224.3330     22.6895   1.6179826201e+01   2.5485804682e+01    0.1521005    0.1000552 -61.36 0.0007043202    1.675    0.403
       100 -10.4806    187.2921     19.5248   2.0059639152e+01   3.5521388674e+01    0.3160009    0.2436659  58.55  0.001397928    1.231    0.188
       101 -10.4280    128.4840     18.1739   3.0309546042e+01   5.0674769919e+01    0.2865373     0.237878  51.38   0.00121304    1.201    0.167
       102 -11.7097    248.6332    224.6273   5.9128441231e+01  -6.2915098144e+00    0.4125568    0.2926308 -10.33  0.002850648    1.459    0.315
       103 -10.3261     31.9717    227.4646   9.5132181083e+01   2.5892084430e+01    0.1396793   0.07628929  48.18 0.0007530001    1.578    0.366
       104 -13.0109    203.9339    220.9398   6.5878553539e+01   1.4429591534e+00    0.8845974     0.477472  37.72   0.00504396    1.493    0.330
       105 -10.2365    226.7162     15.3601   1.3907743639e+01   2.5688953401e+01     0.435456    0.1641333  69.18  0.001653493    2.596    0.615
       106 -10.2300     79.5201    224.5110   8.7468299301e+01   2.0682913242e+01    0.1085355   0.08088292  66.39 0.0008102462    1.002    0.002
       107 -11.2308    198.0886     34.3067   2.3026561003e+01   3.0922177533e+01    0.3066973    0.2198065 -35.35  0.001479235    1.392    0.282
       108 -10.0823    116.4317     17.2444   3.2785877253e+01   5.3553252690e+01    0.1978394    0.1233661 -34.28 0.0009529756    1.658    0.397
       109 -13.7555    184.1046    215.1317   6.8408040529e+01   5.5883806565e+00    0.9177321    0.5793595 -24.35   0.00525269    2.205    0.546
       110  -9.6153     94.5906     17.3730   3.8713807762e+01   5.8129861404e+01    0.2341533    0.1302999  66.97 0.0009433362    3.229    0.690
       111  -9.7886    248.3211     16.6691   1.2089084896e+01   2.0224380627e+01    0.1472811   0.08951738 -57.94   0.00070491    1.695    0.410
       112 -11.3980     50.8373    218.2652   9.1631955937e+01   2.5305631748e+01    0.2655188    0.1803011  53.50  0.002029004    1.291    0.225
       113 -11.5770    158.3850    225.4073   7.4269739846e+01   8.5728441139e+00    0.2297588    0.1808801  57.25  0.001240627    1.169    0.144
       114 -10.4731     67.0118    217.0118   8.8904607165e+01   2.3546135912e+01    0.1859347   0.09802468  68.51  0.001152353    1.738    0.424
       115  -9.2172      9.6759    211.3355   9.7656662004e+01   3.0786677493e+01    0.1058109   0.04796585  68.15 0.0006530347    1.714    0.417
       116 -10.3597    141.3441    206.5702   7.4801360208e+01   1.4215067189e+01    0.2155318    0.1563399 -51.47  0.001360595    1.650    0.394
       117  -9.7415    123.9681    205.9905   7.7873107443e+01   1.7178179112e+01    0.1648073    0.1359487  60.47  0.001128551    1.013    0.013
       118 -11.7246    243.8499    201.8835   5.6047977737e+01  -3.1642224951e+00    0.4746242    0.4179249 -28.76  0.003322706    1.492    0.330
