#   1 NUMBER                 Running object number                                     
#   2 MAG_AUTO               Kron-like elliptical aperture magnitude                    [mag]
#   3 X_IMAGE                Object position along x                                    [pixel]
#   4 Y_IMAGE                Object position along y                                    [pixel]
#   5 X_WORLD                Barycenter position along world x axis                     [deg]
#   6 Y_WORLD                Barycenter position along world y axis                     [deg]
#   7 A_WORLD                Profile RMS along major axis (world units)                 [deg]
#   8 B_WORLD                Profile RMS along minor axis (world units)                 [deg]
#   9 THETA_WORLD            Position angle (CCW/world-x)                               [deg]
#  10 FWHM_WORLD             FWHM assuming a gaussian core                              [deg]
#  11 ELONGATION             A_IMAGE/B_IMAGE                                           
#  12 ELLIPTICITY            1 - B_IMAGE/A_IMAGE                                       
         1 -14.1356     10.0374     69.7845   7.4627644356e+01   6.3198830205e+01     1.978092     1.264888 -56.98   0.01077688    1.310    0.237
         2 -12.4578     48.0352     32.2350   4.1686450171e+01   6.7414532389e+01     1.335388    0.8772013  58.77  0.005962259    2.222    0.550
         3 -11.6196     34.7420     20.6778   4.2927171023e+01   7.1493556763e+01     2.815246    0.8618416  32.84   0.01007424    3.789    0.736
         4 -13.5820     14.1285     34.8376   6.2763523660e+01   7.1133830336e+01     1.117067    0.9680699  30.64  0.002019494    1.344    0.256
         5 -13.8599     53.7878     60.5667   5.0772398170e+01   6.0763539705e+01     1.997267     1.318614 -70.50  0.009101124    1.983    0.496
         6 -13.2173     64.4726     34.3102   3.5089740453e+01   6.4080838231e+01     1.038837    0.8795301 -81.87  0.001403182    1.602    0.376
         7 -13.4214     77.5188     23.7457   2.5016810538e+01   6.2949381498e+01     1.708762     1.038158  61.05  0.006498809    1.735    0.424
         8 -12.2663     53.3850     21.3066   3.3424967712e+01   6.8256884428e+01    0.9788409    0.6711689  84.06  0.003467011    3.323    0.699
         9 -13.9542      3.6569     54.2547   7.4789253070e+01   6.7356748339e+01     2.547473    0.8580083 -65.35   0.01083423    2.307    0.567
        10 -12.5813     25.8656     40.5447   5.7684737751e+01   6.8811837900e+01     1.573921    0.6365691 -39.63   0.00653631    2.479    0.597
        11 -13.6747    116.7574     62.1351   2.8842885676e+01   4.7512879000e+01     2.446205     1.054283 -35.32  0.001853591    2.516    0.603
        12 -13.4713    198.2766     64.3992   1.3855621796e+01   2.7275562101e+01     1.751478     1.184059  26.86  0.006141935    2.499    0.600
        13 -13.5828    191.4017     42.2055   8.8374161669e+00   3.2199417755e+01      2.05685     1.526487   3.92  0.007027827    2.143    0.533
        14 -13.9168    217.6391     57.7213   9.8128010071e+00   2.4026527916e+01     1.722687     1.167257 -68.58  0.005885004    1.478    0.323
        15 -13.6975     97.6008     72.2450   3.8013289173e+01   4.9901489247e+01     2.420584     1.088057 -59.24  0.001269107    3.536    0.717
        16 -14.2776     38.8890     69.2629   6.0505350731e+01   6.0764621104e+01     2.515732    0.9889738  40.00  0.009687377    2.796    0.642
        17 -13.5833    234.4265     49.3575   6.1658600562e+00   2.1735465596e+01    0.9572598     0.645903 -85.56  0.002606896    1.589    0.371
        18 -12.2830    172.9097     44.5959   1.1916389946e+01   3.6346291545e+01     1.208592     0.660135  30.49  0.004145836    4.039    0.752
        19 -13.1589     74.3615      7.3015   1.7690180030e+01   6.5599621701e+01     1.473407    0.8602738  59.27  0.006173195    1.582    0.368
        20 -12.1296    226.1497     22.5791   6.7210887481e-01   2.6926348309e+01    0.9530951     0.432366  66.21  0.002678087    2.358    0.576
        21 -12.2971    210.0619     22.1884   1.7987539606e+00   3.0485127033e+01     0.632774    0.3501101 -60.01  0.002285034    1.591    0.372
        22 -11.6890    212.5306     19.5043   9.4461906860e-01   3.0253167160e+01    0.3455696    0.2081528 -39.02  0.001562891    1.461    0.315
        23 -10.2546    102.5121     23.4611   1.7608317404e+01   5.7097184689e+01    0.2246409    0.1835414 -41.70 0.0004689689    1.289    0.224
        24 -10.9578    112.2464     24.1614   1.5626852092e+01   5.4581650605e+01    0.4347871    0.3454469   8.02  0.000948931    1.553    0.356
        25 -12.3189    176.3590     23.5390   5.3461449817e+00   3.8296675324e+01    0.3086062    0.2863007   4.09 0.0001156899    1.399    0.285
        26 -11.2577     20.2856     22.8385   5.3343379558e+01   7.2974041741e+01    0.6439457    0.3243001 -56.36  0.003126331    2.219    0.549
        27 -12.4599    244.0185     22.2025   3.5940035636e+02   2.3320076941e+01    0.5183215    0.3426583  81.53  0.001534164    1.601    0.375
        28 -13.1665    179.4636     73.8384   1.9201995959e+01   3.0068850049e+01     2.136351      1.03938 -53.65  0.008339183    2.207    0.547
        29 -11.3274    203.8135     17.0157   1.0033599987e+00   3.2514017884e+01    0.4665235    0.2437411 -82.77   0.00145039    1.947    0.486
        30 -12.7007    221.4968      8.6615   3.5774965126e+02   2.9523860870e+01    0.7421151    0.2447408 -52.63  0.001224971    2.419    0.587
        31 -11.6004    232.6100      3.5444   3.5597673591e+02   2.7736653151e+01    0.7240539    0.1681843 -42.45  0.003127582    2.654    0.623
        32 -14.1355    244.9038      8.0454   3.5632759862e+02   2.4773667463e+01     1.002855      0.39471 -70.23  0.002893127    2.545    0.607
        33 -11.7468    233.5268     11.3241   3.5764626410e+02   2.6696257065e+01    0.3696078    0.1821906  73.29  0.001471409    2.112    0.526
        34 -11.8373    228.1878     10.0973   3.5768078505e+02   2.7943041006e+01    0.4116087    0.1711933 -46.93 0.0007116214    1.803    0.446
        35 -11.4834    141.0464     14.3642   6.8440829238e+00   4.8307072579e+01    0.3221307    0.2312182  10.19 0.0004010103    1.955    0.488
        36 -10.7161    125.2386      9.6731   7.5010152518e+00   5.2857704086e+01    0.6717984    0.4022141 -11.31  0.002461125    2.132    0.531
        37 -10.3200    130.4630      8.4189   6.2418226089e+00   5.1635080787e+01     0.378555    0.1931377  56.69  0.001739928    1.822    0.451
        38 -10.4132    160.2138     14.5535   4.4711503251e+00   4.3377083679e+01    0.2575704    0.1716305 -36.66 0.0005774432    1.492    0.330
        39 -12.3224    108.3570      9.1996   1.0266436907e+01   5.7206938115e+01    0.4273324    0.3047896 -21.16 0.0006378736    1.566    0.361
        40 -11.9799    112.3598      4.2298   7.4713695103e+00   5.6650008706e+01    0.4428361    0.2748502 -82.71 0.0005055466    1.811    0.448
        41 -11.4479    114.8415     12.8387   1.0528002832e+01   5.5202535651e+01    0.3884896    0.2436254 -46.11 0.0003845329    1.688    0.407
        42 -11.1461    116.4729      9.5446   8.9102818149e+00   5.5115027879e+01    0.2848063    0.2506769 -16.64 0.0008232477    1.288    0.224
        43 -10.2662     94.0886     14.8721   1.5922596091e+01   6.0163470384e+01    0.3756416    0.2440165  -8.52   0.00172075    1.896    0.473
        44  -9.7619    187.1815     14.4113   1.7112675961e+00   3.6716749940e+01     0.251663    0.1013696 -25.52  0.001027952    2.760    0.638
        45 -11.2106    149.2381     12.9751   5.2851648875e+00   4.6346293191e+01    0.4466435    0.2255266  87.04  0.001931344    2.084    0.520
        46  -9.8602    133.6601     12.4601   7.2398427253e+00   5.0410688909e+01    0.2594641    0.1768329 -80.77  0.001317614    1.503    0.335
        47 -10.4208     88.7367     11.8553   1.5892837622e+01   6.1776626878e+01    0.2151106    0.1682571  -5.59  0.001062418    1.441    0.306
        48 -10.6329     26.1929      9.5672   4.1637350021e+01   7.4500879487e+01    0.2704847    0.1984987  10.20  0.001043838    1.312    0.238
        49 -11.5486    193.8034      7.7707   3.5939580800e+02   3.5863154473e+01    0.2624033    0.2308122  71.43 0.0008705968    1.304    0.233
        50 -12.9928    173.2389      5.3997   4.1237791124e-01   4.1065986794e+01    0.4886106    0.3248088  -9.91   0.00255553    2.048    0.512
        51 -10.4600    101.5434      7.8061   1.1036476364e+01   5.9046611929e+01    0.3695239     0.215595 -48.80 0.0007766236    1.944    0.486
        52 -10.2883     90.6119      5.1313   1.2226997567e+01   6.1979624027e+01    0.4721676     0.168977 -44.27  0.001735805    3.484    0.713
        53  -9.4732     93.5252      3.2724   1.0692145771e+01   6.1433745576e+01    0.2128596    0.1274422   2.83  0.001010864    2.187    0.543
        54 -10.8592     47.3987      8.0910   2.8564242405e+01   7.1168046791e+01    0.3750463    0.2779634   9.38  0.001264012    1.383    0.277
        55 -10.3624     46.9080      1.9128   2.4841237313e+01   7.1965185236e+01    0.3423045    0.1618081  37.82   0.00163647    2.037    0.509
        56  -9.6293    215.8781      8.0989   3.5796298391e+02   3.0806199885e+01    0.1925418    0.1245077 -60.16 0.0004369368    1.239    0.193
        57 -11.7838     57.7650      4.4381   2.1826852316e+01   6.9513396191e+01    0.4463319    0.4006972 -64.45  0.001932176    1.419    0.295
        58 -11.1843      3.5366      5.7211   5.6938089555e+01   7.7690201794e+01    0.4121067    0.2108239  -9.49  0.002097145    2.384    0.581
        59  -9.2200    210.7603      5.9848   3.5777761229e+02   3.2165792796e+01    0.1629394     0.118807 -19.00 0.0008141354    1.735    0.424
        60 -11.2287    217.5397      1.7608   3.5637183767e+02   3.1115992437e+01    0.2933487    0.1832579  82.51  0.001137114    1.540    0.351
        61 -10.0584    213.1136      2.0846   3.5669878127e+02   3.2052329974e+01    0.1948713    0.1749352  72.89  0.001020202    1.375    0.273
        62  -8.6824    183.8918      3.4133   3.5898233520e+02   3.8668138972e+01    0.3037311    0.2190655  74.82  0.001743105    1.345    0.257
        63 -11.9117     85.3725      1.5912   1.1751291898e+01   6.3549602528e+01    0.3961321    0.1605791  57.95  0.001159947    2.043    0.510
        64 -10.3762    182.2460    115.6702   2.9558535333e+01   2.1660831022e+01    0.4347888    0.2942114 -80.28  0.001821103    2.368    0.578
        65 -12.8057     87.9591     98.1440   4.9199139213e+01   4.5863307091e+01    0.7590913    0.3814514  33.49  0.002817514    2.291    0.564
        66 -12.2892     84.6691     97.6862   5.0192620267e+01   4.6597261986e+01    0.7526689    0.5105197   5.46  0.002933241    2.493    0.599
        67 -12.5160     73.6465     97.7772   5.4101359896e+01   4.8541975141e+01    0.6268395     0.419005 -71.62  0.002738949    1.666    0.400
        68 -12.9774    146.3374    103.7516   3.4122888359e+01   3.2007348568e+01    0.8016486    0.5978259  76.40  0.003607223    1.643    0.391
        69 -10.1984    244.4360     98.4698   1.6052741638e+01   1.2554097144e+01    0.3253813    0.1360705 -30.54  0.001389068    2.357    0.576
        70 -10.8324    199.2636     96.4523   2.1846630357e+01   2.1642064340e+01    0.4334824      0.28016 -44.34  0.001661595    1.368    0.269
        71 -10.7152    170.5230     98.1681   2.7400464295e+01   2.7643237818e+01    0.3870019    0.2540355 -50.43  0.001753011    1.465    0.318
        72 -11.4789     57.2142     99.4342   6.0625346420e+01   5.0689024507e+01      0.28547    0.1547498  25.26  0.001158535    2.164    0.538
        73 -10.4901     46.6502     99.0420   6.4622714050e+01   5.2206634660e+01    0.2139721    0.1816238 -65.65 0.0004515215    1.075    0.069
        74 -12.0704     11.4076     97.3544   7.8433180238e+01   5.5975262948e+01     0.385761    0.3361027  56.29  0.001792911    1.235    0.190
        75 -11.7153     49.7292     94.9869   6.2498786278e+01   5.2881954474e+01    0.2890642    0.2391679  68.24 0.0007711593    1.314    0.239
        76 -12.3014     45.2973     91.5877   6.3494250348e+01   5.4336930808e+01    0.4207864    0.3689639  80.28  0.002315529    1.198    0.166
        77 -10.0764    250.0112     93.8589   1.4417006388e+01   1.2291550859e+01    0.2175852    0.1639984 -68.74  0.001335271    1.515    0.340
        78 -12.0570    235.4764     85.6882   1.4304436732e+01   1.6166274428e+01    0.8514091    0.4902051 -65.15  0.003182308    2.214    0.548
        79 -11.8979    238.0362     80.9240   1.2941849226e+01   1.6418613712e+01    0.2551622    0.2438263 -26.57 0.0003464806    1.247    0.198
        80 -13.9535    219.0689     72.3945   1.3188362945e+01   2.1492577219e+01       1.5698     1.102597  34.35   0.00810321    2.094    0.522
        81 -11.8697    175.8590     85.6407   2.3042145229e+01   2.8799782822e+01    0.8527176    0.5838888  11.49  0.003413096    2.723    0.633
        82 -12.8998    187.2226     59.4348   1.4064879239e+01   3.0621431704e+01     1.354171    0.7230393  55.37  0.004078074    2.020    0.505
        83 -13.6491    194.4288     85.5166   1.9871070443e+01   2.4615677658e+01     1.039299    0.9976996  80.07  0.005293056    1.146    0.127
        84 -13.6690    204.5518     79.2033   1.6762496222e+01   2.3476350895e+01     1.127091     0.470888  58.39   0.00375748    2.634    0.620
        85 -12.7956    204.5376     70.1032   1.4477194594e+01   2.4965702983e+01    0.6812356    0.5148253 -55.99  0.002535509    1.184    0.155
        86 -10.3446     72.9949    119.0150   5.9368752218e+01   4.3110219689e+01    0.2273209    0.2103455 -88.21  0.001199989    1.026    0.026
        87 -10.1718     50.0061    117.0027   6.6935898886e+01   4.6965286027e+01    0.2217247    0.2001285 -81.32            0    1.006    0.006
        88 -10.1453    203.1273    115.8421   2.5860984295e+01   1.7368616945e+01    0.4360397     0.239278  75.11  0.001488683    4.217    0.763
        89 -11.7569    208.6460     58.0576   1.0923319352e+01   2.5931087239e+01    0.3779187     0.250257 -74.57  0.001934492    1.628    0.386
        90 -12.8288    220.1987     39.2981   5.1015340589e+00   2.6071768613e+01    0.9305634    0.5903978  86.11   0.00511753    1.654    0.396
        91 -11.5168    234.0965     37.1154   3.4064753611e+00   2.3446594612e+01    0.9624821    0.4518135 -81.25  0.004348422    2.740    0.635
        92 -12.2794    197.0099     48.5861   9.8729107031e+00   2.9971391811e+01    0.8557991    0.4738027  46.72   0.00196534    2.384    0.581
        93 -12.6335    208.9991     46.5869   7.9995300079e+00   2.7526727222e+01     1.028198    0.4877728 -62.06  0.004362819    2.359    0.576
        94 -13.7184    242.6279     61.6697   8.1748750658e+00   1.8394514537e+01    0.8930208    0.8083953  -7.98 0.0007423306    1.458    0.314
        95 -11.5806     54.7688     93.6937   6.0195233081e+01   5.2534779437e+01       0.3134    0.2041445 -73.11  0.001405418    1.624    0.384
        96  -9.6960     89.4462     93.4953   4.7391243905e+01   4.6717481157e+01    0.1566223    0.1499794 -62.43 4.812545e-05    1.018    0.017
        97 -10.2862    226.0203     92.0495   1.6923644640e+01   1.6961381340e+01    0.2123668    0.1425886 -61.15 0.0006284174    1.599    0.375
        98 -12.1650    216.0934     90.8150   1.7971403907e+01   1.9126480542e+01    0.4128119    0.1860935 -35.98  0.001650487    1.961    0.490
        99 -10.3965    168.0416     90.0841   2.5718965125e+01   2.9778367721e+01    0.3120518    0.2217824  65.47 0.0008802062    1.539    0.350
       100 -10.8778    222.4155     88.3945   1.6549426398e+01   1.8259633930e+01    0.2809355    0.2060505  35.71  0.001517246    1.828    0.453
       101 -10.6461    225.6921     85.6944   1.5500353098e+01   1.8048155560e+01    0.2066566    0.1913531  32.54 0.0005631256    1.354    0.261
       102 -10.4303    206.3645     91.2371   1.9471064368e+01   2.1056755159e+01    0.2600897    0.1571064 -46.55 0.0005667372    1.462    0.316
       103 -11.0290     93.5307    116.0186   5.1984106341e+01   4.0308255951e+01    0.2348534    0.2144924  49.33  0.000392648    1.119    0.106
       104 -11.3925     51.8424     86.8988   5.9657684377e+01   5.4692682412e+01    0.3766541    0.2339269 -39.54 0.0003112458    1.733    0.423
       105 -11.7055     48.2316     85.3858   6.0763864745e+01   5.5565135811e+01    0.3030506    0.2314211  33.72 0.0009949498    1.404    0.288
       106 -11.7288    166.9827     64.6736   1.8735027067e+01   3.4642177975e+01    0.8889411    0.5802964  43.05  0.004021213    1.857    0.462
       107 -11.6253    161.6875     84.3291   2.5380906265e+01   3.2372839572e+01    0.6810708    0.4362785  47.68  0.003026489    1.693    0.409
       108 -11.5800    147.8516     84.8065   2.8448056744e+01   3.5580240224e+01    0.4758205    0.4382513  79.51  0.001343559    1.091    0.084
       109 -12.1990    147.2883     79.2670   2.6938428003e+01   3.6804316268e+01    0.3691554    0.3532176  51.23 0.0002673036    1.132    0.117
       110  -9.7714    207.2439     85.5620   1.7953792882e+01   2.1836200925e+01    0.1754538    0.1343099  46.52 0.0007088289    1.556    0.357
       111 -11.1677    246.8114     82.4791   1.2320066394e+01   1.4568648769e+01     0.415341    0.2774436 -56.66  0.002421248    1.416    0.294
       112  -9.9130     83.3462     83.5910   4.6559286626e+01   5.0277028601e+01    0.2830359    0.1467659  45.77 0.0008582175    2.008    0.502
       113 -11.0133    211.5195    112.0351   2.3617500085e+01   1.6403506362e+01     0.244827    0.2003656  53.26 -9.895336e-05    1.406    0.289
       114 -11.5511    220.6299     79.5626   1.4702984211e+01   2.0039860252e+01    0.2708268    0.2175649 -17.59 0.0007498116    1.479    0.324
       115  -9.7635     78.7748     66.9776   4.2742105497e+01   5.4944013552e+01    0.2390657     0.183518 -27.03  0.000467084    1.463    0.316
       116 -12.4995     73.3161     73.9029   4.7186194355e+01   5.4424420632e+01    0.7624494    0.6745797  46.33  0.003190169    1.175    0.149
       117 -11.8674     82.2902     76.2863   4.4616459184e+01   5.2180413630e+01    0.7788437    0.3791818 -44.85  0.001487343    2.025    0.506
       118 -10.9842     86.7963     74.0590   4.2271107345e+01   5.1784489107e+01    0.6021681    0.2523755 -45.87  0.002097272    2.336    0.572
       119 -10.1318    156.2329     76.9290   2.4353848780e+01   3.5081005796e+01    0.3320332    0.2117009  68.01  0.001124272    1.745    0.427
       120 -11.0465    250.1748     73.4372   1.0017405244e+01   1.5295854569e+01    0.4128536    0.2621755 -38.57  0.001704195    1.260    0.206
       121 -10.8106    248.3135     70.0219   9.4607967577e+00   1.6129536994e+01    0.3343995    0.2117396  -7.95  0.001567391    2.929    0.659
       122 -13.2039     78.8196     49.7934   3.6191845221e+01   5.8430585972e+01      1.15808    0.6502823  32.80  0.001494535    2.130    0.531
       123 -12.4772     87.3875     64.2190   3.8634676645e+01   5.3780985579e+01    0.7230471    0.6456618  74.02 0.0009488803    1.225    0.183
       124 -10.2361    137.0053     62.0990   2.3863369407e+01   4.2538535851e+01    0.3203413    0.2621541 -41.50 0.0008846661    1.219    0.180
       125  -9.7481    137.2384     57.9994   2.2465160704e+01   4.3199209600e+01    0.2463611    0.2277268  82.88 0.0009122264    1.047    0.045
       126 -11.0359    127.7644     58.4124   2.4767929353e+01   4.5494419650e+01    0.5628335    0.3254308  37.52  0.002225059    2.231    0.552
       127  -9.0339    111.4868     52.5058   2.6818061740e+01   5.0532718662e+01    0.1492099    0.1455693  75.55 0.0008104488    1.019    0.018
       128 -11.7997    100.4241     54.7504   3.0846007191e+01   5.2752174616e+01    0.6436279    0.5977985  35.88  0.003500614    1.111    0.100
       129 -10.3401    108.7361     55.7696   2.8781644972e+01   5.0612270914e+01    0.4531044    0.2524332 -40.92  0.001581604    1.796    0.443
       130 -11.8097    173.9191     56.4237   1.5199567701e+01   3.4297416213e+01    0.4481329    0.3097938  56.30 0.0008934401    1.536    0.349
       131 -11.1044    162.8231     57.1869   1.7240460712e+01   3.6913858991e+01    0.4297767    0.2956443  45.74  0.002023561    1.682    0.406
       132 -10.2424    159.2376     54.4641   1.7036556743e+01   3.8249621617e+01    0.3353142    0.1860933  65.67  0.001127349    1.833    0.455
       133  -9.7268    191.3787    111.8164   2.6937016508e+01   2.0489497398e+01    0.2192599    0.1296907 -30.58 0.0005645135    1.777    0.437
       134  -9.1377    154.3453     55.2884   1.8166677010e+01   3.9345329643e+01    0.1481689    0.1163478  30.44 0.0007023521    1.653    0.395
       135 -11.7504    145.7733     52.1234   1.8778695828e+01   4.2024782649e+01     0.675202    0.3967795  29.40  0.001468873    2.983    0.665
       136  99.0000    155.5358     42.6559   1.3989103981e+01   4.0997275172e+01    0.9185665    0.5607048 -30.12  0.004206237    1.743    0.426
       137 -11.5405    149.8797     42.1394   1.4779083059e+01   4.2515308595e+01    0.3515885    0.2655822 -49.47 0.0003688504    1.275    0.216
       138 -10.8457    146.2568     39.5965   1.4577053399e+01   4.3811492659e+01    0.4769496    0.3429272  32.60   0.00226799    1.829    0.453
       139 -11.7854    161.3224     40.2270   1.2311947030e+01   3.9878548719e+01    0.4701547    0.2836987  46.77  0.001252976    1.948    0.487
       140 -11.9147    161.0338     35.9038   1.1016312575e+01   4.0553884327e+01    0.4357325    0.2897822  58.95  0.002153652    1.521    0.343
       141 -11.3590    142.2727     46.6957   1.7672385100e+01   4.3772952869e+01    0.2573371    0.2212788 -78.17 0.0001729062    1.134    0.118
       142 -11.8178    144.8814     44.1174   1.6322455789e+01   4.3499750038e+01    0.2846297    0.2445309  26.01 0.0003828851    1.442    0.306
       143 -10.7725    135.7885     52.8082   2.1045890823e+01   4.4441909187e+01     0.613514    0.2124517  63.22  0.001937599    3.223    0.690
       144 -10.8353    245.3667     50.4492   5.4559308697e+00   1.9436142335e+01    0.3973878    0.2048762 -26.89   0.00131759    2.137    0.532
       145 -10.2634    250.3304     48.3355   4.5901852263e+00   1.8780365388e+01    0.2389031    0.1708624 -27.32  0.001462904    1.517    0.341
       146 -11.6802    247.5491     42.5703   3.5632202667e+00   2.0073140761e+01    0.5750888    0.2294665 -53.97  0.002454611    2.191    0.544
       147 -10.5201    167.7125     51.6811   1.4787431991e+01   3.6571712231e+01     0.280527    0.2251996  34.14 0.0008190523    1.601    0.376
       148 -10.9532     90.4586     51.1736   3.2644379798e+01   5.5671767007e+01     0.241807    0.2296327  44.77 0.0003108601    1.044    0.042
       149  -9.9841    124.1894     51.1112   2.3080763756e+01   4.7641694919e+01    0.2099452    0.1993238  25.36 0.0002606356    1.176    0.149
       150 -10.2676    161.3829     48.7242   1.4916256481e+01   3.8610017679e+01    0.3857501    0.2700424 -18.28  0.001807277    1.818    0.450
       151 -12.2510    169.0998     79.6171   2.2625322229e+01   3.1492350388e+01    0.6260341    0.5807907 -73.99   0.00239407    1.039    0.037
       152 -10.6168    131.7106     33.7471   1.5245531399e+01   4.8369309489e+01    0.3383489    0.2193952 -41.94 0.0007979967    1.540    0.351
       153  -9.7848    135.3321     43.3109   1.7895565686e+01   4.6062880229e+01     0.601813    0.3789745  -5.52  0.002388208    2.686    0.628
       154 -10.8326    133.0464     40.0102   1.7205416536e+01   4.7138964282e+01    0.5035284    0.4134382 -66.11  0.002649203    1.229    0.186
       155 -10.0340     99.4906     47.3780   2.8288621524e+01   5.4281408850e+01    0.2500506    0.2285898  45.39  0.000835776    1.086    0.079
       156 -10.0863    167.6975     42.0406   1.1912057687e+01   3.8014117288e+01    0.2278831    0.1774682 -63.76 0.0005373634    1.201    0.167
       157 -11.3563    195.5056    107.0153   2.5053179692e+01   2.0522726150e+01    0.6670099    0.3400516 -60.04  0.002437576    2.928    0.659
       158 -11.4853    177.1888     38.9244   9.6867988215e+00   3.6095072835e+01    0.4568449    0.3331806  26.06  0.001486101    2.076    0.518
       159 -12.4851    104.1236     66.0531   3.3828019891e+01   4.9725047285e+01    0.4202587    0.3704689   2.84 0.0003484174    1.345    0.256
       160 -13.1269     79.0457     41.4408   3.2601688837e+01   5.9889176229e+01     1.090056    0.4105885  41.75  0.003865657    2.838    0.648
       161  -9.9616    105.4085     44.2530   2.5353447744e+01   5.3396358413e+01    0.4031047     0.233192 -61.29  0.001579432    2.455    0.593
       162 -10.2006     93.3330     42.6929   2.8293145714e+01   5.6503521582e+01    0.3383804    0.2271781  -7.37  0.001458071    2.191    0.544
       163  -9.8555    100.2425     41.7880   2.5840364303e+01   5.5032920843e+01    0.2945274    0.1873183  -5.82  0.001175028    2.571    0.611
       164 -10.8926     62.7532    110.3999   6.1058843756e+01   4.6982218526e+01    0.2029519     0.151555  16.90  0.000949297    1.632    0.387
       165  -9.5001    123.5204     36.5125   1.7933560594e+01   5.0076521013e+01    0.3143985    0.1803583  64.63  0.001381086    1.693    0.409
       166 -10.4985    122.0001     32.4596   1.6745641831e+01   5.1029821559e+01    0.4129714    0.2061333 -28.09  0.001294438    2.198    0.545
       167 -11.0337     74.8252     33.5592   3.0633940011e+01   6.2090817966e+01     0.403221    0.2599883  50.48   0.00191213    1.526    0.345
       168 -10.1944    169.2061     32.6472   8.8884476879e+00   3.8928677602e+01    0.2452949    0.1667503  64.35 0.0008062263    1.464    0.317
       169 -10.3948    111.7911     32.8849   1.9218606262e+01   5.3547781978e+01    0.2798252    0.2056899  65.92  0.001016555    1.317    0.241
       170 -10.3398    242.0376     30.2547   1.2822883303e+00   2.2726716964e+01    0.1990783    0.1451945 -54.13 0.0007988333    1.040    0.038
       171 -10.0985    237.4942     30.6893   1.7008790972e+00   2.3580100256e+01      0.30393    0.1704316  86.92  0.001122073    1.909    0.476
       172 -10.3799    227.2092     30.6573   2.4673859712e+00   2.5703814814e+01    0.4169519    0.2316672  50.73  0.002105621    2.502    0.600
       173 -10.7248    162.9846     30.4915   9.0660757947e+00   4.0778542064e+01    0.3530084     0.203347 -56.13 0.0009662725    1.724    0.420
       174  -9.4557    233.4849    109.0440   1.9746903308e+01   1.2815032583e+01    0.1905877    0.1106572 -37.26 -8.732949e-05    1.423    0.297
       175 -11.2046    218.3182     29.0072   2.7902745345e+00   2.7816723400e+01    0.5309049    0.3576551 -87.28  0.002246559    1.453    0.312
       176 -12.0751    161.2854    106.8053   3.1570694594e+01   2.7991768044e+01    0.4074927    0.2552626 -45.04  0.001282729    1.509    0.337
       177 -10.1884    209.9936    104.4467   2.2086775520e+01   1.8028701352e+01    0.5352796    0.3619846 -71.58   0.00255768    2.006    0.502
       178 -10.1993    152.3832     29.6329   1.0309476290e+01   4.3593414993e+01    0.2328427    0.1888595 -88.67 0.0002945329    1.155    0.134
       179  -9.6104    181.7433     29.5676   6.4650932494e+00   3.6223273936e+01    0.1927558    0.1207691 -87.91 0.0006868899    1.616    0.381
       180 -10.8364    103.4494     26.9572   1.8852990702e+01   5.6419808077e+01    0.3907663     0.284668 -89.68  0.001934603    1.636    0.389
       181 -12.1758    155.8864    105.3349   3.2362547749e+01   2.9509729440e+01    0.6740589    0.2950433 -55.33  0.002185963    2.940    0.660
       182  -9.3893    114.3364     28.2663   1.6800923115e+01   5.3532887489e+01    0.1463124    0.1033444  37.43 0.0006977076    1.590    0.371
       183 -10.0059    157.4782     95.5154   2.9369521785e+01   3.1162892387e+01    0.2908266     0.154936  56.53 0.0007515053    2.026    0.506
       184 -10.0744    168.8494     26.9465   7.2270704846e+00   3.9749551806e+01    0.2178288    0.1603007 -61.24 0.0005687395    1.250    0.200
       185 -10.4287    158.9693     26.3773   8.3304332042e+00   4.2320100716e+01    0.2362307    0.2004794 -24.94 0.0002934469    1.347    0.257
       186  -9.9248    233.9953     24.6140   5.8680180645e-01   2.5043965535e+01    0.3149189    0.2198433 -15.13  0.001798805    2.007    0.502
       187  -9.6244    154.3323     96.3081   3.0270551149e+01   3.1731040733e+01     0.310588    0.1939066 -43.92 0.0007101606    1.524    0.344
       188 -10.6683    147.4586     25.5343   9.7014140107e+00   4.5374665327e+01    0.3175159    0.2430595  21.27 0.0007928496    1.779    0.438
       189 -12.0592    150.2941     95.4019   3.0919483474e+01   3.2854717731e+01    0.8706838    0.4704248 -66.78  0.002135334    3.238    0.691
       190  -9.7143    153.4205     25.3002   8.7542498057e+00   4.3871232913e+01     0.189951    0.1202543 -45.97 0.0005080115    1.514    0.340
       191 -10.0581    124.2046     20.9953   1.1970033559e+01   5.1914441808e+01    0.2099039    0.1931139  75.41 -0.000430966    1.028    0.027
       192 -10.4137    126.5380     24.4949   1.2850692905e+01   5.0897508161e+01    0.2754193    0.1956035 -67.79 0.0001082039    1.533    0.348
       193 -10.5865    123.6289     24.2755   1.3321492583e+01   5.1671169236e+01    0.2699665    0.2265184 -83.74 0.0008296699    1.186    0.157
       194 -10.1741     16.3099    105.9623   7.7654897087e+01   5.3344372809e+01    0.2911368    0.1472104 -28.07  0.001197139    2.805    0.644
       195 -10.5397     97.7953     22.0762   1.8201234884e+01   5.8424509530e+01    0.3209216     0.202118 -24.94  0.001554925    1.735    0.424
       196 -10.9463    109.4286    104.3256   4.4094025259e+01   4.0036429047e+01     0.294399    0.1508271 -45.86 0.0008052106    1.936    0.484
       197 -11.3532    202.0309     20.9680   2.1563283782e+00   3.2459975320e+01    0.3357713    0.2136753 -57.40  0.001263615    1.336    0.251
       198 -10.0555    228.5056     97.4467   1.7827658980e+01   1.5611416159e+01    0.2201824    0.1483142 -43.59 4.542604e-05    1.237    0.191
       199 -10.2955    118.3780     21.4040   1.3245755809e+01   5.3358279975e+01    0.3809626      0.20608 -71.10  0.001477401    2.750    0.636
       200 -10.0128    151.8689     21.0504   7.5895025825e+00   4.4777090706e+01    0.2659884      0.16373 -80.34  0.001246277    1.731    0.422
       201 -10.6150    192.1989     19.3137   2.5855151265e+00   3.4957395660e+01    0.3762642    0.1970609  55.11  0.001784235    2.208    0.547
       202  -9.9377    163.2924     20.4785   5.9425339215e+00   4.1930825677e+01    0.1887339    0.1206393 -86.70 0.0009252122    1.546    0.353
       203  -9.6016    136.1166     19.4528   9.3628990083e+00   4.9021098417e+01    0.2001247    0.1281955  70.56 0.0002475316    1.442    0.307
       204 -10.8146    130.4535     19.1729   1.0187479531e+01   5.0514747024e+01    0.2791226    0.1834105  79.39 0.0002773649    1.481    0.325
       205 -11.1700    135.2811     26.7120   1.2079282988e+01   4.8370705877e+01    0.3615719    0.2880003 -46.96  0.001895523    1.257    0.204
       206 -11.0941    227.1062    100.7174   1.8754441646e+01   1.5341461943e+01     0.512649    0.2793954 -52.52  0.001289426    1.859    0.462
       207 -10.3194    222.6759    100.3224   1.9272175962e+01   1.6248197863e+01     0.225551     0.145447 -50.08 0.0006765245    1.426    0.299
       208 -11.1286    140.7609     95.8386   3.3269601863e+01   3.4977558411e+01    0.4433598    0.3682856  87.06  0.002138255    1.346    0.257
       209 -13.0042    122.4645     99.8621   3.9129251311e+01   3.8256209637e+01    0.6361718    0.5077319 -20.01  0.001552674    1.576    0.366
       210 -13.8894    130.8297     95.1940   3.5570583213e+01   3.7407736812e+01     1.159232     1.019208   5.16  0.005691655    1.407    0.289
       211 -12.1003    127.1752     89.5584   3.4880725290e+01   3.9474809808e+01    0.5959811    0.3745938  34.69  0.002408889    1.970    0.492
       212  -9.5794     14.4002     17.7689   5.4912153295e+01   7.4531875750e+01    0.1814057   0.09400586 -39.99 0.0009499568    1.699    0.412
       213 -12.3713    121.6201     87.0439   3.5618439339e+01   4.1301080750e+01    0.7048491    0.4603146 -47.05  0.003047014    1.496    0.332
       214 -12.0871    125.8984     85.2162   3.3913037272e+01   4.0701756737e+01    0.8503174    0.3763413 -33.70  0.002673511    2.940    0.660
       215 -12.2119    136.9609     81.2544   2.9915557140e+01   3.8901444421e+01     0.984567    0.6521256  89.03 0.0008736706    2.250    0.556
       216 -11.5185    132.0517     83.0552   3.1669762106e+01   3.9705336610e+01    0.4199801    0.2862311 -34.66 0.0003407311    1.571    0.363
       217  -9.9873    182.8698    102.1505   2.6084027967e+01   2.4126846342e+01    0.1981133    0.1761636  -7.24 0.0004156809    1.312    0.238
       218  -9.8094    165.5340    101.5061   2.9287193995e+01   2.8112272226e+01    0.1542093    0.1436438 -55.59 5.712212e-05    1.002    0.002
       219 -11.5655     91.8488     33.8542   2.5022570929e+01   5.8241788533e+01    0.6174523    0.4312679  50.40  0.003097778    1.365    0.268
       220 -13.6967    103.5190     96.4027   4.3674855989e+01   4.3165815084e+01     1.325128    0.8055024  26.72  0.002967029    2.295    0.564
       221 -12.3407     95.5468     90.2927   4.4428305439e+01   4.6265415292e+01    0.5802377    0.4963245  80.12 0.0009753677    1.293    0.226
       222 -13.2439    149.4534     65.1791   2.2189963157e+01   3.8888295972e+01     2.971532     1.090627  44.13  0.009039371    3.728    0.732
       223  -9.4929    156.0224     12.7031   4.3741578013e+00   4.4640431538e+01    0.1825283    0.1523658 -88.79 0.0002645082    1.062    0.058
       224 -13.6908     77.4360     58.9756   4.0319430887e+01   5.6901582579e+01    0.9738193    0.4636147  45.21   0.00197641    2.139    0.532
       225 -11.4302     40.7274     40.7828   4.9428516141e+01   6.6914443933e+01    0.6749406    0.5326516 -36.57  0.001947429    1.177    0.150
       226 -14.1671     66.0775     82.8920   5.2814876739e+01   5.3541014914e+01     1.594629     1.390731 -27.28   0.00555674    1.233    0.189
       227 -13.1194     37.6539     81.4442   6.4316439662e+01   5.7862525658e+01    0.8341993    0.5859091 -42.84  0.001669621    1.395    0.283
       228 -11.0418     36.3904    248.8707   8.3541700239e+01   1.7063798149e+01    0.2002933    0.1331027 -64.18  0.001310698    1.884    0.469
       229 -12.4542     11.9770     24.4838   5.9963981915e+01   7.3456557786e+01    0.5071113    0.3414103  -1.17 0.0003709127    1.540    0.351
       230 -11.2398    113.3932    246.2233   6.7551441539e+01   7.9411313929e+00    0.2822541    0.1975442 -37.89  0.001584051    1.863    0.463
       231 -10.4293    180.9647    243.9604   5.3900403033e+01  -7.3182803235e-01    0.1672867    0.1354295  49.62  0.001137315    1.688    0.408
       232  -9.7640    218.5282    239.5202   4.6550335348e+01  -4.7405986065e+00     0.111624   0.08479633   3.91 0.0001516152    1.014    0.014
       233 -10.4759     88.4823    238.5309   7.2015742865e+01   1.2640296359e+01    0.1251699   0.09990781  45.85  -8.5897e-06    1.010    0.010
       234 -13.6188     34.7630     56.7383   5.8639447552e+01   6.4222638131e+01     1.685902    0.7573838  22.10  0.006987392    2.599    0.615
       235 -12.9804     58.2189     44.9263   4.2621313810e+01   6.3314848221e+01     1.515915    0.6198775  41.61  0.002606332    2.491    0.599
       236 -10.0077     15.8333    238.4076   8.7188481726e+01   2.1222441561e+01    0.1405558    0.1002441  26.11 0.0004600083    1.615    0.381
       237  -9.9101    157.5422    222.5513   5.5480021415e+01   5.7178663077e+00    0.1256968    0.1072363  22.00 6.123308e-05    1.016    0.016
       238  -9.8464    236.7231    146.0101   2.7081181620e+01   6.3145807208e+00    0.1785624    0.1378249 -28.89 0.0003186305    1.067    0.063
       239  -9.7943    182.9841    125.3418   3.1727323547e+01   1.9622220893e+01    0.1903593    0.1870601  62.84 0.0003921873    1.106    0.096
       240 -10.8408    181.1446    118.8538   3.0540996640e+01   2.1269867931e+01    0.2792595     0.236614 -83.58 0.0004080921    1.396    0.284
