#   1 NUMBER                 Running object number                                     
#   2 MAG_AUTO               Kron-like elliptical aperture magnitude                    [mag]
#   3 X_IMAGE                Object position along x                                    [pixel]
#   4 Y_IMAGE                Object position along y                                    [pixel]
#   5 X_WORLD                Barycenter position along world x axis                     [deg]
#   6 Y_WORLD                Barycenter position along world y axis                     [deg]
#   7 A_WORLD                Profile RMS along major axis (world units)                 [deg]
#   8 B_WORLD                Profile RMS along minor axis (world units)                 [deg]
#   9 THETA_WORLD            Position angle (CCW/world-x)                               [deg]
#  10 FWHM_WORLD             FWHM assuming a gaussian core                              [deg]
#  11 ELONGATION             A_IMAGE/B_IMAGE                                           
#  12 ELLIPTICITY            1 - B_IMAGE/A_IMAGE                                       
         1 -14.4929      4.0855    104.1856   1.2504008563e+02   5.2584365239e+01     1.765423    0.7472007 -66.17  0.009438207    1.854    0.460
         2 -13.3666    205.3708     34.7960   5.6498427334e+01   3.0641307513e+01     1.109479     1.061904   8.12  0.006516541    1.382    0.277
         3 -13.8098    225.2511     16.5740   5.0185606257e+01   2.8419137555e+01    0.9244363    0.7914792  58.01  0.001549221    1.397    0.284
         4 -12.8919      2.4853     13.9930   1.0431336825e+02   6.8779932358e+01     0.657088    0.3523349 -53.30   0.00416581    2.510    0.602
         5 -13.3881      2.3953      4.8696   1.0106776820e+02   6.9984727649e+01     1.089404    0.5344594 -35.87  0.007646765    1.622    0.383
         6 -11.3968     73.8945    243.6463   1.2660196554e+02   1.4440653002e+01    0.3911821    0.2437427 -71.80  0.002333219    1.569    0.363
         7 -11.2060    142.5591    248.8787   1.1421498344e+02   2.4688245318e+00    0.4626522    0.2358209  59.03  0.002095901    2.292    0.564
         8 -13.3914    130.9490    241.6661   1.1551546654e+02   5.7774552192e+00     1.147247    0.7915322  61.80  0.006421889    1.401    0.286
         9 -12.7917    123.4110    249.1209   1.1793992895e+02   5.6528663219e+00     1.317441    0.2539037  43.07  0.004201701    4.216    0.763
        10 -11.2447    110.3869    247.4562   1.2022145923e+02   8.1018304848e+00    0.3579928    0.2785895  59.82  0.001596205    1.071    0.066
        11 -11.4800    100.1137    247.8908   1.2220781007e+02   9.6587691557e+00    0.4718334    0.3313368  62.94  0.002863168    1.223    0.182
        12 -11.6382     87.3977    248.7026   1.2464934867e+02   1.1462684353e+01    0.5345495    0.3492698  49.06  0.001761861    1.348    0.258
        13 -10.1539     81.5618    248.1752   1.2565952398e+02   1.2436152929e+01    0.3590426    0.1175641 -68.21  0.001469878    3.436    0.709
        14 -12.3374     88.8101    238.3662   1.2327765923e+02   1.3280323406e+01    0.7394229    0.4136106  79.40    0.0036081    2.160    0.537
        15 -11.7975     82.7630    240.1733   1.2461226846e+02   1.3831893712e+01    0.5244704    0.2731257  66.47  0.002456419    2.029    0.507
        16 -11.8785     91.0341    224.8537   1.2127897220e+02   1.5712398251e+01    0.5379485    0.3141798  54.43  0.002824896    1.554    0.357
        17 -10.1863     91.1910    220.3787   1.2069792063e+02   1.6635407602e+01    0.2468472    0.1743068 -82.91 0.0006359507    1.385    0.278
        18 -11.1826     68.0164    245.5106   1.2784063445e+02   1.4907646339e+01    0.3223139    0.2083292 -83.02  0.001393369    1.440    0.305
        19 -11.6195     58.4933    246.9260   1.2964977595e+02   1.5937710660e+01    0.4903072    0.4045977  88.01  0.003513997    1.187    0.158
        20 -12.6448     36.8206    206.1382   1.2988412424e+02   2.7132112025e+01    0.7435681    0.5779443  59.91  0.005040563    1.260    0.206
        21 -15.1141     22.9255    219.7984   1.3363129265e+02   2.5766103633e+01     1.636979     1.311345 -75.60   0.01198951    1.311    0.237
        22 -11.5459     97.2667    239.5375   1.2179826637e+02   1.1735161332e+01    0.5584739    0.3066218 -43.05  0.002601968    2.916    0.657
        23 -11.6052    101.9613    240.0110   1.2095287204e+02   1.0897641943e+01    0.4135793    0.2670639 -79.83  0.001336547    1.667    0.400
        24 -12.1554    104.8464    237.1204   1.2004866506e+02   1.1007306809e+01    0.5098699    0.3235707  52.00  0.002416715    1.371    0.271
        25  -9.8108     53.8424    240.9223   1.2993925534e+02   1.7742019251e+01    0.1679649    0.1415099 -84.52 0.0007694092    1.265    0.210
        26 -12.2524    117.0031    249.1385   1.1916503429e+02   6.7072075971e+00    0.5503326     0.509439  79.67  0.002245237    1.175    0.149
        27 -11.2318     84.1566    230.3125   1.2326800502e+02   1.5627341224e+01    0.3901129    0.3150362 -23.18   0.00223855    2.182    0.542
        28 -11.3285     69.0888    237.4032   1.2686442009e+02   1.6373767968e+01    0.3119187    0.2796152  -2.95  0.001454109    1.905    0.475
        29 -11.0705     73.5408    236.9725   1.2599778811e+02   1.5827074152e+01    0.3202371    0.2299678  72.44 0.0008462825    1.177    0.151
        30 -10.8128    197.9283    245.7980   1.0296490037e+02  -6.4730833781e+00    0.2031791    0.1594366  16.80  0.001229413    1.274    0.215
        31 -12.5431    118.5553    237.8810   1.1745816866e+02   8.6008256618e+00    0.6739775    0.4936178   4.98  0.003328108    2.629    0.620
        32  -9.6721     54.6992    234.7522   1.2923405976e+02   1.8873653189e+01    0.4994293     0.212754  76.99  0.002003263    3.540    0.717
        33 -11.2755     98.7545    230.8014   1.2047284789e+02   1.3261616044e+01    0.3471605    0.2494335  18.95  0.001443415    2.260    0.557
        34 -12.3736    105.3269    229.0170   1.1894560279e+02   1.2567195675e+01     0.681748     0.394587  59.78  0.003435213    1.690    0.408
        35 -11.0691    113.4180    230.1873   1.1747681084e+02   1.0991867145e+01    0.2785406    0.1996185 -52.35  0.001559275    1.602    0.376
        36  -9.9245    153.6699    230.0430   1.0928653360e+02   4.0041317364e+00    0.1780424    0.1685412 -72.28 0.0003578156    1.156    0.135
        37  -9.3828    123.2798    229.8031   1.1543713937e+02   9.3997582879e+00    0.2042354    0.1566415  89.57 0.0007594832    1.390    0.280
        38 -11.0546     56.6062    228.2167   1.2827204931e+02   1.9968078566e+01    0.2422509    0.1985708 -85.85 0.0003076124    1.163    0.140
        39 -10.8939     78.9656    224.6828   1.2364071554e+02   1.7578423729e+01    0.3248543    0.2546487 -37.18  0.001890402    1.960    0.490
        40  -9.1066     65.1368    223.7197   1.2621300071e+02   1.9758409777e+01    0.4024197    0.1170552 -50.85  0.001285984    5.641    0.823
        41  -9.1335    132.2798    224.6721   1.1286851381e+02   8.8677673662e+00    0.1380512   0.09842444  75.60 0.0006998175    1.598    0.374
        42 -10.4986     71.5788    219.6666   1.2452465296e+02   1.9717746448e+01    0.4102028    0.2587634  75.85   0.00225254    1.561    0.359
        43 -10.3907     60.2493    220.3055   1.2679478698e+02   2.1149849819e+01    0.2134265     0.173547  82.65 0.0003303583    1.036    0.034
        44 -10.5517    107.8082    217.3039   1.1688888533e+02   1.4608916260e+01     0.458459     0.208529  58.81  0.001279044    2.630    0.620
        45 -10.1186     50.8884    218.7425   1.2842236075e+02   2.2708645272e+01    0.3339343    0.1737459  76.97 0.0008493697    2.082    0.520
        46 -10.1602     46.9586    214.4934   1.2875275182e+02   2.4113148913e+01    0.2739681      0.16736  58.43  0.001609902    1.493    0.330
        47 -14.3079      7.2854    213.1859   1.3586556107e+02   2.8722572540e+01     2.821332    0.8494644 -74.88   0.01332804    2.648    0.622
        48  -8.6537    117.6955    215.2947   1.1453747291e+02   1.3359711808e+01    0.1411249   0.09737945  72.57 0.0002176049    1.580    0.367
        49  -9.8491     88.0488    212.1969   1.2030592225e+02   1.8891411272e+01    0.2967785     0.161515 -63.73  0.001022972    1.788    0.441
        50  -9.7741    110.9598    211.3178   1.1538395641e+02   1.5366062487e+01    0.2183779    0.1848953 -79.11 0.0005693759    1.151    0.132
        51  -9.8571     65.0857    205.2879   1.2418214003e+02   2.3768072474e+01    0.3552314    0.1504962  43.65  0.001058588    2.261    0.558
        52  -9.1871     58.4805    212.5122   1.2631730326e+02   2.3066442343e+01     0.186894   0.09998335  53.05 0.0009516252    1.747    0.428
        53 -10.1069     56.0960    208.7193   1.2638008822e+02   2.4209080344e+01    0.3697135    0.1669405 -68.27  0.001799952    1.987    0.497
        54  -8.1960    149.3225    210.6552   1.0709309929e+02   8.6438332311e+00    0.1481918    0.1067347  76.66  0.000705011    1.734    0.423
        55  -9.6074     99.4836    209.9966   1.1762463035e+02   1.7560892730e+01    0.2897127    0.1403449  68.54  0.001041307    3.370    0.703
        56  -9.6639    113.9745    204.4653   1.1372338859e+02   1.6348507451e+01    0.2517804    0.1812031 -83.42 0.0006318997    1.504    0.335
        57 -13.9419     26.9699    247.3652   1.3498114580e+02   1.9784875508e+01     1.882368    0.9627356  33.70   0.01079262    2.638    0.621
        58  -9.5670    106.7794    203.5782   1.1514863316e+02   1.7771581317e+01    0.2423076    0.1764581 -65.95 0.0004898437    1.358    0.263
        59 -10.7330     62.4924    209.1703   1.2515295194e+02   2.3261676771e+01    0.3234037    0.3053014  33.72  0.001185654    1.445    0.308
        60  -9.8946    250.5287    200.0867   8.4829296631e+01  -7.7097656020e+00    0.1935564    0.1179753 -36.79 0.0006185016    1.534    0.348
        61 -11.1355     45.9285    198.6471   1.2732992767e+02   2.7713219618e+01    0.4035329    0.2820287  19.54  0.002293547    2.239    0.553
        62  -9.6356     53.0534    198.3218   1.2584448426e+02   2.6907936890e+01      0.17742    0.1699538  10.57  0.001203145    1.495    0.331
        63 -13.9738      6.4766    245.2985   1.3808118088e+02   2.2409533025e+01     1.180202    0.7645117  69.28  0.008787475    1.172    0.147
        64 -10.2859    249.7914    194.2461   8.3836812556e+01  -6.6118457734e+00    0.2498008    0.1969704 -14.08  0.001467604    1.236    0.191
        65 -10.5280     30.8799    193.4546   1.2980858104e+02   3.0578112493e+01    0.1968526     0.158455 -86.24  0.000634705    1.064    0.060
        66 -10.8313     36.0696    191.9920   1.2861833331e+02   3.0338673039e+01    0.3831636    0.1667822  37.07  0.001334682    2.488    0.598
        67  -9.1566     57.6604    192.2369   1.2417209083e+02   2.7695220925e+01    0.3172433    0.1519119 -83.04  0.001372411    2.444    0.591
        68 -11.4122    154.5745    247.2183   1.1164287356e+02   7.0144403455e-01    0.4120013    0.2286337 -51.59  0.002103785    2.078    0.519
        69  -8.9669     15.3155    190.3150   1.3256493137e+02   3.2831022309e+01    0.1910359   0.09311495 -70.21  0.001069531    1.626    0.385
        70  -9.7297     21.6816    193.2855   1.3160077342e+02   3.1565336918e+01    0.1851585    0.1533131 -86.29 0.0002328351    1.133    0.117
        71 -10.3320     19.1069    188.5489   1.3166465431e+02   3.2857481041e+01     0.347342    0.1569248 -76.78  0.001403021    1.826    0.452
        72 -11.9798     50.1901    191.8313   1.2569509347e+02   2.8727537724e+01    0.3999087    0.2373918 -53.52  0.001235308    1.796    0.443
        73  -9.8781     70.2291    187.2034   1.2081304820e+02   2.7162478278e+01     0.360172    0.2162994  27.18 0.0007390393    2.253    0.556
        74 -12.1401     56.7981    184.4724   1.2339480263e+02   2.9583985751e+01    0.3616327    0.2580735  49.28  0.001356954    1.441    0.306
        75  -9.1240    191.5383    191.5231   9.4633055235e+01   4.4490572295e+00    0.1424087    0.1381866  21.73 0.0001458328    1.002    0.002
        76  -9.7392     36.8603    180.4750   1.2720218024e+02   3.2848537752e+01    0.2811667    0.1494202 -62.39 0.0007283316    1.620    0.383
        77  -8.8919     27.2773    179.0749   1.2906537672e+02   3.4164422304e+01    0.1994142   0.04872033 -54.00 0.0007008329    4.089    0.755
        78  -8.9951    110.2323    178.3499   1.1033241166e+02   2.2942286644e+01    0.1943225    0.1282852  50.49 0.0002715783    1.507    0.336
        79  -9.1401     12.3065    178.3361   1.3205957282e+02   3.5732925277e+01     0.115087   0.07418922 -53.33 0.0007040979    1.673    0.402
        80  -9.7046     59.4707    177.1943   1.2185128141e+02   3.0928412599e+01    0.4525432    0.1161723  43.96  0.001604465    3.805    0.737
        81  -8.5826     82.2929    176.6391   1.1655861803e+02   2.7882651934e+01    0.1466076   0.09840835  80.46   0.00070296    1.700    0.412
        82 -11.3220     12.4851    172.2177   1.3143352706e+02   3.7070386599e+01    0.3519095    0.2114878  74.75   0.00210912    1.654    0.395
        83 -11.2705    248.5162    172.7908   7.9822570992e+01  -2.6494312034e+00     0.439525    0.3075089  14.23  0.002234507    1.842    0.457
        84 -10.8730     69.3571    172.5241   1.1893430328e+02   3.0709071570e+01    0.2496109    0.2219026 -82.64 0.0008048005    1.048    0.046
        85 -11.0482     53.8422    171.4317   1.2234358554e+02   3.2976344721e+01    0.2940615    0.2683782  68.63 0.0008460726    1.182    0.154
        86 -11.5064     12.3764    153.3874   1.2947288881e+02   4.1275164647e+01     0.273734    0.1708688 -70.52 0.0008660132    1.236    0.191
        87 -12.1464      2.5983    171.7413   1.3340247918e+02   3.7984481462e+01    0.7664977    0.2155758 -77.28  0.002715124    3.223    0.690
        88 -11.3955      9.6619    156.6594   1.3043315801e+02   4.0759450241e+01    0.3237422    0.1643762  70.91  0.001663785    2.414    0.586
        89  -9.0955     18.0730    172.5005   1.3030054731e+02   3.6515406915e+01    0.2253938     0.164912 -87.87  0.001309692    1.117    0.105
        90 -10.9203     20.0031    168.2651   1.2944498983e+02   3.7290414786e+01    0.2532529    0.1939474 -50.35  0.000315821    1.471    0.320
        91 -11.5436     14.0097    167.0703   1.3059496951e+02   3.8084814094e+01    0.3475545    0.2557559  46.63  0.002365344    1.545    0.353
        92 -12.1164      8.5298    164.5898   1.3149982295e+02   3.9088767990e+01    0.5959064    0.3134128 -40.88  0.003181484    2.637    0.621
        93 -10.4711     27.1818    171.5990   1.2827082555e+02   3.5862056750e+01    0.2833341    0.2257564 -39.45 0.0005667038    1.629    0.386
        94 -10.5686     40.0070    167.9322   1.2501414056e+02   3.5380928180e+01    0.2854542     0.257602  -8.46  0.001256872    1.543    0.352
        95  -8.7655     91.0200    168.5188   1.1319029834e+02   2.8457586449e+01    0.2045932    0.1378546  42.44  0.001016425    1.546    0.353
        96 -12.2686     77.6311    164.5900   1.1574995883e+02   3.1417894406e+01    0.5510869    0.5214542 -75.74  0.003399061    1.119    0.106
        97 -11.5818    245.3224    162.9330   7.8381246312e+01  -2.8781109367e-01    0.4394384    0.2033039 -50.86  0.001778092    2.394    0.582
        98 -10.8949     23.6290    162.1237   1.2796697881e+02   3.8346544964e+01     0.234563    0.1922239 -23.24 0.0001694666    1.721    0.419
        99 -10.8638    249.5154    161.0149   7.7258831085e+01  -6.9455916379e-01     0.301313    0.2039628 -50.11  0.001553079    1.476    0.323
       100 -11.2783    247.9697    157.6275   7.6830817109e+01   2.0610460229e-01    0.4253998    0.2346599  53.58  0.001943348    2.180    0.541
       101  -9.4336     37.2280    162.0271   1.2489068971e+02   3.7037829750e+01    0.1824147    0.1375442 -73.77 0.0006168623    1.086    0.079
       102  -8.9092     43.0755    161.1527   1.2342694682e+02   3.6615694046e+01    0.1747239    0.1311824  80.41 0.0004037391    1.321    0.243
       103  -9.2635     68.3435    166.2920   1.1823461318e+02   3.2316412837e+01     0.186409     0.114595 -73.01 0.0005085181    1.551    0.355
       104 -12.0720     22.8655    150.4194   1.2672654908e+02   4.1069355213e+01    0.3822827    0.2915165 -47.27  0.002028845    1.407    0.289
       105 -11.3143     26.1765    155.5333   1.2660059742e+02   3.9610089031e+01    0.2848411    0.2313568  80.04 0.0009799161    1.208    0.172
       106 -10.0085     21.8455    156.1863   1.2766716788e+02   3.9852387047e+01     0.278127    0.1457245 -61.72  0.001102403    1.538    0.350
       107 -10.9452    249.5865    151.0056   7.5189717328e+01   1.1292876882e+00     0.367565    0.2559404 -47.53  0.001929123    1.343    0.255
       108 -13.2291      5.7577    143.9432   1.2989972129e+02   4.3868752312e+01    0.8707209    0.4856894 -64.53   0.00411153    1.366    0.268
       109 -11.0432    185.3229    248.8613   1.0588748994e+02  -4.8461760382e+00    0.2965805    0.2032349  10.02   0.00152254    1.949    0.487
       110 -10.0019     38.6903    148.8925   1.2276221980e+02   3.9919823829e+01    0.1856267    0.1692416 -37.40  0.000320234    1.307    0.235
       111 -11.8933     68.3485    143.5648   1.1448419041e+02   3.7686422799e+01    0.6748791    0.4050615  77.89  0.002557501    2.572    0.611
       112 -12.9797    248.3794    101.7770   6.5064693771e+01   1.0398704944e+01    0.9451304    0.6523003 -41.74  0.004996934    1.361    0.265
       113  -9.3235    236.0928    145.8949   7.6453870119e+01   4.6574261433e+00     0.192205    0.1655221 -13.80 0.0004718914    1.292    0.226
       114  -8.6664    133.5057    141.5012   9.7405866057e+01   2.7208204042e+01    0.1540581    0.1458047 -84.47 -0.0002136438    1.042    0.040
       115  -9.9147     44.8950    139.7222   1.1983724511e+02   4.1391408041e+01    0.2177558    0.1480149 -56.51 0.0002451973    1.266    0.210
       116 -13.6911     13.8476    123.4574   1.2531333379e+02   4.7814761563e+01    0.8823341    0.3981375 -55.47  0.004761024    1.709    0.415
       117  -9.9945    106.1608    135.5078   1.0304074713e+02   3.3744765344e+01    0.3813952    0.2667302  -3.43  0.001502397    2.411    0.585
       118  -8.5013     92.5218    133.4340   1.0618698121e+02   3.6519166803e+01    0.1427124    0.1329936 -54.14 9.640572e-05    1.040    0.039
       119 -11.7103     17.9403    132.7581   1.2558678688e+02   4.5451504068e+01    0.2716305    0.2219606  30.89  0.001352056    1.530    0.347
       120 -12.9799    247.9027    113.5296   6.7614196652e+01   8.3757612481e+00     1.052898    0.6386779 -50.07  0.005160708    1.507    0.336
       121  -9.5455     44.3803    130.1491   1.1839475639e+02   4.3645287506e+01     0.179762    0.1084598 -72.73 0.0005715167    1.618    0.382
       122 -12.4680    241.1814    120.0712   7.0069033823e+01   8.5290359077e+00    0.6427134    0.4679953  61.27  0.003365596    1.513    0.339
       123 -10.5963    232.2724    116.3901   7.0742013923e+01   1.1064543970e+01     0.243826    0.1870359  69.99 0.0007678881    1.442    0.307
       124 -12.1174    248.0267    142.4055   7.3666104788e+01   3.0133765359e+00    0.6482723    0.5491405  33.65  0.003728466    1.344    0.256
       125 -11.1595     92.1144    149.7899   1.0956018840e+02   3.2733977924e+01    0.3389378     0.314992 -78.66  0.001041438    1.021    0.021
       126  -9.2494     95.9885    145.7508   1.0779036898e+02   3.3064762203e+01    0.2112854    0.1890083 -42.05 0.0003679469    1.179    0.152
       127  -9.0853     55.3164    150.6346   1.1895441474e+02   3.7670323654e+01    0.1396278   0.09325465  79.63 0.0007039435    1.772    0.436
       128 -13.8888      4.5728    127.0933   1.2814129789e+02   4.7646785364e+01     1.380218    0.5314969 -73.59  0.006653863    2.266    0.559
       129 -12.7538    248.5726    133.2180   7.1653700685e+01   4.6155354614e+00     1.241639    0.5233145 -36.45  0.004864521    2.418    0.586
       130 -10.4750     80.5737    148.5205   1.1225286698e+02   3.4803783442e+01    0.2454378    0.2240413 -65.93  0.001449262    1.043    0.041
       131  -9.6232    161.7556     80.0087   7.5426240518e+01   3.3898131802e+01    0.1904913    0.1250918 -40.63 0.0004492729    1.569    0.363
       132 -12.2550    170.7097    248.3145   1.0864809455e+02  -2.2658105461e+00     0.531474    0.2943176  32.74  0.002637877    1.797    0.443
       133 -11.2574    149.4748    247.4050   1.1266616883e+02   1.5467836095e+00    0.3476079    0.2286404  20.06  0.001731064    2.181    0.542
       134 -10.5201    243.5103    247.5105   9.4681700801e+01  -1.3868913851e+01    0.2129322    0.1021867 -26.08  0.001041126    2.399    0.583
