#   1 NUMBER                 Running object number                                     
#   2 MAG_AUTO               Kron-like elliptical aperture magnitude                    [mag]
#   3 X_IMAGE                Object position along x                                    [pixel]
#   4 Y_IMAGE                Object position along y                                    [pixel]
#   5 X_WORLD                Barycenter position along world x axis                     [deg]
#   6 Y_WORLD                Barycenter position along world y axis                     [deg]
#   7 A_WORLD                Profile RMS along major axis (world units)                 [deg]
#   8 B_WORLD                Profile RMS along minor axis (world units)                 [deg]
#   9 THETA_WORLD            Position angle (CCW/world-x)                               [deg]
#  10 FWHM_WORLD             FWHM assuming a gaussian core                              [deg]
#  11 ELONGATION             A_IMAGE/B_IMAGE                                           
#  12 ELLIPTICITY            1 - B_IMAGE/A_IMAGE                                       
         1 -11.7353    183.7411     35.9238   2.6862269072e+01   3.4476260911e+01    0.7883574    0.5356213 -57.90  0.002032996    1.437    0.304
         2 -11.0031    210.7807     29.7705   2.2652519891e+01   2.9156625524e+01    0.5214105    0.3196779 -53.03 0.0009565233    1.471    0.320
         3 -11.6505    225.0959     16.1223   1.8306340838e+01   2.7604126111e+01    0.9623032    0.4911838 -62.43  0.004822683    1.907    0.476
         4 -13.0814    238.0236      4.8755   1.5064387115e+01   2.6130387511e+01     1.414831    0.9476213  80.14  0.004500587    1.661    0.398
         5  -8.3987    149.1315      9.5690   2.2383172611e+01   4.5837071151e+01    0.3377723    0.1822628  72.35  0.001573614    1.744    0.427
         6  -7.8255     93.0000      8.9823   3.0904434200e+01   6.0713310404e+01    0.2265861   0.08180651 -22.00 0.0007569455    2.984    0.665
         7  -7.6358     99.4606      5.5105   2.7855708093e+01   5.9338209719e+01    0.1417253    0.1286908  58.90 0.0008088529    1.046    0.044
         8  -8.9442     10.0017      4.1620   7.1363131080e+01   7.8733904820e+01    0.1970068    0.1373423  49.72  0.001077341    2.000    0.500
         9  -7.3062     87.2985      3.3172   2.9284407380e+01   6.2723191191e+01    0.1475154    0.0956003  36.96 0.0003910459    1.613    0.380
        10  -8.0592    157.8160    213.3555   7.1605855230e+01   1.1254291753e+01    0.2244166    0.1484734  24.25 0.0009277483    1.241    0.194
        11  -7.6669    171.8296    249.8600   7.3711629121e+01   4.7317213386e+00     0.134906    0.1021779  25.74 0.0003962361    1.276    0.216
        12  -8.1194    143.8138    250.3158   7.8986031454e+01   7.8523018848e+00    0.1546576    0.1141549  27.17 0.0005643157    1.134    0.118
        13  -8.1042    240.4680    210.4736   5.6710343356e+01   1.5949239000e+00    0.1072997   0.07543195  -1.60 0.0003334666    1.002    0.002
        14  -8.6978     61.9755    206.9899   9.2406863417e+01   2.4656799146e+01    0.1885631    0.1561293  40.75 0.0004743653    1.012    0.012
        15  -8.7780     11.0378    206.7846   1.0461027753e+02   2.9672161275e+01     0.279781    0.1537336  38.51  0.001685735    1.408    0.290
        16  -9.1806     42.5196    204.5212   9.6949014641e+01   2.7245703350e+01    0.2522997    0.2083146  -8.42 0.0009569642    1.555    0.357
        17 -12.2390     52.0698    193.8886   9.3782546369e+01   2.8418501855e+01     1.256594     1.180365 -63.96  0.006241295    1.257    0.205
        18 -10.1647    192.8593    195.3266   6.2119092496e+01   9.1552751439e+00    0.7143555    0.4251231 -58.32  0.003079972    4.599    0.783
        19  -7.5162     96.2858    194.0020   8.2682831868e+01   2.2929343210e+01    0.1343329    0.1185216 -61.35 0.0003355559    1.324    0.245
        20  -9.4573    208.5145    185.7229   5.7751564925e+01   8.3634582974e+00    0.3919703    0.2363374 -41.24  0.002309338    1.951    0.487
        21  -9.5336    146.2382    177.5520   6.8480589630e+01   1.8672918886e+01    0.2293662    0.2026954 -15.71  0.000323469    1.142    0.125
        22  -7.8655    218.3912    186.7568   5.6286752504e+01   6.9442060050e+00    0.1651385   0.09002974 -21.28 0.0004411309    1.696    0.411
        23  -7.9240    151.8475    175.1716   6.6838375975e+01   1.8216306399e+01    0.1820298    0.1398329   2.02            0    1.318    0.241
        24  -8.7045    203.3862    174.2239   5.6602911551e+01   1.0625811913e+01    0.1614388    0.1048366 -39.12 0.0009453829    1.671    0.402
        25  -8.9110    230.4265    169.3550   5.1327506927e+01   7.5801842575e+00    0.4944826    0.2217423 -27.62  0.002643136    1.969    0.492
        26  -8.9447    177.3887    169.2976   6.0494918395e+01   1.5210572314e+01    0.3395886     0.117276 -40.61  0.001376463    2.929    0.659
        27  -9.6861     76.8510    156.6929   8.2833213337e+01   3.3575229356e+01    0.3248578    0.1738918 -53.38  0.001461124    1.977    0.494
        28  -7.8284    232.1245    150.9227   4.7639074716e+01   9.7020911468e+00    0.1633605    0.1352608 -23.61  0.000325171    1.214    0.177
        29  -9.8419     79.5714    135.3710   7.8535181755e+01   3.8216348298e+01    0.5445876    0.3343109 -12.26  0.002034768    3.046    0.672
        30 -11.8363     67.0791    147.5436   8.4409114626e+01   3.7087476125e+01     1.143754    0.5477206  29.93  0.004531888    1.991    0.498
        31 -11.9198     68.3064    137.8594   8.2527654910e+01   3.9273173342e+01    0.9138934    0.6425893  54.16   0.00451936    1.449    0.310
        32  -8.0892    144.0146    147.2653   6.3323734821e+01   2.4599060410e+01     0.244015    0.1845872 -57.08  0.001264444    1.595    0.373
        33  -9.5114     93.3609    148.3159   7.6717068668e+01   3.3026500231e+01    0.2258312    0.1704731 -15.86  0.001103256    1.703    0.413
        34  -9.3889    133.7315    147.1373   6.5749436014e+01   2.6442078273e+01    0.5262634    0.2281313 -48.66   0.00208654    2.459    0.593
        35  -8.9534    244.0375    139.9602   4.3861791880e+01   9.4346434408e+00    0.1641588    0.1324133 -48.74 0.0005785197    1.691    0.409
        36  -9.0239    137.2957    137.0471   6.2769331935e+01   2.7803146703e+01    0.5150401    0.1904058 -46.95   0.00185213    2.819    0.645
        37  -9.2321    132.3824    141.2170   6.4863437693e+01   2.7867636855e+01    0.4957417    0.2075262 -49.99  0.001881932    2.601    0.616
        38  -9.6083    159.7142    130.3612   5.6156391966e+01   2.4874160078e+01    0.4462833    0.3235298   9.61  0.002033649    1.653    0.395
        39 -10.6449     66.6107    129.9974   8.1758312576e+01   4.1458283591e+01    0.6518286    0.2993585  35.20  0.001784533    2.031    0.508
        40  -9.3947     70.9591    125.9648   7.9584458653e+01   4.1827137856e+01    0.3382841    0.2152574  25.30  0.001529779    1.666    0.400
        41  -9.1488     43.1400    129.2570   8.9640978286e+01   4.4639432334e+01    0.2984801    0.2016832  69.72            0    1.581    0.368
        42  -8.1313    113.0044    130.3085   6.7606828387e+01   3.3702713313e+01    0.2039226    0.1863163  41.13 0.0004145857    1.070    0.065
        43  -9.5268    136.4906    127.4879   6.0832018841e+01   2.9862945498e+01    0.3962538     0.242381 -37.79  0.001794986    1.688    0.408
        44  -9.2629    135.1519    121.7530   5.9819545235e+01   3.1276987706e+01    0.4105464    0.1737962 -41.36  0.001527548    2.416    0.586
        45  -8.7223    171.7576    124.9735   5.2441111322e+01   2.3550289864e+01    0.2305889    0.1900503  36.77 0.0007199009    1.241    0.194
        46  -8.8840     78.7644    122.2514   7.6269213611e+01   4.1531792643e+01    0.4154744    0.2603579  68.20  0.001367533    2.237    0.553
        47  -8.6308     67.0294    117.9059   7.9378107763e+01   4.4430108620e+01    0.2163396    0.2096796  42.65  0.001211911    1.042    0.040
        48 -10.1764    245.0547    113.3690   3.8413546312e+01   1.2626820383e+01    0.3768781    0.1450803 -24.38  0.001678929    2.586    0.613
        49 -11.2185    135.5029    109.1797   5.6615852373e+01   3.3730870394e+01     1.024007    0.5987836 -29.44   0.00414775    2.030    0.507
        50  -8.7964    139.0356    102.5084   5.4004732720e+01   3.4300880348e+01    0.3211213    0.1459028  45.42  0.001219746    2.216    0.549
        51  -8.7679    144.9945    102.6740   5.2649589425e+01   3.2996234604e+01     0.299663    0.2485541 -73.59 0.0004308796    1.489    0.329
        52  -9.5959    144.2296     97.6306   5.1469545812e+01   3.4113936541e+01    0.5762299    0.3756853   6.69  0.002242236    2.674    0.626
        53  -9.6653    115.1501    104.8484   6.0866796816e+01   3.8848002576e+01    0.3084611    0.2384534 -89.12  0.001408533    1.777    0.437
        54  -9.9351    122.6317    114.2132   6.1210761524e+01   3.5328442157e+01    0.4334234    0.3488565  27.98  0.002177337    1.293    0.226
        55 -10.0057    119.4077    109.0524   6.0778552310e+01   3.7076144100e+01    0.3693776    0.3041257 -51.48  0.001040448    1.253    0.202
        56  -8.5933     74.9926    114.3504   7.5879906084e+01   4.4085152596e+01    0.3380396    0.1825312 -51.53 0.0008648178    1.855    0.461
        57  -9.6753    128.6172    108.8344   5.8267477427e+01   3.5229442552e+01    0.3464315    0.2128232 -46.54  0.001080858    1.651    0.394
        58  -8.7172    202.7450    110.7089   4.3651914692e+01   2.0055641854e+01    0.2210079    0.2113077   6.68 0.0006781045    1.138    0.121
        59  -9.3718     68.0026    109.8216   7.7362595550e+01   4.6319690320e+01    0.3302494    0.2284542 -67.93 0.0003229162    1.514    0.340
        60 -10.0169     68.2530    103.2811   7.5804417928e+01   4.7924758324e+01    0.4885989    0.3546363 -14.29 0.0007622707    1.883    0.469
        61  -9.3519     70.7399     98.2851   7.3678771783e+01   4.8768292418e+01    0.4961595    0.3197449  10.68  0.002025508    2.225    0.551
        62 -10.2552    188.3610    107.6418   4.5287626812e+01   2.3232288862e+01    0.5573488    0.1756223 -31.07  0.001858072    3.448    0.710
        63  -9.8322    196.7101    107.2076   4.3797066927e+01   2.1703913731e+01    0.2798757     0.230077  46.27 0.0005934708    1.347    0.258
        64  -8.3353     54.0310    112.4992   8.3029440677e+01   4.7641753586e+01    0.2075796    0.1438391  29.09 0.0003053325    1.465    0.318
        65  -7.0585    103.3058    106.3020   6.4725727210e+01   4.0908358853e+01    0.1528336    0.1215421  -6.32 0.0001539052    1.597    0.374
        66  -9.5220     60.2272    111.1698   8.0477000148e+01   4.7131761086e+01     0.277183    0.2521867  -9.36 0.0008914249    1.231    0.187
        67  -8.2889     74.0031    105.0617   7.4129931338e+01   4.6548410906e+01    0.2215482    0.2191818  75.89 0.0004173907    1.012    0.012
        68  -7.4632     48.4573    104.4294   8.3631397959e+01   5.0460095961e+01    0.1451347    0.1375311  76.69 9.297123e-05    1.032    0.031
        69  -9.2653    120.9311    102.6168   5.8665458808e+01   3.8122556828e+01    0.3161236     0.206881 -63.48  0.001325332    1.987    0.497
        70  -8.8731     32.7803    100.1585   8.9228511581e+01   5.3367442612e+01    0.2440666     0.209682  58.36 0.0003852974    1.171    0.146
        71  -9.5672    188.7002     97.4966   4.2757704191e+01   2.4757953546e+01    0.3412714    0.1350607 -27.74  0.001251983    2.833    0.647
        72  -8.1335     36.7761     98.8839   8.7340242166e+01   5.3288480845e+01    0.2129804    0.1791706 -53.60 0.0002744838    1.176    0.150
        73  -7.7437    126.3142     98.3184   5.6052772632e+01   3.7866182614e+01     0.154751    0.1207728   2.65 0.0004225704    1.650    0.394
        74  -7.1143     83.2524     98.6484   6.9260541204e+01   4.6501313522e+01    0.1526195    0.1195595  86.21 0.0002932862    1.596    0.373
        75  -8.9558     97.4826     96.0308   6.3789254586e+01   4.4387980149e+01    0.2703303    0.2200959  49.76 0.0003488561    1.240    0.193
        76  -7.8550     19.2992     95.3448   9.4248950339e+01   5.5839862663e+01    0.1488965   0.09331529 -43.69 0.0007036275    1.676    0.403
        77  -9.1352    117.8688     93.8623   5.7075835913e+01   4.0605144502e+01    0.2563456    0.2333681  54.91  0.001339342    1.118    0.105
        78  -7.9530     66.0773     95.3725   7.4719194153e+01   5.0253191777e+01     0.213557    0.1834084  39.69 0.0005360692    1.166    0.143
        79  -7.5975     91.0621     94.0142   6.5330781456e+01   4.6117306775e+01    0.1800229    0.1742119  42.50 0.0003627704    1.027    0.027
        80  -8.0971     60.5216     93.4606   7.6423500870e+01   5.1602653751e+01    0.2674793    0.1249796 -48.19  0.001016868    2.157    0.536
        81  -8.6672     43.9955     93.9696   8.3346855382e+01   5.3748381821e+01    0.2141459    0.2090776 -82.21  0.001227875    1.019    0.019
        82  -9.6550     27.8063     91.2401   8.9867104706e+01   5.6213677442e+01    0.4477404    0.1782957 -72.90  0.001686606    2.461    0.594
        83  -9.7807    151.6678     89.9237   4.7698110514e+01   3.3889274262e+01    0.4955127    0.4374956  74.23  0.001612144    1.265    0.210
        84  -9.5425    154.4892     86.5113   4.6151521322e+01   3.3860712245e+01    0.4103214     0.311208  78.67  0.001579043    1.674    0.403
        85  -7.8326    132.5652     91.4567   5.2523838254e+01   3.7863058862e+01    0.1488675    0.1462244 -17.56 2.401616e-05    1.011    0.011
        86  -7.8568    118.9935     88.6712   5.5252862096e+01   4.1429272589e+01    0.2087972    0.1957989  48.30 0.0003284181    1.067    0.063
        87  -8.3473     91.0735     88.8306   6.3839865519e+01   4.7303808116e+01    0.2270987    0.2016274  75.76 0.0003021533    1.242    0.195
        88  -9.2067     74.6636     88.1751   6.9521336039e+01   5.0565624671e+01    0.2728787    0.2549674  62.82 0.0004653636    1.099    0.090
        89  -9.7410     78.6264     86.3999   6.7531193833e+01   5.0267150695e+01    0.3436904     0.292426 -78.62 0.0006123224    1.313    0.239
        90  -9.0705    187.2023     88.0246   4.0615406001e+01   2.6525006919e+01    0.2396789    0.1454922 -55.27 0.0008681783    1.995    0.499
        91  -7.5808     85.1655     88.0935   6.5664412439e+01   4.8632271005e+01     0.202491    0.1766701  76.35 0.0002363752    1.283    0.221
        92  -7.8995     49.1249     87.7503   7.9757378468e+01   5.4699960604e+01    0.2199689    0.1882491  60.96 0.0005389695    1.234    0.190
        93  -7.9148     40.8221     88.4106   8.3531303849e+01   5.5583659227e+01    0.1952554    0.1410626   3.83 0.0008471441    1.663    0.399
        94  -7.8355    100.4752     85.9574   5.9901723129e+01   4.6013118854e+01     0.233852    0.1520472 -48.07  0.001016061    1.553    0.356
        95  -9.9594     26.0761     78.2992   8.8261831221e+01   5.9791459170e+01    0.4514046    0.3212807 -78.62  0.002032754    1.395    0.283
        96  -8.4995     22.5459     83.0322   9.0859501452e+01   5.8852589022e+01    0.2000623    0.1692493 -71.32 0.0003145813    1.098    0.089
        97  -7.6918    206.5320     82.5336   3.6402335562e+01   2.3424930500e+01    0.1321896     0.114927 -35.05 0.0002190634    1.028    0.027
        98  -7.7911    105.2399     82.3956   5.7322967353e+01   4.5753649318e+01    0.2138854    0.1457128  56.40  0.000668894    1.584    0.369
        99  -8.1905     58.0316     81.6503   7.4354177641e+01   5.4948727318e+01    0.2063127    0.1897528  32.12 0.0003904816    1.110    0.099
       100  -9.5029    184.1107     78.7265   3.8681992199e+01   2.8588429164e+01    0.4914148    0.2712617 -17.58  0.001837616    2.337    0.572
       101  -7.1463    112.6970     80.3519   5.4476406757e+01   4.4524395452e+01    0.1588948    0.1225992 -80.40 0.0007039927    1.703    0.413
       102  -7.8549     40.7108     80.0411   8.1654248802e+01   5.7769126871e+01    0.2026746    0.1730419 -65.36  0.000293357    1.128    0.114
       103  -9.9868     32.1621     79.3881   8.5541152086e+01   5.8908649803e+01    0.2723243    0.2593249  63.12 0.0003901416    1.088    0.081
       104 -11.5987    181.1063     58.9641   3.3734217089e+01   3.2117513424e+01    0.8872638    0.8199479 -89.44  0.003249828    1.132    0.117
       105 -11.1893    165.1495     64.8260   3.7886740544e+01   3.4949784620e+01     1.062134    0.6548146 -88.18  0.004415354    2.487    0.598
       106  -9.5473    162.6456     77.6821   4.2053783203e+01   3.3505658947e+01    0.3902955    0.2751606 -34.47  0.001240495    1.356    0.263
       107 -11.1620    166.8919     73.3634   4.0057637792e+01   3.3229253185e+01    0.8450453    0.5786793  66.54   0.00295946    1.633    0.388
       108  -8.4418    146.3766     76.9603   4.5075529746e+01   3.7378714084e+01    0.3933976    0.2114797 -45.76  0.001626639    1.884    0.469
       109  -8.4529     81.9336     76.4064   6.3229527171e+01   5.1940378399e+01    0.2483361    0.2113681 -25.95 0.0006998684    1.281    0.220
       110  -7.9900    140.7745     76.0658   4.6023071253e+01   3.8845331009e+01     0.243146     0.173037  -7.35   0.00106505    1.927    0.481
       111  -7.9697    111.0653     75.5442   5.3403485685e+01   4.5860046951e+01    0.2352704     0.150833  52.26   0.00101533    1.580    0.367
       112  -7.2375     50.5427     75.4739   7.5908578675e+01   5.7612889484e+01    0.1457681    0.1417116 -58.50 0.0001294288    1.011    0.011
       113  -7.9860     12.7866     74.7828   9.4277592176e+01   6.1750690966e+01    0.1850829     0.147196  71.04  0.000340124    1.313    0.238
       114  -7.5980    133.5014     74.4293   4.7182035579e+01   4.0848500117e+01    0.1491925    0.1458559  17.70 2.862127e-05    1.056    0.053
       115  -8.3975    236.9960     73.0435   3.0617268768e+01   1.8992539314e+01     0.181713     0.149187 -31.93 0.0003575901    1.017    0.016
       116  -7.6491    207.4478     73.4208   3.4037907096e+01   2.4497950341e+01    0.1313156    0.1128858 -41.54 3.404771e-05    1.059    0.056
       117  -7.5269     77.5868     73.2656   6.3829531887e+01   5.3504225565e+01    0.1591816    0.1180493  71.15 0.0004823795    1.763    0.433
       118  -8.3004     34.5317     72.2784   8.2702193053e+01   6.0491994386e+01    0.2532964    0.1394351 -69.68 0.0005786199    1.858    0.462
       119  -8.9619     18.4391     71.5661   9.0789625836e+01   6.2200245110e+01    0.5178486    0.1289773  36.42  0.001694666    3.795    0.736
       120  -8.0055     28.7666     70.9731   8.5303581813e+01   6.1442149926e+01    0.1877977    0.1116477 -64.98 0.0003698533    1.572    0.364
       121  -8.0587     82.4435     70.1023   6.0930088494e+01   5.3235510516e+01    0.2336814    0.2046473  40.72 0.0004787814    1.140    0.123
       122  -8.9739     71.4472     69.2151   6.4880300450e+01   5.5600389402e+01    0.2755619    0.2482614  51.87 0.0004847296    1.143    0.125
       123  -8.8759     39.6453     69.8938   7.9518292812e+01   6.0489286393e+01    0.2273431    0.2010077  -3.85 0.0004478541    1.213    0.175
       124  -7.3228    219.7299     69.6386   3.1659323244e+01   2.2590521093e+01    0.1246165   0.09282473   1.29 0.0006997142    1.651    0.394
       125  -7.6222     88.7000     68.0035   5.7947982147e+01   5.2373048787e+01    0.2155245    0.2031228 -51.53 0.0006061048    1.074    0.069
       126  -7.9557     77.6612     68.4417   6.2157274439e+01   5.4566067529e+01    0.1956071    0.1472919  30.60 0.0005913709    1.413    0.292
       127  -7.4732    224.5775     69.5136   3.1098689822e+01   2.1687330088e+01    0.1263923    0.1044102 -34.91 0.0001208562    1.012    0.012
       128  -7.6882    125.3039     66.6884   4.6657033339e+01   4.4192601701e+01    0.1548106    0.1185329 -73.96 0.0002312184    1.613    0.380
       129  -8.1168     56.9020     64.8543   6.9659488099e+01   5.9196367510e+01    0.3278206    0.1970072 -65.99  0.001369085    2.020    0.505
       130  -9.2706      9.2278     65.7349   9.4676268681e+01   6.4335838902e+01    0.4171948    0.2145598 -23.74  0.001230206    2.321    0.569
       131  -8.7864      9.1193     60.4668   9.3801418115e+01   6.5709307454e+01     0.470288    0.1107711  28.22  0.001607522    3.785    0.736
       132  -7.7953     98.9604     65.4621   5.3624945745e+01   5.0622702592e+01    0.2288902    0.1367144  71.94 0.0002398825    2.762    0.638
       133  -7.6497     74.4048     64.7590   6.2125065231e+01   5.6021550197e+01    0.2017501    0.1424525 -37.08 0.0003514183    1.483    0.326
       134  -7.6937     40.5507     65.4295   7.7768004710e+01   6.1489412079e+01    0.1415029    0.1372056 -51.78 6.166402e-05    1.023    0.023
       135  -7.4799    115.6614     63.8041   4.8158164024e+01   4.7029058829e+01    0.2124283     0.135551 -48.03  0.000235669    1.630    0.386
       136  -8.4290      2.0697     63.0508   9.8255391529e+01   6.5378066058e+01    0.1963065    0.1756703 -70.24 0.0003545872    1.015    0.014
       137  -8.3164     12.9269     59.3285   9.1357702633e+01   6.5769319177e+01    0.1958742    0.1765266  77.56 0.0003887836    1.179    0.152
       138  -8.4755     25.2946     61.5866   8.4818426975e+01   6.4187441013e+01    0.1882147    0.1346321   0.61 0.0009484381    1.589    0.371
       139  -7.3134     75.5355     60.5319   6.0116257860e+01   5.6705910501e+01    0.1487183    0.1473108   7.22 3.728628e-05    1.006    0.006
       140  -7.6845     64.4793     59.5375   6.4346092856e+01   5.9074742200e+01    0.1475798    0.1442706  -9.91 0.0001106685    1.007    0.007
       141  -8.3493     82.8638     59.8103   5.7044887100e+01   5.5324186995e+01    0.2511277    0.2171683 -61.45 0.0003969886    1.250    0.200
       142  -7.6955    206.5905     58.2816   3.0334104756e+01   2.6668248167e+01    0.1773565    0.1167837 -20.20 0.0006318975    1.561    0.359
       143  -7.6493      5.5020     57.4629   9.5384543909e+01   6.6673120762e+01     0.134831    0.1187469 -58.03 -4.630279e-06    1.022    0.022
       144 -10.1836    161.8911     52.3527   3.4672263696e+01   3.7554278663e+01    0.5882105    0.4005758 -15.46  0.002806234    1.730    0.422
       145  -8.2506     46.8358     55.1699   7.1106951300e+01   6.3064136862e+01    0.2061604    0.1942227  76.95 0.0004850831    1.183    0.155
       146  -7.6157     31.4732     55.5254   7.9573394058e+01   6.5047443148e+01     0.141138    0.1311528 -39.86 0.0001115164    1.013    0.012
       147  -8.8136    188.4014     50.6179   3.0448204373e+01   3.1587091588e+01    0.5124926    0.2344962 -58.21  0.001979422    2.905    0.656
       148  -8.1058     79.2696     52.0736   5.5340435027e+01   5.7648372233e+01    0.2028826    0.1957977 -50.83  0.000262959    1.068    0.063
       149  -8.0299     40.8351     52.0744   7.3146061532e+01   6.4669073336e+01    0.2007393    0.1888436  85.25 0.0002672521    1.193    0.162
       150  -7.3696     10.3060     48.2633   9.0455218788e+01   6.8748614880e+01    0.1381344   0.08828783 -36.58 0.0002170519    1.526    0.345
       151  -7.7573     79.2777     45.2505   5.2460555483e+01   5.8943051854e+01    0.2000821    0.1761332 -82.17  0.001036334    1.333    0.250
       152  -7.5392     56.3475     43.7233   6.1624219246e+01   6.3956295232e+01    0.1430321    0.1161229  75.63 0.0005334681    1.634    0.388
       153  -8.0513     10.5184     43.4356   8.9059060446e+01   6.9936126374e+01    0.1349051    0.1180134 -44.36 2.794568e-05    1.034    0.032
       154 -10.3596    110.3250    241.2974   8.4724609461e+01   1.3025843942e+01     0.214282    0.1936909  -0.83 0.0004321389    1.259    0.205
       155  -7.9324    101.3029     42.3012   4.3981785479e+01   5.4239688144e+01    0.1517893    0.1155005  22.82 0.0001948431    1.589    0.371
       156  -8.0311     75.7427     41.9292   5.2338622123e+01   6.0334953200e+01    0.2424108     0.171678 -68.02  0.001070492    1.984    0.496
       157 -11.0275    202.3798     37.9851   2.5515781542e+01   3.0039481978e+01    0.5131112    0.3023744 -58.88  0.001184522    1.728    0.421
       158  -9.9941    198.1985     34.1988   2.4907064974e+01   3.1390429357e+01    0.3003275    0.2683167 -60.95 0.0008429188    1.056    0.053
       159  -8.1207    157.4820     41.5276   3.1960029693e+01   4.0114413425e+01    0.1404721    0.1348774 -65.64 3.147459e-05    1.031    0.030
       160  -7.8771      7.2989     41.3266   9.0734461936e+01   7.0653995542e+01     0.144683   0.08271954 -40.25 0.0002576964    1.634    0.388
       161  -7.0929     58.2981     38.6925   5.8355218859e+01   6.4584887408e+01    0.1397689    0.1171088 -89.35 0.0002946086    1.592    0.372
       162  -7.6310    111.5132     37.0063   3.9129330202e+01   5.2474689495e+01    0.2125737    0.1126765 -53.84 0.0008072705    2.350    0.574
       163  -7.8595     63.5575     36.6964   5.4960859992e+01   6.3901723441e+01    0.1928014    0.1390534 -49.30 0.0008570575    1.501    0.334
       164  -9.2489    149.1352     32.2675   3.0164528192e+01   4.3395311005e+01    0.4646673    0.2184067 -16.89  0.001756215    2.765    0.638
       165  -8.1685     61.4931    230.9371   9.4333281215e+01   2.0273709643e+01    0.1652983    0.1255556  34.08 0.0003939597    1.064    0.060
       166  -9.8693    206.1004     25.6885   2.1975665262e+01   3.0593368010e+01    0.3315516    0.2432133 -44.89  0.001163743    1.154    0.134
       167  -7.7891     50.5782     34.5122   6.0182881244e+01   6.6856023555e+01    0.1403501    0.1340476  -7.28 -5.210066e-05    1.026    0.026
       168  -7.2709     36.7355     34.6995   6.8202174660e+01   6.9134466463e+01    0.1388576     0.101825 -19.09 0.0001872173    1.518    0.341
       169  -7.3686    107.6284     32.2854   3.8125124504e+01   5.4140455285e+01    0.1552647    0.1116704 -74.03 0.0007018218    1.708    0.415
       170  -7.7763     56.4842     31.4957   5.5645251160e+01   6.6285661953e+01    0.1415031    0.1359009  10.96 0.0001566962    1.029    0.028
       171  -7.7083     10.5226     26.9935   8.3573991496e+01   7.3860994865e+01    0.1915875     0.120043 -61.05 0.0004592047    1.502    0.334
       172  -8.9855    134.5944    229.2930   7.8411165190e+01   1.1877850863e+01     0.205135    0.1575195  23.33 0.0002423558    1.021    0.020
       173  -8.6299    240.0423    229.3092   5.9597943265e+01  -3.1348193801e-01    0.1413177   0.09519839   9.34 0.0003959321    1.124    0.111
       174  -7.3722     51.5745     21.4372   5.2516087043e+01   6.8996477302e+01    0.1378587    0.1292293  13.00 0.0001409179    1.015    0.015
       175  -7.4683     13.4846     20.5021   7.8129476135e+01   7.5052895553e+01    0.1336912    0.1132345 -27.32 -2.522586e-05    1.055    0.052
       176  -9.0890    188.7407     15.3445   2.0552924239e+01   3.5541567180e+01    0.2650046    0.2072055 -77.28 0.0006967187    1.215    0.177
       177  -8.0673    120.2397    225.4432   8.0963610643e+01   1.4265591270e+01    0.2633416   0.08932665 -48.86  0.001193506    3.447    0.710
       178  -8.5978    110.7091    224.4328   8.2900945891e+01   1.5622101727e+01    0.2138009    0.1785531  -7.05 0.0009583928    1.326    0.246
       179 -12.4147     34.1506    213.3282   9.9471972443e+01   2.6329153832e+01     1.067858    0.6543316  49.30  0.003541949    1.323    0.244
       180  -8.1134    153.2568    214.1831   7.2641180666e+01   1.1731724118e+01    0.2297085    0.1386125  19.92  0.001328289    1.470    0.320
