#   1 NUMBER                 Running object number                                     
#   2 MAG_AUTO               Kron-like elliptical aperture magnitude                    [mag]
#   3 X_IMAGE                Object position along x                                    [pixel]
#   4 Y_IMAGE                Object position along y                                    [pixel]
#   5 X_WORLD                Barycenter position along world x axis                     [deg]
#   6 Y_WORLD                Barycenter position along world y axis                     [deg]
#   7 A_WORLD                Profile RMS along major axis (world units)                 [deg]
#   8 B_WORLD                Profile RMS along minor axis (world units)                 [deg]
#   9 THETA_WORLD            Position angle (CCW/world-x)                               [deg]
#  10 FWHM_WORLD             FWHM assuming a gaussian core                              [deg]
#  11 ELONGATION             A_IMAGE/B_IMAGE                                           
#  12 ELLIPTICITY            1 - B_IMAGE/A_IMAGE                                       
         1 -16.8097    236.2221     47.5594   2.6164156001e+02  -6.0540421222e+01    0.6474726    0.4245907  57.11    0.0237899    1.720    0.419
         2 -16.4949     14.1233     26.6594   2.5579568313e+02  -5.3201879898e+01    0.5704725    0.2966695  24.91   0.01951325    1.829    0.453
         3 -14.5279     74.5489     26.6034   2.5681845327e+02  -5.5275222702e+01    0.2883394     0.231665 -46.25  0.009718201    1.245    0.197
         4 -16.0102    133.5067     47.8657   2.5927156577e+02  -5.7064525700e+01    0.2981606    0.2284824  72.32  0.008070175    1.432    0.302
         5 -16.2645    177.1253      6.5349   2.5751216407e+02  -5.8999556662e+01    0.3365101    0.1793886 -74.57   0.01079477    1.900    0.474
         6 -18.2003    245.5305    106.8791   2.6587431609e+02  -6.0051436881e+01    0.7990333    0.7110377  78.71   0.01909459    1.197    0.164
         7 -15.9177    109.2968     57.5596   2.5936583465e+02  -5.6132006564e+01    0.3879135     0.205846 -54.07    0.0093931    1.809    0.447
         8 -12.0807    248.9040     17.0964   2.5984343684e+02  -6.1329230501e+01   0.05346739   0.03717276 -87.59  0.001404213    1.578    0.366
         9 -10.2420    217.1841      1.8533   2.5804352678e+02  -6.0418601920e+01   0.02671666   0.02074279  52.02  0.001074297    1.344    0.256
        10 -12.4405    187.5156    152.5162   2.6707204006e+02  -5.7486632493e+01    0.0497504   0.03743605  55.27 0.0009766264    1.446    0.308
        11 -12.3684    208.1403    154.8744   2.6781292456e+02  -5.8118627393e+01   0.06035829   0.03756554 -35.47   0.00165105    1.832    0.454
        12 -10.5821    165.0850    156.8065   2.6670260241e+02  -5.6692900399e+01   0.02798428   0.02378413 -27.76 0.0005599017    1.239    0.193
        13 -16.4085    248.7116     79.7090   2.6415951822e+02  -6.0538084114e+01    0.2550218    0.1838748 -19.23  0.006938489    1.591    0.371
        14 -13.0785    136.6375    135.8656   2.6470986614e+02  -5.6061109107e+01   0.09884414   0.06652678  -4.23  0.003615782    1.773    0.436
        15 -12.9757    143.1553    134.6006   2.6480063177e+02  -5.6293787035e+01   0.06808547   0.04434029  18.14  0.001655611    1.584    0.368
        16 -11.8810    133.5457    144.9082   2.6516409286e+02  -5.5832580942e+01    0.1131659   0.03605276  14.15  0.002386399    5.125    0.805
        17 -10.2919     60.4516    150.2676   2.6370431317e+02  -5.3346499627e+01   0.02507016   0.01768161   2.06 0.0007426537    1.578    0.366
        18 -12.0613    209.3826    186.7070   2.6977077235e+02  -5.7653276477e+01   0.08061639   0.03943152  -0.58  0.001844663    4.877    0.795
        19 -12.5816     67.8239    144.6538   2.6355934762e+02  -5.3665315413e+01   0.08913818   0.04524954 -40.99  0.002860831    2.171    0.539
        20 -11.7929    143.2641    141.9495   2.6523968367e+02  -5.6194107486e+01   0.03675266   0.03246836  44.19  0.001083387    1.147    0.128
        21 -11.6128    148.6417    140.0852   2.6526862660e+02  -5.6397391346e+01   0.03479722   0.02707997 -80.19 0.0006317418    1.369    0.270
        22 -14.6126     19.6523    122.2219   2.6127293497e+02  -5.2347415025e+01    0.3293565    0.1567602 -66.49  0.009579705    2.042    0.510
        23 -13.7894     13.8702    123.6392   2.6123354141e+02  -5.2136941928e+01   0.08948331   0.06734955  -0.67  0.002753311    1.429    0.300
        24 -10.9433    142.4402    123.9995   2.6414910128e+02  -5.6416372326e+01   0.02848358   0.01786568  21.66 0.0006225028    1.601    0.376
        25 -12.9162     44.9762    120.0883   2.6167896503e+02  -5.3220291440e+01   0.07674279    0.0611992 -85.94 0.0008645816    1.334    0.250
        26 -13.2662     61.5069    120.9960   2.6208409827e+02  -5.3761470040e+01   0.09464894   0.07871792  25.24  0.002295406    1.193    0.162
        27 -13.3625     52.9826    119.0189   2.6178872142e+02  -5.3501310736e+01    0.1086077   0.07827593  56.34  0.004011875    1.512    0.339
        28 -11.2759    134.8419    110.2827   2.6313759949e+02  -5.6347609335e+01   0.07355917   0.01627336  23.97  0.001680859    4.037    0.752
        29 -10.9814    133.3965    104.2779   2.6274068806e+02  -5.6377760644e+01     0.050628   0.03176102  10.08  0.001151352    1.734    0.423
        30 -10.6278    146.3005    111.0104   2.6346133792e+02  -5.6719550036e+01    0.0254865   0.02421628  11.56 0.0006024173    1.057    0.054
        31 -12.9681    170.6592    109.0822   2.6395642999e+02  -5.7554677819e+01   0.06801239   0.04226146 -69.17  0.001633083    1.630    0.386
        32 -12.1438    177.3539    108.2056   2.6407489675e+02  -5.7788555979e+01   0.03992161   0.03513034   6.78 0.0002848009    1.166    0.143
        33 -11.1516    155.2721    110.1117   2.6362956808e+02  -5.7029889896e+01   0.04356952   0.02457603 -79.85  0.001447178    2.043    0.510
        34 -12.6016    154.5309    102.8014   2.6316297651e+02  -5.7102297934e+01   0.08602641   0.04761868  50.41  0.001513201    2.028    0.507
        35 -10.3146    139.5609    102.8301   2.6280039244e+02  -5.6602444506e+01   0.03696634   0.02068984 -47.72   0.00125411    1.792    0.442
        36 -12.8047    167.5803    100.0561   2.6331811652e+02  -5.7573298229e+01    0.0521678   0.04358284  33.49  0.001060293    1.190    0.159
        37 -12.2307    175.8350     91.5861   2.6299536250e+02  -5.7959916804e+01   0.06739888   0.03872632  -8.02  0.002169013    2.314    0.568
        38 -12.5239    183.5589     79.0121   2.6239034450e+02  -5.8380624109e+01   0.05792288   0.03714493  42.27  0.001279338    1.583    0.368
        39 -12.3579    200.4095     73.7512   2.6247380197e+02  -5.9011649592e+01   0.05542172   0.02546425 -70.10  0.001723121    2.221    0.550
        40 -11.8658    177.9816     72.0030   2.6180539498e+02  -5.8282201379e+01   0.03903959   0.02638722  -0.95 0.0009704737    1.674    0.403
        41 -11.3734    179.7741     67.7701   2.6157734736e+02  -5.8395052251e+01   0.04844937   0.03231845 -74.55  0.001670641    1.547    0.353
        42 -11.6549    241.6348    200.7711   2.7163916168e+02  -5.8434901130e+01   0.03666367   0.02878772 -42.68   0.00089442    1.302    0.232
        43 -12.0305    192.1054    194.0504   2.6967636931e+02  -5.6983981097e+01    0.1186205   0.05751854  -1.63  0.002609287    5.324    0.812
        44 -14.7355     13.1664    206.8478   2.6565779677e+02  -5.1019089072e+01     0.237256    0.1883968  12.37  0.007371897    1.300    0.231
        45 -13.6270    163.5589     54.3303   2.6033723943e+02  -5.8010138803e+01   0.09898099   0.08302922 -13.37  0.002345716    1.256    0.204
        46 -10.6470     63.1695     59.6224   2.5857301286e+02  -5.4540085925e+01   0.03795569   0.02604641  28.49  0.001458244    1.422    0.297
        47 -11.4933    185.6646     48.7509   2.6048434622e+02  -5.8823700055e+01   0.04493174   0.02990536  56.71 0.0007504438    1.668    0.401
        48 -11.3640    156.9508     34.5573   2.5892363739e+02  -5.8011092143e+01   0.09068614   0.02650975  47.73    0.0019969    4.592    0.782
        49 -13.3460    210.4175    178.0619   2.6928636118e+02  -5.7826350552e+01   0.07803471   0.06327533 -85.28  0.002260866    1.358    0.264
        50 -12.3809    155.2893     58.2193   2.6039811272e+02  -5.7684473337e+01   0.08705731   0.04536742   5.62  0.002436863    2.252    0.556
        51  -9.9670    234.3068    187.2863   2.7059077060e+02  -5.8433340690e+01   0.01848342   0.01381317  65.28 0.0002333079    1.568    0.362
        52 -14.1517    139.2932     62.0122   2.6028041560e+02  -5.7098381705e+01    0.1520695   0.08394721  32.92  0.003552098    1.744    0.427
        53  -9.3557    110.3177    167.3305   2.6586572524e+02  -5.4750744787e+01   0.01955879   0.01336334  58.69 0.0004469592    1.686    0.407
        54 -13.2005    197.2080    161.0361   2.6786637197e+02  -5.7670641597e+01   0.06985138   0.06282289  60.24  0.001132716    1.163    0.140
        55 -14.1110    190.7467    156.5175   2.6740618340e+02  -5.7530898813e+01    0.1084976    0.0859857  28.87  0.003543383    1.253    0.202
