#   1 NUMBER                 Running object number                                     
#   2 MAG_AUTO               Kron-like elliptical aperture magnitude                    [mag]
#   3 X_IMAGE                Object position along x                                    [pixel]
#   4 Y_IMAGE                Object position along y                                    [pixel]
#   5 X_WORLD                Barycenter position along world x axis                     [deg]
#   6 Y_WORLD                Barycenter position along world y axis                     [deg]
#   7 A_WORLD                Profile RMS along major axis (world units)                 [deg]
#   8 B_WORLD                Profile RMS along minor axis (world units)                 [deg]
#   9 THETA_WORLD            Position angle (CCW/world-x)                               [deg]
#  10 FWHM_WORLD             FWHM assuming a gaussian core                              [deg]
#  11 ELONGATION             A_IMAGE/B_IMAGE                                           
#  12 ELLIPTICITY            1 - B_IMAGE/A_IMAGE                                       
         1 -10.2818     39.7968     14.7987   2.8309279078e+01   7.2531627007e+01     0.234093    0.1375251   9.49 0.0009576586    2.852    0.649
         2 -10.0655      2.3514    249.6848   8.2834395837e+01   2.0495729693e+01    0.1260922   0.04970125  50.23 0.0007046658    1.732    0.423
         3 -10.3684    157.2007    226.3970   4.7279310842e+01   6.8043942690e+00    0.1758998   0.09524844  36.29 0.0009539839    1.684    0.406
         4 -10.2561     96.9931    225.6665   6.0348294975e+01   1.4800543972e+01    0.2260933    0.0536956  44.33 0.0007051476    4.356    0.770
         5 -10.3891    223.3202    215.6694   3.3495875880e+01   3.0232004415e-01   0.09197515   0.08767384  -4.48 0.0007048584    1.692    0.409
         6 -11.2459    165.9360    203.8706   4.2169965086e+01   9.2318888559e+00    0.3639856    0.1676372  37.03  0.001743833    2.039    0.510
         7 -12.2202    162.9222    193.7522   4.1159478259e+01   1.1370131318e+01    0.5081869    0.2986338  29.03  0.002654683    1.574    0.365
         8 -10.7760     46.1642    193.4389   6.9946180493e+01   2.7847342051e+01    0.3279508    0.1746368  27.21  0.001574771    1.747    0.427
         9 -10.8330     56.8005    188.0112   6.6590239670e+01   2.7861966773e+01    0.2234593    0.1249413  48.83  0.001062425    1.609    0.379
        10 -10.8925     44.5061    181.8306   6.9419865251e+01   3.0776043533e+01    0.2946662    0.1777832  54.16  0.001465872    1.515    0.340
        11 -10.5543     38.3634    179.0863   7.0919347204e+01   3.2118300547e+01    0.2885659    0.1762854  38.63  0.001466064    1.427    0.299
        12 -11.3226     35.6324    173.5493   7.1247420438e+01   3.3772395217e+01    0.3440553    0.2089843  47.66  0.001728842    1.447    0.309
        13 -10.5080     80.4961    164.5119   5.7014117157e+01   3.0316045307e+01     0.148525    0.1350324  53.06 -1.823118e-05    1.025    0.024
        14 -10.3618     44.6583    171.3274   6.8409365644e+01   3.3339123133e+01    0.1575425   0.08838737  57.26   0.00070513    1.738    0.425
        15 -10.7711    109.3946    158.6126   4.7854425357e+01   2.7102304430e+01     0.466725     0.212729  37.65  0.001821362    2.045    0.511
        16 -11.3314    120.3550    155.6961   4.4370954476e+01   2.5872228276e+01    0.3272998      0.24531  70.25  0.001544037    1.737    0.424
        17 -10.5664     81.6460    154.3169   5.5090114986e+01   3.2665570780e+01    0.1634436     0.107088  61.96 0.0007046217    1.743    0.426
        18  -9.7414     49.4008    154.2089   6.5106481609e+01   3.7161603944e+01    0.2130118    0.1321395  89.33 0.0009572721    1.746    0.427
        19 -11.0046     88.9770    144.0023   5.1067660101e+01   3.4076313227e+01    0.3437835    0.2394609  67.11  0.001525068    1.721    0.419
        20 -12.9824     84.7943    131.5807   4.9974956227e+01   3.7931488791e+01    0.6310077    0.3933501  58.11  0.002612573    1.864    0.464
        21 -12.8496     97.7551    125.7333   4.4619916324e+01   3.7099466233e+01    0.7096276    0.3376216 -68.65  0.002245293    3.285    0.696
        22 -11.1464     43.1178    122.2605   6.2899476195e+01   4.6506246747e+01    0.3103469    0.1777893  73.34  0.001245067    2.147    0.534
        23 -11.7378    131.5079    118.6714   3.3323375174e+01   3.2050951254e+01    0.4286461    0.1942289  50.10  0.001539145    2.394    0.582
        24 -11.0791    141.4868    117.4875   3.0537212546e+01   3.0225329264e+01    0.1504291    0.1473983 -36.06 0.0004173613    1.009    0.009
        25 -12.3738    108.5989    110.2095   3.7553125887e+01   3.8742317920e+01    0.2924115    0.2732414 -18.87  0.001498552    1.170    0.146
        26 -14.4196     94.7882    111.5589   4.2208693513e+01   4.1177321161e+01    0.9747916    0.6811231  61.44  0.004223966    1.660    0.398
        27 -12.0509    124.6499    112.6143   3.3607907846e+01   3.4834572150e+01    0.5055847    0.1500969  42.62  0.001477672    3.436    0.709
        28 -12.2204     66.3305    109.8620   5.1778158642e+01   4.6662312696e+01    0.4494066    0.2958432 -79.77  0.001905089    1.790    0.441
        29 -13.5949    147.1545    107.2060   2.6591103329e+01   3.1156280982e+01    0.9553521    0.6101398  77.36  0.003673621    2.637    0.621
        30 -12.6768    155.0140    108.9935   2.5293168597e+01   2.9105067710e+01    0.4778562    0.3086434 -49.68  0.002172689    1.545    0.353
        31 -11.6003     45.4882    102.4872   5.8449187170e+01   5.1629529664e+01    0.3779976    0.1653575  52.92  0.001276402    2.954    0.661
        32 -13.9248    109.4706     98.4671   3.4122539484e+01   4.1293336318e+01    0.8720769    0.5750563  72.55  0.003418923    2.193    0.544
        33 -12.8993     82.3473     99.4275   4.3314602435e+01   4.6578458476e+01    0.4879738    0.3145844 -64.75  0.002049515    1.703    0.413
        34 -12.1475     77.7763    108.5168   4.7267207392e+01   4.5097808910e+01    0.3117379    0.2248659 -58.35  0.001418944    1.379    0.275
        35 -14.3011     95.2110     94.2061   3.7411205953e+01   4.5306534874e+01     1.141767    0.5693133 -59.02  0.004080661    2.355    0.575
        36 -12.3199     63.9821     96.9772   4.9629104342e+01   5.0431192631e+01    0.3440683    0.2463936 -82.86  0.001527246    1.655    0.396
        37 -11.6610    166.7659     95.1085   1.9295833608e+01   2.9213345072e+01    0.3649385    0.2288616 -55.13  0.001638194    1.715    0.417
        38 -11.2472    142.0338     93.4900   2.4079947600e+01   3.5070938188e+01    0.2363045    0.1517284  51.42  0.001034743    1.596    0.373
        39 -13.7787    127.1770     90.8180   2.6967259037e+01   3.9019998621e+01    0.8198684    0.5067241  70.35  0.003175822    2.260    0.558
        40 -13.8474    130.4130    101.6270   2.9176590891e+01   3.5998509305e+01    0.7559012    0.5215845  63.56  0.003316262    1.685    0.406
        41 -11.5702    151.8878     89.1460   2.0683239497e+01   3.3664790988e+01    0.2464758    0.2070467 -74.92  0.001253474    1.288    0.223
        42 -13.3663     86.3347     84.9761   3.7725706111e+01   4.9315557772e+01    0.5275744    0.4438989 -76.67  0.002569234    1.311    0.237
        43 -11.7991     48.9215     84.6307   5.2849443227e+01   5.5940850014e+01     0.575351    0.2766331  62.35   0.00170145    4.233    0.764
        44 -11.5594    141.8667     83.5521   2.1277822019e+01   3.7062377411e+01    0.3573746    0.2233761  76.71  0.001411431    2.273    0.560
        45 -12.5925    119.1178     79.9318   2.5822604739e+01   4.3150023311e+01    0.3749314    0.2611236 -62.68  0.001634386    1.649    0.394
        46 -12.1701     75.1779     80.6873   4.0571073219e+01   5.2544189813e+01    0.3187341    0.2422204  66.57  0.001457901    1.556    0.357
        47 -12.4780    129.6585     75.6661   2.1762348555e+01   4.1489908664e+01    0.3747489    0.2788042  77.08  0.001720336    1.550    0.355
        48 -13.6037     81.8307     71.3555   3.4934959742e+01   5.3373130103e+01    0.8743898    0.3891593 -56.15  0.002974484    2.729    0.634
        49 -12.7704     95.3674     70.0919   2.9710256900e+01   5.0698954018e+01    0.5743803    0.2992687 -52.39  0.002193302    2.096    0.523
        50 -11.4969     51.2190     68.4605   4.7049601991e+01   5.9687395379e+01    0.4877536    0.1920791 -66.77  0.001398714    4.242    0.764
        51 -11.9296     62.4935     71.9639   4.3018746219e+01   5.6968847705e+01    0.4214193    0.1479016 -52.98  0.001385042    2.816    0.645
        52 -10.4770     25.3374     56.3260   5.7097975272e+01   6.6014444032e+01    0.1530685   0.09579544 -31.14 0.0007051553    1.724    0.420
        53 -11.1068     30.5734     48.7852   5.1402551485e+01   6.7247431096e+01    0.1964054    0.1350542 -71.28 0.0009559173    1.695    0.410
        54 -10.5031     36.0000     38.9913   4.4037482048e+01   6.8712058326e+01    0.2313277   0.07681596 -52.00 0.0008087702    2.987    0.665
