#   1 NUMBER                 Running object number                                     
#   2 MAG_AUTO               Kron-like elliptical aperture magnitude                    [mag]
#   3 X_IMAGE                Object position along x                                    [pixel]
#   4 Y_IMAGE                Object position along y                                    [pixel]
#   5 X_WORLD                Barycenter position along world x axis                     [deg]
#   6 Y_WORLD                Barycenter position along world y axis                     [deg]
#   7 A_WORLD                Profile RMS along major axis (world units)                 [deg]
#   8 B_WORLD                Profile RMS along minor axis (world units)                 [deg]
#   9 THETA_WORLD            Position angle (CCW/world-x)                               [deg]
#  10 FWHM_WORLD             FWHM assuming a gaussian core                              [deg]
#  11 ELONGATION             A_IMAGE/B_IMAGE                                           
#  12 ELLIPTICITY            1 - B_IMAGE/A_IMAGE                                       
         1 -14.2901     80.1815    156.7672   1.0259076372e+02   3.2719689160e+01     3.148802       1.2944  56.05  0.002198715    4.197    0.762
         2 -13.9435    228.1384     17.3925   3.5715962070e+01   2.7140148767e+01     1.602239     1.109412  23.12  0.002683547    2.424    0.588
         3 -13.6437    201.8888     40.4633   4.4081278431e+01   3.0325830082e+01     1.248425     1.068266  10.92  0.004836114    1.483    0.326
         4 -13.4106    209.9799     35.0261   4.1711347993e+01   2.9136918919e+01     1.143263    0.7477047 -41.35  0.004944378    1.445    0.308
         5 -12.6900    217.6196     27.7107   3.9094581367e+01   2.8286295050e+01    0.6065392    0.4187015  39.82  0.001261132    1.903    0.474
         6 -10.6102    125.5480      5.5537   4.5298914766e+01   5.2505050960e+01    0.3927828    0.2383073 -80.14   0.00179457    2.476    0.596
         7 -10.0061      2.0000      3.4945   9.0789237167e+01   7.3991642482e+01    0.2347913   0.05086486 -46.93 0.0009384304    3.965    0.748
         8 -10.9864    248.5227      1.8449   3.0912214156e+01   2.4522821312e+01    0.4044439    0.1632279  78.48  0.002056974    2.406    0.584
         9 -13.4252     32.1104    206.3417   1.1990373434e+02   2.7081659138e+01    0.6970441    0.4649631 -41.97   0.00409192    2.174    0.540
        10 -11.1672    139.4993    249.4962   1.0240909738e+02   4.4288721515e+00     0.259322    0.1942728  52.78  0.001543567    1.360    0.265
        11 -13.7813      3.6328    184.2139   1.2427058772e+02   3.4487931328e+01     1.436896    0.6073639 -84.24   0.00743676    2.006    0.501
        12 -16.2587     31.8875    182.4706   1.1794742733e+02   3.2394562893e+01     9.220204     3.489542  82.13   0.03025029    4.849    0.794
        13  -8.8583     79.6448    183.3247   1.0677753831e+02   2.6483010785e+01    0.1475878   0.09527945  67.27 0.0007046135    1.768    0.434
        14 -10.5588    144.7463    180.5060   9.0615456088e+01   1.6491483715e+01    0.3055832    0.2488091 -72.18  0.001577334    1.509    0.337
        15  -9.1029     99.4954    181.0243   1.0160238700e+02   2.4068257779e+01    0.2010358    0.1358432 -59.51 0.0004569249    1.491    0.329
        16 -12.0646     60.1936    178.9305   1.1091248743e+02   3.0071625821e+01    0.4320953    0.3105454 -29.37  0.002285574    1.969    0.492
        17 -11.9408     65.5112    173.4420   1.0890163487e+02   3.0696590912e+01    0.3258389    0.2614713 -41.22  0.001247257    1.449    0.310
        18 -11.7538     75.4625    163.7684   1.0496954845e+02   3.1687747569e+01    0.3303743     0.304632  48.27 0.0004339951    1.129    0.114
        19 -13.4630     58.2468    132.4123   1.0453936522e+02   4.1641648152e+01     2.904925    0.8907312 -72.13  0.006020404    8.945    0.888
        20 -11.1665    169.8856    231.6350   9.3826127629e+01   2.6838201223e+00    0.2990196    0.1801791 -36.16  0.001202619    1.870    0.465
        21 -13.4632     62.7006    159.7417   1.0770274732e+02   3.4349131762e+01    0.5401274    0.3166183 -44.99  0.001695513    1.884    0.469
        22  -9.4023    158.2497    161.6506   8.3650813820e+01   1.7957238141e+01    0.3068517    0.1867404 -76.03 0.0009623577    4.168    0.760
        23  -9.8199    125.0474    154.1279   9.0220781801e+01   2.5937550598e+01     0.222978    0.2117203  87.70  0.000436592    1.123    0.109
        24  -9.5768    175.0313    149.0584   7.7014396763e+01   1.7259178293e+01    0.2321909    0.1936193 -86.75 0.0006398966    1.669    0.401
        25 -10.7141    134.0050    146.1961   8.6206447660e+01   2.6067115615e+01    0.7886677    0.2078611 -53.22  0.001982118    4.897    0.796
        26 -15.8855     59.8413    247.4933   1.1763231029e+02   1.5739857748e+01     9.631443     2.717403  27.99   0.01771063    8.598    0.884
        27 -12.0492     31.8399    143.8274   1.1378512812e+02   4.1596948627e+01    0.5584988    0.3113427  13.02  0.002730379    2.489    0.598
        28 -10.6890     97.3292    143.3031   9.5398961266e+01   3.3357759265e+01    0.3242045    0.2875863 -46.78 0.0009303658    1.103    0.094
        29  -9.8510    100.4851    139.9706   9.3829519168e+01   3.3638940341e+01    0.3825412    0.2325017 -29.64 0.0009028749    2.220    0.549
        30 -12.2700     85.4002    141.5447   9.8389998830e+01   3.5674096817e+01    0.3236138    0.2588395 -44.42  0.000564011    1.244    0.196
        31 -11.2239     75.4714    136.4034   1.0023562433e+02   3.8396739272e+01    0.3380177    0.1941506  53.71 0.0007163942    2.131    0.531
        32  -9.9390    158.1958    134.1882   7.7391465253e+01   2.3839373775e+01    0.2117979    0.1887243 -82.04  0.000548418    1.356    0.262
        33 -10.6689     22.9883    133.0009   1.1486079705e+02   4.4997030983e+01     0.198784    0.1632705 -73.71 0.0003357697    1.007    0.007
        34 -10.9275    107.4073    131.2870   8.9972617222e+01   3.4522347936e+01    0.5318333    0.3265695  38.48  0.002024826    1.683    0.406
        35 -12.1054     66.9363    126.9996   1.0092813706e+02   4.1888240359e+01    0.5787055    0.3296574 -71.74  0.002507591    1.971    0.493
        36 -10.3940    135.5959    128.3093   8.1590370888e+01   2.9807946426e+01     0.318849    0.1492567 -50.92  0.001144659    2.234    0.552
        37 -10.2375    115.6811    125.3226   8.6237088693e+01   3.4408414696e+01    0.3120206    0.2197234 -10.60  0.001306313    2.020    0.505
        38  -9.3747    120.4035    120.7385   8.3784399093e+01   3.4561750972e+01    0.2146267    0.1428606 -37.60 0.0003842304    1.523    0.344
        39 -10.9417     96.2187    127.5948   9.2336356690e+01   3.7346916722e+01    0.3043488    0.2543474  -8.99 0.0004932345    1.391    0.281
        40  -9.7625    106.0808    119.9843   8.7661888369e+01   3.7439129507e+01    0.2211611    0.2086077 -24.18 0.0003348712    1.049    0.046
        41 -13.4210     68.4320    144.5072   1.0372274773e+02   3.7354257121e+01    0.8799239    0.6157113  79.00  0.002845033    1.741    0.426
        42 -10.5832    137.5191    170.4812   9.0411460679e+01   1.9960587488e+01    0.2641785    0.2602824  11.27   0.00111701    1.020    0.020
        43  -9.4728    168.0703    113.0824   6.9747014353e+01   2.6103691810e+01    0.2529249    0.1967505 -79.68  0.001131157    1.788    0.441
        44  -9.9543    205.3110    110.4582   6.1488673825e+01   1.8413242916e+01    0.3212183    0.2372108  37.26  0.001133326    1.486    0.327
        45  -9.7821    134.0126    106.0291   7.6183766033e+01   3.5048889652e+01    0.2485306    0.2002698 -82.43  0.001135373    1.672    0.402
        46  -9.1013     67.3125    105.6872   9.6190263005e+01   4.7039653779e+01    0.1406634    0.1120481  79.04 0.0003694141    1.634    0.388
        47  -8.8524    130.2961     96.6271   7.4524521531e+01   3.7832082820e+01    0.1589901    0.1251818 -77.15 0.0007027049    1.738    0.425
        48 -10.9248     52.8995     90.8643   9.7504962740e+01   5.2360382949e+01     0.304009    0.1862226 -48.33  0.001500924    1.405    0.288
        49 -10.1047     41.7815     92.1440   1.0177219516e+02   5.3265472015e+01    0.1916962    0.1724207 -65.25 0.0004960921    1.154    0.134
        50 -14.2801     85.6385    229.0484   1.1092888316e+02   1.5888787059e+01     1.530689     1.231122  41.39  0.006146264    1.171    0.146
        51  -9.3406    160.6962     82.3181   6.2896188150e+01   3.3718614047e+01    0.1543764    0.1204425 -72.49 0.0002574333    1.626    0.385
        52 -14.7525      8.9101    207.4433   1.2461172119e+02   2.9058711693e+01     1.228503       1.0901 -36.70  0.006854546    1.655    0.396
        53 -11.0305     13.4621     60.1365   1.0509105218e+02   6.2749339364e+01    0.2398687    0.1824577 -52.62 0.0004126358    1.121    0.108
        54 -10.1447     42.8569     59.9623   9.2613576129e+01   6.0278777925e+01    0.2770293    0.1777935  36.91  0.001168583    1.862    0.463
        55 -13.6686     18.0522    218.8631   1.2353098675e+02   2.5870897309e+01    0.8560469    0.4339326  53.62  0.002650566    1.658    0.397
        56  -9.4614    108.9905    192.5045   1.0110809544e+02   2.0005470346e+01    0.2713578    0.1568312  76.62  0.001014667    3.249    0.692
        57 -12.0311    183.6262    216.2059   8.8523912723e+01   3.0363615197e+00    0.3668434     0.273299  27.57  0.002122151    1.188    0.158
        58 -15.4538      8.4809    240.5607   1.2638530202e+02   2.2558094414e+01      1.94381     1.844229  87.63   0.01680008    1.471    0.320
        59  -9.7980      4.9404     50.0000   1.0622663945e+02   6.5360140190e+01    0.1644024   0.06574795  12.52 0.0004394324    2.896    0.655
        60 -10.7928    135.5605     42.2566   5.5965808068e+01   4.6126918369e+01    0.2932309    0.2524787 -76.51  0.001172888    1.388    0.279
        61  -9.0856    135.1924     34.1710   5.3315642645e+01   4.7266213693e+01    0.1781809      0.16131 -77.03 0.0002981935    1.260    0.206
        62  -9.5864    189.5085     15.1084   3.8988097292e+01   3.6210037574e+01    0.1819554     0.125829 -31.37 0.0006317265    1.536    0.349
        63  -9.8731    209.8663    199.8303   8.0299756952e+01   1.4838674830e+00    0.1645103     0.157658  13.06  0.001043278    1.303    0.233
        64 -11.2445    193.5840    195.7607   8.2788432383e+01   4.8768181757e+00    0.8129396    0.4573207 -64.95    0.0024482    6.144    0.837
