#   1 NUMBER                 Running object number                                     
#   2 MAG_AUTO               Kron-like elliptical aperture magnitude                    [mag]
#   3 X_IMAGE                Object position along x                                    [pixel]
#   4 Y_IMAGE                Object position along y                                    [pixel]
#   5 X_WORLD                Barycenter position along world x axis                     [deg]
#   6 Y_WORLD                Barycenter position along world y axis                     [deg]
#   7 A_WORLD                Profile RMS along major axis (world units)                 [deg]
#   8 B_WORLD                Profile RMS along minor axis (world units)                 [deg]
#   9 THETA_WORLD            Position angle (CCW/world-x)                               [deg]
#  10 FWHM_WORLD             FWHM assuming a gaussian core                              [deg]
#  11 ELONGATION             A_IMAGE/B_IMAGE                                           
#  12 ELLIPTICITY            1 - B_IMAGE/A_IMAGE                                       
         1 -12.2669     84.8657     21.0438   7.2432096999e+01   6.0945075485e+01    0.7597381    0.5438752 -39.76  0.002238415    1.472    0.321
         2 -11.6826     21.0320     18.5666   9.9116645109e+01   7.0653863199e+01    0.5379272    0.4573644 -83.06  0.002230602    1.740    0.425
         3 -11.6774    129.4964     23.1536   6.1147791061e+01   5.0539066444e+01    0.5436069    0.4492483 -13.41  0.001750311    1.224    0.183
         4 -11.9262     60.5086     22.8704   8.2361197107e+01   6.5034423881e+01    0.5179954    0.3250454 -57.46  0.002437887    2.503    0.601
         5 -11.5761      4.4625     18.4381   1.0812216909e+02   7.1849578895e+01    0.3872633    0.2948542  20.04  0.002675935    1.641    0.391
         6  -9.8303     34.9226     15.9196   9.0674578223e+01   6.9724584718e+01     0.404985    0.1873998 -31.10  0.001941663    2.118    0.528
         7 -11.6577     74.1310      7.1030   6.9178626353e+01   6.4892115309e+01    0.3132529    0.2198483 -20.61 0.0003122942    1.322    0.244
         8 -12.0829     81.3709      6.2674   6.6316232774e+01   6.3552395479e+01    0.5099716    0.2858192  34.07 0.0002215768    1.787    0.440
         9 -11.5444     75.5481     15.7252   7.3083093016e+01   6.3502246534e+01    0.6598265    0.3550103 -11.44  0.002848407    2.381    0.580
        10 -11.1833     70.5496     14.7027   7.4397976965e+01   6.4570998910e+01    0.4055647    0.2216893 -21.45  0.001515836    1.839    0.456
        11 -10.5695     64.4362     14.4555   7.6624567656e+01   6.5687029383e+01    0.4109846    0.2042781  25.04  0.001737464    2.736    0.635
        12 -10.6298    169.0137     13.4433   5.0446277557e+01   4.1348712879e+01    0.2693936    0.1795715  53.00 0.0007716611    1.449    0.310
        13 -10.3731    157.5671     12.4882   5.1819155182e+01   4.4487918584e+01    0.3849487    0.1983058 -50.93  0.001544486    2.302    0.566
        14 -10.3064    100.0907     12.9544   6.4018582880e+01   5.8764941610e+01    0.3173609    0.1926824 -11.92  0.001002047    1.750    0.429
        15 -10.3480     55.0169     13.3543   7.9951002881e+01   6.7395551569e+01    0.2301682    0.1663898 -33.78 0.0003047197    1.298    0.230
        16 -10.4688     26.5565     13.8770   9.4020224884e+01   7.0992284304e+01    0.2052661     0.138845 -22.63 0.0003957462    1.338    0.252
        17 -10.5062     30.8411     13.0152   9.1331176597e+01   7.0688164582e+01    0.2121506    0.1525919 -30.33 0.0003663334    1.114    0.102
        18 -10.0226    138.4521     12.2116   5.4977655603e+01   4.9520811072e+01    0.3469365    0.1922986 -68.79  0.001291045    2.975    0.664
        19 -11.1387    117.5545     10.1437   5.8404077662e+01   5.4985196667e+01    0.5976974    0.3038909 -43.16  0.002319196    2.292    0.564
        20  -9.9630    115.6506      5.3299   5.6724016548e+01   5.5934838518e+01    0.2316559    0.1836855 -61.75  0.001230241    1.569    0.363
        21  -9.8240     50.8210     11.2386   8.0680910539e+01   6.8356859645e+01    0.2321085    0.1411685  -9.38 0.0008297076    1.888    0.470
        22  -9.9324      5.4392     11.6515   1.0494640994e+02   7.3112810084e+01    0.1971077   0.09091875 -42.76  0.001118013    1.613    0.380
        23  -9.6677      6.6384      8.0917   1.0268742012e+02   7.3704582692e+01    0.1775518    0.1507831 -54.06 0.0005550946    1.322    0.244
        24 -10.6879    235.6160     10.5561   4.2397496490e+01   2.4612495350e+01    0.2525772    0.1239807  -5.02 0.0009599729    3.326    0.699
        25  -9.5227    185.5354     10.9883   4.7473982636e+01   3.7216340487e+01    0.2149353    0.1782208  76.47 0.0002422203    1.169    0.144
        26 -12.4573     13.1373      3.1361   9.6272875613e+01   7.4103563390e+01    0.6558585    0.3898802  18.60  0.002640072    1.891    0.471
        27 -11.8416     24.4640      6.0157   9.1147366810e+01   7.2552514890e+01    0.5664865    0.3314336 -16.00  0.002881451    1.832    0.454
        28 -13.0594     32.1121      2.0538   8.4698169595e+01   7.2300135768e+01    0.3183802    0.2063449  25.54 0.0006044162    1.627    0.385
        29 -10.2578     59.4901     10.2147   7.6406711307e+01   6.7127207066e+01    0.2196868     0.170539  30.63 0.0007109004    1.309    0.236
        30 -10.9755    127.8491      9.0170   5.5740439462e+01   5.2550998090e+01    0.3942788    0.2351284 -63.98  0.001415648    2.495    0.599
        31  -9.3659    107.8761      9.1928   6.0261979616e+01   5.7399701179e+01    0.1973031    0.1485456  18.27  0.001038971    1.334    0.251
        32 -10.3827     91.8641      6.7998   6.3394740733e+01   6.1280318430e+01    0.4283134    0.2605601  14.48  0.002032113    1.889    0.470
        33 -10.3811    146.4920      6.6341   5.1425868800e+01   4.7985337098e+01    0.3398084    0.2033878 -54.86  0.001499938    2.018    0.505
        34  -9.7434     59.8024      5.6507   7.3794053943e+01   6.7687999063e+01    0.2579528    0.1588905  49.40  0.001384451    1.884    0.469
        35 -10.0238    228.7251      5.3274   4.1587439279e+01   2.6794849601e+01    0.2294492    0.1564353  88.07 0.0009636967    1.471    0.320
        36  -9.2330    176.3167      5.0485   4.6669478433e+01   4.0236604290e+01    0.2326745    0.1059021  11.60 0.0005450844    4.446    0.775
        37 -10.3480    167.8966      2.3226   4.6799235919e+01   4.2720745299e+01    0.2326844    0.2022566 -12.09 0.0002855363    1.235    0.190
        38 -10.1080    125.8032      1.9692   5.3202501981e+01   5.3732945889e+01     0.309697    0.1765623 -74.53  0.001223126    2.861    0.651
        39  -9.4161    250.5005    219.4463   8.7790293167e+01  -5.2247343461e+00    0.1146272   0.08293353  15.38 8.665289e-05    1.028    0.027
        40 -10.0901    247.1555    250.0772   9.2953740776e+01  -7.6179843475e+00    0.2067524     0.121235  16.32   0.00124897    1.410    0.291
        41 -10.5634    250.4011    245.6338   9.1821795675e+01  -7.6567226380e+00    0.3135871    0.1274985 -25.03  0.001837516    2.739    0.635
        42 -12.3810    233.9031    246.7491   9.4537330076e+01  -5.5518781688e+00    0.5699845    0.2971378  27.26  0.003698983    1.500    0.333
        43 -11.8923     16.7983    238.2090   1.3001132859e+02   2.4799690185e+01    0.9258212     0.144728  36.50  0.004065942    4.697    0.787
        44 -10.2687      5.7069    235.3829   1.3163683226e+02   2.6311682549e+01    0.2092454    0.1530187  52.53  0.001198276    1.325    0.245
        45 -12.8668     20.2799    248.4436   1.2985735480e+02   2.2831415916e+01    0.9164004    0.1947639  38.85   0.00474363    3.338    0.700
        46 -12.9205      6.9592    244.4626   1.3173265799e+02   2.4740104464e+01     0.946893    0.3988233  38.07  0.006482668    2.156    0.536
        47  -9.6935    173.8161    219.6422   1.0084229076e+02   6.5249498538e+00     0.178225   0.09111896  47.23 0.0009464717    1.750    0.428
        48 -11.0237    235.4290    215.1402   8.9508442019e+01  -2.5872381102e+00     0.362228    0.1844035 -14.77   0.00194203    2.390    0.582
        49 -11.2416    240.8229    212.2529   8.8156246125e+01  -3.0782328597e+00    0.3542498     0.243025   8.22  0.002362594    1.282    0.220
        50  -9.3452     63.1614    243.8362   1.2283232473e+02   1.8835466630e+01    0.1249458    0.1066502  54.39  0.000436149    1.333    0.250
        51 -10.7795      9.6984    216.9546   1.3034186542e+02   2.9061125211e+01    0.2619767    0.1286221  61.78  0.001187438    1.470    0.320
        52 -10.1467    193.1271    216.2531   9.6899500428e+01   3.8710520096e+00    0.3788211    0.1682583  24.98  0.001574567    3.254    0.693
        53  -9.4786     38.0166    217.4815   1.2551968621e+02   2.6123425514e+01    0.1497462   0.08610006  43.27 0.0005944632    1.538    0.350
        54 -10.7304     24.0286    216.8307   1.2791169698e+02   2.7701644732e+01    0.2592556   0.06864456  43.57   0.00136914    2.589    0.614
        55  -9.2721    136.3813    216.2793   1.0728763625e+02   1.2997074228e+01    0.1172978   0.08623896  19.35 0.0007006227    1.717    0.418
        56 -10.4349     31.0930    215.8456   1.2663941096e+02   2.7151878771e+01     0.228859    0.1278193  43.49  0.001568138    1.569    0.362
        57  -9.5007    201.5312    215.5466   9.5313938128e+01   2.6156555422e+00    0.1217098   0.09412771  24.28 0.0008071686    1.064    0.060
        58  -9.5872    170.3000    213.3259   1.0058775765e+02   7.9756891752e+00    0.1193507   0.08608995  13.59  0.000457028    1.635    0.388
        59 -11.0764     21.2474    212.1974   1.2816801609e+02   2.8803928643e+01     0.324067    0.1230993  55.52  0.001914789    1.971    0.493
        60 -10.2211    208.9765    212.0655   9.3472973784e+01   1.8601644590e+00    0.1826081    0.1441942  22.90 0.0004556896    1.019    0.019
        61  -9.1357     76.3518    212.3049   1.1817925560e+02   2.2437205008e+01   0.09850194   0.09018906   1.38 0.0007041317    1.707    0.414
        62  -9.4809      2.2983    212.3330   1.3140478107e+02   3.0541659434e+01    0.1285088     0.110842  62.14 0.0007766595    1.410    0.291
        63 -11.7700      4.8526    207.5920   1.3079706798e+02   3.1165548492e+01    0.4780062    0.1922451  81.11  0.002867934    2.091    0.522
        64  -9.2958    218.3245    207.3244   9.1092032767e+01   9.4943297280e-01    0.1259512   0.07875255  13.46  0.000389294    1.688    0.408
        65  -9.7127    123.9620    205.8987   1.0837028875e+02   1.6645106113e+01    0.1642629    0.1409482  36.12  0.001105574    1.210    0.173
        66 -11.4637     18.8063    202.9759   1.2814708552e+02   3.0725552210e+01    0.2941571    0.2155008 -88.77  0.001019392    1.253    0.202
        67 -10.2412    175.3231    202.6020   9.8056585189e+01   8.6934693209e+00    0.2013901    0.1811182  42.14  0.000555202    1.138    0.122
        68  -9.1814     67.9849    203.7651   1.1902726250e+02   2.5075542423e+01    0.1428295   0.08194081  42.92 0.0004184052    1.539    0.350
        69  -9.5140    223.6001    201.8053   8.9263048674e+01   7.7653513802e-01     0.147861    0.1103964 -39.10 0.0006744375    1.709    0.415
        70  -9.0914    238.6621    201.2820   8.6648779451e+01  -1.5338902941e+00    0.1021432   0.09268358  48.89  0.000700997    1.623    0.384
        71  -9.6473     34.4742    201.0837   1.2517738998e+02   2.9497489474e+01    0.1571379    0.1157773  60.05 0.0004970912    1.128    0.113
        72  -9.4251    227.1297    196.8751   8.7809271427e+01   8.1022465333e-01    0.1760138    0.1209062  13.39 0.0009581659    1.359    0.264
        73 -10.0534     10.7274    208.6012   1.2982783393e+02   3.0453894410e+01    0.1630566    0.1364627 -66.23 0.0007076507    1.668    0.401
        74 -10.1017    215.4635    194.8902   8.9477254164e+01   2.9757890122e+00      0.16727    0.1167771 -26.17 0.0003905661    1.521    0.343
        75 -10.1884    187.3069    190.3437   9.3808696181e+01   8.4399065776e+00    0.1316195   0.09213042  10.04 0.0005797338    1.692    0.409
        76  -9.5027    211.4037    188.7870   8.9116722725e+01   4.4716366153e+00     0.176789    0.1115261 -16.69 0.0009498714    1.806    0.446
        77  -9.2431      1.5922    188.2294   1.3059492424e+02   3.5054423870e+01    0.1351337   0.07735039 -77.83 0.0005369963    1.558    0.358
        78  -9.8906    218.0000    186.9011   8.7607760038e+01   3.5975376663e+00     0.190319   0.06935503 -34.71 0.0008008066    2.931    0.659
        79  -9.4766     61.7765    185.0419   1.1857475628e+02   2.9473214028e+01    0.1525003   0.08789226 -75.52  0.000876248    1.672    0.402
        80  -9.3315      8.6466    184.2995   1.2909674674e+02   3.5220393869e+01     0.117082   0.05510056  63.27 0.0005453604    1.698    0.411
        81  -9.9540    167.4547    183.4915   9.6472416511e+01   1.3043729207e+01    0.1314363    0.1160053  36.87 0.0002471237    1.014    0.014
        82 -11.2785     16.0478    182.7940   1.2759555730e+02   3.4859791246e+01    0.3793111    0.1653233  79.62  0.002109112    2.064    0.515
        83  -9.9717      1.9121    180.1615   1.3018257589e+02   3.6597543403e+01    0.1674469    0.1031368  68.58 0.0005201803    1.219    0.180
        84 -10.3990    244.1730    178.5113   8.1592016958e+01   2.9407267792e-01    0.2455659    0.1409256  -9.82 0.0009800299    1.910    0.477
        85 -10.9394    224.3826    178.4987   8.4929040056e+01   3.6231611684e+00    0.2647186    0.2130374  34.51 0.0005180049    1.213    0.176
        86  -9.6393     70.0884    177.6690   1.1608484405e+02   2.9899173773e+01    0.1617065    0.1364966  54.37 0.0005172875    1.176    0.150
        87  -9.2013     36.4472    178.4646   1.2323129043e+02   3.3727373589e+01    0.1153248   0.08933439  76.84 0.0002010029    1.014    0.014
        88 -10.0531    200.2587    176.5845   8.8912990953e+01   8.1740059950e+00    0.2218542    0.1529959  -5.71 0.0008035345    1.734    0.423
        89  -9.8851     46.4668    177.2136   1.2105035508e+02   3.2887953251e+01    0.2120636    0.1479442  45.91  0.001338895    1.382    0.276
        90 -11.3764     18.1451    173.0054   1.2659783115e+02   3.6641937152e+01    0.3795336    0.1534314  67.54  0.001952426    2.342    0.573
        91  -9.3447     75.0549    170.9697   1.1424940470e+02   3.0619309191e+01    0.1817222    0.1512996 -32.39  0.001118103    1.751    0.429
        92 -10.3308     40.3854    170.0764   1.2172574300e+02   3.5043742370e+01    0.3384487   0.08569098 -68.72  0.001391356    3.326    0.699
        93  -9.3212    210.0212    166.0085   8.5060760603e+01   7.9562829677e+00    0.1655293    0.1410314  22.32 0.0007128931    1.046    0.044
        94  -9.7250     67.1892    165.1758   1.1532518570e+02   3.2894837678e+01    0.1820621    0.1249284  68.73 0.0008493877    1.354    0.262
        95 -10.6993     51.2385    164.5574   1.1883659532e+02   3.4997475151e+01    0.3726617    0.1969108 -56.42  0.001997037    2.050    0.512
        96 -11.0009     44.5422    162.7867   1.2015632378e+02   3.6138388512e+01    0.3299727    0.1773235 -80.31  0.001635536    1.686    0.407
        97 -10.5456     48.1043    160.1379   1.1909412631e+02   3.6310783962e+01    0.2904604    0.1978721  40.10  0.001564071    1.532    0.347
        98 -11.6087     35.9200    162.6859   1.2205972539e+02   3.7082233544e+01    0.4300974    0.2398235  49.85   0.00255152    1.630    0.386
        99 -11.7396     36.9141    157.8375   1.2140565869e+02   3.8024547815e+01    0.2501408     0.168972  84.18 0.0002697743    1.254    0.203
       100  -9.4138    200.4568    162.5635   8.6149306730e+01   1.0277763101e+01    0.1346494    0.1220488  20.77 0.0002237888    1.049    0.047
       101  -9.9510    237.9937    159.0080   7.8741749884e+01   3.8635217589e+00    0.2031269    0.1305595   9.53   0.00104808    1.715    0.417
       102 -11.3857     22.4545    156.4093   1.2452568945e+02   3.9737857177e+01    0.4000907    0.3045025  55.27  0.002832464    1.273    0.214
       103 -10.2190    247.4627    158.4771   7.7082106265e+01   2.2799727227e+00    0.1283512    0.1087794   0.23 7.278933e-05    1.053    0.050
       104 -10.3697     12.2268    153.1893   1.2655781753e+02   4.1312521217e+01    0.2311969    0.1618881  23.07  0.001103725    1.925    0.481
       105  -9.6318    205.4056    151.7816   8.2986196288e+01   1.1016994662e+01    0.1958407    0.1266269 -20.80 0.0009260938    1.689    0.408
       106 -10.3965    178.1449    151.4492   8.8256059294e+01   1.6487825838e+01    0.2645551    0.2423752  71.29  0.001114808    1.270    0.213
       107  -9.0640    147.6707    156.3278   9.5701690526e+01   2.1571118309e+01    0.1430771    0.1087579  78.74 0.0007051055    1.708    0.414
       108 -10.4522     17.5384    146.6617   1.2487965508e+02   4.2287455918e+01    0.2655711    0.2011538  -5.41  0.001558552    2.186    0.542
       109 -11.8042     11.2098    144.8505   1.2620070709e+02   4.3199563043e+01     0.367902    0.2503588  44.13  0.001811972    1.535    0.349
       110 -10.2297    206.9958    146.0638   8.1457652219e+01   1.1609643171e+01    0.2154875     0.195484  14.42 0.0007167112    1.025    0.025
       111 -10.6811     22.5161    144.4405   1.2353555853e+02   4.2347265799e+01    0.2943768    0.1814188 -42.02  0.001679602    2.333    0.571
       112 -10.8429     19.6181    140.3872   1.2387469057e+02   4.3498087714e+01    0.3322019    0.1356521 -88.96  0.001564074    2.374    0.579
       113 -10.7044     15.8261    139.8083   1.2473162180e+02   4.3941190169e+01    0.2645181    0.1448911  10.43  0.001394025    3.139    0.681
       114  -9.5227     49.9714    141.2484   1.1654029043e+02   4.0295983360e+01    0.1879196    0.1408591 -27.75  0.001068409    2.044    0.511
       115  -9.5117    240.1460    140.6534   7.4477815125e+01   6.0050049184e+00     0.187431    0.1115868  33.99 0.0006381438    1.698    0.411
       116 -11.1628      3.3626    135.8907   1.2739531518e+02   4.5743973950e+01    0.4644511    0.1487064 -61.07  0.002213352    2.767    0.639
       117  -9.0011    143.6941    137.3373   9.2751982421e+01   2.6108370895e+01    0.1480242    0.1148789  86.99 0.0007040815    1.674    0.403
       118 -11.1707      9.1925    136.7216   1.2607026221e+02   4.5141626860e+01    0.1987561    0.1506675 -74.26  0.000226223    1.216    0.178
       119 -10.2453     55.4725    136.4561   1.1453520813e+02   4.0748382774e+01    0.2453518    0.1345755  78.82 1.217159e-05    2.219    0.549
       120  -9.7334     53.3557    132.9045   1.1459622972e+02   4.1816977364e+01    0.2667478     0.102945 -63.53  0.001165081    2.229    0.551
       121 -10.3368     21.0188    135.8104   1.2312821181e+02   4.4403873260e+01    0.2107768    0.1419239 -81.80 0.0006139337    1.192    0.161
       122  -9.4181    137.8287    135.3998   9.3703031291e+01   2.7671505135e+01    0.2104269    0.1355972  33.58  0.000949033    1.706    0.414
       123  -9.2428    122.7112    135.3382   9.7311120845e+01   3.0595508472e+01    0.1466977    0.1107433  85.07 0.0003579145    1.638    0.390
       124  -9.3160    250.0226    134.2214   7.1488778847e+01   5.0690608922e+00    0.1664496    0.1054856  43.75 0.0008703567    1.660    0.398
       125 -10.0339    106.9460    133.2409   1.0080110830e+02   3.3904242666e+01    0.2431366    0.2047476 -59.81 0.0008799551    1.170    0.146
       126 -11.7652     37.6437    130.5085   1.1836814164e+02   4.4077289122e+01    0.4255427    0.2442693 -72.51  0.001511463    1.470    0.320
       127 -11.1556     33.1759    125.8497   1.1898235766e+02   4.5588532113e+01    0.2669025     0.185937  56.52 0.0003159243    1.439    0.305
       128  -9.0663    227.2929    131.7103   7.4613125355e+01   9.7848015831e+00    0.1277218    0.1101011 -61.92 0.0002756074    1.548    0.354
       129 -10.4350     73.9060    129.3896   1.0866190964e+02   3.9989699948e+01    0.2491289    0.1804973 -60.20 0.0006510408    1.300    0.231
       130  -9.0887    243.4156    128.4884   7.1233389377e+01   7.1063350999e+00    0.1361453    0.1178088 -11.09 0.0001353784    1.031    0.030
       131 -11.3722     10.1776    122.1121   1.2462082767e+02   4.8346365191e+01    0.4348139     0.232811  69.41  0.002464971    1.821    0.451
       132  -9.4483      6.7578    126.1744   1.2583968877e+02   4.7668604376e+01    0.1473137    0.1122584 -68.89 0.0008473551    1.255    0.203
       133 -10.6959      1.5484    124.9928   1.2705307950e+02   4.8279787622e+01     0.290516    0.1433307 -85.10  0.001325191    1.589    0.371
       134 -10.1928      3.0000    121.0096   1.2637772649e+02   4.9079302248e+01    0.2490713      0.13117 -84.77  0.001457202    1.487    0.327
       135  -9.5527     81.8537    125.2001   1.0580579124e+02   3.9807887324e+01    0.1815301    0.1573478 -42.18  0.000626723    1.309    0.236
       136 -10.0176    226.0133    124.2265   7.3093652706e+01   1.1178526099e+01    0.1818123    0.1145672  46.82 0.0007820169    1.644    0.392
       137  -9.6650    219.5706    124.5170   7.4271107857e+01   1.2460840036e+01    0.1424399    0.1292992  -7.25 0.0001546373    1.017    0.017
       138  -9.3348     20.2598    121.6080   1.2192805988e+02   4.7698781896e+01    0.1362986    0.1177433  -4.26 0.0009366385    1.641    0.391
       139  -8.8942     64.7006    120.2561   1.0960542556e+02   4.3365203323e+01    0.1310309   0.09366524  72.81 0.0002596527    1.503    0.335
       140  -9.7691     32.8196    118.9354   1.1822827831e+02   4.7228526464e+01    0.1855612    0.1406558 -63.33 0.0004708104    1.231    0.187
       141 -11.8401     23.5187    106.9977   1.1932454091e+02   5.0827265701e+01    0.4860198    0.2613871  67.60  0.002503174    2.127    0.530
       142 -11.7812     17.1346    115.8132   1.2215491816e+02   4.9277673324e+01    0.4432458    0.2166664 -60.00  0.002055205    1.779    0.438
       143 -12.5912     15.4262    109.2742   1.2191461105e+02   5.0915707255e+01    0.5285281     0.412323  76.18 0.0009480104    1.209    0.173
       144  -9.5213    220.4315    116.9858   7.2317988396e+01   1.3462455140e+01    0.2145525    0.1321483 -32.62 0.0004462432    1.533    0.348
       145 -10.2914     51.1556    116.2141   1.1272773532e+02   4.5971378688e+01    0.3156722    0.1471523 -63.27 0.0007992958    1.828    0.453
       146  -9.5842    166.4436    115.8853   8.2588461081e+01   2.5554021390e+01    0.2255771     0.147493 -40.33 0.0005479628    1.531    0.347
       147  -9.4127    214.1868    115.5861   7.3065708336e+01   1.5020194672e+01    0.1986831    0.1302959  36.21 0.0005411897    1.595    0.373
       148 -10.3059     35.0646    114.3242   1.1699468502e+02   4.8096495529e+01    0.2214965    0.1544262 -76.13 0.0005503793    1.192    0.161
       149 -12.1742     35.4073    108.3744   1.1605238640e+02   4.9463780573e+01    0.4465434    0.2573818  80.54  0.001556784    1.978    0.494
       150 -10.6698    249.0528    112.0167   6.6558568487e+01   8.3478440363e+00    0.2141826    0.1834458 -19.06 0.0006316391    1.038    0.037
       151  -8.7955    212.6624    112.6742   7.2616745882e+01   1.5821440661e+01    0.1548437     0.109411  12.26  0.000705151    1.724    0.420
       152  -9.0232    223.3529    111.7301   7.0538894406e+01   1.3663154087e+01    0.1375093    0.1136949 -71.38 0.0006994896    1.632    0.387
       153  -9.4418     94.2831    111.6378   9.9651661034e+01   4.0970543651e+01    0.1481978     0.108514  87.87 0.0007017942    1.681    0.405
       154 -10.8766     55.7646    108.9819   1.1018341750e+02   4.7142593238e+01    0.3622232    0.2360169 -49.30  0.001934106    1.533    0.348
       155 -10.6833     62.6637    106.3475   1.0765846041e+02   4.6909380544e+01    0.2609698    0.1979127 -39.38 0.0004552439    1.492    0.330
       156 -11.2673      6.1725    105.8244   1.2416334712e+02   5.2332258645e+01    0.3388558    0.1852764 -68.07  0.001854169    1.437    0.304
       157 -10.9679      2.5182    105.5195   1.2516307153e+02   5.2621635597e+01    0.2444205    0.1442588 -68.16 0.0005590887    1.351    0.260
       158 -12.3990      2.7924    100.4597   1.2459331803e+02   5.3763295559e+01    0.2646174    0.2079013  88.59 0.0003941565    1.103    0.093
       159 -11.1619      1.3896     96.1730   1.2456948019e+02   5.4823332462e+01    0.3547874    0.1255427 -72.79 0.0004248171    2.064    0.515
       160 -10.2421    243.5036    104.5248   6.5594406078e+01   1.0529256923e+01    0.1406746    0.1232192 -11.88 0.0001054878    1.029    0.028
       161  -9.8542    223.3080    103.9871   6.8623411534e+01   1.4877518900e+01    0.2074401    0.1717817 -25.80  0.000406611    1.119    0.107
       162 -10.8713    247.4236    102.3244   6.4489356972e+01   1.0047668445e+01    0.2473739    0.1817118  55.88 0.0008858048    1.578    0.366
       163 -10.7359     36.3318    101.6429   1.1474611284e+02   5.0965678202e+01    0.3435194    0.1846359  44.43  0.001738537    2.049    0.512
       164  -9.8927    119.9575    101.2239   9.0082080335e+01   3.8562859454e+01    0.2431304     0.177918  10.16 0.0009480319    2.004    0.501
       165  -9.4810     72.7576    100.9675   1.0353014155e+02   4.6807113363e+01    0.1911903    0.1070595 -57.99 0.0008831196    1.604    0.376
       166 -11.1035     62.3505     98.5091   1.0617538418e+02   4.8802182109e+01    0.3286636    0.2898853 -54.72  0.000749037    1.107    0.097
       167 -10.0505    146.2555     99.4635   8.2921582133e+01   3.3318133941e+01    0.4067376    0.2771849  -1.63  0.001593478    2.429    0.588
       168  -9.6959     50.2604     99.8629   1.1017240709e+02   4.9943277903e+01    0.2308257    0.1265988 -42.08  0.001087996    2.082    0.520
       169 -10.5864    161.3489     99.3187   7.9371245149e+01   2.9905343669e+01    0.2547199     0.191533   6.43  0.001127778    1.757    0.431
       170 -11.3411     20.2939     97.1264   1.1897121325e+02   5.3388435392e+01    0.3871063    0.2028887 -85.04  0.001845415    1.807    0.447
       171 -10.6743     92.7308     96.4153   9.6490802097e+01   4.4724860009e+01    0.4133056    0.1399014 -44.96  0.001374571    3.021    0.669
       172 -10.5564     95.9064     90.5665   9.4026537252e+01   4.5494903386e+01    0.4873739    0.2945013   9.34   0.00166725    3.835    0.739
       173  -9.8107     41.0572     96.9647   1.1250166317e+02   5.1611110558e+01    0.2000036    0.1347962 -41.62 0.0005402275    1.631    0.387
       174 -10.3335     14.2450     96.9953   1.2080025758e+02   5.3850677041e+01    0.1821708    0.1310017 -75.82 0.0007452763    1.088    0.081
       175 -10.8767     66.6147     97.8017   1.0471052529e+02   4.8405433313e+01    0.5514602    0.1588395 -54.36  0.001946698    2.903    0.655
       176  -9.3655    249.5345     95.5062   6.2540707157e+01   1.0584787804e+01    0.1392567    0.1215151 -20.07 3.679403e-06    1.002    0.002
       177 -10.4048     31.4478     93.7100   1.1497156659e+02   5.3285430090e+01    0.3847026    0.1609136 -80.16  0.001571729    2.763    0.638
       178 -11.3428     25.6033     91.6370   1.1649710250e+02   5.4264785338e+01    0.2664661    0.2391547 -60.35 0.0003738303    1.170    0.145
       179 -10.7691     22.9121     87.0177   1.1663042134e+02   5.5559086736e+01    0.2432909    0.1580604 -65.56 0.0004002863    1.223    0.183
       180 -10.1041    162.7747     91.9774   7.7003915600e+01   3.0973740603e+01    0.2391681    0.2034089   1.92 0.0005598621    1.330    0.248
       181 -10.8127    103.9836     91.5354   9.1922721607e+01   4.3803192255e+01    0.3742258    0.2008089 -48.61 0.0003178798    1.765    0.433
       182 -10.1179     47.8985     91.2064   1.0923530229e+02   5.2254103065e+01    0.2648605    0.1345293 -44.04  0.001223949    2.074    0.518
       183 -11.3904     10.2171     90.8757   1.2126467635e+02   5.5533983696e+01    0.2668471    0.2392403  37.64  0.001023582    1.395    0.283
       184 -10.9055    158.1120     90.3788   7.7593309493e+01   3.2377975229e+01    0.3135195    0.2256769 -42.97  0.001435638    1.376    0.273
       185  -9.3874     21.2876     91.3565   1.1783087630e+02   5.4665431635e+01    0.1293008   0.07428654 -49.25 0.0004061775    1.677    0.404
       186 -10.2418    171.2194     90.4197   7.4731070412e+01   2.9254289939e+01    0.2191076    0.1525559  65.14 0.0009534479    1.676    0.403
       187  -9.5126    139.1883     87.6191   8.1298201003e+01   3.7298426763e+01    0.2082589    0.1451687  38.60 0.0005358571    1.526    0.344
       188 -10.4709    112.4609     86.0931   8.7965746936e+01   4.3343840642e+01    0.3344381    0.2456111 -61.53  0.001200137    1.498    0.332
       189 -10.5885     67.0075     85.1868   1.0165412751e+02   5.1299646658e+01    0.3876461     0.201355 -40.38  0.001518522    2.109    0.526
       190 -12.6115     17.8125     66.3669   1.1473132500e+02   6.0714857504e+01    0.7110562    0.4715713 -47.18  0.001187641    1.360    0.265
       191 -10.4387      4.3898     86.4534   1.2255377883e+02   5.6894515097e+01    0.2921031    0.1972143  85.02  0.001521609    1.368    0.269
       192 -10.5420     14.9582     83.3136   1.1867888893e+02   5.6988338001e+01    0.4406924    0.1774417 -50.86  0.002142194    2.193    0.544
       193 -12.0113      5.5390     76.3905   1.2084254462e+02   5.9148449990e+01    0.7586564    0.3722435 -58.20  0.003142233    1.593    0.372
       194 -12.6709     13.4886     77.3183   1.1824357370e+02   5.8473720046e+01    0.4543189     0.256423 -51.88  0.001326693    1.544    0.352
       195 -10.8525     20.4843     81.5344   1.1653832399e+02   5.7020957999e+01    0.2335358    0.2219447 -31.58 0.0007064183    1.278    0.217
       196 -12.1283     21.2830     76.8926   1.1545709812e+02   5.8043222492e+01    0.4028116    0.2704739  84.69 0.0002583591    1.622    0.384
       197 -10.2616    166.0115     83.4986   7.3842705574e+01   3.1774715419e+01    0.3516589    0.1981581  47.75  0.001277537    1.794    0.443
       198 -11.1607     40.3524     80.9586   1.0962942354e+02   5.5452533285e+01    0.5266907    0.3246304  60.00  0.001731425    2.107    0.525
       199  -8.9339    188.3087     83.6817   6.9385494944e+01   2.6312096874e+01    0.1570151    0.1192662 -66.31 0.0002503642    1.638    0.389
       200 -10.0166     87.9432     83.3750   9.4480061645e+01   4.8490448508e+01    0.2316793    0.1827608 -60.73 0.0003079255    1.248    0.199
       201 -10.4688    117.9823     82.8693   8.5469759364e+01   4.2897038404e+01    0.2811219    0.2138045 -41.39  0.001094052    1.268    0.212
       202 -10.1244     30.0103     81.8965   1.1336032868e+02   5.6186837986e+01    0.1943325     0.162974 -67.78   0.00126937    1.031    0.030
       203  -9.0320    146.6733     81.3457   7.7594690126e+01   3.6805086092e+01    0.1628046    0.1234831 -74.37 0.0007050298    1.747    0.428
       204 -10.2457     71.2426     79.4324   9.8768955149e+01   5.2018950613e+01    0.1803905    0.1313711  51.32 0.0005213572    1.586    0.370
       205  -9.7733    150.7981     77.3959   7.5412937498e+01   3.6574892123e+01    0.2496973    0.1871833 -30.01 0.0007105433    1.350    0.259
       206 -11.9643     58.3099     74.6352   1.0188710243e+02   5.4883014405e+01    0.5010626    0.3514781  67.62 0.0005847291    1.948    0.487
       207 -11.2811     62.1586     72.1158   9.9859343492e+01   5.4951269642e+01    0.4262969    0.2749214 -43.83  0.001623982    1.426    0.299
       208 -10.5158     46.3501     83.6836   1.0817229695e+02   5.4192265249e+01    0.5133858    0.2392505 -66.05  0.002320387    1.962    0.490
       209  -9.4779    121.7767     76.3575   8.2428227434e+01   4.3431533153e+01    0.2103799    0.1424117  38.23 0.0006626685    1.586    0.370
       210 -11.3380     30.2886     66.5101   1.1006052132e+02   5.9728028430e+01    0.5596404    0.2607044 -41.07  0.002468567    2.198    0.545
       211 -12.4060     44.6812     75.2806   1.0684601896e+02   5.6327968370e+01    0.2477604    0.2359048  63.52 0.0003460848    1.212    0.175
       212 -11.0491     37.6756     70.3633   1.0821059472e+02   5.8172253411e+01    0.5804577    0.3669291  74.07  0.001934487    2.337    0.572
       213 -10.5740    138.9668     74.9546   7.7499516140e+01   3.9836719278e+01    0.2508275     0.219555 -35.09 0.0003431492    1.116    0.104
       214  -9.4563     33.2452     75.6186   1.1098328268e+02   5.7369064203e+01    0.1496303    0.1208979  -7.76 0.0004692145    1.556    0.357
       215  -9.8749    145.5025     73.9584   7.5591520517e+01   3.8483746875e+01    0.2471632    0.1517315 -36.31  0.001035985    1.600    0.375
       216 -11.1660    102.7294     72.7727   8.6765800862e+01   4.8095407508e+01     0.368589    0.2905663  -2.68 0.0009047635    1.597    0.374
       217 -10.6060    102.6878     67.9420   8.5217235391e+01   4.9102693514e+01    0.2522733    0.2209622  32.83 0.0009871573    1.209    0.173
       218 -10.4148     92.4988     77.6028   9.1392963413e+01   4.8974123290e+01    0.2692098    0.1886047  35.34 0.0008429847    1.573    0.364
       219 -10.3427    128.9185     71.7544   7.9046617390e+01   4.2763245092e+01    0.2624485    0.2108945 -47.06  0.001282807    1.243    0.196
       220  -9.7829     83.9935     72.3238   9.2514874388e+01   5.1599531094e+01    0.1834868    0.1794912  -6.69  0.000301117    1.092    0.085
       221 -11.1933     76.6445     71.2311   9.4622103393e+01   5.3035515434e+01    0.4978675    0.3974311  60.86  0.001965659    1.521    0.343
       222  -9.5606    116.0283     71.4615   8.2463552418e+01   4.5651612607e+01    0.2343327    0.1502199  44.90  0.001038444    1.623    0.384
       223  -9.9993    160.9832     69.7177   7.0736632809e+01   3.5476497001e+01    0.2107136    0.1991418  34.74 0.0002917819    1.073    0.068
       224 -12.2135     94.3007     68.4642   8.7984406302e+01   5.0600780138e+01    0.4048164    0.2495999 -39.40 0.0002496126    1.550    0.355
       225  -9.3777     68.6608     70.2410   9.7056929253e+01   5.4462612156e+01    0.2150303    0.1285033 -55.38 0.0002298289    1.540    0.351
       226 -10.0504     68.8542     66.8774   9.5983961556e+01   5.5176933617e+01    0.2068305    0.1836762 -39.14 0.0004470749    1.046    0.044
       227 -11.4409     50.5789     67.9051   1.0285105605e+02   5.7357708130e+01    0.4553692    0.2245479 -41.12   0.00164104    2.035    0.509
       228 -10.7815     51.1514     63.8103   1.0150067915e+02   5.8209726698e+01     0.383249    0.1828494 -45.19  0.001383844    1.867    0.465
       229  -9.9562    145.9639     68.5511   7.3755520615e+01   3.9370115745e+01    0.3123599    0.1894973   3.99  0.001014069    3.392    0.705
       230  -9.7422    123.1802     68.2080   7.9419011020e+01   4.4738081361e+01    0.2046596    0.1736971 -60.01 0.0005166357    1.290    0.225
       231 -12.3491      4.1060     65.0632   1.1962755812e+02   6.1810173229e+01    0.3947167    0.2683299  74.35  0.001405897    1.661    0.398
       232  -9.7727    128.9463     66.7050   7.7384023126e+01   4.3724299274e+01    0.2142552    0.2008202  43.42 0.0004242287    1.096    0.087
       233 -10.5628     99.7712     64.8909   8.5094682265e+01   5.0296351438e+01    0.3069429    0.1914141 -31.47 0.0009489003    1.696    0.410
       234  -9.8879     81.4760     66.5022   9.1528903622e+01   5.3277075978e+01     0.143832     0.129883 -38.20 0.0002718322    1.016    0.016
       235  -9.6049    120.1850     64.8540   7.9115868431e+01   4.6048175222e+01    0.2111554    0.1785706   4.00 0.0003989325    1.332    0.249
       236 -10.6785     77.3708     63.7730   9.2044084054e+01   5.4533897080e+01    0.3890992    0.2534805 -45.98  0.001230606    1.384    0.277
       237 -10.0067    215.8447     64.2258   5.9249492066e+01   2.2666812139e+01    0.2218493    0.1913363 -65.58 0.0008330332    1.248    0.199
       238  -9.4831     41.5240     64.4244   1.0529481474e+02   5.9141964547e+01    0.1293526    0.1106453 -58.22 0.0001592305    1.051    0.049
       239 -10.8683     84.8668     61.7691   8.8836194141e+01   5.3693674173e+01    0.4491842    0.3279825  34.08  0.002308521    1.499    0.333
       240 -10.5543     86.8223     56.9389   8.6513337719e+01   5.4331103570e+01    0.3557477    0.2451258 -22.50 0.0009505369    1.658    0.397
       241 -11.6392     87.1007     52.3438   8.4762320195e+01   5.5187616997e+01    0.3937344    0.3301667  76.09  0.000380706    1.599    0.375
       242 -10.9304     57.8168     59.2853   9.7645666207e+01   5.8370567362e+01    0.3249415    0.2443069  30.53  0.001841442    1.518    0.341
       243 -10.3376     11.0710     62.6430   1.1656981394e+02   6.1987172465e+01    0.1829923    0.1370576 -75.17 0.0003795518    1.162    0.140
       244 -10.5889    201.2057     61.8409   6.0821034641e+01   2.6624091603e+01    0.2535212    0.2281165 -18.49 0.0002570402    1.109    0.098
       245  -9.5963    140.6431     61.8544   7.2817296297e+01   4.1858632665e+01    0.2202127    0.1361733 -44.99  0.000332361    1.654    0.395
       246  -9.1734    134.7424     61.3846   7.4108331642e+01   4.3354757490e+01    0.1591791    0.1169145 -61.84 0.0006969628    1.676    0.403
       247 -10.9265     45.5657     49.8562   9.9418085152e+01   6.1905048397e+01    0.3821753    0.1886966 -45.70  0.001185938    1.701    0.412
       248 -11.3879     29.4508     60.8942   1.0904756084e+02   6.1075725894e+01    0.5626478     0.238672  14.35  0.002430975    3.539    0.717
       249 -12.5991     37.7293     51.0154   1.0300212879e+02   6.2499217249e+01    0.7640206    0.4922637 -40.70   0.00327138    1.376    0.273
       250 -10.0439     47.8185     58.3009   1.0116113484e+02   5.9819797913e+01    0.2405759    0.1859736 -76.39  0.001375654    1.500    0.333
       251 -10.1984     43.9247     57.0404   1.0230846107e+02   6.0533777555e+01     0.197931    0.1646328 -49.36  0.000336242    1.012    0.012
       252 -10.6769     30.8498     52.1571   1.0618452704e+02   6.2901653991e+01    0.2503378    0.2272882  11.83  0.000986142    1.312    0.238
       253 -11.2675      5.0854     51.9084   1.1685515994e+02   6.4721755099e+01    0.3070329     0.209122 -48.40 0.0008416367    1.258    0.205
       254 -10.2132    147.0069     57.0010   6.9683970262e+01   4.1139725960e+01    0.2309024    0.2205673 -47.00            0    1.070    0.065
       255 -10.1126    129.8074     55.9059   7.3461123845e+01   4.5495381579e+01     0.266665    0.2025541 -22.37 0.0004889607    1.368    0.269
       256 -10.5871    123.0386     56.3752   7.5400529384e+01   4.6982905132e+01     0.273215    0.2112018 -42.68 0.0003874852    1.286    0.223
       257 -12.6684    128.4733     50.4491   7.1851120178e+01   4.6751419140e+01    0.4466486    0.3441618   4.40 0.0002661894    1.541    0.351
       258 -11.2582    100.7615     55.8963   8.1654494698e+01   5.1874024524e+01    0.5545377    0.2117961  50.29  0.001938895    2.986    0.665
       259 -11.0627     75.2044     55.9310   9.0164089588e+01   5.6525145865e+01    0.2197187    0.2014337 -20.40 0.0002702087    1.068    0.064
       260 -10.0811     61.8742     54.2015   9.4457366901e+01   5.8903884900e+01    0.2453775    0.1862909 -69.19 0.0009919896    1.591    0.371
       261  -8.8821     55.6714     54.2656   9.6851338877e+01   5.9730191798e+01    0.1231469    0.1038788  83.32 0.0001854289    1.573    0.364
       262  -9.4426    143.5109     53.0011   6.9111682857e+01   4.2674460465e+01    0.2317563    0.1500187 -32.11 0.0006859619    1.524    0.344
       263 -10.0437    117.5975     52.9926   7.5666758430e+01   4.8820871623e+01     0.372505    0.1919614  55.34  0.001473978    2.156    0.536
       264 -11.0384     12.7528     51.5771   1.1359272669e+02   6.4375851059e+01    0.2432007    0.2185776 -72.13 0.0008324811    1.184    0.155
       265 -11.0668     69.9103     50.3672   9.0102806797e+01   5.8499660832e+01    0.3997878    0.3164127 -81.15  0.001946756    1.824    0.452
       266 -10.9635    103.6534     48.1473   7.7896865781e+01   5.2715269905e+01    0.5691242    0.2383174 -37.26  0.002146455    2.279    0.561
       267 -10.6941     78.7131     47.2537   8.5751276341e+01   5.7664078427e+01    0.2272376    0.1771799 -24.22  0.001128204    1.249    0.199
       268 -11.7456     62.2573     60.4222   9.6352429150e+01   5.7524366166e+01      0.64491    0.3533953  16.95  0.002731008    2.845    0.649
       269  -9.5473    220.6407     48.8230   5.4299674263e+01   2.3664073162e+01    0.2033949    0.1194821 -38.76            0    1.558    0.358
       270 -11.5964    153.1281     47.6796   6.5148031692e+01   4.1102998444e+01    0.6461601    0.3569473  48.46   0.00207748    1.802    0.445
       271  -9.4169     94.3955     49.5129   8.1305593610e+01   5.4343776283e+01    0.1455145    0.1311815 -23.11 -3.277471e-05    1.028    0.027
       272 -10.9569      5.5703     58.1556   1.1786713517e+02   6.3299572483e+01    0.3687695    0.1813992 -70.34   0.00203171    1.594    0.373
       273  -9.4346    120.2748     47.0893   7.2756019315e+01   4.9235084410e+01    0.2110763    0.1840931 -27.29 0.0006525606    1.111    0.100
       274  -9.8495     61.5608     46.5463   9.1871645250e+01   6.0522783293e+01    0.2926024    0.2116348 -86.56  0.001386859    2.497    0.600
       275 -10.9924     11.5944     44.2489   1.1233140062e+02   6.6057892910e+01    0.3824437    0.1922979 -50.79   0.00131662    1.515    0.340
       276 -10.3897      4.6429     46.8329   1.1597867180e+02   6.5866244342e+01     0.353911    0.1273147 -43.12  0.001704517    2.439    0.590
       277 -10.1768      7.0519     41.2751   1.1362381590e+02   6.6958044130e+01    0.2696116    0.1124692 -55.44  0.001031811    1.700    0.412
       278 -10.1376    142.7594     45.7451   6.6724565591e+01   4.4027425042e+01    0.2999254    0.2313609 -55.30 0.0005080074    1.461    0.316
       279 -11.8503     88.8855     39.5329   7.9188555025e+01   5.7215687985e+01    0.5959612    0.3296048 -26.27  0.002587704    1.953    0.488
       280  -9.0693    233.4218     45.5278   5.1835177520e+01   2.1034233231e+01    0.1392912    0.1283655 -31.90 0.0001181539    1.052    0.049
       281  -9.6892     51.1896     44.8525   9.5398411978e+01   6.2271227986e+01     0.188627    0.1479861 -40.82  0.000347859    1.081    0.075
       282 -11.0675     52.0526     40.8222   9.3553062912e+01   6.2973508267e+01    0.3050286     0.270407  66.90 0.0006932882    1.530    0.347
       283  -9.1506    175.2356     43.6262   5.9554321473e+01   3.5969065490e+01    0.1586338    0.1079999 -53.32 0.0006913335    1.613    0.380
       284 -10.4266     42.4447     39.4348   9.7119248859e+01   6.4426872429e+01    0.6644216    0.3384798 -50.62  0.003324735    1.676    0.403
       285 -10.9640     42.5497     31.8793   9.4151352187e+01   6.5908262309e+01    0.2037418    0.1771157   2.01 0.0004606557    1.219    0.179
       286  -9.7010    110.5489     41.6903   7.3372641255e+01   5.2336929043e+01    0.2251812    0.1820087  84.00 0.0004015494    1.668    0.400
       287 -10.8810     97.2693     40.9617   7.7055077515e+01   5.5297914547e+01    0.3218929    0.2494237  52.80 0.0006320536    1.434    0.303
       288 -10.8253     96.6249     36.9503   7.5623236135e+01   5.6105365647e+01    0.3425809    0.2683107 -51.97 0.0008859425    1.478    0.323
       289 -11.3183     98.0037     31.8827   7.3070904716e+01   5.6629380234e+01    0.3432896    0.2511106  24.45 0.0004037666    1.465    0.318
       290 -11.0700    101.0870     28.7811   7.0815726492e+01   5.6439001713e+01    0.2730349     0.241855 -45.10  0.000484725    1.257    0.205
       291 -10.2228    181.2031    248.2010   1.0329046738e+02   1.8113587372e+00    0.2005691   0.08311825 -34.09  0.001041594    3.522    0.716
       292 -10.8959     78.5339     31.4556   7.9349897801e+01   6.0539798588e+01    0.6255192    0.2881266 -21.42  0.002199899    3.355    0.702
       293 -11.6058     82.4200     39.4901   8.1375968991e+01   5.8442171935e+01    0.3285224    0.2677415  -8.08 0.0008970154    1.245    0.197
       294 -11.7028     80.8653     36.1463   8.0533881494e+01   5.9315017035e+01    0.3442365    0.2643418 -18.29 0.0007324334    1.272    0.214
       295 -11.9024     27.7442     38.0125   1.0318987479e+02   6.6205168217e+01    0.3824602    0.2439242 -59.34  0.001478187    1.425    0.298
       296 -11.9614     20.5150     37.9181   1.0649394223e+02   6.6816973771e+01    0.4534402    0.3237077  82.48  0.001736561    2.112    0.527
       297 -12.4386     24.0501     35.2210   1.0396401044e+02   6.7100333657e+01    0.3333703    0.2317885  -9.98 0.0003370761    1.653    0.395
       298  -9.3900    220.4153     41.5073   5.2291637511e+01   2.4684653216e+01    0.1427548    0.1321603 -41.01 0.0001054325    1.019    0.018
       299  -9.7665    215.5174     40.7910   5.2700939201e+01   2.5988515521e+01    0.2107577    0.1365614 -28.46 0.0009926873    1.474    0.322
       300 -10.4290    184.1043     41.1163   5.7270094650e+01   3.3997888663e+01    0.2290554    0.2058042  17.42 0.0005783964    1.204    0.169
       301 -10.1318    121.4848     41.4946   7.0312838906e+01   4.9870081550e+01    0.1488577    0.1424704  -3.70 -4.423586e-05    1.012    0.012
       302 -10.1142     66.8223     41.0456   8.7728655757e+01   6.0809438122e+01    0.2607859    0.1731974   1.45  0.001243016    2.083    0.520
       303 -10.6423     69.9292     37.0764   8.4929729660e+01   6.1050737704e+01    0.3117335    0.1842355 -13.73  0.001114049    2.485    0.598
       304  -9.6858    226.2138     40.2049   5.1237416353e+01   2.3438101626e+01    0.1984002    0.1522573 -57.11 0.0004987286    1.299    0.230
       305 -10.3670     34.2093     34.2093   9.8866625418e+01   6.6369047863e+01    0.4774579    0.1649289  36.96  0.002026387    3.482    0.713
       306  -9.6500    199.3420     38.0051   5.4034336646e+01   3.0452217572e+01    0.2033402    0.1811236 -31.30 0.0002297318    1.101    0.092
       307  -9.6757     61.9361     37.7684   8.8325646764e+01   6.2179188488e+01    0.1772669    0.1565528 -21.72 0.0003215529    1.036    0.035
       308 -10.5117    101.5348     36.5830   7.3962154676e+01   5.5134560417e+01    0.2490591    0.2317475   2.32 0.0005793329    1.023    0.022
       309 -10.6920    104.8632     34.1428   7.1968707299e+01   5.4801594684e+01    0.2959539    0.2868651  74.33 0.0006803926    1.198    0.165
       310 -10.4560      2.7948     35.9270   1.1425627719e+02   6.8319745395e+01    0.3891352    0.1447145 -52.57  0.002019346    1.863    0.463
       311 -10.5693      9.9263     25.1729   1.0753657050e+02   7.0179831208e+01    0.2839244    0.1946311 -25.17  0.001874166    1.435    0.303
       312 -11.2677     10.7335     34.6068   1.1011031374e+02   6.8177921802e+01    0.4054548    0.2374568  14.29  0.002118293    2.105    0.525
       313 -10.4891      7.3566     29.9837   1.1039131973e+02   6.9341614521e+01    0.2861555     0.136288 -48.93 0.0007647113    1.548    0.354
       314  -9.6790    146.8943     36.1001   6.2347604585e+01   4.4408352037e+01     0.211414    0.1703602  32.91 0.0004447026    1.289    0.224
       315  -9.3109    127.4627     36.4398   6.6853486705e+01   4.9220565069e+01    0.2104254     0.145104 -12.62 0.0001053713    1.620    0.383
       316 -10.0999    129.7820     32.6349   6.4823326673e+01   4.9204515099e+01    0.2493752    0.1958206 -11.57  0.000623387    1.328    0.247
       317 -10.1879    150.8622     34.7603   6.1056013420e+01   4.3571886742e+01    0.2307565    0.1984062  30.27 0.0005655211    1.196    0.164
       318  -9.5228     57.3447     35.2838   8.9168441404e+01   6.3320561942e+01    0.1351659   0.09430441 -11.60 0.0007016405    1.642    0.391
       319  -9.5724     60.4380     33.4979   8.7156447793e+01   6.3197385972e+01    0.1871384    0.1307162  34.44 3.914321e-05    1.574    0.365
       320  -9.6249    125.7063     32.9792   6.5932863849e+01   5.0151411240e+01    0.2024044    0.1855205 -19.56 0.0003314958    1.076    0.071
       321  -8.9995    145.2965     32.2703   6.1275031999e+01   4.5346632518e+01    0.1516105    0.1103447  28.50 0.0002167764    1.520    0.342
       322  -9.9854     56.0818     30.9911   8.7882234269e+01   6.4295831592e+01    0.2710477    0.1635539 -34.08  0.001289536    1.477    0.323
       323 -10.7158     17.4251     30.9505   1.0570562630e+02   6.8496129535e+01    0.4344065    0.2315062  45.00  0.002265909    2.815    0.645
       324  -9.2949     16.4945     26.5450   1.0463458291e+02   6.9459427954e+01    0.1217282   0.09244805 -42.10 4.361247e-05    1.025    0.025
       325 -11.2958    177.3366     29.7771   5.4678736983e+01   3.7263605205e+01    0.4950554    0.2585892 -36.93  0.002064897    1.849    0.459
       326  -9.4623     73.5893     31.4822   8.1166251166e+01   6.1417650975e+01    0.1388835    0.1183832 -15.12 -0.000115141    1.055    0.052
       327 -10.3591     49.5110     31.4553   9.0890243875e+01   6.5116924983e+01    0.2509443    0.2053657  25.89  0.001562965    1.364    0.267
       328 -10.3583     50.5285     28.0350   8.8973360405e+01   6.5610714885e+01    0.2239109     0.186148 -12.95 0.0003262887    1.119    0.107
       329 -10.1968    207.6868     30.0703   5.0589676895e+01   2.9310391562e+01    0.2004236    0.1789387 -32.86  0.000367014    1.099    0.090
       330 -10.2670    153.6573     28.9708   5.8432014226e+01   4.3612856424e+01    0.2561879    0.2050869 -71.42 0.0006091585    1.448    0.309
       331 -11.2473    214.3418     27.2174   4.8982275736e+01   2.7967228790e+01    0.3258312    0.2409605 -55.26 0.0005416829    1.330    0.248
       332  -9.2848    120.0782     27.9955   6.5323423194e+01   5.2206644646e+01    0.1661477    0.1566338  15.38            0    1.007    0.007
       333  -9.6902     21.2481     28.2642   1.0286660973e+02   6.8747406130e+01    0.2123716    0.1215339 -60.56 0.0009541818    1.675    0.403
       334 -10.0604     24.9072     26.9741   1.0055876324e+02   6.8693463196e+01    0.2185337    0.1994263 -76.75 0.0004681296    1.427    0.299
       335  -9.8423    147.6616    245.6654   1.0866834669e+02   7.0662096199e+00    0.1079187   0.07656105  18.66 0.0004395003    1.749    0.428
       336  -9.8471     15.3440     14.1658   1.0031086092e+02   7.1949040857e+01    0.1596717     0.140885 -80.87 0.0004554851    1.630    0.386
       337 -10.0454    247.9890     27.2555   4.5602293478e+01   1.9900649817e+01    0.1804541    0.1605781 -62.81 0.0002997252    1.077    0.072
       338  -9.9976    134.9217     22.5495   5.9735881011e+01   4.9250018610e+01    0.3190405    0.2370325  67.89  0.000782185    1.415    0.293
       339 -12.0127     74.5040    238.5180   1.2057795761e+02   1.8272789377e+01    0.5151867    0.3189813 -62.25   0.00361551    2.000    0.500
       340 -10.7912    129.2957     19.3233   5.9652386746e+01   5.1056445147e+01    0.2695827    0.1878447  14.47 0.0005936916    1.650    0.394
       341 -11.1016     69.9212     25.7566   7.9976269489e+01   6.3006769164e+01    0.4154955    0.2884603  41.21  0.001594276    1.557    0.358
       342 -10.0930    109.5294    242.9255   1.1494029739e+02   1.2931373677e+01    0.2150331    0.1120168  52.87 0.0007589929    1.556    0.357
       343 -10.8980     65.1356     20.8914   7.9544468199e+01   6.4597943647e+01    0.2817739    0.2123385 -33.81 0.0008152752    1.250    0.200
       344 -10.4372    237.4725     25.4370   4.6102038126e+01   2.2538738810e+01    0.2350506    0.2086419 -53.97 0.0006226561    1.022    0.021
       345 -11.1305    197.2744     24.9148   5.0348988501e+01   3.2609224989e+01    0.2613448    0.2415961 -22.19 0.0004066454    1.118    0.106
       346 -10.1063    112.2403     24.9713   6.6073216127e+01   5.4467790775e+01    0.2027929    0.1775079 -11.84 0.0004692736    1.105    0.095
       347  -9.2602    189.2561     24.6450   5.1310751102e+01   3.4738601645e+01    0.1543704    0.1013699 -54.07 0.0001540225    1.610    0.379
       348 -10.1066    139.8527     29.4101   6.1339904109e+01   4.7121902348e+01    0.4613278     0.204882 -10.98  0.001419275    3.797    0.737
       349 -10.2476     93.6089     23.7398   7.0861351286e+01   5.8769686816e+01    0.2570051    0.1685991 -24.32  0.001273214    1.472    0.320
       350 -10.2301     54.3027     23.8441   8.5433981363e+01   6.5816077048e+01    0.2289683    0.1777419  15.02 0.0007463549    1.339    0.253
       351 -10.3613    120.1942     21.4887   6.2612450251e+01   5.3033741554e+01     0.269095    0.1980453  -9.04 0.0005076314    1.424    0.298
       352  -9.6570     28.7466     21.5042   9.6379070430e+01   6.9383622416e+01    0.3252755    0.1337973 -29.14  0.001315559    3.241    0.691
       353 -10.5092    235.5811     21.1713   4.5162928060e+01   2.3470691418e+01    0.2273831    0.1843182 -89.79 0.0005629215    1.259    0.206
       354  -9.7485    145.9915     26.0311   5.8821490657e+01   4.5980736760e+01    0.2123707    0.2082478  36.61            0    1.017    0.017
       355 -10.3903     45.8845     20.5245   8.7620153984e+01   6.7562369574e+01    0.2671354    0.2147202  17.21  0.001174169    1.309    0.236
       356 -11.0055     37.3440    242.7005   1.2695784199e+02   2.1963453722e+01    0.2553669      0.12656  50.62  0.001799869    1.436    0.303
       357 -10.8643     10.1008     15.5505   1.0385509870e+02   7.2069487341e+01    0.2287053    0.1472016 -30.00 0.0006715266    1.364    0.267
       358 -10.7462    161.5054     20.1281   5.3909130900e+01   4.2614740445e+01    0.3496772      0.19207  58.04 0.0002544524    1.708    0.414
       359  -9.2886    113.3839     20.1333   6.3714846293e+01   5.4831241527e+01    0.2079411    0.1233666 -37.19 0.0009418821    1.736    0.424
       360 -10.1279    226.8440     19.0204   4.5406575389e+01   2.5809770781e+01    0.2243209    0.1886086  83.35 0.0005106219    1.203    0.169
       361 -10.2065    170.7097     19.0242   5.2097657707e+01   4.0294997704e+01    0.1951325    0.1870063 -44.27  0.000223129    1.058    0.055
       362 -11.0451     35.6802    239.6750   1.2707906753e+02   2.2626987161e+01    0.3027172    0.1940661 -45.58  0.001965808    3.256    0.693
       363  -9.0133    151.4465     18.5479   5.5037194996e+01   4.5448691912e+01    0.1471544    0.1371725  37.66 7.370057e-05    1.053    0.051
       364  -9.2993    213.5149     17.4927   4.6306217510e+01   2.9283459522e+01    0.2137754    0.1207298  58.42 0.0009824052    1.785    0.440
       365  -9.8449    217.5629     16.5042   4.5617832842e+01   2.8375307858e+01    0.2603751    0.1234097  64.54  0.001123418    2.064    0.516
       366  -9.6364    108.5468     17.5304   6.3824029178e+01   5.6285777981e+01    0.1424852     0.130084  14.65 4.407764e-05    1.008    0.008
       367 -10.8490    156.1984    240.7215   1.0664704035e+02   6.4440764402e+00    0.1906435    0.1461253  81.96  0.001305278    1.885    0.469
       368  -9.7236     88.9904    240.9991   1.1829616451e+02   1.6012038907e+01     0.141794    0.1285009  12.85  0.001119285    1.687    0.407
       369  -9.5256     46.9599    241.4693   1.2534667062e+02   2.1098049051e+01    0.1422455   0.07796821  44.29 0.0003040553    1.485    0.327
       370  -9.1882     50.3236    240.3151   1.2473380030e+02   2.0900071432e+01   0.08186816   0.07982104  41.04 0.0004943879    1.664    0.399
       371  -9.9117    249.3063     15.3179   4.2513203579e+01   2.0937383972e+01    0.1246774   0.09875945  27.30  0.000702946    1.631    0.387
       372 -10.2890    195.7251    238.4119   9.9601052869e+01   7.7997508677e-01    0.2547166    0.1546565  26.94  0.001630399    1.429    0.300
       373  -9.7016     50.5381     15.4790   8.3016169551e+01   6.7745614538e+01     0.245938    0.1223698  37.90  0.001215955    2.186    0.542
       374 -12.1553    226.2056    246.0827   9.5660726497e+01  -4.4294179894e+00    0.4864179    0.2835145   8.02  0.003114698    1.896    0.473
       375 -10.2466     31.4998    237.4446   1.2764643299e+02   2.3432365148e+01    0.1823909    0.1189266  65.79  0.000717311    1.076    0.071
       376 -10.2904     29.3458    233.0051   1.2778955719e+02   2.4387098536e+01    0.2764861     0.135355  64.84   0.00164541    1.556    0.357
       377 -10.2377    159.8789    235.8893   1.0543520224e+02   6.5220419935e+00    0.1754487    0.1324011  28.45 0.0006311751    1.245    0.197
       378  -9.4146    231.3296    235.3072   9.3299292124e+01  -4.0916158886e+00    0.1153681   0.06646681  16.27 0.0004814775    1.659    0.397
       379 -10.0321    177.5465    234.9707   1.0224763161e+02   3.9407842655e+00     0.219904    0.1302436  29.54  0.001016728    1.518    0.341
       380 -11.0882    153.5288    233.9719   1.0631948331e+02   7.7477277859e+00    0.2131576    0.1866244 -16.39 0.0009324265    1.472    0.321
       381  -9.9609    167.0038    233.7260   1.0392216275e+02   5.7157424244e+00     0.164229    0.1230722  39.00 0.0007074509    1.036    0.035
       382  -9.9403     85.9390    232.9263   1.1817711110e+02   1.7682223195e+01    0.1787028   0.09963895  62.82 0.0006634957    1.626    0.385
       383  -9.7797     24.1452    232.1767   1.2859729732e+02   2.5058644049e+01    0.1389322    0.1073342  73.44 0.0005631438    1.191    0.161
       384  -9.8586     79.9145    231.4948   1.1911823871e+02   1.8705188066e+01    0.1633933   0.08401096  44.78 0.0004590851    1.523    0.343
       385  -9.1497     58.2984    230.2919   1.2278589407e+02   2.1603554236e+01   0.08492859   0.08196831  46.09 0.0002559421    1.562    0.360
       386 -10.0908    190.5081    227.2443   9.8957024046e+01   2.8993315850e+00    0.2975658    0.1152608 -39.69  0.001475036    3.188    0.686
       387  -9.6110    248.8495    227.3739   8.9312151014e+01  -5.7715988561e+00    0.1605892   0.07654917  29.07 0.0007750122    1.709    0.415
       388  -9.9039    129.9126    226.7797   1.0971418593e+02   1.2377796836e+01    0.2424493    0.1275025  53.68  0.001357902    1.753    0.429
       389  -9.7429     72.5678    250.1992   1.2169752906e+02   1.6714040590e+01    0.1183648   0.09075719 -64.43 0.0009393331    1.743    0.426
       390 -10.2779     66.6762    226.6876   1.2108050318e+02   2.1185996844e+01    0.2704661    0.1337753  52.54  0.001061729    1.551    0.355
       391 -10.3951      5.1936    225.4178   1.3138732281e+02   2.8015191987e+01    0.3007315    0.1600113  84.25   0.00220876    1.497    0.332
       392 -10.8227    120.0943    226.4979   1.1146673774e+02   1.3891248534e+01    0.1735402   0.09196331  42.82 0.0004477533    1.501    0.334
       393  -9.8258     25.7405    225.7505   1.2804602745e+02   2.5979106781e+01    0.1738321    0.1466213 -45.85   0.00139672    2.067    0.516
       394  -9.7677    181.0000    224.9637   1.0030226758e+02   4.6755229983e+00    0.1591586   0.06779987 -42.01 0.0007988723    2.918    0.657
       395  -9.3497    156.3123    224.3534   1.0463465650e+02   8.6529004104e+00    0.1152729    0.0843062  13.16 0.0007044962    1.730    0.422
       396 -10.6246    122.6710    221.5676   1.1045858266e+02   1.4277963707e+01    0.3486806    0.2126265  61.88  0.002061746    1.707    0.414
       397  -9.4250    115.5197    244.5150   1.1405782253e+02   1.1862306331e+01    0.1102487   0.08306114  49.32 0.0002757776    1.028    0.027
       398 -10.0450     13.2243    221.7964   1.2994849241e+02   2.7889150450e+01    0.1222949   0.09762909  85.72 0.0006300066    1.318    0.241
       399  -9.9033    141.8278    220.9129   1.0684690568e+02   1.1430769525e+01    0.1802004    0.1429597  30.45  0.000743471    1.260    0.206
