#   1 NUMBER                 Running object number                                     
#   2 MAG_AUTO               Kron-like elliptical aperture magnitude                    [mag]
#   3 X_IMAGE                Object position along x                                    [pixel]
#   4 Y_IMAGE                Object position along y                                    [pixel]
#   5 X_WORLD                Barycenter position along world x axis                     [deg]
#   6 Y_WORLD                Barycenter position along world y axis                     [deg]
#   7 A_WORLD                Profile RMS along major axis (world units)                 [deg]
#   8 B_WORLD                Profile RMS along minor axis (world units)                 [deg]
#   9 THETA_WORLD            Position angle (CCW/world-x)                               [deg]
#  10 FWHM_WORLD             FWHM assuming a gaussian core                              [deg]
#  11 ELONGATION             A_IMAGE/B_IMAGE                                           
#  12 ELLIPTICITY            1 - B_IMAGE/A_IMAGE                                       
         1 -13.0957     54.9238     66.9994   1.0013882088e+02   5.7374395063e+01     3.075905     1.549628  47.53   0.01338668    2.393    0.582
         2 -11.6248     69.4288     19.3808   7.5034659057e+01   6.4443112244e+01    0.9240929    0.5324057  21.96  0.003937755    2.399    0.583
         3 -11.3427     21.4675     56.8963   1.1153283939e+02   6.3360416424e+01     1.851403    0.6071866 -49.86  0.007622309    2.565    0.610
         4 -10.8058      6.7400     55.6160   1.1796151047e+02   6.4656911775e+01     1.206778    0.6801618 -85.29  0.006452325    1.727    0.421
         5 -13.0795     15.5656    104.5280   1.2138334385e+02   5.2424152938e+01     2.123411    0.7990707 -48.84  0.009197391    2.985    0.665
         6 -11.9818     58.1237      4.6311   7.1133252704e+01   6.8765129202e+01    0.7696253    0.5200215  30.34  0.002223772    1.495    0.331
         7 -10.9683     42.3872      3.0869   7.7472454093e+01   7.1835930128e+01    0.3293087    0.2263133 -24.19 0.0007520216    1.300    0.231
         8 -11.8765     74.6122     49.2374   8.6573067007e+01   5.8112349318e+01     1.552544    0.6766926 -39.19  0.006089566    2.241    0.554
         9 -12.0559    117.5983     49.5520   7.3102816064e+01   4.9027606962e+01     1.310642     0.968122 -48.56  0.006303407    1.447    0.309
        10 -12.0045     27.4819     78.7782   1.1357212580e+02   5.7629572586e+01     1.792292    0.6514441 -57.90  0.007765963    2.215    0.548
        11 -11.7095     42.9771     36.9865   9.5067505156e+01   6.5600317560e+01      1.49045    0.6282033 -40.88   0.00623482    2.266    0.559
        12 -11.1014     32.6145     42.4826   1.0215329915e+02   6.5648181888e+01    0.6292403    0.4599992 -44.52  0.003385206    1.191    0.161
        13 -12.8902     91.0073     24.5546   7.0160599516e+01   5.9096076592e+01     2.831978     1.030648 -21.17   0.00836887    4.207    0.762
        14 -13.0777     71.2620     30.6509   7.9924010471e+01   6.2232612011e+01     1.760507    0.8089109  45.04  0.007367646    2.298    0.565
        15 -12.8271     85.5170     57.4729   8.5767293164e+01   5.4430591288e+01     1.487353     1.124186   7.44  0.003685429    1.697    0.411
        16 -13.1509    100.0746      6.9920   5.9058436931e+01   5.9148363711e+01    0.7105762    0.6123167  54.25 0.0008093529    1.160    0.138
        17 -11.5417    112.4318      7.9887   5.6756563847e+01   5.5957223175e+01    0.9171531    0.3624606  70.62  0.003240803    2.958    0.662
        18 -11.8330     47.2835     18.6995   8.4359883002e+01   6.8522675438e+01     1.637121      1.24082 -66.93   0.00870941    1.986    0.496
        19 -11.2192    106.5959     88.8650   8.9143125699e+01   4.3845119181e+01     2.355632    0.9819447 -29.14  0.005312685    7.530    0.867
        20 -10.0359    157.9888     36.4901   5.9556638736e+01   4.0886938362e+01     1.197123     0.584703 -32.39  0.001521947    1.928    0.481
        21 -12.1814    102.0864     55.1409   7.9588464679e+01   5.1520639289e+01     1.440153    0.9718078   4.77  0.005314415    2.268    0.559
        22 -11.7476    129.3704     20.6286   5.8824465598e+01   5.0243479319e+01     1.199703    0.4415099  51.19  0.003262088    2.518    0.603
        23 -10.2724    124.7121     16.1108   5.7856971238e+01   5.1957442632e+01    0.7542062    0.3057455  32.44  0.002294789    3.884    0.743
        24 -10.3375    131.8765     13.2871   5.5315039148e+01   5.0394520745e+01    0.5764157    0.4277703 -74.89  0.002813071    1.624    0.384
        25 -11.3654     98.3454     41.1806   7.5265553045e+01   5.4827584415e+01     1.596468    0.8459409 -10.28  0.004992769    4.019    0.751
        26  -9.8035    110.6337     17.2325   6.1408824321e+01   5.5401212131e+01    0.2847762     0.245324 -64.71 0.0007601869    1.356    0.263
        27 -10.8594    108.5787     29.8220   6.7520871150e+01   5.4251429887e+01     1.243843    0.5856507 -41.44  0.004880539    2.213    0.548
        28 -12.1881    113.5147     23.1435   6.3362494688e+01   5.3955814676e+01    0.7062984    0.5471678  60.58  0.002012108    1.332    0.249
        29 -11.9378    116.6689     14.5815   5.8855111877e+01   5.4186786843e+01     1.051045    0.5452216  48.21  0.001853026    1.845    0.458
        30 -11.4705     14.8503     35.5184   1.0906814187e+02   6.8827633865e+01     1.253817    0.6684574 -55.77   0.00670775    1.487    0.328
        31 -11.8247     30.3672     24.2717   9.6098370640e+01   6.9792339658e+01     1.729204    0.4621816 -52.60  0.006125104    3.357    0.702
        32 -12.4952      8.1191     26.1670   1.0993853653e+02   7.1390996735e+01    0.7952747    0.6207834 -33.87  0.003420414    1.219    0.180
        33 -12.7142     16.4429     10.4413   9.7803295393e+01   7.4040781949e+01     1.209335    0.8923665 -78.57  0.006104065    2.058    0.514
        34 -11.6158      2.3929      2.6257   1.0401102746e+02   7.6758797208e+01    0.4236367    0.2946451 -58.17  0.001704259    1.331    0.248
        35 -12.7072      3.1175     17.7286   1.1018240676e+02   7.3550072891e+01    0.3544348     0.252618 -38.25 0.0006600827    1.234    0.190
        36 -12.6286      3.8012     10.0154   1.0655990444e+02   7.5153671357e+01    0.5603853    0.3364759 -46.51  0.001770791    1.301    0.231
        37 -10.9520    213.8096      5.0779   4.2945210418e+01   3.0059988866e+01    0.9350359    0.3737652  76.48  0.002547848    2.651    0.623
        38 -10.3802    204.6896     16.9644   4.7148088349e+01   3.1184670346e+01    0.5648221    0.2919827  30.89  0.002109875    2.671    0.626
        39 -11.1642    214.1369     25.8377   4.8818681354e+01   2.8044483835e+01     1.288458     0.694194   2.83  0.005362181    2.579    0.612
        40 -10.4007    213.6343     11.9544   4.4909959393e+01   2.9498063896e+01    0.4187022    0.3071725  85.35  0.001301294    1.457    0.314
        41 -10.7450    221.5840     12.0738   4.4313771098e+01   2.7622917103e+01    0.3873019    0.3382851 -81.39 0.0009417271    1.193    0.162
        42 -10.0782    226.3345      7.6264   4.2755234111e+01   2.6925874147e+01    0.4600113    0.2786533   6.00  0.002260093    2.088    0.521
        43 -10.4801    210.8232     17.4230   4.6717667782e+01   2.9660087403e+01    0.4004658    0.2852206  62.28  0.001082406    1.478    0.323
        44  -9.3179    239.0539     15.2338   4.3872249205e+01   2.3418937058e+01    0.2898142    0.1706472 -61.10  0.001022812    1.817    0.449
        45 -10.2091    240.8896     21.4533   4.5340121209e+01   2.2444452886e+01    0.7585001    0.1797725 -30.38  0.002834821    2.928    0.659
        46  -9.6388    243.0275     13.0229   4.3035366019e+01   2.2763784753e+01    0.2713504    0.2543961 -77.14  0.001089641    1.160    0.138
        47 -10.3970    243.8792      6.1713   4.1251268336e+01   2.3182073153e+01    0.6408895    0.1659441 -22.83   0.00219637    3.156    0.683
        48  -9.0889    184.6766     14.3979   4.8371861307e+01   3.6431795289e+01    0.5696965    0.2134087  58.15  0.002193178    2.508    0.601
        49 -10.1845    176.4457     20.3589   5.1283408987e+01   3.7960297666e+01     0.615355    0.3261125 -52.54  0.002564526    2.131    0.531
        50 -11.3741    179.3566     27.6989   5.3332484181e+01   3.6429216024e+01    0.8757069    0.4884104  44.86  0.003794741    1.913    0.477
        51 -12.3441     24.5433      6.2275   8.9962293794e+01   7.3936129316e+01    0.6902198    0.4388001 -33.86   0.00237707    1.344    0.256
        52 -10.3305    203.5770     26.8093   5.0176720086e+01   3.0472080798e+01    0.6400499    0.3231785  -7.08  0.002590392    2.457    0.593
        53  -8.6719    173.6519     10.1490   4.8183774111e+01   3.9675317987e+01    0.3772388    0.2410765  31.02  0.001307278    1.808    0.447
        54 -11.5860    158.9708     19.5259   5.3354430591e+01   4.2609592034e+01    0.8728828    0.6404812 -23.90  0.001720162    1.343    0.256
        55 -11.1452    149.3532     15.1538   5.3170731691e+01   4.5598221029e+01    0.9145411    0.6047936  17.85  0.001298222    1.785    0.440
        56 -10.0165    167.6474     12.6978   4.9767369272e+01   4.1010102656e+01     0.650755    0.3399315  82.70  0.002686186    2.209    0.547
        57 -10.5787    164.6144      4.8866   4.7385062342e+01   4.2509450034e+01    0.6411783    0.4681368  27.46  0.002413394    1.509    0.337
        58  -9.8707     81.8475     20.2658   7.1017652444e+01   6.1736572045e+01    0.5192069    0.3890826 -59.04  0.002608654    1.765    0.434
        59  -9.8952    231.2359     19.1872   4.5489984445e+01   2.4771361509e+01     0.463586    0.3623022 -36.85  0.002126533    1.126    0.112
        60  -9.9032    199.2482     16.0304   4.7389061618e+01   3.2609350948e+01    0.2837349    0.2355783  46.90  0.000812075    1.285    0.222
        61  -7.3870     62.2959     15.3489   7.5709362799e+01   6.6445878335e+01    0.3191608     0.204067   7.85 0.0009250991    2.068    0.516
        62 -10.2454    233.0350     10.9213   4.3168646691e+01   2.5128676056e+01    0.2895595    0.2381375 -78.37  0.000724295    1.278    0.218
        63  -9.4500    234.0063      7.0389   4.2085580634e+01   2.5253280737e+01    0.2518008    0.2008656  43.09  0.000970346    1.453    0.312
        64 -10.9152    199.4356      6.1155   4.4379044627e+01   3.3460194632e+01    0.7979633    0.3732544 -28.99   0.00298625    1.906    0.475
        65  -9.3592     87.0697      9.5419   6.3829900864e+01   6.1970630144e+01    0.4423283    0.2575678   0.96  0.001910071    2.138    0.532
        66 -10.0486     78.0478      8.9986   6.6330833901e+01   6.4071531189e+01     0.310506    0.2744206   3.14  0.001121112    1.034    0.033
        67  -8.9446     77.4046      4.7941   6.4179805385e+01   6.4707939824e+01    0.3709813    0.2057106  24.42  0.001611441    2.164    0.538
        68 -10.5746    182.1402      4.9474   4.5571293273e+01   3.7931028304e+01    0.6872996    0.4503104 -85.26  0.003008056    1.659    0.397
        69  -9.2602    250.1370      7.6372   4.1248449575e+01   2.1739236252e+01    0.2526249     0.174831 -44.10  0.001532919    1.248    0.198
        70  -9.1336    190.8297      7.7609   4.5646145579e+01   3.5471591494e+01    0.2795205    0.1607439  59.25 0.0008174466    1.738    0.425
        71  -8.9450    156.5481      5.7041   4.8640778892e+01   4.4574734094e+01    0.5755688    0.3669225  66.10  0.002763085    1.515    0.340
        72  -8.8011    139.1449      8.1754   5.2015194031e+01   4.8976704546e+01    0.2347949    0.1944129 -58.16   0.00124057    1.306    0.234
        73 -11.1363    138.9270      2.1573   4.9620480811e+01   4.9559863928e+01    0.3771397    0.2883364  -4.04 4.556624e-05    1.371    0.271
        74 -10.5994    132.3922      4.4473   5.1544947908e+01   5.1097859530e+01    0.5072207    0.3203363  48.29  0.002019639    1.519    0.341
        75  -9.7255     70.0868      4.3577   6.6376504058e+01   6.6354653085e+01     0.513762     0.272714  53.88  0.002399278    1.920    0.479
        76  -9.6300    248.6106      2.2006   3.9996824398e+01   2.2517731931e+01    0.2674654    0.1839015 -50.37  0.001322145    1.303    0.232
        77  -8.5819    122.8127      4.3494   5.3106930582e+01   5.3622966118e+01    0.1989262    0.1203428  55.18 0.0004923151    1.541    0.351
        78  -8.4514      1.6382    242.1356   1.3150404363e+02   2.6713402408e+01    0.1094644    0.0721581 -80.14 0.0006859681    1.731    0.422
        79  -9.1847    183.8040    250.0107   1.0120012374e+02   4.9909587789e+00    0.1943471    0.1016426  41.87   0.00129398    1.662    0.398
        80  -9.9543    151.7511    249.7340   1.0644042095e+02   9.1171865078e+00    0.2333014    0.1637828  43.50  0.001311806    1.277    0.217
        81  -8.9609    124.7777    250.0106   1.1102766321e+02   1.2498354030e+01     0.146177    0.1071104   0.16  0.001070466    1.954    0.488
        82  -8.7851    126.5058    239.0010   1.0969577762e+02   1.3666055746e+01    0.1265977   0.08528928 -17.23 0.0008097633    2.475    0.596
        83 -11.6114     57.9230     47.9960   9.2678927151e+01   6.1150960549e+01     1.132873    0.8282436  27.27  0.006065902    1.530    0.346
        84 -10.3038     14.6407    237.1076   1.2921963084e+02   2.6367228882e+01    0.2653382    0.1414712  86.64 0.0006995301    1.818    0.450
        85 -12.2452     25.5416     67.4089   1.1210762277e+02   6.0523366322e+01    0.3581432    0.2248076 -64.30  0.001967531    1.339    0.253
        86 -11.4816     40.7564     50.2357   1.0092583990e+02   6.2991313638e+01    0.8972309    0.4422165  20.44  0.003919117    2.704    0.630
        87  -9.7033     12.7539    231.9803   1.2938284269e+02   2.7323249996e+01    0.2100772   0.09973951  51.25   0.00152375    1.445    0.308
        88  -8.5827     55.2108    237.5903   1.2223360045e+02   2.2354395439e+01    0.1385391   0.08195569  28.16 0.0009526751    1.770    0.435
        89 -12.4332     55.2577     37.4498   8.9615402492e+01   6.3735179559e+01    0.9196761    0.5945751  32.77  0.002747372    1.703    0.413
        90 -10.1353    182.4500    235.2500   9.9645216988e+01   6.6996442833e+00    0.3509135   0.09935454  44.65   0.00147261    3.808    0.737
        91  -8.8511    211.0000    240.0170   9.5636315197e+01   2.4957911289e+00    0.1349354   0.05564452 -32.29 0.0007955951    2.895    0.655
        92  -9.3297    219.5419    231.0900   9.3095926685e+01   2.2389444081e+00    0.1679889    0.1510803  40.82  0.001228629    1.780    0.438
        93  -8.7313    226.9104    231.5318   9.2016322352e+01   1.2571402821e+00    0.1519483   0.07731923  32.35 0.0004047025    1.500    0.333
        94  -8.9768    135.6256    230.8288   1.0723894387e+02   1.3529454082e+01    0.1248138    0.1038117 -78.21 0.0009509161    1.708    0.414
        95  -9.9802     70.5357    142.5497   1.1034534403e+02   3.7954427191e+01    0.2497977    0.1928944  66.68 0.0005025357    1.264    0.209
        96 -10.0813     80.0928    141.4170   1.0769920291e+02   3.6885553193e+01    0.2205403    0.1921964 -72.76 0.0003283179    1.148    0.129
        97 -11.1398     40.8484     78.6057   1.0846518188e+02   5.6363668425e+01    0.9065166    0.5625451  43.15  0.004742789    1.768    0.435
        98 -10.6007     60.4046    111.3289   1.0826687653e+02   4.6296537558e+01    0.5159631    0.2935354 -33.34  0.002242015    2.676    0.626
        99 -10.5386     55.9044    136.9326   1.1345478160e+02   4.1028690598e+01    0.2919964    0.2478433   7.82  0.001683266    1.517    0.341
       100 -11.2229     52.8410    132.6001   1.1372141207e+02   4.2356372017e+01     0.434672     0.317046  41.07  0.002448933    1.361    0.265
       101 -10.5053     59.5313    120.6529   1.1009345948e+02   4.4257150025e+01     0.348604    0.2834409 -84.29  0.002090245    1.168    0.144
       102 -10.5021     65.8257    130.6891   1.0987110311e+02   4.1178770034e+01    0.3236437    0.2400635 -61.78 0.0003859197    1.324    0.245
       103 -11.7646     67.3003    120.1329   1.0775259370e+02   4.3363018060e+01     1.152502    0.6345826 -63.33  0.005610727    1.746    0.427
       104  -9.1043    236.9698    135.5009   7.3575204047e+01   1.0069200495e+01    0.1821122    0.1175362  41.97  0.001037452    1.607    0.378
       105 -10.1249     72.7888    129.5322   1.0777174935e+02   4.0499696052e+01      0.29955    0.2243135 -81.34   0.00112884    1.373    0.271
       106  -8.6982     80.8997    124.8925   1.0473741363e+02   4.0366334086e+01    0.1924436    0.1812126 -15.12 0.0005697625    1.241    0.194
       107  -9.4019     74.9367    124.6768   1.0636090359e+02   4.1280234754e+01    0.2343779    0.1831546 -79.48  0.000340627    1.296    0.228
       108 -13.1035     40.6963    123.1266   1.1592593212e+02   4.5850766582e+01     1.849388     1.384306  84.11   0.00460826    1.249    0.199
       109  -9.5143     91.7624    121.2147   1.0104220907e+02   3.9494813878e+01    0.4081226    0.3608161 -80.77  0.002187892    1.150    0.130
       110  -9.2617     92.5038    115.8964   9.9753167735e+01   4.0537068033e+01    0.3014978    0.1342214 -54.64 0.0009492355    2.231    0.552
       111  -8.6837     90.7293    112.4329   9.9520480275e+01   4.1590120893e+01    0.2239349    0.1999207 -45.73 0.0008332384    1.153    0.132
       112 -10.5633     19.3091    118.4461   1.2165009543e+02   4.8893507247e+01    0.4232596    0.2180048 -74.08  0.001239675    1.665    0.399
       113  -8.5208    132.4447    119.4558   9.0114881396e+01   3.2576555691e+01    0.1399489    0.1362948  28.14 0.0001509929    1.015    0.015
       114  -8.4708    104.3581    109.2086   9.4980194193e+01   3.9946463410e+01    0.2390256    0.1724888  64.30 0.0004765468    1.662    0.398
       115  -8.5575    106.4863    119.5050   9.6710790868e+01   3.7381621561e+01    0.2280827    0.2231365  70.47 0.0006779375    1.004    0.004
       116  -9.6059    104.5392    116.4959   9.6578078326e+01   3.8360713666e+01    0.3003669    0.1815844  48.79  0.001144186    1.695    0.410
       117  -9.3686    108.2400    113.9666   9.5020324182e+01   3.8237469128e+01    0.3226919    0.1371623 -51.02  0.001165504    2.387    0.581
       118  -9.0153    107.5744    109.7751   9.4233301003e+01   3.9243712448e+01     0.310021     0.164255 -40.13  0.001301676    2.071    0.517
       119  -8.5367    116.1829    116.8240   9.3578320423e+01   3.6190143765e+01    0.1914919    0.1665621  -6.40 0.0002597046    1.327    0.246
       120 -10.8164     56.1233    126.1107   1.1190469829e+02   4.3432249533e+01    0.3808039    0.3326693 -74.16  0.001211708    1.098    0.089
       121  -9.4290    202.2299    228.9981   9.5569103694e+01   4.7147876741e+00    0.1765001    0.1159283  28.40 0.0003943749    1.139    0.122
       122  -8.5813    142.8149    114.6123   8.6507025219e+01   3.1446351180e+01    0.1970172    0.1767969 -12.23 0.0003991841    1.147    0.128
       123  -9.1732     81.7731    114.6745   1.0255240101e+02   4.2512557008e+01    0.2970374    0.2310529   0.90  0.001547978    1.775    0.437
       124  -8.3763     76.8617    120.3674   1.0504992257e+02   4.1968633867e+01    0.1879232    0.1292295  23.03 0.0009491481    1.759    0.432
       125  -9.7113     98.6728    113.5110   9.7524732988e+01   4.0020148620e+01    0.3929829     0.263918  34.03  0.001456012    1.569    0.363
       126 -10.1314    131.9173    110.9344   8.8215560056e+01   3.4340923767e+01    0.5870564    0.3134235  44.05   0.00248515    1.849    0.459
       127  -8.7187     94.6082    109.6256   9.7802717848e+01   4.1560190205e+01    0.2463577    0.1289999 -48.74 0.0005796471    1.892    0.471
       128  -9.9417    149.2378    107.0048   8.3134912145e+01   3.1530149423e+01    0.5121299    0.2291687 -35.30  0.001961006    2.360    0.576
       129  -9.8310    113.6385    107.0952   9.1958192858e+01   3.8678722637e+01    0.2739959    0.2467972  72.35 0.0009983791    1.205    0.170
       130 -10.1671    133.9830    102.6417   8.5609431374e+01   3.5533725361e+01    0.3941363    0.2141635 -39.98  0.001158827    1.855    0.461
       131 -10.2656     37.9890     97.3281   1.1304044521e+02   5.2187837847e+01    0.7933412    0.3606454  12.16  0.003090664    3.828    0.739
       132 -10.9213     50.8160    103.0117   1.0979328334e+02   4.9428935956e+01    0.8013735    0.5928771  52.00  0.004562302    1.401    0.286
       133 -11.0206     57.1564     84.5821   1.0387788917e+02   5.2987440303e+01    0.5274843    0.4245017 -69.91  0.001201607    1.182    0.154
       134  -9.4078     53.1915     82.3674   1.0477012987e+02   5.4020944104e+01    0.2427588    0.2177695 -84.69  0.001022155    1.111    0.100
       135 -10.3423     50.9505     97.4824   1.0873198187e+02   5.0720034118e+01    0.4096916    0.3292245  35.65  0.001539105    1.353    0.261
       136 -10.4461     52.1018     92.9045   1.0744539962e+02   5.1665204827e+01    0.4925649    0.4476695  43.99  0.003059536    1.191    0.160
       137 -10.0679     44.1343     93.2121   1.1022780303e+02   5.2518543920e+01    0.2197263    0.1980822  86.32 0.0007148233    1.080    0.074
       138 -11.4747     35.6580     91.5163   1.1285751147e+02   5.3810390992e+01    0.8599493    0.4761199   9.97  0.001726319    2.669    0.625
       139  -9.2184    105.5279    102.8979   9.3140229601e+01   4.1079772582e+01     0.318975    0.1860426 -44.88 0.0009225722    1.714    0.417
       140  -9.5007    106.1456     98.9962   9.1985132973e+01   4.1794175033e+01    0.2576573     0.207713  35.08  0.001344851    1.288    0.224
       141  -9.3513    171.2474    102.5331   7.7258192019e+01   2.7607778676e+01     0.379814    0.2361968  27.21  0.001669631    1.923    0.480
       142  -9.9824     59.8908    102.1274   1.0671516156e+02   4.8508670690e+01    0.4212642    0.1998848  41.11  0.001198614    2.151    0.535
       143  -8.6862     31.9332    102.4637   1.1583863955e+02   5.1554103776e+01    0.1936224    0.1437635 -74.69 0.0002952976    1.176    0.150
       144  -8.6928     39.9603    102.5444   1.1323299687e+02   5.0744191550e+01     0.177674    0.1268333  32.39 0.0003910265    1.536    0.349
       145 -10.5642      4.7202     99.5546   1.2438217705e+02   5.4311708372e+01    0.6402407    0.2093397 -57.72  0.002852615    2.685    0.628
       146  -9.3353      3.2500     94.1572   1.2437399329e+02   5.5665963707e+01    0.5597109    0.1052112 -61.44    0.0019272    3.623    0.724
       147 -10.3284      6.7251     85.2672   1.2224919489e+02   5.7574915246e+01    0.7542233    0.3590092 -50.01  0.003862644    2.074    0.518
       148  -9.4122      1.8990     84.5050   1.2389997048e+02   5.8022872174e+01    0.2130796    0.1712294 -62.92  0.001441574    1.184    0.155
       149  -9.5353    115.2418    100.8643   8.9966199555e+01   3.9661809676e+01    0.2737417    0.1960699 -26.68  0.001085741    1.648    0.393
       150  -9.1885    121.6844     99.8344   8.7990337405e+01   3.8597186011e+01    0.3070302    0.1289503 -37.87  0.001093505    2.647    0.622
       151  -8.4766    110.9443    100.5274   9.1046119284e+01   4.0561816049e+01    0.2042913    0.1423909  42.17 0.0002915905    1.448    0.309
       152  -9.2004     63.7853     98.3456   1.0469665593e+02   4.8872188213e+01    0.3354513    0.1768893  52.95   0.00146722    2.249    0.555
       153  -9.3965    151.0296     96.3421   7.9912482792e+01   3.3077446954e+01    0.2926145    0.2114415  74.78  0.001316593    1.972    0.493
       154  -9.6711    160.2749     96.7761   7.8005332747e+01   3.0973861863e+01    0.4612923    0.3386165  22.07  0.001789356    1.552    0.356
       155 -10.2552    155.2221     97.5952   7.9321153070e+01   3.1938458300e+01    0.4248098    0.2185447  41.59  0.001372001    1.990    0.498
       156  -9.3746    155.9742     94.4655   7.8302819891e+01   3.2323649302e+01    0.4110999    0.2656295  44.29  0.001452185    1.547    0.354
       157  -8.9804    132.4909     96.5669   8.4359860772e+01   3.7019654498e+01    0.3063272    0.1446283 -40.69  0.001194993    2.114    0.527
       158  -9.4101     69.2055    135.5448   1.0968189569e+02   3.9656959024e+01     0.194516    0.1682336 -47.80 0.0005426618    1.298    0.230
       159  -9.2164    226.6275     95.6393   6.5984851884e+01   1.6975065507e+01    0.2399489    0.1704027  53.99 0.0007524253    1.604    0.376
       160  -9.7938    140.3828     95.4545   8.2134303137e+01   3.5550826618e+01    0.3546242    0.2818418  46.56 0.0008964144    1.268    0.211
       161  -9.4368    135.9906     92.9799   8.2508877372e+01   3.6962118816e+01    0.2522213    0.2127841 -16.25  0.001301056    1.263    0.209
       162  -8.6579    189.1191     94.8436   7.1827481237e+01   2.4941346640e+01     0.204164    0.1615673   6.56 0.0005279683    1.330    0.248
       163 -10.1775    114.9674     95.1395   8.8531436499e+01   4.0895165329e+01    0.3523644    0.3195595 -62.63  0.001931694    1.157    0.135
       164 -10.5183    124.2233     81.5870   8.2180428192e+01   4.1684305217e+01    0.5804672    0.3594368 -54.85  0.002480268    1.896    0.472
       165 -11.3785    121.7897     92.2786   8.5919790650e+01   4.0093852289e+01    0.5874348    0.3645733  50.45  0.002635372    1.684    0.406
       166 -11.2080    119.8381     86.6714   8.4846199853e+01   4.1617624278e+01    0.7934396    0.2931876  49.96  0.002685477    2.934    0.659
       167  -8.7195     50.1483    227.7852   1.2258718367e+02   2.4391204786e+01     0.162822    0.1025437  55.60 0.0008428898    1.224    0.183
       168 -10.0684    124.1900     74.8176   8.0098492557e+01   4.2986160183e+01    0.7021573    0.2891674  47.05  0.002544223    2.458    0.593
       169 -11.6199    125.8757     69.9544   7.8097518568e+01   4.3516769306e+01     1.288958    0.6529256 -57.42   0.00433443    3.208    0.688
       170 -11.2022    111.6014     63.8978   7.9925608811e+01   4.7817838378e+01    0.9517541    0.7165542  20.89  0.004538232    1.585    0.369
       171 -11.7511    103.9943     79.9868   8.7323117140e+01   4.6206110052e+01     1.111447    0.6602767 -23.40  0.003478724    2.489    0.598
       172 -11.4908     99.3865     76.8738   8.7755735485e+01   4.7759342585e+01     1.368537    0.5247912  42.41  0.004789178    2.722    0.633
       173 -11.2681    118.6568     69.8017   7.9955029443e+01   4.5155164367e+01    0.6080947    0.4512648 -37.56  0.002741574    1.314    0.239
       174 -10.3555    114.5608     69.7768   8.1071156225e+01   4.6054219568e+01    0.4177939    0.2668147 -37.36 0.0005651496    1.534    0.348
       175 -10.7638    141.8091    102.0244   8.3562847237e+01   3.4015831758e+01     0.393659    0.3231137   7.02 0.0008259955    1.387    0.279
       176  -7.9999    194.3016     89.6764   6.9543921391e+01   2.4577816644e+01    0.1420199     0.110143 -58.83 0.0007028667    1.633    0.388
       177  -8.2020    187.4862     89.5248   7.0698262591e+01   2.6106144846e+01    0.1443077    0.1350263 -12.93 0.0004757468    1.041    0.039
       178 -10.7426    143.5928     58.2026   6.9928647790e+01   4.1374056140e+01    0.2755481    0.2588691  -3.23 0.0002868685    1.047    0.045
       179  -8.8629    112.2138    225.4207   1.1094475010e+02   1.7374358597e+01     0.167099   0.07636701  44.72 0.0009535425    1.744    0.427
       180 -10.8837    150.5619     66.4320   7.1128847314e+01   3.8355029902e+01    0.7109378    0.4034545 -38.72  0.002594596    1.720    0.419
       181 -10.1986    147.8700     34.9095   6.0807307952e+01   4.3698156286e+01    0.8697882    0.2943526  58.43  0.002881163    2.778    0.640
       182 -10.2096    150.9813     59.6333   6.8823058284e+01   3.9343794930e+01    0.5277801     0.359364  51.79   0.00244737    1.482    0.325
       183 -10.9286    145.4449     85.7567   7.8199612520e+01   3.6217454884e+01    0.7852423    0.7027339  21.41  0.004209341    1.138    0.122
       184 -12.0638    146.3491     75.2639   7.4842294773e+01   3.7863557003e+01     1.289287    0.5141249  54.92            0    2.707    0.631
       185 -11.4041    141.5656     68.6709   7.3851998399e+01   4.0119941222e+01     1.629653     1.143307  83.57  0.006968244    2.141    0.533
       186 -10.6297    166.6793     69.0208   6.8662043180e+01   3.4072835338e+01    0.8061525    0.4707875  71.65  0.003114279    2.386    0.581
       187 -11.0999    165.5828     62.0656   6.6707611793e+01   3.5399510259e+01      1.44068    0.4417299 -31.09  0.004583792    3.082    0.675
       188 -10.9368    160.4379     50.7884   6.4012353175e+01   3.8326849867e+01     1.008376    0.5249934  73.39   0.00373568    2.670    0.625
       189 -10.7829    152.6304     43.7052   6.3060141252e+01   4.1295832871e+01    0.7311869    0.3979996 -42.91  0.001301705    1.897    0.473
       190 -11.0424    140.6742     52.0033   6.8429812929e+01   4.3069168781e+01     1.073358     0.501676  58.55  0.003136596    2.255    0.557
       191 -11.6127    147.4111     51.8591   6.6938695039e+01   4.1423908296e+01    0.9156175    0.6362577  88.61  0.003962144    2.046    0.511
       192 -11.9773    141.0972     43.4863   6.5288611504e+01   4.4244467215e+01     0.860601    0.6845499  66.71  0.002240056    1.351    0.260
       193  -9.3494    112.3884     88.7335   8.7471316279e+01   4.2726288037e+01    0.2763171    0.1853845 -34.58  0.001272726    1.570    0.363
       194  -9.3489    101.0396     88.1022   9.0543883630e+01   4.5074283377e+01     0.207386    0.2061435 -31.24  0.001192634    1.023    0.022
       195  -8.9519    132.2089     86.7555   8.1669236507e+01   3.8962032372e+01     0.203326    0.1737468   2.53  0.000536109    1.299    0.230
       196 -10.2454     51.4378     86.4317   1.0631225222e+02   5.3279431769e+01    0.3650035    0.3584629 -83.19  0.002137922    1.101    0.092
       197  -8.8496    224.7307     85.0074   6.3602069415e+01   1.8722153504e+01    0.1916651    0.1582001 -16.39 0.0001822532    1.069    0.065
       198 -10.6266    161.2001     81.8288   7.3599654362e+01   3.3303088618e+01    0.5012109    0.3603919  45.70  0.000746393    1.401    0.286
       199  -9.2294     75.5516     84.0540   9.7437294981e+01   5.0427960604e+01    0.2900631    0.1929261  42.60 0.0007495795    1.587    0.370
       200  -9.0250    173.0191     83.0211   7.1579153205e+01   3.0385680815e+01    0.2229833    0.2082287 -12.15 0.0005208857    1.017    0.017
       201 -10.7220    133.4984     80.7812   7.9575331081e+01   3.9801824038e+01    0.5486698    0.4395884  63.83  0.001508845    1.416    0.294
       202  -9.9633    217.0858     78.6635   6.3044899693e+01   2.1145799199e+01     0.348092    0.1989361 -43.09  0.001619813    1.829    0.453
       203 -10.0071    190.3048     77.0072   6.6749038677e+01   2.7324220640e+01    0.6478102    0.2907039  33.55    0.0022143    3.278    0.695
       204  -9.5507      5.5481     77.5127   1.2176007260e+02   5.9493008119e+01    0.2639363    0.1889938  43.88  0.001660926    1.548    0.354
       205 -10.3127      3.1775     74.1298   1.2225271517e+02   6.0427659597e+01    0.5406401    0.2119159 -44.35  0.001818324    2.727    0.633
       206  -8.9136    248.4943     76.4859   5.8460855798e+01   1.5016799588e+01    0.1309874    0.1099493 -18.51 0.0008104299    1.019    0.018
       207  -9.1664    204.1708     75.7875   6.4181743051e+01   2.4355290182e+01    0.3270791    0.1884996  26.61 0.0009587593    2.263    0.558
       208  -8.5770    219.1643     74.4552   6.1646887536e+01   2.1242416889e+01    0.2685607    0.1260235 -43.27  0.000923868    2.261    0.558
       209  -9.1213    131.9818     74.4069   7.7981191683e+01   4.1318747614e+01    0.3062152    0.2006324 -49.58  0.001357461    1.648    0.393
       210  -9.8956    177.4037     68.7398   6.6588167735e+01   3.1551944125e+01    0.5482534    0.3899263  63.39  0.002215995    1.562    0.360
       211 -10.3918    101.0885     68.9075   8.4703567613e+01   4.9053614893e+01     0.487164    0.3640593 -62.51   0.00146973    1.575    0.365
       212 -10.2898    131.3603     61.9820   7.4056646422e+01   4.3674935402e+01    0.7885134    0.4110262  69.79  0.002655023    3.281    0.695
       213  -8.8393     98.7869    224.0099   1.1330815408e+02   1.9310371724e+01    0.1559648    0.1082408  22.10   0.00105096    1.631    0.387
       214  -9.8408    179.7502     44.5259   5.8709812165e+01   3.4325778909e+01    0.6444091    0.2830869 -16.32   0.00222552    2.762    0.638
       215 -10.2065    196.0382     49.0888   5.7744165161e+01   2.9749231001e+01     1.029975    0.2722129  63.42  0.003174725    4.035    0.752
       216 -10.5605    192.9963     53.5919   5.9519905418e+01   2.9909972696e+01    0.8651345    0.4836774  88.35  0.003258287    3.068    0.674
       217 -10.6297    174.0104     57.0991   6.3619432690e+01   3.4059305171e+01    0.7762069    0.4523227   2.99  0.002931396    2.652    0.623
       218 -10.2850    172.4714     47.8957   6.0948288431e+01   3.5708336470e+01    0.6134901     0.389766  72.72  0.002732558    1.842    0.457
       219 -11.1317    185.0213     55.9325   6.1438525184e+01   3.1529195893e+01    0.5760564    0.4418392  -1.75 0.0002989449    1.412    0.292
       220 -11.0890    183.4129     51.9022   6.0455878285e+01   3.2460041445e+01    0.4727778    0.3302378  63.95 0.0006177679    1.533    0.348
       221  -9.3836    212.3197     59.3665   5.8491453309e+01   2.4659420664e+01    0.3132818    0.2235637  -0.78  0.000966901    1.534    0.348
       222  -9.5953    201.5544     59.6065   6.0038877797e+01   2.7104792220e+01    0.3544379    0.2737455   6.21  0.001497124    1.411    0.291
       223  -8.6535    220.0123     59.4954   5.7536830863e+01   2.2920834547e+01      0.28898    0.1385174  62.09   0.00125514    2.321    0.569
       224  -9.6594    222.5624     56.0968   5.6305488319e+01   2.2764332182e+01    0.3480918    0.3002323 -88.68   0.00204175    1.380    0.275
       225  -9.2738    137.6318     59.1042   7.1581264038e+01   4.2669668666e+01     0.282133     0.208093  43.21 0.0005662239    1.378    0.274
       226  -9.3307    112.1853     57.8840   7.7646958799e+01   4.8805439913e+01    0.3638733    0.2335893   0.86  0.001391793    2.621    0.618
       227  -8.9895    159.1344     58.5448   6.6817771632e+01   3.7510567715e+01    0.2260862    0.1491311  57.21  0.001019926    1.564    0.361
       228  -9.4605    243.8492     55.4927   5.3773104947e+01   1.8309058941e+01    0.3635429    0.1868914 -36.51  0.001391604    1.692    0.409
       229  -9.6349    233.7268     55.4252   5.4839158906e+01   2.0424374654e+01    0.2726322    0.2319469  49.92 0.0007968644    1.307    0.235
       230  -9.9548    211.5347     50.1866   5.6024855653e+01   2.5957870772e+01    0.4502251    0.2504956 -14.50  0.001295166    1.901    0.474
       231  -8.5654     65.8752     50.8919   9.0541006136e+01   5.9281018574e+01     0.199614    0.1713947 -21.46            0    1.180    0.153
       232  -8.7790     16.0775     50.7349   1.1257469842e+02   6.5222309916e+01    0.1930055    0.1165933 -30.07 0.0007251154    1.887    0.470
       233  -9.5560    224.5076     48.2511   5.3959735585e+01   2.3244103514e+01    0.3617728     0.194751 -37.78  0.001094671    1.675    0.403
       234 -10.2231    219.8091     43.5820   5.3206694676e+01   2.4827374756e+01    0.5085261    0.2182375 -33.37   0.00182775    1.990    0.497
       235  -8.9561     41.1739    220.9973   1.2386029674e+02   2.6403782659e+01    0.1453013    0.1089985 -45.11  0.001082298    2.058    0.514
       236  -8.6066     33.9985    219.4845   1.2510967440e+02   2.7365708149e+01    0.1210946    0.0861169   3.54 0.0004951411    2.465    0.594
       237  -8.7840      3.3434    214.4629   1.3052035261e+02   3.0948080254e+01    0.1936582   0.05625266  77.82 0.0009465279    3.557    0.719
       238  -9.3417     26.4788    212.0217   1.2616070115e+02   2.9333495383e+01    0.1443812   0.08783828 -88.53  0.001038125    1.608    0.378
       239  -9.0135     13.5622    212.0683   1.2857587709e+02   3.0492160741e+01    0.1422743   0.08214001  87.38  0.001027628    1.606    0.377
       240 -10.5124    113.5120     32.1224   6.7221201397e+01   5.2731889217e+01    0.4671218     0.227074 -26.27 0.0004660981    2.088    0.521
       241  -9.6895    244.3268    204.4502   8.5285221497e+01   1.5053733757e+00    0.1951595    0.1134685  17.51 0.0005743187    1.418    0.295
       242  -9.6741     17.6465    202.3447   1.2742250635e+02   3.1816130998e+01    0.1835746    0.1551445  68.01  0.000917555    1.179    0.152
       243  -9.4919    233.9177    200.0951   8.6170838653e+01   3.3362735576e+00    0.1969288    0.1294149  -8.47  0.001345634    1.387    0.279
       244  -8.1677     93.3320    200.3417   1.1207615243e+02   2.3767704607e+01    0.1081066   0.08764556  -3.22  0.000705122    1.751    0.429
       245  -9.8591     36.7262     27.0227   9.3916760106e+01   6.8460591127e+01    0.2017578    0.1833527  14.31 0.0003717369    1.213    0.176
       246  -8.2704    169.4818    200.5314   9.7205859174e+01   1.2717249409e+01    0.1177975   0.09611885  31.31 0.0008082174    1.083    0.076
       247  -9.1785     27.3635    193.8052   1.2508617041e+02   3.2463489309e+01    0.1813325    0.1270037 -77.56  0.001022642    1.478    0.324
       248  -9.6938     11.3206    192.2147   1.2824959242e+02   3.4184435498e+01    0.2059069    0.1226794  46.02  0.001460163    1.349    0.259
       249 -11.5687     24.7187     34.2248   1.0328163817e+02   6.8278526401e+01    0.3234213    0.2389271 -71.26  0.001431182    1.457    0.313
       250 -10.8878     23.5717     26.4309   1.0088935444e+02   7.0074495032e+01    0.3630387    0.3403214   0.77  0.001375205    1.206    0.171
       251  -8.8102    216.1765    188.8961   8.7154262098e+01   7.0864516243e+00    0.1682023    0.1134193  11.37  0.000698352    1.326    0.246
       252  -9.6414      1.4998    188.4895   1.3007808522e+02   3.5661942700e+01    0.2213922   0.08342989 -80.56 0.0008611094    2.434    0.589
       253 -10.2840      4.7886    182.9012   1.2921304767e+02   3.6448328382e+01    0.3031429    0.2651033  24.22  0.001632006    1.492    0.330
       254 -10.2015    206.8675     45.4620   5.5258202030e+01   2.7607172687e+01    0.4052898    0.2893982 -23.79  0.001310642    1.298    0.229
       255  -8.1249     24.6062     46.2424   1.0726390234e+02   6.5582202383e+01    0.1227311   0.09286968  62.22 0.0003892432    1.666    0.400
       256  -8.5714    248.7547     44.9878   5.0655218366e+01   1.8441134618e+01    0.1772989   0.09506299 -23.88 0.0007423249    1.590    0.371
       257 -10.3855      1.6219    177.9562   1.2968854884e+02   3.7633335899e+01    0.3313789    0.1168316 -87.78  0.001749169    2.569    0.611
       258  -9.6678    214.2168     41.9593   5.3383384511e+01   2.6293553893e+01    0.4696589    0.2589943   4.33  0.001905059    2.624    0.619
       259  -8.5529    229.3124    186.6529   8.4638196755e+01   5.3926908034e+00   0.09568021   0.09418006 -26.14 0.0007046335    1.714    0.416
       260 -10.8687    219.1325     34.3700   5.0723047201e+01   2.5991791149e+01    0.5954112    0.3539482  55.97  0.001089551    1.787    0.440
       261 -10.0680     11.4797    184.8425   1.2790997459e+02   3.5540465793e+01     0.217409    0.1491714 -67.20  0.001132836    1.650    0.394
       262  -9.1538     32.3357    184.5000   1.2351274674e+02   3.3722369793e+01    0.1812744   0.09181377 -79.18 0.0008446203    1.935    0.483
       263  -8.5834     17.9735    182.4801   1.2644393702e+02   3.5433984207e+01    0.1536458   0.08773571  39.23 0.0005142845    1.536    0.349
       264  -9.0282     36.8232    179.3217   1.2220227946e+02   3.4271877141e+01    0.1861078    0.1072674  50.92 0.0008280519    1.435    0.303
       265  -9.5036    127.9524     44.4169   6.8569118805e+01   4.7372497088e+01    0.3326641    0.2379238  75.67  0.000514582    1.751    0.429
       266  -9.4756    130.5566     40.7677   6.6579252011e+01   4.7279678076e+01    0.4068137      0.20942 -33.40  0.001651279    1.868    0.465
       267  -8.9982    166.0468     42.3569   6.0196233393e+01   3.8064530585e+01    0.4107253    0.1797798  47.97  0.001545118    2.328    0.570
       268  -9.2632    191.2136     39.7793   5.5585051576e+01   3.2059722321e+01    0.4185187    0.2505932  -6.61  0.001508315    1.969    0.492
       269 -10.6502    193.2731     32.3942   5.3047738817e+01   3.2400412475e+01    0.4857044    0.3556933   9.64  0.001171574    1.573    0.364
       270 -10.1507    180.5236     38.2327   5.6584881400e+01   3.4913274942e+01    0.5027814    0.3538748 -47.44  0.002400786    1.463    0.317
       271  -9.6313    174.5240     38.7648   5.7646801394e+01   3.6366592720e+01    0.3672881    0.2139654  41.56  0.001537489    1.868    0.465
       272  -8.9402    235.8761     39.0599   5.0339614899e+01   2.1761236949e+01    0.2041408    0.1768488 -26.88 0.0008016691    1.012    0.012
       273  -8.6943    192.8578    176.9189   8.9109460020e+01   1.2196487861e+01    0.1863842     0.140077  13.31 0.0003955038    1.207    0.171
       274  -9.3274    198.1110     37.1651   5.3901690284e+01   3.0671765937e+01    0.2150433    0.1848329  22.75 0.0006957452    1.246    0.197
       275  -9.2236    124.9904     35.4593   6.5791963100e+01   4.9433697138e+01    0.3373298    0.2244732  36.20  0.001527798    1.610    0.379
       276 -10.2115    246.8313     33.2312   4.7869779114e+01   2.0041526828e+01    0.4992175    0.2747286  56.52  0.001649143    2.026    0.506
       277  -9.1427     79.9550    176.5365   1.1235609904e+02   2.9799013726e+01    0.2119723    0.1653246 -46.67  0.001361202    1.575    0.365
       278 -10.5079    246.7605     18.8348   4.4248830854e+01   2.1443730763e+01    0.5144701    0.2676236  77.03  0.001937222    2.230    0.552
       279  -9.2843      7.5827    174.4916   1.2828518907e+02   3.7841081102e+01    0.1871677    0.1286538  87.88 0.0006696619    1.267    0.211
       280 -10.7856    235.5291     32.9748   4.8776097590e+01   2.2468145001e+01    0.5579509    0.3848044  15.35  0.002974469    1.761    0.432
       281  -9.7484    237.9090     26.1323   4.6783941931e+01   2.2636388592e+01    0.3081799    0.2354192 -40.01  0.001227583    1.164    0.141
       282  -8.7056    245.5282    171.0146   7.9328791433e+01   4.6869880985e+00    0.1431969   0.09153128 -43.32 0.0008085803    2.444    0.591
       283  -9.4052    244.9921    187.2900   8.2320458535e+01   3.0848248960e+00    0.1825307    0.1329119  -4.15 0.0005148947    1.153    0.132
       284 -10.1498    135.1588     34.1031   6.3017631515e+01   4.7062482184e+01    0.3016033    0.2696572   0.39 0.0005660068    1.129    0.114
       285  -9.5244    138.9269     31.7392   6.1341594864e+01   4.6411641253e+01    0.3037024    0.2632211  -7.02 0.0002028918    1.168    0.144
       286  -8.5198    130.3168     34.9900   6.4401501376e+01   4.8166905129e+01    0.2028113    0.1889048 -24.84 0.0007887954    1.062    0.058
       287  -9.1330     34.0440    169.2968   1.2210753432e+02   3.6527495705e+01    0.1596765    0.0919005  -1.86 0.0007032751    4.171    0.760
       288 -10.5353     18.4062    165.9434   1.2545571125e+02   3.8645761354e+01    0.3236243    0.2473768 -77.96  0.002341931    1.306    0.235
       289  -8.9882    176.7253     14.9524   4.9446304779e+01   3.8426226632e+01    0.3685671    0.1748651  65.32  0.001465888    2.046    0.511
       290  -9.7104    188.6312     19.9105   4.9696837417e+01   3.4887548937e+01    0.3551821     0.212902  40.84 0.0007184895    1.863    0.463
       291  -8.5837    185.2653     17.9831   4.9459945783e+01   3.5934361568e+01    0.2253076    0.1775464 -61.74 0.0003232117    1.324    0.245
       292 -10.2674    172.7702     31.2710   5.5425743061e+01   3.7714021402e+01     0.627093    0.2685557  36.37  0.002098081    3.298    0.697
       293 -11.4114     16.8283    159.5830   1.2544362749e+02   4.0079454014e+01     0.329499    0.2635667 -15.77  0.002201272    1.894    0.472
       294  -8.8760    198.9375     32.2322   5.2317638356e+01   3.1022968187e+01    0.2501013    0.1774562  -1.79  0.000662335    1.562    0.360
       295  -9.9839     11.3971    164.9827   1.2699517307e+02   3.9423360788e+01    0.2850789    0.1429201  42.75  0.001748203    1.695    0.410
       296  -9.9928    227.4333     30.7849   4.8929633104e+01   2.4479988299e+01    0.7534999    0.2814043 -53.20  0.002668013    3.565    0.719
       297  -9.2817    227.3503     27.2983   4.7993884375e+01   2.4852261872e+01    0.2498081    0.2201228  28.49  0.001460993    1.260    0.207
       298 -10.0449      2.7087    161.0368   1.2877976000e+02   4.0890303490e+01     0.331944    0.1723015 -71.58  0.002052898    1.836    0.455
       299  -9.3991    200.5326     24.0982   4.9691440851e+01   3.1495542872e+01    0.2502605    0.2149462 -44.45 0.0009891533    1.114    0.102
       300  -8.9291    146.1837     29.0605   5.8950507696e+01   4.4873627711e+01    0.3984764    0.2764969  63.33  0.001891087    1.460    0.315
       301  -9.1039    153.0173     24.1102   5.5940169476e+01   4.3672867866e+01    0.4801784    0.2803647 -21.64  0.002110863    1.714    0.416
       302  -9.4198      2.0136    156.2496   1.2872870162e+02   4.1918987307e+01    0.1970652    0.1587736  78.60 0.0006364468    1.074    0.069
       303  -8.9682      7.9242    151.4737   1.2709551649e+02   4.2478009090e+01    0.1950573    0.1334805 -70.32 0.0006768231    1.455    0.312
       304  -9.7796    147.3354     23.9040   5.6808596224e+01   4.5185094838e+01    0.4001757    0.2587763  61.60  0.001243114    1.528    0.346
       305 -10.5978     12.8148    150.8638   1.2587690562e+02   4.2228687921e+01    0.4079543    0.2395426 -65.82   0.00253268    1.700    0.412
       306 -11.9956     21.1241    146.9606   1.2356054234e+02   4.2376107677e+01    0.6444305     0.441952  66.00  0.004215166    1.258    0.205
       307 -10.6935     30.7419    151.1774   1.2148607018e+02   4.0603475400e+01    0.2598393    0.1736555 -64.54  0.001149622    1.523    0.343
       308 -10.3488    167.6233     24.7782   5.3960166497e+01   3.9779843925e+01    0.6862952     0.340545  36.17  0.002381802    2.503    0.600
       309  -9.8902    248.9237     25.7169   4.5817328945e+01   2.0343928735e+01    0.3270642    0.2359543  30.88  0.001905052    1.677    0.404
       310  -8.7655    136.3255     25.4143   5.9392344114e+01   4.7876287859e+01     0.299609     0.178092  -4.94  0.001235022    2.058    0.514
       311  -8.6262    140.7672     23.3316   5.7745128168e+01   4.6968513951e+01    0.2110737    0.1246264  53.12 0.0003952397    1.635    0.388
       312 -10.1153     22.0666    137.4755   1.2257915728e+02   4.4364647825e+01    0.5893876    0.3261149  -7.81  0.002685485    3.830    0.739
       313 -10.2775     29.6167    135.9788   1.2043355056e+02   4.4025149096e+01    0.5462893    0.2712849 -39.31   0.00247276    3.279    0.695
       314  -9.0487     23.4763    132.9727   1.2181680555e+02   4.5245386748e+01    0.2604744    0.1034947 -76.26 0.0007308726    2.242    0.554
       315  -8.3990     86.0004     15.8863   6.7449734279e+01   6.1425989879e+01    0.3161579     0.199437  65.48  0.001463323    1.922    0.480
       316 -12.0498     36.6022    145.4034   1.1949230100e+02   4.1277304070e+01    0.9859297    0.5473409  48.58  0.004251837    1.643    0.391
       317  -9.2895     67.7508     13.4480   7.2472124106e+01   6.5656804342e+01    0.2976044    0.1787181  51.59 0.0005869846    1.793    0.442
       318 -10.0375     46.3973    144.5934   1.1688043816e+02   4.0429761035e+01     0.327125    0.2541697 -17.50  0.001969049    1.902    0.474
       319 -10.2546     66.2016    148.3049   1.1223450546e+02   3.7284003205e+01    0.5155095    0.2897689  49.97  0.002708789    1.686    0.407
       320 -11.6606      5.3677    144.9744   1.2736809742e+02   4.4042647556e+01    0.5706914    0.3479523 -79.72  0.003220886    1.436    0.304
       321 -12.7792     11.4842    127.3742   1.2464148625e+02   4.7458161417e+01     1.025281    0.6127932 -70.75            0    1.492    0.330
       322 -11.9835     76.3773    104.9657   1.0214824165e+02   4.5530590419e+01     1.141324    0.8669852   3.87  0.001294258    1.823    0.451
       323  -9.4748    235.6158    249.2805   9.3107999121e+01  -1.3196154401e+00    0.1716759   0.09389461  37.04  0.001116145    1.649    0.394
       324  -8.9830     30.8408    247.7116   1.2687446415e+02   2.3307497309e+01    0.1406011    0.1156444  89.59  0.001302474    1.435    0.303
       325  -9.5008      3.3239    246.6677   1.3133314353e+02   2.5904435296e+01    0.1753879    0.1109903 -73.23  0.001402323    1.953    0.488
       326  -9.1033    217.4505    246.8437   9.5519685512e+01   1.0708712146e+00    0.1520804   0.09247559 -30.56 0.0009046595    2.058    0.514
       327 -12.1764     87.3288     89.0401   9.4961232023e+01   4.7354554359e+01     1.633404      1.04669  44.26  0.006194939    1.624    0.384
       328 -12.2925     81.6703     75.4100   9.2963138377e+01   5.1340135348e+01    0.4401575    0.4152794  64.17  0.000120378    1.138    0.121
       329  -9.7177    105.4282    246.4235   1.1404555193e+02   1.5342843347e+01    0.2307399    0.0849233  52.41  0.001161469    2.980    0.664
       330  -9.1155     91.5717    245.7810   1.1640027683e+02   1.7091049483e+01     0.123838   0.08786608  79.04 0.0009512256    1.686    0.407
       331 -10.0116    142.1456    243.7449   1.0745241412e+02   1.1051227887e+01    0.2563768    0.1696742  22.86  0.001073009    1.441    0.306
       332 -11.6402     15.3786     86.6222   1.1930403586e+02   5.6694968164e+01     1.165531    0.2616387 -59.37   0.00347057    3.167    0.684
