#   1 NUMBER                 Running object number                                     
#   2 MAG_AUTO               Kron-like elliptical aperture magnitude                    [mag]
#   3 X_IMAGE                Object position along x                                    [pixel]
#   4 Y_IMAGE                Object position along y                                    [pixel]
#   5 X_WORLD                Barycenter position along world x axis                     [deg]
#   6 Y_WORLD                Barycenter position along world y axis                     [deg]
#   7 A_WORLD                Profile RMS along major axis (world units)                 [deg]
#   8 B_WORLD                Profile RMS along minor axis (world units)                 [deg]
#   9 THETA_WORLD            Position angle (CCW/world-x)                               [deg]
#  10 FWHM_WORLD             FWHM assuming a gaussian core                              [deg]
#  11 ELONGATION             A_IMAGE/B_IMAGE                                           
#  12 ELLIPTICITY            1 - B_IMAGE/A_IMAGE                                       
         1 -11.4800      2.0308     23.2539   1.0507906082e+02   7.0610748347e+01     1.146819    0.2340212 -57.35  0.004412923    3.957    0.747
         2 -11.3514      1.7707      7.0897   9.8756651983e+01   7.3434817933e+01    0.8524663    0.3521154 -44.30  0.004937433    1.789    0.441
         3 -11.0574      1.9467     49.1092   1.1261616307e+02   6.5534972607e+01    0.8652486    0.1840101 -65.49   0.00313103    4.050    0.753
         4 -10.4890      2.0653     37.8043   1.0963786830e+02   6.7825737388e+01    0.7374913    0.1578616 -63.37  0.002617271    4.434    0.774
         5 -12.0198    219.0214     16.8466   4.1669533974e+01   2.8060807271e+01     0.762313     0.697996 -87.94   0.00331483    1.094    0.086
         6 -10.7782    212.0669     24.5827   4.4378917398e+01   2.8863293796e+01     0.494254    0.3454204  41.95  0.001105355    1.743    0.426
         7 -12.2845    195.7417     38.8569   5.0323520898e+01   3.1172763141e+01     1.282566    0.9436516  17.62  0.005624047    1.870    0.465
         8 -12.2483    204.3894     32.0388   4.7276574348e+01   2.9863051370e+01     1.025266    0.9776667 -48.20  0.005722988    1.118    0.106
         9  -9.8348     13.4162     60.3460   1.1057811636e+02   6.2543026341e+01    0.2264443    0.1470305 -53.44 0.0006467316    1.177    0.150
        10  -9.2352     64.0079    244.2926   1.2120088674e+02   1.6830155249e+01    0.2240229    0.1635067  49.96  0.001600783    1.232    0.188
        11  -9.8664     59.0385    243.9293   1.2203925863e+02   1.7535325283e+01    0.4564581    0.1792306  88.93  0.001985877    3.910    0.744
        12 -12.4362    100.8164    247.0990   1.1487880114e+02   1.1221390452e+01     2.308151    0.3258642  42.48  0.007637602    4.654    0.785
        13 -10.7548     72.3441    249.8346   1.2016763720e+02   1.4773143685e+01    0.6856227    0.3377363  45.95   0.00412359    1.581    0.367
        14 -10.3360     82.4213    247.0259   1.1817335311e+02   1.3872762337e+01    0.3839146    0.2355996 -57.45   0.00243468    2.066    0.516
        15  -8.5553     52.9660    250.5450   1.2352340612e+02   1.7153028934e+01    0.1580672   0.08407817  45.49 0.0003817464    1.531    0.347
        16 -12.2334     31.7457    247.5084   1.2684929964e+02   2.0189309739e+01     1.088041    0.5637106  40.96  0.007159957    1.797    0.444
        17 -11.5722      9.4250    187.7383   1.2738104353e+02   3.4017975650e+01     0.442434    0.3463406 -72.01 0.0003862387    1.381    0.276
        18 -14.3275      3.1836    175.4591   1.2785359666e+02   3.7157394445e+01     8.597136    0.8574796 -75.55   0.02558206    6.513    0.846
        19  -7.5353     76.3124    233.3076   1.1810109483e+02   1.7137448661e+01   0.09815562    0.0934917   4.03 0.0003735007    1.622    0.384
        20 -10.6630     94.9076    225.0446   1.1377299469e+02   1.5972673129e+01    0.4718357    0.3100442  50.14  0.002856174    1.252    0.201
        21  -7.9412     53.5519    231.4730   1.2210672900e+02   2.0479816236e+01    0.1150711   0.08599221  67.94 6.880963e-05    1.007    0.007
        22  -9.0349     91.6563    233.2824   1.1523424198e+02   1.4953152463e+01    0.1938418    0.1271672  47.97 0.0004240244    1.252    0.201
        23  -9.1058     82.8086    231.0298   1.1668314399e+02   1.6640607179e+01    0.1918566    0.1305052  68.27  0.001213101    1.294    0.227
        24  -9.1151     34.2343    228.0341   1.2530638928e+02   2.3427747700e+01    0.2079636    0.1683776  75.14  0.001214411    1.180    0.152
        25  -9.8800     39.0515    224.1873   1.2420150994e+02   2.3603630237e+01    0.3655232    0.1803905  43.11  0.001264989    1.782    0.439
        26  -8.9191    168.2225    225.6246   9.9451942997e+01   3.8705636897e+00     0.239712    0.1531496 -86.24 0.0009552499    4.287    0.767
        27 -10.0471     47.9141    215.0410   1.2190103579e+02   2.4328808224e+01    0.4322276    0.2882373 -89.96  0.002416615    1.317    0.241
        28  -9.5221     48.4600    224.0986   1.2248737031e+02   2.2499536454e+01    0.2281679    0.1741567  61.05 0.0006891179    1.117    0.105
        29  -9.6835     45.4715    220.9463   1.2280472968e+02   2.3468145418e+01    0.2710761    0.1443859  88.24  0.001036061    1.784    0.440
        30 -10.8414     84.2124    223.9609   1.1573500166e+02   1.7751715541e+01    0.4608895    0.2591786  50.56  0.002411258    1.461    0.316
        31 -10.0993     73.2909    218.6190   1.1733402526e+02   2.0320907272e+01    0.3907749    0.1820531  65.15  0.001494348    2.372    0.578
        32  -8.5853    184.2725    215.9922   9.4819124758e+01   2.6085554778e+00    0.1541978    0.1151863 -37.64  0.000898589    1.534    0.348
        33  -9.4771     33.1003    204.6077   1.2393924303e+02   2.8148181601e+01    0.2053497    0.1259533  84.87 0.0006845641    1.368    0.269
        34 -13.6648      7.0081    245.1872   1.3067053617e+02   2.3209959193e+01     1.301389     1.188424 -62.28   0.01103676    1.858    0.462
        35 -12.1701     39.1541    208.7486   1.2308572819e+02   2.6624839562e+01     1.073702    0.6495406 -38.58  0.001402356    3.598    0.722
        36  -8.6765    192.1371    191.9208   8.9038351771e+01   5.0836093305e+00    0.2047265     0.191561  62.65  0.001237369    1.295    0.228
        37  -9.9849     89.8710    229.6108   1.1521007815e+02   1.5879495266e+01    0.2327197    0.1762789  83.83 0.0003405699    1.284    0.221
        38  -8.2565     74.7831    189.5889   1.1395584846e+02   2.6077520176e+01    0.2126047    0.1302887  70.81 0.0008110227    1.682    0.405
        39  -8.2998     72.0444    186.3374   1.1417160794e+02   2.7171512813e+01    0.2135908    0.1499623  76.53 0.0004352806    1.350    0.259
        40  -9.1303     59.8322    187.9090   1.1700952840e+02   2.8476809301e+01    0.2915766    0.1541344 -80.72  0.001473663    1.890    0.471
        41  -9.3557     54.3712    184.9134   1.1787509637e+02   2.9828088307e+01    0.3730724    0.1742236  66.10  0.001442401    2.448    0.592
        42 -10.3135     65.0352    180.6764   1.1506031811e+02   2.9382988399e+01    0.3891734    0.2652108 -39.61  0.002059729    2.165    0.538
        43 -10.1798     70.0062    175.1381   1.1325724669e+02   2.9947314182e+01    0.3187078    0.2301867 -49.99  0.000507446    1.626    0.385
        44  -8.7095    114.4820    173.4711   1.0264351270e+02   2.3274981840e+01    0.1427235    0.1294386  69.22 0.0004214111    1.016    0.016
        45  -9.5267     99.9123    170.3645   1.0556628105e+02   2.6465534107e+01    0.3958641   0.07468349  47.34 0.0009552576    6.208    0.839
        46  -7.8232    193.5143    166.5504   8.3711404467e+01   9.2530034309e+00    0.1463144    0.1326818  13.13 0.0008080036    1.041    0.039
        47 -11.5475     68.4799    144.4250   1.0923870603e+02   3.7339075418e+01    0.7836755    0.5274697  74.13  0.003565163    1.666    0.400
        48  -9.9055     79.3425    165.1115   1.0968652942e+02   3.0902949399e+01    0.2867084     0.258549 -81.22 0.0004845148    1.092    0.084
        49 -10.9049     85.9267    158.6304   1.0707975776e+02   3.1411654377e+01    0.7476167    0.4486978 -44.06  0.001716324    2.000    0.500
        50 -10.9566     75.6324    156.8345   1.0935752367e+02   3.3378117946e+01    0.9839858    0.4618262  73.28  0.002925974    5.133    0.805
        51 -11.7466     66.8293    161.2823   1.1217203843e+02   3.3569582842e+01    0.4624527    0.2954485 -47.26  0.001448703    1.831    0.454
        52  -9.7067     22.5071    156.0482   1.2214838202e+02   3.9803202408e+01    0.2818039    0.1024599 -81.00  0.001205152    2.611    0.617
        53  -8.6522    134.1827    147.8241   9.3036110477e+01   2.5252625913e+01    0.3349827    0.1159244 -55.06   0.00101407    3.476    0.712
        54  -8.8161     99.6869    143.6636   1.0092353998e+02   3.2684279650e+01    0.2550198    0.2320672 -28.86   0.00140657    1.289    0.224
        55  -8.1391    102.4700    140.0464   9.9479294821e+01   3.3054391834e+01    0.3644838    0.2116364 -31.57  0.001395528    2.710    0.631
        56 -10.5013     88.0320    142.4190   1.0374541356e+02   3.4915070493e+01    0.3051415    0.2452839 -47.24 0.0004373264    1.316    0.240
        57  -8.8021     83.0261    143.0996   1.0518943198e+02   3.5537663842e+01    0.2800245    0.2151041 -84.18 0.0008077666    1.320    0.243
        58  -9.1348     49.8463    233.7965   1.2293468701e+02   2.0510692942e+01    0.1655966   0.09722716  63.17 0.0005913698    1.346    0.257
        59 -10.5366     56.8831    129.0868   1.0984328513e+02   4.2551453323e+01    0.5226716     0.310029 -72.92  0.002572048    1.603    0.376
        60 -13.4616      9.1329    207.5414   1.2857464257e+02   3.0003286490e+01     2.468461     1.369353 -61.17   0.01571866    2.097    0.523
        61  -8.0509    135.3419    129.6858   8.8657468829e+01   2.9077676514e+01    0.1611867    0.1233931  84.50  1.88935e-05    1.705    0.414
        62  -9.2676     97.6712    128.1791   9.8293004049e+01   3.6710708864e+01    0.2884531    0.2417138 -30.88  0.001153921    1.373    0.271
        63  -8.7082    116.0153    125.5096   9.2701879186e+01   3.3954848853e+01    0.2346992    0.1512957  41.90  0.001032198    1.589    0.371
        64 -13.2397     48.5892    198.4330   1.2038481417e+02   2.7635663488e+01     2.098758    0.9840987  65.69  0.009530471    2.179    0.541
        65  -9.2786    110.4933    131.7054   9.5589894766e+01   3.3563007943e+01    0.2839011    0.2302003  -0.29 0.0007342903    1.664    0.399
        66  -8.0013    107.2499    120.0288   9.3796114620e+01   3.6908577283e+01    0.2065531    0.1850421 -55.42 0.0003167956    1.074    0.069
        67  -8.2646    168.5156    113.9353   7.6697057637e+01   2.5038838396e+01    0.2373649    0.1550545 -40.45 0.0004846026    1.517    0.341
        68 -12.1915    127.5638    231.6135   1.0817892931e+02   9.6849549309e+00      0.97395    0.3567514  41.19  0.004318911    2.250    0.556
        69  -8.1338    205.2582    110.5303   6.8233869861e+01   1.7093287220e+01    0.2113904     0.143176  38.82 0.0009442025    1.603    0.376
        70  -8.9339    135.0000    103.4752   8.1998765121e+01   3.4949250631e+01    0.3497157   0.08896666 -43.69 0.0008918816    3.873    0.742
        71  -8.8378    242.3259    101.6836   5.9818780568e+01   1.0404734771e+01    0.1451083    0.1046125 -62.63 0.0007044401    1.672    0.402
        72  -8.2006     51.8057     64.0377   9.6578689703e+01   5.8263084037e+01    0.1717926    0.1435402  55.87 0.0004788186    1.573    0.364
        73 -10.0207      1.9960     61.8199   1.1537147908e+02   6.2838722687e+01    0.4292298    0.1592164 -65.17  0.001933194    2.030    0.507
        74 -10.5129    114.9127    244.7791   1.1206733415e+02   9.4840188051e+00    0.3339223    0.2430074 -79.41  0.002193809    1.631    0.387
        75 -10.0910     89.5156    250.4755   1.1721013240e+02   1.2295874081e+01    0.9183034    0.1063897  40.03  0.002697105    6.357    0.843
        76 -10.0108    120.1540    242.8784   1.1089113240e+02   8.9854168631e+00    0.1872455    0.1403651  61.11  0.001040307    1.207    0.171
        77  -9.6694     64.0411    250.5675   1.2165084189e+02   1.5743737549e+01    0.4404633    0.1113173  39.98  0.001937026    3.195    0.687
        78 -10.0086     64.7086    239.1103   1.2068571370e+02   1.7655107116e+01    0.3285933    0.1793022  46.93  0.001106964    1.480    0.324
        79 -12.8866      8.3654    230.0869   1.2981181839e+02   2.5773068767e+01     1.127386    0.6857302  71.77   0.00834255    1.170    0.145
        80 -10.5670     31.1647    233.1458   1.2614609564e+02   2.2822904735e+01    0.3901938    0.2292715  33.55  0.002508422    2.050    0.512
        81 -12.4262    107.7781    228.5432   1.1165430137e+02   1.3365892345e+01     2.251145     0.208707  40.71  0.005659049    7.271    0.862
        82  -8.8413    142.7839     47.8027   6.2668681495e+01   4.3533969347e+01    0.3765357    0.2332413 -86.86  0.001374691    2.949    0.661
        83  -8.4107    145.5338     42.4688   6.0254943808e+01   4.3628200514e+01    0.1472942    0.1422131  54.57 0.0002270801    1.023    0.023
        84  -8.6560     33.0000     29.0081   9.2019403953e+01   6.7126622127e+01    0.2003039   0.05891185 -46.48 0.0008020805    2.940    0.660
