#   1 NUMBER                 Running object number                                     
#   2 MAG_AUTO               Kron-like elliptical aperture magnitude                    [mag]
#   3 X_IMAGE                Object position along x                                    [pixel]
#   4 Y_IMAGE                Object position along y                                    [pixel]
#   5 X_WORLD                Barycenter position along world x axis                     [deg]
#   6 Y_WORLD                Barycenter position along world y axis                     [deg]
#   7 A_WORLD                Profile RMS along major axis (world units)                 [deg]
#   8 B_WORLD                Profile RMS along minor axis (world units)                 [deg]
#   9 THETA_WORLD            Position angle (CCW/world-x)                               [deg]
#  10 FWHM_WORLD             FWHM assuming a gaussian core                              [deg]
#  11 ELONGATION             A_IMAGE/B_IMAGE                                           
#  12 ELLIPTICITY            1 - B_IMAGE/A_IMAGE                                       
         1 -11.5561     12.9794     74.1071   8.4665802343e+01   5.9410570793e+01      1.66339    0.7692553 -79.13  0.007731081    2.641    0.621
         2 -12.4452    119.9509     37.6300   3.6231775551e+01   5.0723763745e+01    0.8030199    0.4964467 -51.83  0.002797146    2.104    0.525
         3 -12.5003    160.0528     29.7075   2.4843391958e+01   4.1972629400e+01    0.4620419    0.3758802 -21.05 0.0004742766    1.361    0.265
         4 -12.2424    105.9258     20.9522   3.3602017554e+01   5.5999863386e+01    0.3610934    0.3355367  86.91 0.0009189321    1.338    0.252
         5 -11.7822     26.5546     28.0489   6.6155991532e+01   6.7603600500e+01    0.5262384    0.2515689 -45.41  0.002249986    1.750    0.429
         6 -12.2400     20.2431     21.7939   6.6701757616e+01   6.9216298270e+01    0.6120018    0.3329443 -36.83  0.001936301    1.448    0.309
         7 -11.3355      6.1027     10.5063   6.9316477451e+01   7.2126069824e+01    0.4392849    0.3113643  11.24  0.003115886    1.510    0.338
         8 -10.4114     12.2092      8.1866   6.5005460455e+01   7.2048070275e+01    0.3546059    0.2630733 -69.64  0.002180744    2.818    0.645
         9 -12.2700     16.3081     14.4071   6.5605707446e+01   7.0747692673e+01    0.6136801    0.3011362 -22.48  0.003363592    2.044    0.511
        10 -11.7204     22.6670     11.1455   6.0911443178e+01   7.0687933089e+01    0.3580712    0.2223284   2.53  0.001707159    1.595    0.373
        11 -11.9639    135.8665     22.4143   2.7074582561e+01   4.8889157967e+01    0.9357237    0.3202344  50.01  0.003481164    2.536    0.606
        12 -10.7523    127.1522     11.8131   2.5091276189e+01   5.2116928068e+01    0.3073538    0.2484508 -79.79  0.001315398    1.523    0.343
        13 -11.2519    134.5149     14.7736   2.4660781401e+01   5.0045314054e+01    0.6913469    0.2753019  57.12   0.00284053    2.124    0.529
        14 -11.8996     48.2991     13.0240   4.9819714717e+01   6.7403860729e+01    0.6160758     0.263828  38.12  0.003087454    2.361    0.576
        15 -11.6915     35.3243     18.6168   5.8172417681e+01   6.8243652187e+01    0.5763252    0.2130395 -32.86  0.002437571    2.562    0.610
        16 -13.1186    164.0440     18.7466   2.0729327580e+01   4.2231078102e+01    0.5220453    0.3024113  40.16  0.002389703    1.916    0.478
        17 -11.6218     68.1533     18.5379   4.4486348914e+01   6.3627435789e+01    0.3926725    0.3248597   1.99  0.001394746    1.022    0.021
        18 -11.4827    228.6960     15.9909   1.2029168004e+01   2.6370125190e+01    0.4022028    0.2025121  64.68 0.0003964166    1.890    0.471
        19 -11.0543    225.5149     13.9758   1.1851374073e+01   2.7355779133e+01    0.3309796    0.2133081 -41.26 0.0009657819    1.484    0.326
        20 -10.5694    148.2436     15.9183   2.2475232143e+01   4.6533557971e+01    0.4188922    0.1965768  45.36  0.001459643    2.085    0.520
        21 -11.1596     86.0415     13.9603   3.6424498310e+01   6.0914932743e+01    0.4115162    0.2623791 -19.68  0.001660754    1.579    0.367
        22 -10.7060    186.9127     14.9430   1.6346185691e+01   3.6802003663e+01     0.222019    0.1982543  85.12 0.0003307046    1.005    0.005
        23 -12.1000    104.9425     12.7253   3.0575015192e+01   5.7118559767e+01    0.5481095    0.3415249 -13.52  0.002286009    1.745    0.427
        24 -12.0762    192.5505      8.4983   1.3890967056e+01   3.6052331306e+01    0.6449794    0.3955728  21.57  0.001830004    2.614    0.617
        25 -10.7467    211.5040     10.9951   1.2496090391e+01   3.1073967598e+01    0.3266443     0.215211  46.61  0.001467057    1.786    0.440
        26 -11.3004    213.0080      6.7195   1.1283111688e+01   3.1163002610e+01    0.4431724    0.2820047  27.85   0.00214104    2.511    0.602
        27 -10.7210    121.1619     11.8283   2.6373839737e+01   5.3531175445e+01    0.3363214    0.1730011  60.28  0.000733263    1.788    0.441
        28 -11.9338    169.6889      9.2617   1.6995139877e+01   4.1775738019e+01    0.7484921    0.1816907  60.62  0.002566573    3.086    0.676
        29 -11.2657    162.9987      6.2693   1.7030066320e+01   4.3761253546e+01    0.3816873    0.2439497  25.03  0.001866849    2.023    0.506
        30 -10.5227    145.2120      9.8103   2.0967288081e+01   4.7901020966e+01    0.2484991    0.1819284  38.50 0.0005194403    1.369    0.270
        31 -10.0124      1.2496      8.6562   7.1194854113e+01   7.2727283803e+01    0.2588806   0.05769616 -48.61  0.001172131    3.030    0.670
        32 -10.9254    157.3996      7.8008   1.8333905310e+01   4.5033916048e+01    0.2894553    0.1454661 -22.94  0.001310327    2.249    0.555
        33 -11.6809    184.6813      5.3000   1.3928920955e+01   3.8355983126e+01     0.486896    0.3880676 -32.08  0.002856622    1.389    0.280
        34 -11.3475    176.7657      5.9021   1.5067626329e+01   4.0302819772e+01    0.4482901     0.220659  75.10 0.0008699539    1.906    0.475
        35 -11.2790    152.7759      7.3079   1.8893304845e+01   4.6244840748e+01    0.3759591     0.143459  48.11  0.001486215    2.462    0.594
        36 -10.0666     87.6533      7.4082   3.3086541889e+01   6.1285313702e+01    0.4313605    0.2065071  48.76  0.002052545    1.843    0.457
        37  -9.6710     62.3532      7.7750   4.1674415325e+01   6.5900028025e+01     0.214099    0.1352494 -11.79 0.0007855307    1.525    0.344
        38 -10.2163    232.8048      7.2992   9.6432120431e+00   2.6385497430e+01    0.2125037    0.1506697 -67.91  0.001247135    1.244    0.196
        39 -11.7846    233.9081      2.9504   8.5662937449e+00   2.6598331569e+01    0.4430864    0.2351387 -71.90 0.0009705908    1.878    0.467
        40  -9.5238     77.9928      7.5018   3.6100280380e+01   6.3156500736e+01     0.182692    0.1141343  48.39 0.0005906766    1.548    0.354
        41 -11.1973    122.3393      5.1874   2.3637102282e+01   5.3874742936e+01    0.2446489    0.2097136  34.77 0.0003296387    1.087    0.080
        42 -10.3152     41.6807      3.8482   4.8214694279e+01   6.9475556454e+01    0.2591787      0.15532  -2.98 0.0008872162    1.687    0.407
        43 -10.6389    218.6146      4.0459   1.0111311755e+01   3.0086187172e+01    0.2828746    0.1967774  77.95 0.0007812499    1.289    0.224
        44 -11.0692    223.7861      2.7705   9.3569227230e+00   2.8985082094e+01    0.2351985    0.2015207 -80.26 0.0002084017    1.041    0.039
        45 -10.8943    206.8603      3.1741   1.0992607383e+01   3.3030233203e+01    0.3552387    0.1806592  50.50  0.001662915    2.178    0.541
        46 -10.2994    204.4971      1.5448   1.0810398516e+01   3.3772597979e+01    0.2223612    0.1774417  87.98  0.000726993    1.083    0.077
        47 -11.0791    141.4146      3.4447   1.9466499051e+01   4.9420450514e+01    0.3377566    0.2350065  83.60  0.001791741    1.536    0.349
        48 -11.7673    133.3950      2.6514   2.0589193917e+01   5.1449667713e+01     0.550703    0.2911126  71.02   0.00257583    1.870    0.465
        49 -10.8496    105.6073      2.7182   2.6363038327e+01   5.7916460533e+01    0.3287047    0.2442673 -41.76  0.001566729    1.640    0.390
        50 -10.4716     74.8845      3.4291   3.5232508704e+01   6.4147830351e+01    0.4132145    0.1967339  52.81  0.002041352    2.118    0.528
        51  -9.1955     25.8866      3.8100   5.5731256425e+01   7.1402155748e+01     0.132714     0.108057 -20.29 0.0009796203    1.261    0.207
        52 -10.4728     22.0503      3.2110   5.7396033164e+01   7.1883848066e+01    0.1914698     0.131977 -28.36 0.0005760634    1.244    0.196
        53 -10.9176    114.2252      2.5201   2.4331972026e+01   5.5990124516e+01    0.4009598    0.2061522  63.44  0.001915867    1.839    0.456
        54 -11.0743      2.6579      1.9100   6.7423809617e+01   7.3696213962e+01    0.2699527    0.1481535  -5.96  0.001605128    1.807    0.446
        55 -10.2829     13.1659      1.8366   6.1461585466e+01   7.2906971386e+01    0.2123148    0.1315031  10.18 0.0009524179    1.553    0.356
        56 -10.3799    152.4312      1.4424   1.7057022169e+01   4.6853772326e+01    0.2620843    0.1179672  68.32 0.0004792489    1.957    0.489
        57 -10.4333    103.9732    131.2975   6.8362582690e+01   3.5112256595e+01    0.2386722    0.1998827 -60.17  0.001247996    1.147    0.128
        58  -9.3090    249.3516    250.3027   5.9499082887e+01  -1.2146670506e+01    0.1192448   0.06787848  12.26 0.0007039741    1.701    0.412
        59 -11.3438     49.0624    247.8096   9.5114928664e+01   1.8188211189e+01    0.4782749    0.2127706  71.31  0.002635755    2.223    0.550
        60 -10.9452     10.2971    127.5642   9.3230400680e+01   4.7463362280e+01    0.4310768    0.1788123 -55.85  0.001806338    2.095    0.523
        61 -10.2310     26.7129    126.6129   8.8787105072e+01   4.6410223871e+01     0.338161    0.0695879 -64.30  0.001091938    3.296    0.697
        62  -9.4668     22.7601    127.0105   8.9896748695e+01   4.6648777439e+01    0.1700375    0.1274349 -75.82 0.0003285559    1.069    0.065
        63  -9.8610      2.0855    125.8682   9.5161172030e+01   4.8388304406e+01    0.1868728    0.1276148  80.71  0.001221035    1.340    0.253
        64 -11.9621    103.8293    122.5389   6.6465866506e+01   3.7198880705e+01    0.3457024    0.3287718  62.26  0.001045058    1.076    0.071
        65  -9.4923     78.2744    123.3904   7.3827918277e+01   4.1198085118e+01    0.1814722    0.1301164  50.04 0.0005100623    1.494    0.331
        66 -10.2376     49.4045    123.2821   8.2016575586e+01   4.4967394368e+01    0.2121061    0.1701346   6.22 0.0008581052    1.654    0.395
        67  -9.3120     56.6453    122.2988   7.9789321595e+01   4.4363189558e+01    0.1389641   0.09625258  72.65 0.0007036149    1.699    0.411
        68 -10.3589     44.8299    119.8545   8.2748626936e+01   4.6280124876e+01    0.2389871    0.1870193 -79.82 0.0006368023    1.167    0.143
        69 -10.3462     43.5465    116.4823   8.2554685307e+01   4.7215123451e+01    0.2653226    0.2381074  25.71  0.001573772    1.341    0.254
        70 -12.5683      2.5637    111.5851   9.3535798057e+01   5.1601004799e+01    0.5511023    0.3009602  81.49 0.0007206777    1.925    0.480
        71 -11.3683      4.6327    105.1503   9.2190976440e+01   5.2943478988e+01    0.3550543    0.3065887  -8.46  0.002616532    1.518    0.341
        72  -9.8846     78.9960    114.8151   7.1818544583e+01   4.3133566844e+01    0.2554529    0.1937639 -58.25 0.0008427401    1.208    0.172
        73  -9.5596     67.7391    114.9757   7.5166245239e+01   4.4698143949e+01    0.2022251     0.145748  65.30  0.001032761    1.652    0.395
        74 -11.6058     25.2796    107.4842   8.6468531103e+01   5.1002411276e+01    0.7355107    0.3290277 -50.10  0.003620896    1.996    0.499
        75 -11.3008     21.3964    114.6653   8.8649473511e+01   4.9635532018e+01     0.421641    0.2341402   6.75  0.002090592    2.758    0.637
        76 -11.0869     28.0286    113.4911   8.6579714056e+01   4.9374923446e+01    0.3049752    0.2286203 -31.24  0.001156831    1.607    0.378
        77  -9.2460     57.6683    114.3135   7.8013836746e+01   4.6145446314e+01    0.1379908   0.09885345  76.21 0.0007044922    1.679    0.404
        78 -10.0670     48.7988    112.3185   8.0274551741e+01   4.7643479448e+01    0.2247157    0.1881859  81.48 0.0009296514    1.262    0.207
        79  -9.9775     66.8681    110.8316   7.4565423198e+01   4.5799149763e+01    0.2072552    0.1813688 -38.50  0.000580329    1.193    0.162
        80  -9.7048    102.0194    109.4847   6.3867532191e+01   4.0564408917e+01    0.2153977    0.1491048  38.99 0.0004128184    1.522    0.343
        81 -11.2307     80.0702    108.2586   7.0028399419e+01   4.4517753766e+01    0.4362817    0.2992061  26.17 0.0008748276    1.724    0.420
        82 -10.4779     15.1576    108.6433   8.9608673031e+01   5.1484849858e+01    0.3073564    0.2090005   2.14  0.001879624    2.050    0.512
        83  -9.3152    182.5424    104.4797   4.2305384220e+01   2.3961599569e+01     0.155074    0.1520755 -58.54 4.155658e-05    1.014    0.014
        84  -9.9008     85.6308    103.8649   6.7307641607e+01   4.4670875794e+01    0.2069796    0.1733816 -55.48  0.000813184    1.113    0.102
        85 -10.4164     36.3315    103.2681   8.2410268217e+01   5.1033690434e+01    0.4551682    0.2601753  10.24   0.00227745    2.520    0.603
        86 -11.9183     10.0150     97.2834   8.9539286611e+01   5.4414460153e+01    0.5555537    0.4254293 -36.16 0.0005303043    1.434    0.303
        87 -10.8646     35.3459     92.5669   8.0695958830e+01   5.3599917385e+01    0.3901087    0.2262161 -75.76  0.001502332    1.824    0.452
        88 -11.7954      7.0390     88.7849   8.9204296598e+01   5.6500895063e+01    0.6838325    0.3627266   5.87  0.003836166    2.611    0.617
        89 -11.7230     27.5603     85.1812   8.1807771021e+01   5.5939395014e+01    0.6142874    0.4877984  -6.26  0.002913639    1.515    0.340
        90 -12.0467     42.8608     85.2676   7.6630300750e+01   5.4542005324e+01    0.8282102    0.3674476  17.16  0.003513483    3.246    0.692
        91 -13.1045     17.6361    100.3567   8.7670716170e+01   5.3219414396e+01    0.3198467    0.3064451 -81.24 0.0004988885    1.207    0.171
        92 -11.4180     23.1026     94.5206   8.5013276035e+01   5.4162488080e+01    0.3406417    0.2526678 -33.84  0.001211135    1.458    0.314
        93 -11.3984     18.0160     91.0303   8.6043769269e+01   5.5320567249e+01    0.4111466    0.2672839  88.99  0.001732676    1.725    0.420
        94 -12.9698    249.1323     94.5125   2.8224930682e+01   1.0485318863e+01    0.8464149    0.2578062 -36.37  0.002965583    2.871    0.652
        95  -9.4694     64.7106    101.7018   7.3235922463e+01   4.8231867601e+01    0.2448256    0.1481083 -53.40  0.000185512    1.453    0.312
        96 -12.0703     68.7381     95.8882   7.0603189891e+01   4.9035366920e+01    0.3458641    0.2904316  -3.69 0.0004289105    1.400    0.286
        97 -10.8416     51.8860     99.4615   7.6786579552e+01   5.0322784007e+01    0.5707272    0.2006691 -47.24  0.002222025    2.635    0.620
        98  -9.6744     28.3634     99.8570   8.4279838277e+01   5.2522341097e+01    0.2043166    0.1392978 -48.97 0.0005306732    1.326    0.246
        99 -10.4306     30.5474     96.5255   8.2999379824e+01   5.3109457293e+01    0.3414105    0.1700182 -69.51  0.001200674    1.803    0.445
       100 -10.7437     43.0023     94.6325   7.8623174637e+01   5.2392894923e+01    0.3437813    0.2644498 -48.00  0.002071459    1.163    0.140
       101 -10.4162     82.9867     93.2797   6.5429056894e+01   4.7511226909e+01    0.3656135    0.2755157  73.92 0.0002957596    1.816    0.449
       102 -11.0207     79.4857     93.4993   6.6588895178e+01   4.8010544251e+01    0.5234874    0.4260067 -53.28  0.002873904    1.142    0.125
       103 -11.8244    125.7743     94.7751   5.3251212708e+01   3.9120580476e+01     0.259738    0.2531366  -6.47 0.0002398743    1.042    0.040
       104  -9.7815    120.4821     90.4934   5.3480807271e+01   4.1150891157e+01    0.2222966    0.1458929 -54.44 0.0001646587    1.645    0.392
       105 -11.0320     89.7838     89.8099   6.2364865546e+01   4.7164250209e+01    0.5354674    0.2910115 -41.51  0.002312915    1.797    0.444
       106 -10.4537     49.2078     91.5191   7.5919803302e+01   5.2454513314e+01    0.2649212    0.2475237 -24.36  0.001431967    1.160    0.138
       107 -10.8048     98.2407     90.9677   6.0090776690e+01   4.5420764617e+01    0.2535171    0.2158826  40.37 0.0003002039    1.235    0.190
       108 -10.1044     66.1318     88.8229   6.9689605971e+01   5.0997585669e+01    0.3196967    0.2016338 -14.76   0.00141579    2.435    0.589
       109  -9.5584    104.2205     87.1814   5.7211128361e+01   4.5123768138e+01    0.1943686    0.1765961 -85.63 0.0007169125    1.264    0.209
       110 -10.9773    143.1245     84.6539   4.5772404586e+01   3.7293501650e+01    0.2635033    0.2357834 -41.51 0.0003048513    1.118    0.106
       111 -10.6969     80.3634     83.9448   6.3721149901e+01   4.9995498086e+01    0.3727126    0.3222324 -37.07  0.001989894    1.075    0.070
       112 -11.0096     76.4320     78.8023   6.3544035363e+01   5.1717672339e+01    0.6341766     0.280176 -55.59   0.00249205    2.426    0.588
       113 -10.4294     72.7846     77.8249   6.4483203058e+01   5.2475966775e+01    0.3081269    0.2518738 -70.48  0.001489765    1.438    0.305
       114  -9.2121    133.2986     84.6853   4.8298449850e+01   3.9547599408e+01     0.154669    0.1236916 -80.30 0.0002666982    1.608    0.378
       115 -10.3433    113.1550     82.3843   5.3162344606e+01   4.4359857370e+01    0.2601056    0.2077386 -42.25 -0.000275831    1.222    0.182
       116 -10.1519     66.9071     81.5770   6.7519910852e+01   5.2501943466e+01    0.3500297    0.2300108   7.80  0.001678675    2.093    0.522
       117 -11.4768     53.5153     76.5316   7.0773823270e+01   5.5315332554e+01     0.492993    0.3266035 -56.16  0.002672218    1.377    0.274
       118 -12.8815    247.2973     76.5630   2.4281383246e+01   1.3724436037e+01    0.5643153     0.441602 -51.89  0.003160473    1.169    0.145
       119  -9.6561    213.5081    248.4846   6.5430797378e+01  -6.7642645689e+00    0.1197916   0.09199505  24.08 0.0008104272    1.008    0.008
       120 -12.2503      4.8245     62.0440   8.5244596806e+01   6.2442582151e+01    0.4017612    0.3212873  72.05   0.00192409    1.623    0.384
       121 -11.7873      9.9813     62.5303   8.3391439552e+01   6.2071049475e+01    0.4345234    0.2467228 -57.28 0.0006790588    1.331    0.249
       122 -10.4020     94.6448     76.4848   5.6944649651e+01   4.9152949602e+01    0.3512755     0.223332  34.67  0.001126633    1.677    0.404
       123 -10.7039     79.1109     68.0428   5.9374028206e+01   5.3533569581e+01    0.4196959    0.3065397  60.40  0.002111354    1.902    0.474
       124 -11.4043     85.6191     73.3082   5.8859119889e+01   5.1388944796e+01    0.6426391    0.3508665  34.56   0.00286624    1.982    0.496
       125 -11.0120     58.3641     77.8839   6.9441589091e+01   5.4431697805e+01    0.3912842    0.2495953 -63.45  0.001779404    1.674    0.403
       126  -9.5271     14.2610     67.6075   8.2876713726e+01   6.0740202982e+01    0.3984131    0.1934002  11.86  0.002129827    2.634    0.620
       127 -11.0848      1.9890     71.7610   8.8115780985e+01   6.0501561947e+01    0.3473544    0.1405098 -62.74  0.001468072    1.768    0.434
       128  -9.7399     92.2307     71.9913   5.6308067708e+01   5.0503234850e+01    0.2081892    0.1952399 -76.44 0.0005226445    1.249    0.199
       129  -9.9288     24.3183     74.0355   8.0600025762e+01   5.8663772739e+01    0.1768187    0.1558555 -37.68 0.0005140501    1.142    0.124
       130 -10.3392     28.7549     72.3366   7.8609922030e+01   5.8688053277e+01    0.2859331    0.1866902  12.03  0.001254818    1.864    0.464
       131 -10.8350     34.9735     71.8992   7.6237022752e+01   5.8249898594e+01    0.3947195    0.2300584  42.71  0.002107036    2.183    0.542
       132 -10.3969     41.0154     73.0384   7.4325800425e+01   5.7430604500e+01    0.2259235    0.1953331 -19.57 0.0006840089    1.196    0.164
       133 -11.3915     40.5494     69.1628   7.3487746228e+01   5.8310295125e+01    0.2837281    0.2337702  13.52  0.001217597    1.377    0.274
       134 -10.7749    187.2587     70.9549   3.2193892696e+01   2.8916487646e+01    0.4717366    0.2560492 -38.45  0.001941293    1.809    0.447
       135  -9.7114     19.1655     72.1219   8.2044743337e+01   5.9448652739e+01    0.1874202    0.1254272 -44.24 0.0004873587    1.271    0.213
       136 -11.0469    122.8686     68.8286   4.6177288408e+01   4.4946852908e+01    0.4328291    0.2497597  45.03  0.001294615    1.726    0.421
       137 -10.6202    220.0467     66.9412   2.5702235172e+01   2.1470655985e+01    0.4864497    0.2225295  67.96  0.001861668    2.544    0.607
       138  -9.1148     25.3594     65.2874   7.8185054392e+01   6.0471113633e+01    0.1288946   0.07507285 -33.35 0.0004600456    1.684    0.406
       139 -10.8416     91.7176     62.6336   5.3420748957e+01   5.2425091882e+01    0.3519488    0.2608554  60.15  0.001465516    1.761    0.432
       140 -10.2714     58.9568     63.4691   6.5046836140e+01   5.7392567948e+01    0.3073142    0.2417313 -78.55  0.001175228    1.803    0.445
       141  -9.8640     63.4209     61.5941   6.2824202813e+01   5.7171328367e+01    0.3508119     0.128342  34.21  0.001391116    2.982    0.665
       142  -9.7130    157.9350     63.0844   3.5752885372e+01   3.7633680368e+01    0.4611816    0.1486695  45.36   0.00138444    3.373    0.704
       143  -9.9967     51.0421     56.6671   6.5870539219e+01   5.9742353082e+01    0.2116506    0.1640914  31.12  0.001250027    1.459    0.315
       144 -11.0187     40.7021     56.9505   6.9971163918e+01   6.0831480025e+01    0.3057006    0.1963329  31.81  0.001529068    1.793    0.442
       145 -12.0632     43.9830     61.4559   7.0044746901e+01   5.9572686375e+01     0.526409    0.2826208 -30.95  0.001124751    1.996    0.499
       146 -10.1307     50.8137     61.3104   6.7409246349e+01   5.8838440039e+01    0.2950531    0.2209823  33.49  0.001369177    1.527    0.345
       147 -11.6765    235.7350     60.8944   2.2043072567e+01   1.8710859838e+01    0.4524602    0.3060068  72.31  0.002307618    1.570    0.363
       148  -9.6362     84.2310     61.4250   5.5479207220e+01   5.3980322319e+01    0.1821205     0.133493  49.78 0.0008211479    1.595    0.373
       149 -12.4824     74.2400     51.6148   5.5529556685e+01   5.7461518553e+01     0.756794    0.3519281 -50.86  0.001809626    2.550    0.608
       150 -11.0891     72.6815     47.7014   5.4671528994e+01   5.8409608595e+01    0.2361874    0.1762914 -31.99 0.0004760771    1.229    0.186
       151 -10.5188     34.1496     52.0208   7.1084573719e+01   6.2457360475e+01    0.7665776     0.366942 -21.62  0.003310718    3.084    0.676
       152 -10.2604     20.4903     55.4865   7.7593567444e+01   6.2876679380e+01    0.2520678    0.1887488 -55.64 0.0009255524    1.168    0.144
       153 -10.9525     24.7825     59.6140   7.6973320474e+01   6.1707650832e+01    0.6511536    0.1945657  29.03  0.002808734    3.660    0.727
       154 -11.1095     25.0137     56.0231   7.5925184443e+01   6.2430409900e+01    0.5241806    0.2350386 -27.84  0.002389406    2.787    0.641
       155  -9.5409    106.5963     58.7433   4.7469395519e+01   5.0253706176e+01    0.2046732    0.1329888 -47.50 0.0009436082    1.668    0.400
       156 -10.2415     87.6515     56.8526   5.2772854638e+01   5.4235952611e+01     0.421541    0.1235122 -38.99   0.00138008    3.392    0.705
       157 -10.7080    118.0374     55.6917   4.3133685485e+01   4.8348720932e+01    0.5337043    0.3199671 -58.99  0.002134477    2.539    0.606
       158 -10.2923    109.9901     40.9843   4.0146656375e+01   5.2449844432e+01     0.486288    0.4075301  -6.91   0.00270779    1.207    0.171
       159 -10.3346    112.3805     50.7792   4.3007384133e+01   5.0399692544e+01    0.3009822    0.2358125 -20.52 0.0005772146    1.309    0.236
       160 -10.9006    115.9859     48.9940   4.1366909130e+01   4.9903589476e+01    0.3362031    0.2865511 -24.72   0.00058645    1.178    0.151
       161 -11.6079    117.8373     43.9676   3.9073743949e+01   5.0275230648e+01    0.5715635    0.4551416  76.17  0.002386649    1.597    0.374
       162  -9.8625    242.3143    247.3531   6.0226190316e+01  -1.0853959146e+01    0.1209318   0.07117486   9.16 0.0007045817    1.734    0.423
       163 -10.0075     91.7286     57.1888   5.1554679571e+01   5.3433703972e+01    0.2339116    0.1925382  53.58 0.0008696403    1.420    0.296
       164 -10.7423    246.8135     54.4002   1.9157321247e+01   1.7157233714e+01    0.1845041    0.1206391  54.63 0.0005696233    1.704    0.413
       165 -11.3401     60.8078     47.9150   5.9152870736e+01   6.0144686338e+01    0.7341551    0.2763581 -39.21   0.00303364    2.461    0.594
       166 -11.4165     51.8792     48.2463   6.2732300175e+01   6.1260456528e+01     1.134774    0.5752972   9.24  0.004461809    3.454    0.710
       167 -11.3854     44.0250     43.9863   6.4400433381e+01   6.2982455881e+01    0.5425006    0.2439544 -49.10            0    2.038    0.509
       168 -11.0232     39.6093     44.1078   6.6267893036e+01   6.3441402480e+01    0.3920238    0.2312369 -19.00  0.001533073    1.910    0.476
       169 -10.7269    240.5070     50.5044   1.8969484170e+01   1.9136127122e+01    0.2319448    0.1868593  27.32  0.001271709    1.700    0.412
       170  -9.4783     81.5312     50.4997   5.2579786851e+01   5.6450615584e+01    0.1876512    0.1317354  49.68  0.000610726    1.683    0.406
       171 -10.2530     82.9071     46.8717   5.0779871903e+01   5.6839604008e+01    0.2962346    0.2077541  -5.50 0.0005699549    1.651    0.394
       172 -10.0115      1.9026     48.5697   8.3448963005e+01   6.5362298973e+01    0.2568664      0.13379 -63.71 0.0009218244    1.583    0.368
       173  -9.3093    171.3332     48.3101   2.8545705090e+01   3.6561373734e+01    0.1546154    0.1119434  29.79  0.000471503    1.674    0.403
       174  -9.8090    146.2822     47.2282   3.3263793670e+01   4.3051693839e+01    0.2524981    0.1852316 -27.07 0.0009187277    1.447    0.309
       175  -9.9731     23.2680     37.8504   7.1171635233e+01   6.6126456649e+01    0.5381857    0.3725628  66.85  0.002855553    3.161    0.684
       176 -10.6939     20.5052     46.0131   7.4943062301e+01   6.4776665263e+01    0.3914803    0.1870559 -33.17  0.001057635    1.985    0.496
       177 -11.0369     26.3186     43.0155   7.1531492399e+01   6.4901860036e+01    0.3095672    0.2325959  41.94  0.001892549    1.816    0.449
       178 -10.1068     13.3655     46.8241   7.8203639443e+01   6.5098851437e+01    0.2427598    0.1211046 -37.96  0.001372941    1.689    0.408
       179 -10.0887    137.9993     44.5594   3.4247053302e+01   4.5475774412e+01    0.5675017    0.2060959  39.36  0.001717508    3.770    0.735
       180  -9.8673    160.0692     43.2823   2.9132387047e+01   4.0164446496e+01    0.2045158    0.1735024  65.68   0.00107578    1.136    0.120
       181 -10.1624    155.8943     42.2608   2.9632757809e+01   4.1367413780e+01    0.2754251    0.2220265 -14.44  0.001133662    1.399    0.285
       182 -10.1778     92.4157     41.7637   4.5719005806e+01   5.5924453964e+01    0.2647342    0.1876184  43.59  0.001397032    1.422    0.297
       183 -10.1559    200.4874     45.0011   2.2791404288e+01   2.9589395383e+01    0.3867357    0.2092054  84.39  0.001521938    2.432    0.589
       184 -10.6297    231.5850     38.3288   1.7075172172e+01   2.2891897435e+01    0.3719818    0.1338777 -40.80  0.001479519    2.420    0.587
       185  -9.7779     57.1666     41.6037   5.8243890547e+01   6.1773384773e+01    0.2258845    0.1186569  37.97  0.001123819    2.090    0.521
       186 -11.4653      4.8275     36.3720   7.9008364462e+01   6.7620972045e+01    0.4123607    0.2644866 -44.00  0.002119913    1.153    0.132
       187 -10.7679      9.4507     30.2470   7.4982295261e+01   6.8508822624e+01    0.4470193    0.2434322   3.78  0.002716338    2.098    0.523
       188 -10.0650     79.5294     39.0140   4.8954198097e+01   5.8724309664e+01    0.3718047    0.2764784  76.26  0.001806651    2.556    0.609
       189 -11.1435     80.1439     33.1330   4.6409873090e+01   5.9521195094e+01    0.5636142    0.3248287  21.95  0.002642024    2.087    0.521
       190 -10.9094     60.8856     36.5529   5.4844534143e+01   6.2107574523e+01    0.3787538    0.2482621 -34.31  0.001677783    1.385    0.278
       191 -11.2126     57.2294     30.7541   5.3948387629e+01   6.3569538518e+01    0.3879298    0.2465634 -24.98  0.001027869    1.454    0.312
       192 -11.5164     48.8193     30.4728   5.7273453163e+01   6.4754568497e+01     0.588619    0.2501367  28.18  0.002295138    2.619    0.618
       193 -10.5896     43.0501     28.0680   5.8746978566e+01   6.5860891597e+01    0.1927367    0.1441149 -25.62 0.0002899386    1.114    0.103
       194 -10.7787    176.2290     35.4070   2.3822383729e+01   3.7098674888e+01    0.4751057     0.244587 -52.13  0.001521024    2.265    0.558
       195  -9.5763     12.7004     36.9357   7.5614594409e+01   6.7059909756e+01    0.1592775    0.0904907 -62.00 0.0008323843    1.790    0.441
       196 -10.0539    174.5119    246.6410   7.2267892355e+01  -3.6467530603e-01     0.223971    0.0939314  40.37  0.001062204    1.897    0.473
       197 -12.2863    164.3612     27.6818   2.3455211721e+01   4.1120161827e+01    0.3348566    0.3043273  73.74 0.0004444735    1.033    0.032
       198 -11.8688    126.6007    241.7079   8.0628723220e+01   8.1735302977e+00    0.3434564    0.2280307  58.21  0.001576534    1.372    0.271
       199 -11.3252    106.8208     32.0486   3.7678141277e+01   5.4405758042e+01    0.6687115    0.3623281   5.67  0.002392431    3.569    0.720
       200 -11.9383    113.9515     25.0189   3.3083327602e+01   5.3738187598e+01    0.6917731    0.2816557  50.89  0.001690158    2.182    0.542
       201  -9.3147     70.5312     34.4829   5.0371665186e+01   6.0954282556e+01    0.1326402    0.1122267  -4.39 0.0001785296    1.028    0.027
       202  -9.9675     67.8617     31.8654   5.0297197088e+01   6.1789243466e+01     0.276373    0.1896944   3.15  0.001022054    1.580    0.367
       203 -10.2073    239.7457     32.9529   1.4925342737e+01   2.1703113814e+01    0.2865086    0.1689258  53.30  0.001400909    1.924    0.480
       204 -11.1737     32.3515     30.5710   6.4478864292e+01   6.6616483006e+01    0.3461447    0.1831354 -50.12 0.0004782769    1.874    0.466
       205  -9.5078    230.1450     30.8206   1.5422027523e+01   2.4217213898e+01    0.1728444    0.1518026  55.18 0.0004262052    1.310    0.237
       206  -9.8870      5.8074     22.0538   7.3952656088e+01   7.0198019026e+01    0.3007446    0.1509097 -15.02  0.001617537    2.170    0.539
       207 -11.0029     74.1841    238.4816   9.0034858196e+01   1.6587753222e+01    0.4798652    0.1789808  49.30  0.002401752    2.101    0.524
       208 -11.3361    147.0254    237.9501   7.6289554237e+01   5.4632363868e+00    0.4164545    0.2782592  59.47  0.002310677    1.551    0.355
       209  -9.7578    167.5952    238.2428   7.2407230077e+01   1.9992478752e+00    0.1510406    0.1181679 -26.72 0.0009466385    1.606    0.377
       210  -9.6911     93.0033    129.7186   7.1012456092e+01   3.7373483333e+01    0.2074752    0.1938341  77.60   0.00117239    1.068    0.064
       211  -9.3280    243.6772    235.6602   5.8103825058e+01  -9.7132673507e+00    0.1243932   0.07448339   8.61 0.0007050783    1.722    0.419
       212  -9.3103    199.6760    234.7045   6.5846941407e+01  -2.7924622916e+00    0.1257271   0.08395549  14.65  0.000334772    1.622    0.383
       213 -11.0720    188.8799     28.0281   1.9758836141e+01   3.4788654633e+01    0.3515688    0.3032956  -7.15  0.001340741    1.399    0.285
       214 -12.2568    126.4020     28.6921   3.1402277838e+01   5.0413045934e+01     0.500043    0.4068359  76.46   0.00271676    1.408    0.290
       215 -10.1058    197.9397     28.7044   1.8709574869e+01   3.2399820432e+01    0.3538464    0.1805741  50.92  0.001538643    2.032    0.508
       216  -9.6405     89.1264     29.0880   4.1796739849e+01   5.8429209584e+01    0.1930829    0.1683049 -77.93  0.001112186    1.695    0.410
       217 -11.2283    183.3513     25.3681   1.9788498652e+01   3.6526096288e+01    0.4439601    0.2381722  52.46  0.001822961    1.808    0.447
       218 -11.4185    155.0137     24.3740   2.4038562793e+01   4.3893953558e+01    0.3712566    0.2470338 -79.40  0.001342118    1.956    0.489
       219 -10.8527    156.4952     20.5126   2.2534399065e+01   4.3957754311e+01    0.3128647    0.1271357  63.52  0.001224872    2.217    0.549
       220 -11.7147    143.8320     24.9284   2.6326910438e+01   4.6636793916e+01    0.5420938    0.2195692  49.52  0.002131318    2.231    0.552
       221  -9.3465     15.4846    233.5146   9.9883987537e+01   2.4559089578e+01    0.1067689   0.07527381  73.04 0.0008101085    1.031    0.031
       222  -9.8304     75.2364    224.4250   8.8591482196e+01   1.9064757284e+01    0.1743276   0.08914754  51.37 0.0007895594    1.611    0.379
       223 -10.2403    127.6398     16.5411   2.6712314910e+01   5.1519027854e+01     0.285404    0.1980158  48.00   0.00105028    1.286    0.222
       224  -9.2050    234.3009    223.6598   5.7723545939e+01  -6.8347462925e+00    0.1046185   0.09877436  65.92 0.0007036958    1.670    0.401
       225  -9.9950     59.6872     23.7305   4.9999792122e+01   6.4268653078e+01      0.19581    0.1334826 -27.40  0.000461815    1.339    0.253
       226 -10.4931     90.7510     22.1883   3.8458769615e+01   5.9014025949e+01    0.2983401    0.2326601 -15.49   0.00149226    1.258    0.205
       227 -11.2338     67.9341    240.8883   9.1354067380e+01   1.7000681852e+01    0.2465039    0.1720543  36.47 0.0009807774    1.635    0.389
       228 -10.6529     38.8249     22.1889   5.8137336179e+01   6.7293457385e+01    0.2171646     0.162739 -14.11 0.0004425251    1.106    0.096
       229  -9.9205     49.6757    222.6597   9.3241621761e+01   2.2768143107e+01    0.1005567   0.08832234 -49.71 0.0007051082    1.727    0.421
       230  -9.4535    223.5074     22.4317   1.4089442538e+01   2.6844941144e+01    0.1357071    0.1156934 -76.52 0.0001139765    1.023    0.023
       231 -10.9800    179.0398     20.6357   1.9036800665e+01   3.8182040152e+01    0.5485672    0.2368823  41.49  0.002020129    3.036    0.671
       232  -9.8851    164.7809    212.0320   6.9055361340e+01   6.7274373896e+00    0.1974359    0.1681993  62.16 0.0005684088    1.266    0.210
       233 -10.1754    152.6682    207.0669   7.0752528118e+01   9.7888749095e+00    0.2968345    0.2134021 -82.53  0.001519244    1.991    0.498
       234  -9.4222    216.5153     20.5187   1.4356124743e+01   2.8767076089e+01    0.1358483    0.1186911 -80.20 -7.008744e-06    1.005    0.005
       235  -9.8753     74.6706     19.7276   4.2678474011e+01   6.2349434295e+01    0.1921036    0.1384368   1.41 0.0005288235    1.358    0.264
       236  -9.9972     47.0079     19.3741   5.3296210896e+01   6.6697504894e+01    0.2317087    0.1820623 -15.00  0.001546231    1.059    0.056
       237  -9.2249      1.5037     20.4932   7.5574162144e+01   7.0711295128e+01    0.1125083   0.07900348 -35.61 -3.601069e-05    1.037    0.036
       238  -9.2307     61.5130    206.5209   8.9590927774e+01   2.4497206745e+01    0.1243707   0.09799547  72.99 0.0001094017    1.009    0.009
       239 -10.5073    139.2424    198.6281   7.2251542829e+01   1.3809536135e+01    0.2429471    0.1746645 -72.48  0.001265983    1.691    0.409
       240  -9.3994    233.7835    196.0565   5.2825042569e+01  -2.9499944481e+00    0.1689471   0.09953485 -33.58 0.0008752824    1.709    0.415
       241 -11.5254      5.1476    185.8115   9.9101988714e+01   3.4959117051e+01    0.3547831    0.2775571  78.10  0.002277496    1.110    0.099
       242  -9.7931     89.4895     16.4993   3.6457634555e+01   5.9945688892e+01    0.2413995    0.1567343 -27.11  0.001019178    1.573    0.364
       243 -11.0700      2.8661    181.4188   9.9276904374e+01   3.6073799263e+01    0.2339998    0.1876471  86.67  0.001370142    1.148    0.129
       244  -9.5476     86.0581    185.5135   8.2024294065e+01   2.5516830534e+01    0.1976244     0.123515  41.13  0.001023441    1.568    0.362
       245  -9.2431    113.4925    175.9815   7.4352425803e+01   2.3133091703e+01     0.186581    0.1180869 -33.92 0.0007731923    2.360    0.576
       246  -9.2388     74.4888     13.4848   3.9973474480e+01   6.3144763661e+01    0.1268969    0.1078889  11.43 5.080247e-05    1.034    0.033
       247  -9.5997     28.1710    175.8354   9.3689568179e+01   3.4978148051e+01     0.158113    0.1222717 -68.56 0.0005303139    1.317    0.241
       248  -9.0990     51.6851    173.6927   8.8312296788e+01   3.2860865821e+01    0.1179325   0.09367342 -45.57  0.000615134    1.627    0.385
       249 -11.5871      9.1584    166.8965   9.7013997061e+01   3.8682595106e+01    0.2690345    0.2052842  46.94  0.001160697    1.441    0.306
       250  -9.2329    198.3236    167.7157   5.3966495636e+01   8.2588177440e+00    0.1376408    0.1164664  82.46  0.000272716    1.598    0.374
       251  -9.9687     18.6757    164.7397   9.4788236218e+01   3.8344104957e+01    0.1803515    0.1551964   5.81  0.001266137    1.740    0.425
       252 -10.0048    205.0392    163.3659   5.1699110423e+01   7.6982454045e+00      0.26039    0.2088998 -42.13 0.0006437738    1.306    0.234
       253  -9.6001     65.9838     10.5123   4.1622178652e+01   6.4978157345e+01    0.1829593     0.111123  41.31 0.0005958471    1.578    0.366
       254 -10.2313     28.1728    161.0913   9.2328474435e+01   3.8283390932e+01     0.185498    0.1495289 -68.24  0.001244192    1.248    0.199
       255 -10.4810      9.4826    155.4664   9.6047206587e+01   4.1188441237e+01    0.2413778   0.09165549 -76.36  0.001185522    2.079    0.519
       256 -10.2725    104.3608    154.6663   7.2877695229e+01   2.9556904026e+01    0.2772557    0.2659081 -46.44  0.001604092    1.177    0.151
       257 -12.5677     22.6084    149.2110   9.2439008736e+01   4.1513436471e+01    0.5376825    0.2901061 -43.37  0.002782764    2.463    0.594
       258 -10.2993      4.3726    153.7222   9.7047489487e+01   4.1966527389e+01    0.1953656    0.1156946  50.67 0.0009208719    1.698    0.411
       259  -9.5747    142.2554    152.4527   6.3138315567e+01   2.2883996083e+01    0.2220253    0.1394513  53.90 0.0009328471    1.662    0.398
       260 -10.1371     30.4701    152.0207   9.0857086705e+01   4.0140586626e+01    0.2036486    0.1790347 -14.44  0.001367953    1.625    0.385
       261 -11.0893     47.0097    147.1970   8.6213078071e+01   3.9544738760e+01     0.581834    0.3032177 -45.82  0.002753594    2.308    0.567
       262  -9.9437     66.8596    149.1976   8.1462011054e+01   3.6627075704e+01    0.2174614    0.1892453  -2.77 0.0006502088    1.576    0.366
       263 -10.7759     16.4845    148.0002   9.3772462117e+01   4.2312117213e+01     0.229004    0.1732142 -87.20 0.0004213898    1.039    0.037
       264 -10.1778      3.1627    147.6423   9.6836358412e+01   4.3409124593e+01    0.1533061    0.1263398 -86.13  0.001124949    1.120    0.107
       265  -9.5815     74.0438    146.0255   7.9111765004e+01   3.6390321789e+01    0.2037895    0.1580613 -37.55 0.0004912041    1.581    0.367
       266 -11.4401      5.7409    142.0532   9.5764690494e+01   4.4482658180e+01    0.3695836    0.1904472  78.50 0.0002659547    1.892    0.471
       267 -12.1873      1.9915    139.9868   9.6471869390e+01   4.5205664211e+01    0.2895087    0.1528356 -78.39 0.0003443117    1.448    0.310
       268 -10.9839     33.1473    144.3441   8.9331075487e+01   4.1665612251e+01    0.2629944    0.2068758  88.48 0.0007826103    1.097    0.088
       269 -11.2847     12.5764    136.2758   9.3561730382e+01   4.5300584784e+01    0.4323187    0.2538228 -56.66  0.002578486    1.596    0.373
       270  -9.4003    217.4825    138.9224   4.3861965805e+01   9.5483754837e+00    0.2182693     0.138981 -37.03 0.0004806544    1.512    0.338
       271 -10.6271     40.2734    137.9082   8.6696971364e+01   4.2465745190e+01    0.2489909    0.1788672  87.18 0.0005705714    1.316    0.240
       272 -10.2078     79.4202    138.0106   7.6310718439e+01   3.7525120011e+01    0.2779834    0.2204036  66.83  0.001511827    1.310    0.237
       273 -11.4938     22.6613    135.9785   9.0995304679e+01   4.4567849105e+01    0.5308797    0.3058855  46.72  0.003040517    1.860    0.462
       274  -9.9092     32.0430    137.5170   8.8778104284e+01   4.3370703121e+01    0.2810518    0.1773886  25.68  0.001199526    1.981    0.495
       275 -10.9609     29.8729    133.2421   8.8802599116e+01   4.4575358804e+01    0.3897643    0.2103123 -54.25 0.0007732399    1.729    0.422
       276  -9.5669     47.2459    134.9672   8.4442705000e+01   4.2419065304e+01    0.1774443   0.09730857 -68.50 0.0006360104    1.575    0.365
       277  -9.9029     73.0037    133.2977   7.7194300481e+01   3.9584412542e+01    0.1947962    0.1800906  76.75  0.001162453    1.091    0.084
       278  -9.6081     39.6875    133.4399   8.6237561182e+01   4.3583693453e+01     0.144667    0.1282236  -0.76 0.0005589125    1.498    0.333
