#   1 NUMBER                 Running object number                                     
#   2 MAG_AUTO               Kron-like elliptical aperture magnitude                    [mag]
#   3 X_IMAGE                Object position along x                                    [pixel]
#   4 Y_IMAGE                Object position along y                                    [pixel]
#   5 X_WORLD                Barycenter position along world x axis                     [deg]
#   6 Y_WORLD                Barycenter position along world y axis                     [deg]
#   7 A_WORLD                Profile RMS along major axis (world units)                 [deg]
#   8 B_WORLD                Profile RMS along minor axis (world units)                 [deg]
#   9 THETA_WORLD            Position angle (CCW/world-x)                               [deg]
#  10 FWHM_WORLD             FWHM assuming a gaussian core                              [deg]
#  11 ELONGATION             A_IMAGE/B_IMAGE                                           
#  12 ELLIPTICITY            1 - B_IMAGE/A_IMAGE                                       
         1 -13.4838    168.5878     11.6146   6.9288032883e+01   4.1488898895e+01     1.858407     1.672143 -58.98  0.008281129    1.228    0.185
         2 -11.9300    199.9926      6.8574   6.3563611692e+01   3.3540700546e+01      1.10101    0.9139873 -72.05  0.004630852    1.310    0.237
         3 -11.1417    186.0835      2.3483   6.3665735869e+01   3.7635590325e+01     0.991207    0.2518281  63.58  0.003179802    3.243    0.692
         4  -8.8561    188.1808     16.5455   6.8213767669e+01   3.5758946081e+01    0.3826278    0.2367827   0.77 0.0009897358    1.832    0.454
         5  -8.6876    111.6819     10.5800   8.0025215801e+01   5.6063127619e+01    0.2656177    0.2055133   9.01 0.0007932265    1.248    0.199
         6 -11.3099    123.5984      4.3736   7.4441225647e+01   5.3876776743e+01     1.105748    0.7155697  66.79  0.005237713    1.703    0.413
         7  -7.7028    114.8541      6.7517   7.7487991621e+01   5.5747757340e+01    0.3098647    0.2157931 -53.15  0.001393675    1.883    0.469
         8  -8.1357     71.8621      5.8313   8.9695573421e+01   6.4945181542e+01    0.2024283     0.155781   2.64 0.0005625068    1.205    0.170
         9  -7.2594    106.4439      3.5003   7.8007827885e+01   5.8058601496e+01    0.1460532    0.1235794  13.52 -1.703687e-05    1.058    0.055
        10  -8.0962     43.9435    176.8855   1.3810915009e+02   3.4152682526e+01    0.1670051    0.1272807  70.73 0.0008832314    1.021    0.021
        11  -7.7409    180.8245    249.7033   1.2171089510e+02   5.5865316443e+00    0.1650865    0.0917665  33.24 0.0007721834    1.429    0.300
        12  -7.4435     17.2990    250.6990   1.4607635430e+02   2.5157758040e+01   0.09048966   0.03883805  61.02 0.0001792695    1.581    0.368
        13 -10.6504    100.9968    175.9977   1.2693964111e+02   2.7249165051e+01    0.1639479    0.1388966  61.89  0.001158329    1.001    0.001
        14  -9.8219    199.1900    145.8814   1.0257540748e+02   1.5073759087e+01    0.3556947    0.3117401 -74.81  0.002087844    1.672    0.402
        15  -9.6932    195.0487    136.7363   1.0140210611e+02   1.7210722857e+01    0.4517208    0.4319955  47.35   0.00190911    1.226    0.185
        16  -8.1473    184.8244    133.0827   1.0255785062e+02   1.9823731228e+01    0.3091024    0.1853452  40.24  0.001492867    1.554    0.357
        17  -8.6689    189.6741    131.0047   1.0115952522e+02   1.9157672681e+01    0.3639666    0.2783565 -33.45  0.001987124    1.374    0.272
        18  -9.0482     11.2536    127.8827   1.4116885079e+02   4.6621647322e+01    0.3550988    0.2655062  16.54  0.002612374    1.911    0.477
        19  -8.5608      7.8862    125.0994   1.4173087997e+02   4.7435309065e+01    0.3069972    0.1970447  71.66  0.002092058    1.339    0.253
        20  -8.1626    139.6000    127.9183   1.1088302250e+02   2.9648276062e+01    0.4081517    0.2211895  39.38  0.001862348    1.844    0.458
        21  -9.6668     40.4917    110.9037   1.3225398191e+02   4.7746873913e+01      0.43137    0.3573343 -83.82  0.002394825    1.010    0.010
        22  -7.3862     13.9505    114.0413   1.3937154518e+02   4.9314493041e+01     0.132761   0.09923901 -86.50 0.0004697884    1.031    0.030
        23  -7.0867    156.2937    113.2975   1.0389516515e+02   2.9009700633e+01    0.1429089    0.1104021   8.58 0.0003003563    1.564    0.361
        24 -12.0802    226.1814     95.7368   8.6050349683e+01   1.6427197627e+01      1.44844     1.209755  53.85  0.008015605    1.352    0.260
        25  -9.5493    212.4508     93.5747   8.7771683877e+01   1.9782345856e+01     0.476577    0.4330454 -44.17  0.001555548    1.277    0.217
        26  -7.4563    127.6525     95.3120   1.0607008243e+02   3.8228627099e+01    0.1463885      0.11502 -89.49 0.0007046086    1.714    0.416
        27  -7.9186    132.1572     89.8803   1.0350257148e+02   3.8379301877e+01     0.202078     0.170893  -7.47 0.0003939631    1.328    0.247
        28  -9.3749    176.7345     87.8117   9.2878205985e+01   2.8892195436e+01    0.3439816    0.2040691  63.00  0.001261519    2.115    0.527
        29  -8.8182    189.1921     87.1162   9.0229068358e+01   2.6098746244e+01    0.2662833    0.2218827  62.47 0.0002333015    1.368    0.269
        30  -6.8038     40.3133     85.6207   1.2839033583e+02   5.3348175951e+01    0.1289518   0.08392488  79.20 0.0007026105    1.803    0.445
        31  -7.0926     19.3038     85.3224   1.3466379872e+02   5.5172836406e+01    0.1180213   0.07161166 -49.70 0.0004218797    1.636    0.389
        32  -7.7121    197.5196     82.0373   8.7254263058e+01   2.4907883454e+01    0.2397141    0.1419955 -29.38  0.001041677    1.627    0.385
        33  -7.4861    141.6331     82.2570   9.9040241900e+01   3.7814207548e+01    0.2080171    0.1383901 -28.58 0.0009364443    1.571    0.363
        34  -7.9935     31.3595     82.2765   1.3054186426e+02   5.4905772723e+01    0.1191291    0.0794655 -41.33 0.0007008177    1.660    0.397
        35  -7.2129     24.6087     82.2944   1.3261656922e+02   5.5450009754e+01    0.1215423   0.07727636  69.83 0.0007009443    1.782    0.439
        36  -7.2504      7.6019     80.7204   1.3757150951e+02   5.6951398015e+01    0.1143976   0.06821906 -46.75 0.0006992086    1.760    0.432
        37  -7.5051     79.7396     78.9613   1.1492987166e+02   5.0015927167e+01     0.173694    0.1067095 -51.77 0.0003656997    1.458    0.314
        38  -7.7589     36.9162     77.8525   1.2801449217e+02   5.5402239348e+01    0.1758086    0.1400284 -50.87 0.0005073854    1.211    0.174
        39  -9.0367    185.4589     76.3543   8.7862134069e+01   2.8643976226e+01    0.3234595    0.1446122 -30.53  0.001047237    2.167    0.539
        40  -7.6045    216.5000     76.4990   8.2456643277e+01   2.1210430487e+01    0.1509553    0.1339462   4.97 -0.0007869774    1.041    0.040
        41  -7.1660    177.6595     76.3163   8.9372273459e+01   3.0523687473e+01    0.1540488    0.1209562 -67.86 0.0007048426    1.707    0.414
        42  -8.4698    169.0201     76.0022   9.1040091471e+01   3.2637225161e+01    0.2241646    0.2138335   6.20 0.0003181679    1.024    0.024
        43  -8.1901    122.4414     75.1206   1.0173625349e+02   4.3222916200e+01    0.2396315    0.1670098  50.07  0.001112678    1.529    0.346
        44  -7.5054    132.6651     74.6902   9.8981375309e+01   4.1160248081e+01    0.1541831    0.1159109   7.62 0.0007043289    1.678    0.404
        45 -10.5467      6.9844     67.1341   1.3594545796e+02   5.9983351661e+01    0.5760903    0.3840815 -64.63  0.003896618    1.162    0.139
        46  -9.6968     12.8289     70.1625   1.3447106822e+02   5.8969675099e+01    0.3192465    0.2004259 -59.25  0.001366228    1.294    0.227
        47 -10.2261     16.1580     66.5639   1.3277946131e+02   5.9555558252e+01    0.6324466     0.272175 -77.47  0.003101819    2.174    0.540
        48  -8.7205    184.4242     67.2194   8.5325296545e+01   3.0278761482e+01    0.3001606    0.1492959 -22.35  0.001131211    2.137    0.532
        49  -7.8539     37.8398     67.2967   1.2556104383e+02   5.7670579642e+01    0.2618356    0.1620349 -28.97  0.001243729    2.101    0.524
        50  -7.6039    176.4799     66.5475   8.6644090742e+01   3.2334270679e+01    0.1537402     0.144954   2.12 0.0008083936    1.010    0.010
        51  -7.9467    122.5140     65.5227   9.8712583270e+01   4.5031553644e+01    0.1479813    0.1401169 -26.85 0.0003460528    1.027    0.027
        52  -8.3295    213.1552     63.6410   7.9332321622e+01   2.3725680100e+01    0.2529176    0.1901742 -29.11  0.000664376    1.268    0.211
        53  -8.2240     40.2255     70.9654   1.2555521553e+02   5.6627521952e+01    0.2128388    0.1782029  16.00 0.0007079892    1.504    0.335
        54  -7.6611    108.8428     60.9245   1.0095633665e+02   4.8686304425e+01    0.1909448    0.1649856 -57.98 0.0005924513    1.269    0.212
        55  -7.8637    243.6277     70.4127   7.6799530378e+01   1.5768883078e+01    0.2535783    0.1408532  80.97 0.0009560402    3.387    0.705
        56  -8.1455     92.1409     57.1858   1.0467241430e+02   5.2534393068e+01    0.2299581    0.1936835  48.42 0.0006666345    1.342    0.255
        57 -10.3122     96.6667     53.2754   1.0193822876e+02   5.2477892745e+01    0.6220652    0.4703261  61.70   0.00253249    1.699    0.412
        58  -7.1551    170.3004     56.7028   8.4734967101e+01   3.5360559637e+01    0.1520981    0.1200213 -61.96 0.0006261721    1.576    0.366
        59  -7.6978    186.7821     55.4198   8.1230658055e+01   3.1397537050e+01    0.2212133    0.1353347  44.99 0.0009469285    1.632    0.387
        60  -7.4743    159.4785     55.5346   8.6564873551e+01   3.8225965411e+01    0.1540576    0.1461568  -2.79 0.0001025261    1.018    0.018
        61  -9.7100    206.8820     50.5312   7.6408482013e+01   2.6972876827e+01    0.5378966    0.3682472  50.61  0.002209285    1.468    0.319
        62  -9.1171    190.8742     43.1442   7.6613154818e+01   3.1994992035e+01    0.5032932    0.3270285  51.15   0.00223718    1.523    0.343
        63  -9.8002    202.3973     45.0875   7.5418767374e+01   2.8792467187e+01    0.9175532    0.4173159  67.59  0.003373256    2.594    0.615
        64 -10.1773    206.5437     37.1077   7.2334626353e+01   2.8696259652e+01    0.6527997    0.4594477 -12.00  0.002587944    1.421    0.296
        65  -9.7210    199.5140     28.4947   7.0594089901e+01   3.1497877907e+01    0.4458426      0.42164 -43.02  0.001882852    1.101    0.092
        66 -10.6811    198.0827     38.1860   7.3899018475e+01   3.0747010605e+01    0.7533119    0.5175974 -44.07  0.003506697    1.537    0.350
        67 -10.2524    193.8232     30.5196   7.2057660981e+01   3.2758196534e+01    0.5733062    0.4407746 -12.49  0.002109879    1.285    0.222
        68  -8.7949    179.7126     48.5532   8.0285679152e+01   3.4149303336e+01    0.2824508    0.1737554 -45.46  0.001188749    1.798    0.444
        69  -8.7587    146.4496     48.7377   8.7077393832e+01   4.2472003306e+01    0.2202218    0.1457146 -15.82  0.000956044    1.625    0.385
        70  -8.4563    125.9806     46.0837   9.1054155155e+01   4.7707762026e+01    0.2249806    0.2152419 -23.98 0.0004532165    1.085    0.078
        71  -7.6428    155.5133     42.4781   8.2891932223e+01   4.1166642285e+01    0.1543231    0.1452513   2.44 0.0002918896    1.007    0.007
        72  -7.8682    153.1417     37.6883   8.1658960377e+01   4.2441534680e+01    0.2114431    0.1907687  40.08 0.0004231357    1.105    0.095
        73  -8.0223    135.4851     37.4704   8.5474726493e+01   4.6837040973e+01    0.1523653    0.1415581  -0.15  0.000203553    1.003    0.003
        74  -9.4638    249.9802    240.8253   1.1031638553e+02  -3.2784482053e+00    0.4818787    0.1872839 -19.08  0.002802974    3.203    0.688
        75  -9.1490    119.3554    248.1867   1.3097915050e+02   1.4129857050e+01    0.2156583   0.08401787  54.52   0.00116961    2.444    0.591
        76  -7.6484     28.2862    247.6469   1.4444648542e+02   2.4549240589e+01   0.09407216   0.04132656  63.03 0.0004006538    1.666    0.400
        77  -8.1372      4.4914    247.5138   1.4772925638e+02   2.6716710519e+01    0.0853971   0.05404201  63.24 3.178391e-05    1.013    0.013
        78  -8.0984     79.5936     13.7713   9.1046042587e+01   6.2408421405e+01    0.1932157    0.1150032 -37.35 0.0009429606    1.622    0.384
        79  -8.7270    248.6602    230.1300   1.0900178004e+02  -2.2845154265e+00    0.1980721    0.1779364  -3.96  0.001125422    1.607    0.378
        80  -8.2965    245.5177    216.0047   1.0736618776e+02  -6.8037464747e-01    0.2252114    0.1990084  62.80  0.001682714    2.087    0.521
        81  -8.6883    244.5174    212.4828   1.0697234871e+02  -2.2938430163e-01    0.2641085    0.2196841  40.80  0.001755507    1.556    0.357
        82  -9.0202    246.2934    205.9709   1.0566971964e+02   7.9985516646e-02    0.4011831    0.2210432  35.28  0.002554651    1.406    0.289
