#   1 NUMBER                 Running object number                                     
#   2 MAG_AUTO               Kron-like elliptical aperture magnitude                    [mag]
#   3 X_IMAGE                Object position along x                                    [pixel]
#   4 Y_IMAGE                Object position along y                                    [pixel]
#   5 X_WORLD                Barycenter position along world x axis                     [deg]
#   6 Y_WORLD                Barycenter position along world y axis                     [deg]
#   7 A_WORLD                Profile RMS along major axis (world units)                 [deg]
#   8 B_WORLD                Profile RMS along minor axis (world units)                 [deg]
#   9 THETA_WORLD            Position angle (CCW/world-x)                               [deg]
#  10 FWHM_WORLD             FWHM assuming a gaussian core                              [deg]
#  11 ELONGATION             A_IMAGE/B_IMAGE                                           
#  12 ELLIPTICITY            1 - B_IMAGE/A_IMAGE                                       
         1 -11.1024     13.7745     16.0976   9.6130227392e+01   7.1037886766e+01    0.2240431    0.1728004  15.98   0.00102108    1.471    0.320
         2 -11.4775     14.1694     21.0072   9.7989009217e+01   7.0170651440e+01    0.4080392    0.2370285  42.07   0.00232401    2.758    0.637
         3 -11.1535     85.9783     19.2592   6.7039481518e+01   6.0316310265e+01    0.3305858    0.2212134   1.92 0.0003959914    1.619    0.382
         4 -10.8418     42.6544     18.8650   8.3280734498e+01   6.7565531009e+01     0.475459    0.2572075 -12.27  0.002329247    2.311    0.567
         5 -10.3000     20.8799     17.7618   9.3191341593e+01   7.0155096565e+01    0.2762678    0.2394266 -72.60  0.001901341    1.960    0.490
         6 -10.2177     72.0080     13.0649   6.8826149436e+01   6.3720321448e+01    0.2583498    0.1621255  16.27  0.001035613    1.674    0.403
         7 -11.5574    234.4971     14.8697   4.0167388269e+01   2.4767297677e+01    0.2868316    0.2067804 -73.56  0.001661532    1.267    0.210
         8  -9.7336     88.7711      6.9838   6.0733159893e+01   6.1092174438e+01    0.4944117    0.2466951  -6.85  0.002090221    2.449    0.592
         9 -10.7570     89.5648     13.5476   6.3433270075e+01   6.0250078275e+01    0.4621933    0.3052477  68.44   0.00226012    2.059    0.514
        10 -10.5269     92.4063     10.1113   6.1102410866e+01   6.0020433992e+01    0.3118199     0.180839  38.43 0.0008221456    1.568    0.362
        11 -10.0573     22.9111      8.9629   8.7999094054e+01   7.1332838627e+01    0.3891577    0.2073962 -13.03  0.002125636    2.093    0.522
        12 -10.7392     36.7528      6.2011   7.9706936751e+01   7.0104387703e+01    0.4482907    0.2472527 -45.23  0.001997773    2.483    0.597
        13 -11.8771     30.3481      7.1118   8.3278522120e+01   7.0777602584e+01    0.4168362    0.3470042 -19.87  0.003031719    1.257    0.204
        14 -11.6133     34.7522     12.7601   8.3994545268e+01   6.9454740492e+01    0.3277636    0.2467299 -32.63 0.0008510273    1.319    0.242
        15 -11.0754     64.3016     11.5686   7.0876654658e+01   6.5262886087e+01    0.3507777    0.2622865 -76.12  0.001717497    3.254    0.693
        16 -11.3422    126.2759     10.3278   5.3142503235e+01   5.2281389147e+01    0.3815559    0.3045267  60.61  0.001173576    1.173    0.147
        17  -9.6900    215.4732      9.5525   4.0580481701e+01   2.9878041148e+01    0.1317987    0.1162597 -82.42 5.820011e-05    1.037    0.036
        18  -9.6540     15.1868      9.0189   9.2128153755e+01   7.2059086949e+01    0.1740982    0.1098144 -21.73 0.0004152011    1.293    0.226
        19  -9.6876    156.1520      7.8379   4.7094853943e+01   4.5048720445e+01     0.186472    0.1462452  42.17 0.0002417447    1.284    0.221
        20 -10.4472    151.3963      6.7902   4.7468236596e+01   4.6355775236e+01    0.2990175    0.1291439 -24.60 0.0009750162    2.477    0.596
        21 -10.4000    224.0331      7.5003   3.9306942216e+01   2.8038713538e+01    0.1901699    0.1172788  78.56 0.0003898013    1.515    0.340
        22 -10.0436    211.1695      7.0001   4.0337101127e+01   3.1196485358e+01    0.2126243    0.1472722  26.71  0.001088328    2.089    0.521
        23 -10.8304     71.3612      5.9334   6.5634000229e+01   6.4627132250e+01    0.3058054    0.2863398  25.33  0.002094031    1.264    0.209
        24 -10.3884      8.5995      5.5192   9.4084490914e+01   7.3147321828e+01    0.2967899    0.1753576  40.35  0.001533703    2.778    0.640
        25 -11.6934     57.1753      3.2037   6.9381735905e+01   6.7416467088e+01    0.4144712    0.2867561   4.73  0.002557605    1.309    0.236
        26 -10.1125     40.9489      6.0468   7.7684962526e+01   6.9561466071e+01    0.1851671    0.1403093  -5.34 0.0005511704    1.050    0.048
        27  -9.6591      2.4195      6.5071   9.8105345245e+01   7.3435481220e+01    0.1912867    0.0978331  13.58 0.0009319554    2.112    0.526
        28  -9.3863    144.7144      5.7117   4.8155208307e+01   4.8142034391e+01    0.1390535   0.09245238  38.49 0.0001741977    1.532    0.347
        29 -10.4412    107.8829      4.9830   5.4983237325e+01   5.7102599458e+01    0.1939061    0.1676425  35.30 0.0002743428    1.010    0.010
        30 -10.9310    102.0372      2.7153   5.5402185439e+01   5.8618982811e+01    0.4584794    0.3271057  86.54  0.001412625    1.949    0.487
        31  -9.0100    120.7103      4.2920   5.1955783985e+01   5.4165964164e+01    0.1261888    0.1014464 -66.84 0.0003372949    1.546    0.353
        32 -10.0349    130.2495      3.0547   4.9676240778e+01   5.1964306437e+01     0.182823    0.1718916  33.70 0.0005117221    1.082    0.076
        33 -11.1919     20.7076      1.8827   8.5480516618e+01   7.2569270935e+01    0.2114567    0.1467211   5.20 0.0006953694    1.288    0.223
        34  -9.6867    176.3773      2.3189   4.2707150531e+01   4.0385881797e+01    0.2126491    0.1424979  39.77  0.001095055    1.683    0.406
        35  -9.9920    166.9499      1.9827   4.3756800177e+01   4.2820922179e+01    0.1664972    0.1475992  75.06 0.0007725636    1.004    0.004
        36 -11.4580     80.5395      1.6522   6.0663778439e+01   6.3270183757e+01    0.2920165    0.1533413  50.90 0.0006973069    1.738    0.424
        37  -9.6335    187.1667      1.2600   4.1199421732e+01   3.7743197733e+01    0.1866798    0.1054195  83.14 0.0002456717    1.699    0.412
        38  -9.0195     67.2371      1.3777   6.4785336506e+01   6.5843250870e+01    0.1282387   0.07930415  11.96 0.0006918516    1.623    0.384
        39  -9.5050      9.9903      1.4586   9.1231046910e+01   7.3645912732e+01     0.144134   0.09553839  14.96  0.001006968    1.532    0.347
        40  -9.0321    247.4566    155.5031   7.1686867985e+01   9.3779644414e-01    0.1366717    0.1159933  -8.91 0.0001089538    1.028    0.028
        41 -11.4636      3.1937    249.1509   1.3145501919e+02   2.2932854615e+01    0.3875398    0.1696057  55.40  0.002668929    1.591    0.371
        42 -10.4637      2.5285    153.4846   1.2651688110e+02   4.2019796177e+01    0.1998168    0.1125458  28.47  0.001218399    2.193    0.544
        43  -9.2905     41.6393    139.1324   1.1557040862e+02   4.1863344280e+01    0.1820071   0.09765303 -60.08 0.0004223133    1.625    0.385
        44  -9.5031     24.6122    139.1562   1.1993787234e+02   4.3518204817e+01    0.1809797   0.08889984 -62.60 0.0009347045    1.698    0.411
        45 -10.2269    212.5451    133.9593   7.3011736886e+01   1.1371301149e+01    0.2547348    0.2105096  68.63  0.000627146    1.494    0.331
        46  -9.3144     96.0192    133.9763   1.0015787783e+02   3.5613860152e+01    0.1751246    0.1639211 -82.02 0.0004657476    1.010    0.010
        47 -10.4658      2.1448    133.0862   1.2493197675e+02   4.6654138346e+01    0.2369472     0.154335  50.46  0.001381216    1.643    0.391
        48  -9.1418     35.3584    130.8521   1.1610220048e+02   4.4479024735e+01    0.1842959   0.09418671 -60.27 0.0005092134    1.649    0.394
        49 -10.8872     11.8845    129.7105   1.2214628212e+02   4.6754611014e+01    0.2322373    0.1798358  72.32 0.0008463936    1.261    0.207
        50 -10.0096    248.6739    129.3213   6.5710251063e+01   4.8319837976e+00    0.1361052    0.1049188 -61.11 0.0004974846    1.684    0.406
        51  -9.2332     28.6666    128.2683   1.1755353806e+02   4.5723244177e+01    0.1256349    0.0833789  70.37 0.0002361511    1.588    0.370
        52  -8.9396     20.3096    125.2769   1.1942112897e+02   4.7143156662e+01    0.1193518   0.08037581 -48.66 0.0001489046    1.556    0.357
        53 -11.2292      8.2973    121.5972   1.2221148975e+02   4.8890274714e+01    0.3176887    0.1778572  69.62 0.0007778475    1.938    0.484
        54  -8.9650     68.2499    122.6801   1.0559935939e+02   4.2598361343e+01    0.1375399    0.1011174  86.75 0.0001818478    1.531    0.347
        55 -11.6868     23.8759    121.0370   1.1790422465e+02   4.7851436227e+01    0.4048645     0.243877  79.59  0.001218302    1.804    0.446
        56  -9.1880     17.3975    122.2528   1.1983723418e+02   4.8082642143e+01    0.1193092   0.08005664 -42.69 0.0004908674    1.695    0.410
        57 -11.1014     65.8450    110.8246   1.0390887172e+02   4.5776798012e+01    0.3204201     0.241634  79.41  0.001149853    1.578    0.366
        58  -9.5521    102.9648    109.0374   9.2541948232e+01   4.0261000662e+01     0.216912    0.1757536  88.71 0.0003314918    1.488    0.328
        59 -11.7467      4.1229    108.5830   1.2187851441e+02   5.2165133115e+01     0.355659    0.2423108 -12.51  0.002235093    2.087    0.521
        60  -9.9082     88.8873    105.6866   9.5809123069e+01   4.3518355700e+01    0.2767363     0.190482 -43.49  0.001328843    1.412    0.292
        61 -11.5552     57.9494    107.2458   1.0555642235e+02   4.7653482760e+01    0.3438595    0.2535697 -20.36  0.000923196    1.774    0.436
        62 -10.0587    186.9465    103.0984   7.0256601733e+01   2.2905169129e+01    0.2300853    0.2257296 -65.75 0.0005207408    1.041    0.040
        63  -9.2507    161.5284    102.4568   7.5556817336e+01   2.9095496944e+01    0.1566638    0.1544024 -56.66  0.000115861    1.018    0.017
        64  -9.9505     66.5174    101.5494   1.0165306084e+02   4.7890923129e+01    0.1401333    0.1253342 -59.51 6.402987e-05    1.016    0.016
        65 -10.3069     20.4967     99.4995   1.1574159551e+02   5.3189285266e+01    0.1261881    0.1005964 -67.79 0.0008106804    1.007    0.007
        66 -10.6280     61.7466     97.8567   1.0230484496e+02   4.9395464136e+01    0.2379825    0.1525191 -43.68  0.001189677    1.488    0.328
        67 -10.0631      3.4501     95.1386   1.2037230339e+02   5.5292807987e+01    0.2455586    0.1400479 -79.69  0.001424401    1.489    0.328
        68  -9.7599     19.0816     87.1463   1.1408861090e+02   5.6154446991e+01    0.3267824    0.1623529 -52.81  0.001510404    1.607    0.378
        69 -12.3731     20.9115     92.7984   1.1449038405e+02   5.4718104092e+01    0.3161715    0.2505569 -40.89 0.0004759326    1.291    0.225
        70 -10.6045     24.1148     88.3970   1.1263991580e+02   5.5493531288e+01    0.3238258    0.2012468 -74.21 0.0006164268    1.490    0.329
        71 -11.2382    125.1567     93.3058   8.2041861887e+01   3.9309261616e+01    0.2651746    0.2470838 -46.10 0.0002210375    1.053    0.050
        72  -9.5384    119.2859     94.3346   8.3948436648e+01   4.0338349689e+01    0.1559798    0.1218343  -8.82 0.0007014527    1.625    0.384
        73  -9.9553     78.8476     93.9740   9.5903709468e+01   4.7854145510e+01     0.215783    0.1765299 -31.06 0.0004051135    1.266    0.210
        74 -10.1153     29.4075     92.2304   1.1161688420e+02   5.4176520939e+01    0.2161732    0.1907686  79.23 0.0007325525    1.267    0.211
        75 -12.1163      9.3022     91.3689   1.1799180136e+02   5.5822776378e+01    0.3641298     0.324718   1.71  0.002654002    1.436    0.304
        76 -10.4660     11.3751     85.1226   1.1630692917e+02   5.7124990558e+01    0.2294677    0.1466206 -84.72 0.0006199321    1.577    0.366
        77 -11.0582     57.6564     91.9032   1.0222446811e+02   5.1305367735e+01    0.2564277    0.2199203 -10.53  0.000645534    1.341    0.254
        78  -9.9724     76.3429     89.2175   9.5437353212e+01   4.9325243887e+01    0.2195636    0.1928564   7.41 0.0006389954    1.278    0.217
        79 -10.4386     43.9120     90.6294   1.0648452472e+02   5.3177057646e+01    0.4157859    0.2665196 -75.16  0.001757725    1.677    0.404
        80 -10.5478     55.1616     85.4935   1.0148374194e+02   5.3087271190e+01    0.2475275    0.2102343 -59.66 0.0006226427    1.100    0.091
        81  -9.5778    113.6189     85.5711   8.2967001822e+01   4.3385521287e+01    0.1527213    0.1398519 -17.97  0.000791777    1.111    0.100
        82 -10.8648      3.6767     82.6314   1.1846840464e+02   5.8122328893e+01    0.2970458     0.187207 -68.32  0.001624151    1.218    0.179
        83  -9.4021    124.5135     82.5530   7.9005172522e+01   4.1684139798e+01     0.243588    0.1471474 -31.55 4.645776e-05    1.798    0.444
        84  -9.8085    124.4231     79.2802   7.8015463944e+01   4.2361989758e+01    0.2288619    0.1494543 -41.99 0.0006116095    1.501    0.334
        85  -9.1280     42.0268     81.9925   1.0514605630e+02   5.5357563235e+01    0.1528318    0.1284583 -51.84 0.0009418895    1.004    0.004
        86  -9.6783    250.2615     81.0144   5.4226952489e+01   1.2175024570e+01    0.1824087     0.108038 -34.72 0.0004959412    1.496    0.332
        87  -9.7711     89.3702     80.4051   8.8729821030e+01   4.9129169491e+01     0.277395    0.1697104 -65.72   0.00084045    2.310    0.567
        88 -10.6761     64.6615     80.0042   9.6787043754e+01   5.3091272255e+01    0.2928563    0.2764807 -62.34  0.001200423    1.135    0.119
        89 -11.3889     10.2601     78.8757   1.1559516871e+02   5.8605888595e+01    0.3376458    0.2029177 -63.62  0.001225343    1.276    0.216
        90 -10.7368     14.8196     75.5007   1.1335295327e+02   5.9083317873e+01    0.2241667    0.2104051  72.04 0.0008949385    1.299    0.230
        91 -11.2411     20.4354     73.0784   1.1082250742e+02   5.9242690309e+01    0.3757346    0.1693858 -46.52  0.001260684    1.838    0.456
        92  -9.4518     48.1978     78.8309   1.0219779292e+02   5.5409523904e+01     0.180366    0.1361676 -32.19 0.0003960188    1.318    0.242
        93  -9.6297     24.4030     78.8305   1.1062932010e+02   5.7656457726e+01    0.2151728    0.1187267 -38.76  0.001138543    1.786    0.440
        94 -10.6096     28.0849     77.0771   1.0893824609e+02   5.7757946360e+01    0.1850606    0.1507942 -52.70 0.0003619113    1.017    0.017
        95 -10.0643    176.9811     76.9638   6.4977187806e+01   3.0154667807e+01    0.2447285    0.2393429 -85.75  0.001307702    1.023    0.022
        96 -10.8447      5.2243     76.7342   1.1696661436e+02   5.9365600141e+01     0.326934    0.1203868 -45.47   0.00130054    2.334    0.572
        97 -10.8145     55.4397     75.7417   9.8810517185e+01   5.5241023118e+01    0.2913837    0.2577604   4.53 0.0008695094    1.248    0.198
        98  -9.9686     37.1866     75.4045   1.0526794634e+02   5.7322000820e+01    0.2303996     0.206201 -65.92  0.001039477    1.159    0.137
        99 -10.5187     35.1376     72.3954   1.0526719141e+02   5.8184549236e+01    0.4889109    0.2643611  -4.88  0.002198495    3.020    0.669
       100 -10.1172    217.0632     72.3373   5.6712742891e+01   2.1034543095e+01    0.2264283    0.1919704 -27.18 0.0003521787    1.204    0.170
       101 -10.9543    106.0371     72.0748   8.0953568084e+01   4.7697880407e+01    0.2591443    0.2132397  45.57 0.0003867889    1.275    0.215
       102  -9.2352     91.1791     69.4361   8.4694576139e+01   5.1087790400e+01     0.205657    0.1895914 -14.72 0.0005026418    1.039    0.038
       103 -10.3740     80.2146     67.7976   8.7771851779e+01   5.3333267973e+01    0.2035597    0.1594993 -16.93  0.001072453    1.354    0.261
       104 -10.2043    100.0107     70.7026   8.2331978604e+01   4.9167570586e+01    0.2333444    0.1956417 -39.34 0.0006417791    1.144    0.125
       105 -10.0586     70.1879     75.5755   9.3618140672e+01   5.3273062034e+01    0.1821827     0.133972  14.66 0.0009390134    1.614    0.380
       106 -11.0302     46.3500     69.2418   1.0028534423e+02   5.7730911370e+01    0.2931601    0.2191806   6.95 0.0003508515    1.567    0.362
       107 -13.4821     20.3908     57.8226   1.0720095639e+02   6.2564394377e+01    0.4829158    0.2531139 -51.89  0.001081448    1.460    0.315
       108 -11.8546     10.7336     67.7433   1.1327146972e+02   6.1053427613e+01     0.703178    0.4049073  22.40  0.002894696    2.140    0.533
       109 -10.5747     14.5678     64.8699   1.1119982602e+02   6.1447261645e+01    0.4216618    0.2394589 -84.42  0.001608395    2.374    0.579
       110 -11.3228     10.7394     60.0337   1.1158609413e+02   6.2726158791e+01    0.6830931    0.2838826 -22.75  0.002972711    3.572    0.720
       111  -8.9921     30.7309     68.3285   1.0588302724e+02   5.9476299252e+01    0.1175205   0.09296745 -88.19 0.0003159414    1.579    0.367
       112 -10.4056      1.3749     66.6932   1.1654461183e+02   6.1773240491e+01    0.1964964   0.09074443 -70.06 0.0006210589    1.777    0.437
       113  -9.8560    133.2316     65.9666   7.1418398532e+01   4.2875636177e+01    0.2368539    0.1677187  27.04 0.0007154966    1.663    0.399
       114 -10.7726     62.8462     63.5397   9.2484550865e+01   5.6866588754e+01    0.4928088    0.1994817 -50.20  0.002011998    2.282    0.562
       115 -10.1059     34.5751     64.7593   1.0348290285e+02   5.9903890980e+01    0.2507879    0.1308464 -55.55  0.001194255    1.597    0.374
       116 -10.6192    101.3108     61.2616   7.8743767362e+01   5.0729928848e+01    0.2854246    0.2478077 -58.47  0.001044239    1.330    0.248
       117  -9.9255     39.1743     61.9295   1.0091203046e+02   6.0059197545e+01    0.2592539    0.2009897 -61.16  0.001574835    1.307    0.235
       118  -9.9258     41.5457     58.9772   9.9108571166e+01   6.0431716354e+01    0.2616295    0.1223505 -43.44 0.0007382308    1.804    0.446
       119 -10.4565     49.1097     59.3793   9.6296393603e+01   5.9498122352e+01    0.3000655    0.2262804 -77.07 0.0008616084    1.882    0.469
       120  -9.8815    193.6963     58.8837   5.6730537972e+01   2.8923354146e+01    0.2930372    0.2120573  71.64  0.001251676    1.444    0.308
       121 -10.7041     83.8087     56.6510   8.2746969265e+01   5.4897323270e+01    0.2699599    0.2328549 -55.97  0.001066861    1.349    0.259
       122 -11.7116     87.8656     53.1132   8.0113152464e+01   5.4813040028e+01    0.5146335    0.3409015  40.28  0.002125945    1.560    0.359
       123  -9.5575     71.6553     56.8775   8.7054511289e+01   5.6886025879e+01    0.1918945    0.1195623 -51.18 0.0009258774    1.688    0.408
       124 -10.0897     32.2104     56.3619   1.0203282578e+02   6.1899285722e+01    0.3680448    0.2261292 -25.39  0.002028744    1.728    0.421
       125  -9.4019      8.8149     56.5658   1.1154736084e+02   6.3576264932e+01    0.1358852     0.108526  35.42 0.0005271607    1.624    0.384
       126 -11.6229    114.3462     53.8321   7.2299917421e+01   4.9304291538e+01    0.3338348    0.2907901  24.72 0.0006568284    1.140    0.123
       127 -12.0449     65.2291     52.4846   8.7840628463e+01   5.8710501757e+01    0.4756379    0.2435097  39.41  0.001924105    2.150    0.535
       128  -9.8233    149.8574     52.1962   6.2959744061e+01   4.1135844641e+01    0.3316769    0.1732177  60.95  0.001004441    1.985    0.496
       129  -9.6097     96.6176     55.2103   7.8056630612e+01   5.2766886907e+01     0.204642    0.1299878 -27.49 0.0009421018    1.623    0.384
       130 -10.0568     19.9541     44.7290   1.0366090177e+02   6.5292975614e+01    0.3215532    0.1910584  19.40  0.001430636    1.958    0.489
       131 -11.4339     12.8757     40.7746   1.0558546332e+02   6.6576379419e+01    0.5828512    0.3457623 -76.41  0.003088159    2.492    0.599
       132 -11.6958      5.6901     50.8043   1.1144875289e+02   6.4956364367e+01    0.4645808    0.1822558 -46.33 0.0002798953    1.894    0.472
       133 -11.0022     13.9504     48.5578   1.0737379023e+02   6.4938416664e+01    0.4080276    0.3176367  89.38  0.002160743    1.766    0.434
       134 -10.3230      9.7426     48.2421   1.0908416004e+02   6.5262540773e+01    0.2684413    0.1985879 -43.01  0.001830239    1.072    0.067
       135 -10.5699     76.4679     48.4914   8.2290699028e+01   5.7658982946e+01    0.3602552    0.2194936 -42.44  0.001112847    1.589    0.371
       136 -11.0726     78.9892     45.7281   8.0354701575e+01   5.7710502730e+01    0.3597401    0.2318514  51.67  0.001613435    1.922    0.480
       137 -11.8083     56.9587     46.3993   8.8773116823e+01   6.1036452736e+01    0.3496952     0.279508 -31.31 0.0006746214    1.086    0.079
       138  -9.8177    154.8664     47.3894   6.0333382400e+01   4.0602843162e+01    0.2093847     0.181888  53.78 0.0004143435    1.115    0.103
       139  -9.8481     66.1333     46.6861   8.5368095092e+01   5.9649446672e+01     0.342184    0.1640451  38.33  0.001019001    2.235    0.553
       140  -9.7876    135.7866     46.2143   6.4105086214e+01   4.5534260734e+01    0.2036297    0.1959456  84.67 0.0004005292    1.117    0.105
       141  -9.8904     31.0260     45.9901   9.9282454314e+01   6.4109309882e+01    0.2126939    0.1645211 -68.10 0.0007524624    1.610    0.379
       142 -10.9429     26.3589     44.0155   1.0064205010e+02   6.4916866068e+01    0.3580526    0.2250984 -50.58   0.00191315    1.343    0.255
       143 -11.2537      4.0902     34.9433   1.0785619825e+02   6.8240430491e+01    0.4444995    0.3008987 -30.91  0.003056673    1.276    0.217
       144 -10.6581      3.0301     42.2318   1.1040558916e+02   6.6848895043e+01    0.2630494    0.1922771 -27.77  0.001598408    1.295    0.228
       145 -10.0250      5.6294     39.1933   1.0839555712e+02   6.7322174429e+01    0.1981263   0.08354173 -57.69 0.0006681069    1.827    0.453
       146 -11.1024     69.4410     42.1486   8.2388692506e+01   5.9930464329e+01    0.2472221    0.2236039  -7.40 0.0006098541    1.077    0.071
       147  -9.4706    159.5876     41.8170   5.7593947461e+01   4.0201263363e+01     0.204052    0.1353796 -41.96 0.0005305183    1.553    0.356
       148 -10.7643    140.3712     40.7690   6.1177352902e+01   4.5204087598e+01    0.2920758    0.2264809 -64.17 0.0007541795    1.563    0.360
       149  -9.2000     95.2807     42.3432   7.3661712597e+01   5.5210044637e+01    0.1453774    0.1038281   4.50  0.000518613    1.632    0.387
       150  -9.4442    186.1939     41.5652   5.2935307753e+01   3.3375502949e+01    0.2070065    0.1282829  52.50 0.0003712016    1.607    0.378
       151  -9.7514     42.8122     40.8181   9.2441602985e+01   6.3864532437e+01    0.1805457     0.142842 -18.87 0.0005191538    1.120    0.107
       152 -10.1686     35.4159     41.4951   9.5848121710e+01   6.4547647310e+01     0.272929    0.1900581 -12.38  0.001638195    1.479    0.324
       153 -10.3067     38.8807     35.5058   9.2100175315e+01   6.5279916074e+01    0.3266141    0.1994023   2.10  0.001756132    1.984    0.496
       154 -11.0412     38.9048     30.8613   9.0230499474e+01   6.6093385488e+01     0.262712    0.1963848 -15.01 0.0007712342    1.189    0.159
       155  -9.9584     43.5120     30.5013   8.8056055247e+01   6.5605157757e+01    0.2143301    0.1577516  27.72 0.0008682217    1.477    0.323
       156 -11.1285     44.4520     26.6535   8.6004351692e+01   6.6122529322e+01    0.4458527    0.2945127  18.25  0.002637756    1.561    0.360
       157  -9.0364     51.2796     40.0087   8.8615257763e+01   6.2963849544e+01    0.1638587    0.1000108 -39.96 0.0008769488    1.441    0.306
       158 -10.2540    128.1093     38.7946   6.3294690453e+01   4.8471293381e+01     0.203466    0.1951437 -89.75 0.0003474374    1.158    0.137
       159 -11.8383    121.4377     37.1663   6.4335117434e+01   5.0277746634e+01    0.4675208    0.3872631 -51.32  0.001038016    1.387    0.279
       160  -9.7093    119.6771     29.9647   6.2070671344e+01   5.1659111260e+01    0.2228658    0.1796191  51.22 0.0005489293    1.191    0.160
       161  -9.1219     87.3250     39.2552   7.4994074833e+01   5.7255891085e+01    0.1387717   0.09912739  12.89 0.0002265715    1.549    0.354
       162 -10.1494     22.5081     38.4376   1.0048081722e+02   6.6323500312e+01    0.1715056    0.1432134  21.67 0.0005211689    1.446    0.309
       163 -11.0062     26.7218     34.9924   9.7342805248e+01   6.6608511066e+01    0.3836232    0.2077752 -24.64  0.001335041    1.911    0.477
       164  -9.2329    185.3053     35.6455   5.1335163900e+01   3.4398324038e+01    0.1564219     0.103046 -63.31 0.0007041074    1.715    0.417
       165 -10.4831     96.9736     35.0411   7.0266362731e+01   5.5978098342e+01    0.2087065     0.183148   8.07  0.001208678    1.053    0.051
       166  -9.4442     90.8247     35.5780   7.2388407213e+01   5.7140694014e+01    0.1856192    0.1328261  56.94 0.0006517221    1.671    0.402
       167  -9.6389    134.2555     34.3027   6.0258270964e+01   4.7598521272e+01    0.1434169    0.1066177  22.16 0.0002436134    1.508    0.337
       168  -9.8849    144.8423     32.8774   5.7509730490e+01   4.5154727602e+01    0.2048732    0.1898414  36.10 0.0004436999    1.060    0.057
       169 -10.9963     19.1074     32.1470   9.9837989628e+01   6.7784070858e+01    0.4681323    0.2194806   1.27  0.002212951    3.137    0.681
       170  -9.8715     73.0551     32.2917   7.7048684438e+01   6.0930283285e+01    0.1822023    0.1549452  15.43 0.0003192186    1.107    0.097
       171  -9.5055    166.3877     31.2199   5.2986588994e+01   3.9855479833e+01    0.1993261    0.1288555 -41.39  0.000568922    1.592    0.372
       172  -9.8830    128.8261     30.7940   6.0213586956e+01   4.9377150119e+01    0.2484289    0.1747916  53.58 0.0006077439    1.338    0.253
       173  -9.7347     78.1174     30.8792   7.4662390769e+01   6.0246593820e+01    0.1890893    0.1787527  35.46  0.001189158    1.264    0.209
       174  -9.1082     88.3134     30.6465   7.1168504348e+01   5.8353448987e+01    0.1309892    0.1085005 -64.13 0.0007045398    1.733    0.423
       175  -9.2759     83.8470     29.8913   7.2305143188e+01   5.9324821418e+01    0.1647142    0.1605969 -56.33   0.00102938    1.325    0.246
       176 -10.7089      7.9475     28.6005   1.0395888238e+02   6.9230430671e+01      0.30933    0.2484009  67.36  0.002061033    2.100    0.524
       177  -9.5561     70.0213     28.7104   7.6622796331e+01   6.1989396010e+01    0.1838797    0.1544175  17.16 0.0004892533    1.121    0.108
       178 -11.2880    113.8607     25.7502   6.1894776043e+01   5.3537232934e+01     0.381454    0.2960562 -21.28  0.001685377    1.322    0.243
       179 -10.0287     97.1301     27.8856   6.7318363903e+01   5.6941694991e+01    0.2865225     0.170644   4.14  0.001241245    2.324    0.570
       180  -9.1245    140.0102     27.0000   5.6442748306e+01   4.7099648343e+01    0.2375222   0.07749945  60.99 0.0007577703    2.886    0.653
       181  -9.5681    146.9359     26.6681   5.4967154090e+01   4.5398088960e+01    0.1933516    0.1817996  64.28 0.0005695725    1.036    0.034
       182 -11.5713     18.4300    248.7040   1.2909439148e+02   2.1468323261e+01    0.2776328    0.2000782  12.98  0.001817916    3.171    0.685
       183  -8.9318     18.2943     26.3551   9.8054816193e+01   6.8903594861e+01    0.1792333   0.08211452 -36.52 0.0009536319    1.787    0.440
       184 -11.1654     12.6886    249.2471   1.3001037746e+02   2.1970191530e+01    0.2071528   0.09387758  44.60 0.0009075527    1.807    0.447
       185 -10.8019      2.0179     22.0813   1.0465821062e+02   7.0777718415e+01    0.2622561    0.1331564 -55.68 0.0005631921    1.676    0.403
       186 -10.2045     58.6386     23.9154   7.8856537293e+01   6.4542417280e+01    0.2926001    0.1819616   2.37  0.001505485    1.908    0.476
       187  -9.9992     34.8254     22.6199   8.8570005314e+01   6.7935337257e+01    0.2984507    0.1202121 -31.43  0.001026321    2.449    0.592
       188  -9.5737    219.5251     23.5013   4.3705064951e+01   2.7311807653e+01    0.1349665    0.1217716 -75.65 7.389329e-05    1.035    0.034
       189  -8.9277    124.0000     23.0052   5.8415003233e+01   5.1489464521e+01    0.2253397   0.07992698 -25.95 0.0006751068    2.973    0.664
       190  -9.2288    100.5944     21.5692   6.3718474420e+01   5.7002039432e+01    0.2653455    0.1237926  -9.26 0.0009544198    3.375    0.704
       191 -11.4498     75.7455     21.3632   7.1341719866e+01   6.2005742614e+01    0.3091476    0.2137139  28.21 0.0006836585    1.373    0.272
       192 -10.5866     30.4774     21.0873   8.9940763668e+01   6.8661873192e+01    0.2582594    0.1857407 -16.65 0.0009866416    1.176    0.149
       193  -9.5468    164.9908     20.9763   4.9969870620e+01   4.1431519416e+01    0.1685814     0.161169 -36.04 0.0007937077    1.123    0.109
       194  -9.7997    229.6890    248.0087   9.1907181548e+01  -8.6694102168e+00    0.1535496    0.1220941   9.79 0.0006959942    1.113    0.102
       195  -9.3565    156.6244     20.1653   5.1057222887e+01   4.3674003354e+01    0.1755833    0.1351659  -0.31 0.0002604595    1.540    0.351
       196  -9.5559     57.9938    248.2928   1.2261327953e+02   1.6959960546e+01    0.1518037    0.1088977  60.72 0.0009673715    1.049    0.047
       197  -9.8628    225.1327    246.8401   9.2510911693e+01  -7.8804752926e+00    0.1646633    0.1102531  13.59  0.001071005    1.338    0.253
       198  -9.8570     58.0846     19.3356   7.6975670648e+01   6.5282512163e+01      0.17226    0.1476229  16.21  0.001127458    1.166    0.142
       199  -9.1718    141.3060     18.2993   5.3127852065e+01   4.7766275736e+01    0.1465827   0.09797616  34.15 0.0004756229    1.592    0.372
       200  -9.5303    164.3140    247.6667   1.0349176097e+02   1.3810242211e+00    0.1166702   0.08347296  62.09 0.0004259818    1.684    0.406
       201 -10.3811    200.5160     16.9965   4.4067101327e+01   3.2769210959e+01    0.3975542    0.1070864  53.04  0.001297494    3.743    0.733
       202  -9.8457    115.0251     17.4299   5.8340341974e+01   5.4232299529e+01    0.2036491    0.1263085  57.19 0.0003129486    1.524    0.344
       203  -9.0933    170.6796    246.7128   1.0220357588e+02   5.0312880000e-01    0.1176211   0.08162502  18.61 0.0003899947    1.597    0.374
       204  -9.9598    108.4876     16.1659   5.9420914957e+01   5.5868854945e+01    0.1835168    0.1315768 -17.99 0.0004577322    1.445    0.308
       205 -12.2529      4.3229    232.9031   1.3063661164e+02   2.5676658929e+01    0.4534113    0.1432868  62.05  0.002440104    2.496    0.599
       206 -12.6679      5.8207    241.0892   1.3073802085e+02   2.4072038717e+01    0.5318572     0.283007  66.89  0.003844436    1.330    0.248
       207  -9.1469    136.3663    245.7260   1.0838566349e+02   6.0994918906e+00    0.1239574   0.07658613  59.44 0.0007003992    1.670    0.401
       208 -10.0979     76.0218     15.1190   6.8410415649e+01   6.2735905790e+01     0.209126    0.1772912 -18.96 0.0006614776    1.210    0.174
       209  -9.6134    202.4200    240.2997   9.5522590957e+01  -3.6591400528e+00    0.1869714      0.11273 -29.59 0.0009687421    1.942    0.485
       210  -9.4815    148.5184    238.9245   1.0529215146e+02   5.2096934353e+00    0.1581623    0.1235227 -51.84 0.0008253318    1.583    0.368
       211 -11.2144     14.1393    238.7081   1.2931721018e+02   2.3663544925e+01    0.1784078    0.1015644  77.21 0.0004981225    1.327    0.246
       212 -10.0345     30.9779     16.0419   8.7390040091e+01   6.9404360221e+01    0.1830935    0.1464365  15.21   0.00082228    1.311    0.237
       213  -9.7494     91.0234    237.0155   1.1584237447e+02   1.4449911384e+01    0.1539456    0.1440089 -17.18 0.0009681461    1.639    0.390
       214  -8.9304     26.6703     16.7201   8.9816754036e+01   6.9760347967e+01    0.1206396   0.07359267 -13.98 0.0003777109    1.602    0.376
       215 -10.0111    154.4424     15.0649   4.9734307896e+01   4.4776401746e+01    0.2124337    0.1745792  64.85 0.0003784152    1.114    0.102
       216  -9.8093    191.1767     13.6275   4.4215044319e+01   3.5499427302e+01    0.2056511    0.1095707  59.53 0.0006586158    1.744    0.426
       217 -11.8055     26.2664    235.7175   1.2718150413e+02   2.2924808275e+01    0.2561424    0.2213458  83.26  0.001169053    1.378    0.274
       218  -9.6220     60.7243    241.1505   1.2163696619e+02   1.7859061704e+01    0.2031713    0.0610301  40.99 0.0009485647    2.684    0.627
       219  -9.9073     99.1543     11.3964   5.9827337922e+01   5.8442802692e+01    0.2831056    0.1199596  56.73  0.001205883    2.245    0.555
       220  -9.9660    249.3613    234.0598   8.6344658844e+01  -9.8990695179e+00    0.1887449    0.1230668  20.55 0.0004267168    1.234    0.190
       221 -12.2565      9.6697    228.0841   1.2955302656e+02   2.6039598791e+01     0.347257    0.2369132  73.94 0.0007536788    1.022    0.021
       222  -9.5246    209.5212    229.5347   9.2562324600e+01  -3.3757415774e+00     0.124151   0.09902466  21.83 7.011006e-05    1.011    0.011
       223  -9.6727    140.6459    228.5924   1.0545370547e+02   8.1572579543e+00     0.214241    0.1041288 -37.63 0.0008499607    3.224    0.690
       224  -9.6510    223.3827    226.7842   8.9619838952e+01  -5.1979900485e+00    0.1574664    0.1032522 -15.10 0.0004341644    1.623    0.384
       225 -11.1480      1.6293    225.8008   1.3077254281e+02   2.7229648528e+01     0.249354   0.09371434  89.09  0.001169205    2.271    0.560
       226  -8.7226    126.6792    220.7006   1.0716395864e+02   1.1826000817e+01    0.1189447   0.09777161  12.05  0.000465255    1.623    0.384
       227 -11.1481      8.7038    218.4993   1.2925626536e+02   2.7932977326e+01    0.2145484    0.1786797  11.53   0.00162725    2.142    0.533
       228  -9.2672    209.6543    211.2902   8.9479654006e+01  -8.7271263283e-01     0.118276    0.0998238  62.15 0.0007026059    1.658    0.397
       229  -9.2207    137.3205    215.3620   1.0431282859e+02   1.0997004878e+01    0.1267441    0.1005578   3.01 0.0007041936    1.775    0.437
       230  -9.7484     20.1681    209.8205   1.2676072397e+02   2.8488860874e+01    0.1786573    0.1072245  66.95 0.0007963921    1.302    0.232
       231  -9.9904     10.0182    203.4709   1.2823761595e+02   3.0747980613e+01     0.147919   0.09200425  46.29 0.0004301739    1.540    0.350
       232  -9.0738    193.5017    201.5552   9.0842399680e+01   3.4134667547e+00     0.134579    0.1158923  23.14 4.747597e-05    1.016    0.016
       233  -9.9466     23.1862    197.1328   1.2537776348e+02   3.0753544167e+01    0.1646755    0.1349885 -82.77 0.0005802145    1.265    0.210
       234 -10.8032     14.0053    192.7551   1.2685429474e+02   3.2560380554e+01    0.1983811    0.1231046  81.77 0.0005112595    1.255    0.203
       235 -10.2017      6.3700    191.5057   1.2823461150e+02   3.3515763569e+01    0.1919655    0.1275212  78.55 0.0006734228    1.121    0.108
       236  -9.3622     20.6549    189.2074   1.2531899456e+02   3.2664577228e+01    0.1535127   0.08513823 -71.71 0.0003733671    1.595    0.373
       237  -9.5942     22.5041    179.9953   1.2426008153e+02   3.4456752363e+01    0.1692521   0.09446116 -78.98 0.0004350541    1.482    0.325
       238 -10.2890      5.3842    167.4542   1.2690640559e+02   3.8715298280e+01    0.2382503    0.1389193  79.21  0.001283337    1.413    0.292
       239  -9.4788    226.5217    164.0236   7.7159272377e+01   3.4225816973e+00    0.2045325     0.128494 -32.11 0.0006077391    1.529    0.346
       240  -9.5356     14.6523    163.6806   1.2463620818e+02   3.8773426275e+01    0.1135662   0.07824622 -52.21  0.000704883    1.733    0.423
       241  -9.4636     41.1645    158.1252   1.1804364989e+02   3.7446978975e+01    0.1764815    0.1235428  80.97 0.0005221224    1.298    0.230
