#   1 NUMBER                 Running object number                                     
#   2 MAG_AUTO               Kron-like elliptical aperture magnitude                    [mag]
#   3 X_IMAGE                Object position along x                                    [pixel]
#   4 Y_IMAGE                Object position along y                                    [pixel]
#   5 X_WORLD                Barycenter position along world x axis                     [deg]
#   6 Y_WORLD                Barycenter position along world y axis                     [deg]
#   7 A_WORLD                Profile RMS along major axis (world units)                 [deg]
#   8 B_WORLD                Profile RMS along minor axis (world units)                 [deg]
#   9 THETA_WORLD            Position angle (CCW/world-x)                               [deg]
#  10 FWHM_WORLD             FWHM assuming a gaussian core                              [deg]
#  11 ELONGATION             A_IMAGE/B_IMAGE                                           
#  12 ELLIPTICITY            1 - B_IMAGE/A_IMAGE                                       
         1 -12.3231    220.6168     28.1622   3.5045696618e+01   2.7809606818e+01    0.9587301    0.7390487  41.89  0.005881805    1.845    0.458
         2 -12.7961    207.2775     40.0945   3.9102156238e+01   2.9197885526e+01     1.533586     1.178087  34.53  0.008736798    1.874    0.466
         3 -10.4081      2.0768     20.5359   9.2370975857e+01   7.1808243699e+01    0.3287867    0.1542344 -48.98  0.001872172    1.904    0.475
         4 -10.3922      1.9843      7.8645   8.6755091552e+01   7.3805438301e+01    0.6566074     0.123531 -43.79  0.002645732    4.050    0.753
         5 -11.3309    246.1846      4.6832   2.8371972294e+01   2.5295369728e+01    0.6464711    0.4224448 -82.93  0.004420707    1.280    0.218
         6 -11.6107     47.1829    217.8450   1.1332989501e+02   2.2167103531e+01    0.7239027    0.5639095  15.30  0.004327206    1.722    0.419
         7 -10.3144    115.8585    244.3257   1.0124570721e+02   7.1676789539e+00    0.7977988    0.2792719 -63.88  0.002933885    4.276    0.766
         8 -11.0847     83.2972    216.7319   1.0508576793e+02   1.7625335520e+01    0.9480522    0.5838294  89.85 0.0007374853    2.003    0.501
         9 -14.4992      6.7568    142.1445   1.1605156787e+02   4.4444559301e+01     9.489201     2.613392 -81.64   0.02998697    4.290    0.767
        10  -8.0372     45.8523    166.7857   1.0815782269e+02   3.4602051836e+01     0.193456    0.1443715  67.77 0.0003815014    1.347    0.258
        11 -11.8445     34.2081    200.2508   1.1467020322e+02   2.7694769487e+01    0.5965785    0.4731438 -47.11  0.001408924    1.564    0.360
        12 -11.0170     84.0536    153.7108   9.5434931854e+01   3.2759938025e+01    0.6957688    0.4866194 -21.90   0.00188574    2.009    0.502
        13 -11.1212     76.3369    159.6908   9.8681713968e+01   3.2407840804e+01    0.6736994    0.4251846 -73.94 0.0006532579    1.686    0.407
        14 -11.7640     63.8752    155.9835   1.0158438123e+02   3.5119904341e+01    0.5068343    0.3699839 -40.76  0.001124282    1.519    0.342
        15 -12.4619     68.4084    144.4383   9.8272788872e+01   3.7472516900e+01     1.798576    0.9810882  77.90  0.006003858    3.600    0.722
        16  -9.1588    134.1028    145.9372   8.0085531932e+01   2.5661081276e+01    0.6161574    0.1749984 -55.30  0.001485107    5.063    0.803
        17 -13.2396     10.0178    206.7083   1.2050667098e+02   2.8631710981e+01    0.9032106    0.6620155  34.22  0.003233748    1.530    0.347
        18  -8.7436     33.1495    143.6190   1.0862233132e+02   4.1888527943e+01    0.3368815    0.2243089  46.50   0.00176599    1.619    0.382
        19  -9.4028     99.4147    139.5231   8.8147837835e+01   3.3790897752e+01     0.571253      0.34753 -22.21  0.002065821    2.783    0.641
        20 -10.7019     86.3391    138.9958   9.1865852138e+01   3.6144441009e+01     0.322138    0.2872171 -38.52 0.0005245447    1.152    0.132
        21 -15.1653     17.2803    242.8814   1.2119594546e+02   2.0184214757e+01     5.957975     2.518852  26.15   0.01459806    3.023    0.669
        22  -9.2527    107.6640    130.3610   8.3682296905e+01   3.4552190479e+01    0.5948745    0.2985461  30.90  0.002180157    2.354    0.575
        23  -8.4304     97.0533    125.4609   8.5636366988e+01   3.7701066670e+01    0.2698826    0.2035456 -14.19  0.001209106    1.724    0.420
        24  -8.1398    106.6451    118.9753   8.1194741475e+01   3.7493577675e+01    0.2148675     0.192092 -47.47 0.0004245488    1.083    0.077
        25  -7.9796    205.6333    110.2292   5.5964528006e+01   1.8190144259e+01    0.1989355    0.1283541 -32.82 0.0003820038    1.564    0.360
        26  -8.2334     80.4870    182.4862   1.0119819183e+02   2.6062273919e+01    0.2938565    0.1373182 -62.86  0.001034478    2.103    0.524
        27 -10.3982     61.7568    174.5134   1.0494857097e+02   3.0677739231e+01    0.4798598    0.2999749 -35.12   0.00215974    2.196    0.545
        28  -8.0616    161.3102     83.3168   5.7509368801e+01   3.3112293647e+01      0.14885    0.1198787  13.12 0.0003422895    1.637    0.389
        29 -10.3007     66.8718    169.4430   1.0285018734e+02   3.1271013887e+01    0.3489052    0.2658869 -38.68 0.0007879577    1.531    0.347
        30  -8.3594     46.1698     61.8161   8.5802666704e+01   6.0007221703e+01    0.1852531    0.1774947 -28.40 0.0006858416    1.212    0.175
        31 -10.5563     13.6821     60.0492   9.9532513038e+01   6.3548278069e+01     0.256837    0.2392506  78.50 0.0008755118    1.439    0.305
        32 -13.0001     44.7020    189.8433   1.1116555540e+02   2.8997331860e+01      1.69608      1.22795 -84.72  0.007597746    1.260    0.206
        33 -11.5352    197.9714     46.5442   4.1763156697e+01   3.0421001065e+01    0.5516437    0.4245605  64.22  0.001991398    1.315    0.239
        34 -10.3029     80.3270    246.6621   1.0896178314e+02   1.1808020279e+01    0.4129742    0.2408331 -76.94  0.002242379    1.979    0.495
        35  -9.9876      2.1257     49.9969   1.0221358444e+02   6.6327621122e+01    0.2925442    0.1455736 -57.82  0.001603334    1.687    0.407
        36  -8.4416    134.6054     41.0228   5.0591918524e+01   4.6214668560e+01     0.231647    0.1832119 -82.82 0.0006173988    1.464    0.317
        37 -10.5843      1.9600     34.7517   9.7699247724e+01   6.9306042808e+01    0.5953003    0.1258076 -57.12  0.002211549    4.106    0.756
        38 -12.4125     14.6019    214.2621   1.2002887887e+02   2.6508818126e+01    0.8686318    0.3937311  34.15  0.003536182    2.165    0.538
        39 -10.1879    134.9221    229.3930   9.5142153846e+01   7.0899527467e+00    0.3305404    0.1882961 -49.94  0.001633903    1.942    0.485
