#   1 NUMBER                 Running object number                                     
#   2 MAG_AUTO               Kron-like elliptical aperture magnitude                    [mag]
#   3 X_IMAGE                Object position along x                                    [pixel]
#   4 Y_IMAGE                Object position along y                                    [pixel]
#   5 X_WORLD                Barycenter position along world x axis                     [deg]
#   6 Y_WORLD                Barycenter position along world y axis                     [deg]
#   7 A_WORLD                Profile RMS along major axis (world units)                 [deg]
#   8 B_WORLD                Profile RMS along minor axis (world units)                 [deg]
#   9 THETA_WORLD            Position angle (CCW/world-x)                               [deg]
#  10 FWHM_WORLD             FWHM assuming a gaussian core                              [deg]
#  11 ELONGATION             A_IMAGE/B_IMAGE                                           
#  12 ELLIPTICITY            1 - B_IMAGE/A_IMAGE                                       
         1 -11.8405      5.8821     30.2754   1.0979136319e+02   6.7247959332e+01    0.4862095    0.3456188  82.52  0.002051656    2.231    0.552
         2 -11.7884    129.5169     24.6992   6.5709959008e+01   5.0141122229e+01    0.5606834    0.3731564 -37.78  0.002001145    1.566    0.361
         3 -11.8969     21.3369     18.7307   9.9550703431e+01   6.8323174177e+01    0.4677656    0.4206975 -70.37  0.001430114    1.574    0.365
         4 -11.1224     84.5734     20.5770   7.6342432824e+01   5.9926820904e+01    0.4680597    0.3330505  20.97  0.002645225    1.441    0.306
         5 -10.9595     63.5340     14.9977   8.1044903329e+01   6.4128411009e+01    0.5179542    0.2661382   8.40  0.001996966    3.967    0.748
         6 -10.9309     10.1890     15.4925   1.0323679623e+02   6.9691846954e+01    0.2488752    0.1299847 -38.32  0.001321919    1.452    0.311
         7 -11.4992      3.9175     17.9572   1.0687133781e+02   6.9629684273e+01    0.3150231    0.2318845  -9.13  0.001599466    1.506    0.336
         8  -9.7721     34.8576     15.9352   9.2690467683e+01   6.7565969073e+01    0.3921446    0.1766326 -30.48  0.002008681    2.115    0.527
         9 -11.3526     74.1542      7.0496   7.3712156590e+01   6.3508711738e+01     0.267865    0.1869819 -16.62 0.0003358879    1.262    0.208
        10 -11.2995     75.8422     15.3999   7.6941749677e+01   6.2140781436e+01    0.4939682    0.2683886 -17.47  0.001864034    1.956    0.489
        11 -12.0836     70.3909     14.6973   7.8483224185e+01   6.3121886429e+01    0.3677316    0.2204864 -21.50  0.001071002    1.541    0.351
        12 -12.1899     81.2991      6.7844   7.1277796098e+01   6.2299685164e+01    0.5374803    0.3275456  18.21  0.002823234    1.778    0.438
        13  -9.5743     50.9646     11.0263   8.3982397805e+01   6.6449424615e+01    0.2298566    0.1296262 -14.20 0.0008341882    1.979    0.495
        14 -10.3186    100.3368     12.8808   6.8367898829e+01   5.7950145480e+01    0.2832831    0.1818318  -6.85  0.001072412    1.629    0.386
        15 -11.3800    117.8005     10.5862   6.2921623356e+01   5.4497603584e+01    0.6203049    0.2260121 -36.85  0.002365844    2.897    0.655
        16 -11.3763    115.9750      3.0238   6.0232185594e+01   5.5687614083e+01     0.257249     0.183134  -6.60 0.0003737202    1.401    0.286
        17 -11.8452     60.7135     22.8309   8.5449952075e+01   6.3349711694e+01    0.5194985    0.3033529 -55.66  0.002487696    2.717    0.632
        18  -9.6810      5.2738     11.6759   1.0407287058e+02   7.0659654280e+01    0.1524988   0.08665039 -35.88  0.001031438    1.352    0.261
        19  -9.8410    185.7400     10.9445   5.0577583337e+01   3.7496949600e+01    0.1891819    0.1817842 -48.91 0.0003140488    1.083    0.077
        20  -9.8416    108.0355      9.3806   6.4830020077e+01   5.6759188826e+01     0.230688    0.1707805  -2.79   0.00104107    1.317    0.241
        21 -10.3627     59.5596     10.2430   8.0342042976e+01   6.5378007407e+01    0.2017651    0.1590442  26.01 0.0006297374    1.332    0.249
        22 -11.4795     22.4517      7.7774   9.4602159691e+01   7.0051310202e+01    0.3785166    0.2861098 -40.41  0.001951024    1.258    0.205
        23 -13.0527     31.9935      2.0616   8.7658005982e+01   6.9989122498e+01    0.2588212    0.1887782  11.82 0.0006020224    1.395    0.283
        24 -11.1745     27.0367      3.4743   9.0560807468e+01   7.0289308608e+01    0.2953679    0.1807047  -7.07  0.001321851    1.731    0.422
        25  -9.7572      6.4954      8.0092   1.0210918073e+02   7.1210444451e+01    0.1477938    0.1418437 -88.80 0.0005514343    1.628    0.386
        26 -10.2282     10.8559      9.8282   1.0078706657e+02   7.0618748454e+01    0.2665157    0.1417871 -54.31  0.001039805    1.746    0.427
        27 -12.2763     11.9206      2.4015   9.7164070901e+01   7.1754180602e+01    0.3988962     0.323344  22.03  0.002448462    1.614    0.380
        28 -11.0823     16.7980      1.4178   9.4369751516e+01   7.1524068680e+01    0.1871466    0.1435061 -24.60 0.0001725056    1.085    0.078
        29  -9.0757     55.2934      9.6853   8.1689321328e+01   6.6058475469e+01    0.1078254   0.09119613 -46.71 0.0007008252    1.598    0.374
        30 -10.1071    127.6448      8.3437   5.9787412198e+01   5.2484772307e+01    0.2076701    0.1611305 -60.74 0.0007589225    1.683    0.406
        31 -10.6358    123.5482      7.3361   6.0283895502e+01   5.3539134881e+01    0.3902653     0.154965  35.66  0.001419526    2.969    0.663
        32 -10.1786     91.6040      7.1170   6.8318870366e+01   6.0345680077e+01    0.3459941    0.2309292  21.40  0.001885089    1.488    0.328
        33  -9.9129    228.9442      5.6828   4.3992612289e+01   2.6774080314e+01    0.1962983    0.1630545 -88.37 0.0004187074    1.141    0.123
        34  -9.2757    172.2878      5.3700   5.0705171222e+01   4.1598933087e+01    0.1528643   0.09912676  31.60 0.0007021502    1.710    0.415
        35  -9.7962     59.8473      5.5841   7.8039389384e+01   6.5958335600e+01     0.224654    0.1078643  37.16   0.00116203    2.168    0.539
        36 -10.3578    176.8347      3.9546   4.9588004536e+01   4.0542374379e+01    0.2155539    0.1775061  37.57 0.0003194574    1.231    0.187
        37  -9.7491    146.3640      4.3054   5.4550012849e+01   4.8349084371e+01    0.1562119   0.09228826  34.97 0.0003850696    1.739    0.425
        38  -9.2652    167.7700      2.0263   5.0255630051e+01   4.3092577580e+01    0.1760441    0.1179893 -20.26   0.00053056    1.591    0.372
        39  -9.8911     72.5920      1.8950   7.1788335182e+01   6.4383413400e+01    0.2129265    0.1677055  65.02  0.001142611    1.942    0.485
        40  -9.1842    139.4620      1.5508   5.4782362421e+01   5.0310952139e+01    0.1384511    0.1256665  37.86  0.000135345    1.008    0.008
        41  -9.2952     41.6802    220.7068   1.2591011518e+02   2.5759865850e+01   0.08349399   0.07522979 -83.33 0.0007013555    1.608    0.378
        42 -10.8396    250.4200    245.8474   9.4884985947e+01  -9.2071020886e+00    0.2952659    0.1402635 -21.14  0.001761343    2.566    0.610
        43  -9.9477     72.5985    250.0954   1.2316309922e+02   1.7302907584e+01    0.1479276    0.1268918  48.59  0.001254455    1.619    0.382
        44 -11.9854     27.9063    247.1829   1.2936783247e+02   2.3001008356e+01    0.3456706    0.1875442  84.42  0.002728761    1.454    0.312
        45 -12.6739     18.6189    238.2307   1.3024475410e+02   2.5361549232e+01    0.9981148    0.2906775  40.47  0.005683684    3.260    0.693
        46 -13.0054     20.0572    248.4205   1.3049279207e+02   2.3633638065e+01    0.9515358    0.1964589  50.57  0.005388411    2.850    0.649
        47 -12.3921      5.8776    244.9227   1.3225028036e+02   2.5575906890e+01      0.64693    0.2677919  89.17  0.004668009    1.941    0.485
        48 -10.9058      1.3917    244.8145   1.3283836772e+02   2.6017163395e+01    0.2104068   0.06590542 -79.92 0.0005789899    2.683    0.627
        49  -9.4110    250.4796    219.4561   9.0758488924e+01  -6.7060439138e+00    0.1183546   0.08857445  23.10 0.0008085239    1.028    0.027
        50 -11.3059    235.8001    215.4524   9.2471054739e+01  -3.8815303416e+00    0.4415026    0.2714469  -3.16  0.002247955    2.023    0.506
        51  -9.8335    191.6808    217.4986   1.0022135560e+02   3.4668911325e+00    0.2349779    0.1773642 -55.22  0.001503479    1.781    0.438
        52  -9.9491    174.4965    219.5272   1.0347480269e+02   6.1887181501e+00    0.2261199   0.09383484  37.87 0.0009384246    2.326    0.570
        53 -11.2443     37.2653    242.9990   1.2785139699e+02   2.2628181986e+01    0.2306671    0.1339857  57.15  0.001819493    1.276    0.216
        54 -10.8618      9.5374    216.9700   1.3057802749e+02   2.9734817595e+01    0.2559301     0.118944  60.65  0.001027669    1.580    0.367
        55  -9.5430    136.9720    216.0046   1.0954660870e+02   1.3109085478e+01    0.1750185    0.1377316  25.86  0.001121273    1.676    0.403
        56 -11.0082     30.9745    215.5823   1.2725877455e+02   2.7815165897e+01    0.2423132    0.1549974  49.74  0.001860703    1.496    0.331
        57 -10.6938    241.5074    211.9927   9.0960132682e+01  -4.4511613097e+00    0.2547233    0.2205441 -71.38  0.001681375    2.041    0.510
        58  -9.7021    170.2973    213.3293   1.0333265354e+02   7.8012944094e+00    0.1174114   0.08903077  19.74 0.0003533166    1.637    0.389
        59 -11.1598     21.4155    212.4106   1.2855629414e+02   2.9355584039e+01    0.2795122    0.1175131  63.30  0.001783453    1.878    0.468
        60 -10.1482    208.9691    212.0842   9.6421263388e+01   1.1296586876e+00    0.1857222    0.1495431  34.19 0.0004339912    1.006    0.006
        61  -9.8781      2.2846    212.3382   1.3144015615e+02   3.1191502076e+01    0.1352233   0.08981617  68.04 0.0005203623    1.140    0.123
        62 -11.8803      4.7684    207.5816   1.3085356531e+02   3.1786250929e+01    0.4384606    0.1765078  83.94  0.002765455    2.036    0.509
        63 -10.6850     10.5749    208.4657   1.3001338413e+02   3.1096862346e+01    0.1790357    0.1261623 -53.83 0.0008940651    2.340    0.573
        64  -9.2143    184.4636    208.5090   1.0012293025e+02   5.9729519102e+00    0.1257491      0.10295  38.00 0.0001817395    1.066    0.062
        65 -11.5202     18.6748    202.8878   1.2845424261e+02   3.1302915538e+01    0.2996634    0.1918515 -74.12  0.001012866    1.524    0.344
        66  -9.3803    223.5847    201.7655   9.2208995449e+01  -1.6023503649e-01     0.148099    0.1173602 -44.39 0.0006323529    1.645    0.392
        67 -10.2158    175.2994    202.6865   1.0086457350e+02   8.4762289382e+00    0.2081646    0.1680153  60.83 0.0005552972    1.244    0.196
        68  -9.6836     34.4830    201.0559   1.2577734050e+02   3.0008446498e+01    0.1506074    0.1085364  67.70  0.000451695    1.131    0.116
        69  -9.4447    227.1277    196.8733   9.0748835159e+01  -1.7875564251e-01    0.1789195    0.1278791  19.86 0.0006837524    1.343    0.255
        70 -10.0866    215.3986    194.7447   9.2401139180e+01   2.2281641708e+00    0.1589932    0.1170699 -13.41 0.0004184328    1.553    0.356
        71  -9.6903    203.8282    195.5095   9.4574960117e+01   4.2610049622e+00    0.3482036   0.09590346  39.83  0.001191981    3.573    0.720
        72 -10.4612    187.1357    190.4662   9.6728742723e+01   8.1250919927e+00    0.3547017   0.09026171 -40.99  0.001201941    4.614    0.783
        73  -9.5196      1.5320    188.4485   1.3042249428e+02   3.5483051871e+01    0.1008838   0.06809621  80.75 0.0001894323    1.008    0.008
        74  -9.5018     61.6498    184.8210   1.1969640902e+02   2.9891065743e+01    0.1645552   0.08935157 -83.95 0.0009470117    1.747    0.428
        75  -9.3380      8.6431    184.2958   1.2902416157e+02   3.5634606963e+01    0.1098003   0.05266601  68.24 0.0006088492    1.697    0.411
        76  -9.8704    166.9905    183.7293   9.9359137041e+01   1.3022030858e+01     0.178332    0.1034567  46.08 0.0008708271    1.512    0.338
        77 -11.2877     16.0966    182.6618   1.2766077943e+02   3.5266439364e+01    0.3533157    0.1578367  81.89  0.002109903    1.968    0.492
        78  -9.7206      1.9674    180.3120   1.2991810429e+02   3.6951650506e+01     0.140389   0.09717766  75.52 0.0006130086    1.092    0.084
        79 -10.0163    244.4139    178.2763   8.4349706328e+01  -9.4960746188e-01    0.2248787     0.119009 -23.53  0.001106389    2.034    0.508
        80 -10.7391    224.2274    178.3273   8.7828548612e+01   2.8094964024e+00    0.2272825    0.2136715  34.14 0.0005386604    1.186    0.157
        81  -9.6973     70.0689    177.6720   1.1737495583e+02   3.0202836539e+01    0.1549425    0.1284482  65.48 0.0005037183    1.168    0.144
        82  -9.1789     36.4457    178.4753   1.2375744452e+02   3.4047014065e+01    0.1106378   0.08201876  83.35 0.0002370521    1.015    0.015
        83 -10.1653    200.1851    176.7872   9.1873366817e+01   7.6942959025e+00    0.1881383     0.146526  19.96 0.0005820697    1.349    0.259
        84  -9.9082     46.5187    177.1916   1.2179112490e+02   3.3190605991e+01    0.1954896    0.1406637  54.65  0.001106799    1.341    0.254
        85 -11.1414     18.2738    173.1426   1.2663873395e+02   3.6889123219e+01    0.3280676    0.1206655  63.95   0.00168915    2.731    0.634
        86  -9.4764     75.0512    170.9595   1.1563802262e+02   3.0873561809e+01    0.1712741    0.1446344 -40.41  0.001119669    1.740    0.425
        87  -9.6410      4.7660    168.2880   1.2872955548e+02   3.9007393100e+01    0.1627891   0.05470443 -68.66 0.0008449566    2.370    0.578
        88 -11.2737     36.7688    166.2595   1.2264944502e+02   3.6431900257e+01    0.3315551    0.1767267  75.76  0.001961613    1.772    0.436
        89 -11.6853     36.8594    158.3945   1.2189972443e+02   3.8020314247e+01    0.3729755    0.1484144 -69.54 0.0005830664    2.063    0.515
        90  -9.7301     67.1628    165.1373   1.1653306808e+02   3.3105420742e+01    0.1731402    0.1179034  75.90 0.0009281216    1.337    0.252
        91 -10.6970     51.5473    163.7461   1.1951239265e+02   3.5310144186e+01     0.362738    0.1734891 -64.21   0.00201744    1.874    0.466
        92 -11.5291     44.4038    162.7771   1.2083116597e+02   3.6317382978e+01    0.3167292    0.1673115 -67.98  0.001313507    1.642    0.391
        93 -10.3591     48.1201    160.0965   1.1981582774e+02   3.6452089238e+01    0.2295451    0.1870582  74.91  0.001118096    1.125    0.111
        94  -9.4438    200.4830    162.5683   8.9050160657e+01   9.8646599825e+00    0.1383394    0.1258135  37.28 0.0002040822    1.037    0.035
        95  -9.3483    238.4726    158.9912   8.1456658601e+01   2.7533284011e+00      0.19059    0.1104096  -3.42 0.0008082225    2.489    0.598
        96 -11.3848     22.3129    156.3731   1.2458659883e+02   3.9849881281e+01    0.3698848     0.275091  58.11  0.002573829    1.348    0.258
        97  -9.0624    147.5070    156.4908   9.8419647393e+01   2.1685265300e+01    0.1393014    0.1275919  66.21 0.0008105332    1.016    0.015
        98  -9.5192    247.6348    158.3210   7.9765007634e+01   1.0736761719e+00    0.1251441    0.1083434 -76.91  7.27373e-05    1.785    0.440
        99 -10.2969     12.0365    153.2212   1.2633076718e+02   4.1384341668e+01    0.2118215     0.147914  18.25  0.001485353    2.345    0.574
       100 -10.3769    178.0652    151.4304   9.1140097240e+01   1.6416010525e+01    0.2564771    0.2349164 -76.61 0.0009399245    1.222    0.182
       101  -9.7431     27.0000    147.9604   1.2289334655e+02   4.1143764262e+01    0.1868141   0.05091508 -71.99 0.0008029257    2.946    0.661
       102 -10.0790     41.2597    146.3311   1.1974960528e+02   4.0072040487e+01    0.1836578    0.1302886 -86.04 0.0003411661    1.131    0.116
       103 -10.2555     19.2142    146.2268   1.2432453717e+02   4.2202675744e+01     0.160429   0.09992497  79.98  0.000451837    1.358    0.264
       104 -11.2788     12.1951    145.8080   1.2570743256e+02   4.2877242362e+01    0.3575755    0.1563823  88.40 0.0009441079    2.101    0.524
       105  -9.8911    207.0181    146.0661   8.4342132026e+01   1.1180413260e+01    0.2197852    0.2027266  29.57 0.0006985759    1.020    0.019
       106 -10.3683     22.5224    144.4468   1.2348336867e+02   4.2281016704e+01    0.1128744    0.0834629  89.90 4.917542e-05    1.023    0.023
       107  -9.3510    220.3183    143.7141   8.1361073979e+01   8.7260795333e+00    0.1334822    0.1146965 -84.24 0.0004514113    1.590    0.371
       108  -9.7295     49.7804    141.4879   1.1734032736e+02   4.0177187810e+01    0.2112296    0.1301901 -43.42  0.001118005    2.237    0.553
       109  -9.5457    239.9713    140.7684   7.7247581447e+01   5.0709545086e+00    0.1779649    0.1108896  45.68 0.0005215533    1.580    0.367
       110 -10.6427     16.2628    139.7696   1.2435093961e+02   4.3789300299e+01    0.2242234    0.1079261  20.13  0.001199886    3.565    0.719
       111  -9.9282     56.8777    138.3227   1.1535101453e+02   4.0040203039e+01    0.3489945    0.1757602  79.59  0.001554629    2.820    0.645
       112  -9.3689    236.5698    138.5123   7.7321662157e+01   6.1076149522e+00    0.1415026    0.1260034   6.59 0.0001024825    1.031    0.030
       113  -9.3116     87.9488    137.9692   1.0821510119e+02   3.5951192661e+01    0.1527945    0.1345628  88.65  0.000363155    1.028    0.027
       114 -10.4544      9.1844    136.8367   1.2556650780e+02   4.4959116179e+01    0.1635849    0.1317593 -76.85 0.0003983512    1.220    0.180
       115 -10.7038      2.8143    136.1491   1.2682806183e+02   4.5570378208e+01    0.2483429   0.09967303 -70.79  0.001317533    1.837    0.456
       116 -10.6872     21.0280    135.8751   1.2297067894e+02   4.4203127956e+01     0.199462    0.1658176 -79.72 0.0009030196    1.185    0.156
       117  -9.2346    250.3043    134.3130   7.4070700090e+01   3.9003919732e+00    0.1431844   0.09927572  11.83 0.0004386657    1.617    0.381
       118 -10.2062    107.0198    133.2361   1.0295334700e+02   3.3922028957e+01    0.2363064    0.1935705 -61.99 0.0009928895    1.166    0.143
       119 -10.2018     33.0770    133.5688   1.2008766219e+02   4.3604576766e+01    0.2819232    0.1309364 -81.44  0.001465073    1.993    0.498
       120 -11.5033     37.1728    130.3457   1.1878269695e+02   4.3899942151e+01    0.4295133    0.2077648 -63.17  0.002388399    1.699    0.411
       121  -9.4793     53.1680    132.8854   1.1545258918e+02   4.1650364566e+01    0.1686966    0.1227796 -57.64 0.0009721527    1.367    0.268
       122 -10.4015     73.9661    129.4976   1.1007638403e+02   3.9796411257e+01    0.2536965    0.1725553 -65.29 0.0007328671    1.297    0.229
       123  -9.1466      6.6133    126.2607   1.2517307751e+02   4.7345850699e+01    0.1100752    0.0633068  69.27 0.0006974724    1.688    0.407
       124 -10.3807      1.7109    125.4461   1.2616676224e+02   4.7853737124e+01    0.2566208    0.1208648 -77.61  0.001406626    1.555    0.357
       125  -9.9960      3.2417    121.0028   1.2543099422e+02   4.8676050022e+01    0.2257167   0.07939696 -72.49  0.001196981    2.036    0.509
       126  -9.4025    219.5606    124.5012   7.7065435947e+01   1.1970918806e+01    0.1460436    0.1374522   4.98 0.0002399635    1.008    0.007
       127 -11.4358     33.2196    125.9960   1.1915435363e+02   4.5218054627e+01    0.2458073    0.1766643  71.99 0.0008832591    1.353    0.261
       128 -11.2713     10.4794    122.4572   1.2395104420e+02   4.7865317248e+01    0.2300483    0.1663987 -81.69 0.0009289546    1.015    0.015
       129  -9.7442     20.1799    121.8054   1.2167217502e+02   4.7257303041e+01    0.1519927    0.1117421 -58.10  0.001066421    1.381    0.276
       130  -9.5592     33.1853    118.8044   1.1824581407e+02   4.6778571068e+01    0.1570938    0.1151591 -58.29 0.0004830454    1.317    0.241
       131 -12.1280     17.0009    115.8544   1.2173852545e+02   4.8779785933e+01    0.3678114    0.2138369 -67.40  0.001240773    1.333    0.250
       132 -12.4062     15.2359    108.8222   1.2133497907e+02   5.0417111987e+01    0.5105439    0.3343392  74.02  0.001716714    1.552    0.356
       133 -10.2358     86.0269    116.4709   1.0477977930e+02   4.0949102570e+01    0.2056028    0.1600581 -63.34 9.657847e-05    1.153    0.133
       134  -9.4415     72.2442    116.7411   1.0829061304e+02   4.2842696450e+01    0.2546619    0.1397454  78.34  0.001028803    3.158    0.683
       135 -10.0065     51.1878    115.4118   1.1334156519e+02   4.5702773492e+01    0.2595168    0.1367792 -64.20  0.001386031    1.566    0.361
       136  -9.3616    214.4375    115.5160   7.5813086627e+01   1.4615450205e+01    0.1499403    0.1397001   6.52 0.0001579731    1.046    0.044
       137 -10.1310     35.0385    114.3001   1.1718333901e+02   4.7587387947e+01     0.214606    0.1383031 -70.66 0.0005458369    1.229    0.186
       138 -11.9421     35.3919    108.3540   1.1623644602e+02   4.8853817711e+01    0.3965091    0.2254613  87.82 0.0009650197    1.978    0.494
       139  -9.4694    220.3817    117.1551   7.5139063431e+01   1.2984809879e+01    0.2079272    0.1315251 -43.63 0.0004827883    1.665    0.399
       140 -10.6991    249.0267    111.9852   6.9051560516e+01   7.4325574327e+00    0.2219749    0.2000125 -11.63 0.0006347766    1.019    0.018
       141  -9.1114    166.3171    115.6778   8.5500627633e+01   2.5694946094e+01    0.1543731     0.120377 -83.06 0.0002992589    1.665    0.399
       142  -8.9806    223.3517    111.7344   7.3273128198e+01   1.3189260302e+01    0.1442382    0.1180983 -78.92 0.0006985401    1.620    0.383
       143  -9.2654     94.2825    111.6190   1.0169912320e+02   4.0739383355e+01    0.1429068     0.101381 -88.32 0.0007010017    1.725    0.420
       144 -10.1332     56.1287    108.7723   1.1097529947e+02   4.6613748724e+01     0.300065    0.1413752 -62.27  0.001478476    1.772    0.436
       145 -11.4934     23.5322    107.3756   1.1909453366e+02   5.0091591813e+01    0.3307023    0.2125829  64.68  0.001916935    1.713    0.416
       146 -10.9919      2.3617    105.3156   1.2407169402e+02   5.2025825074e+01    0.2112613    0.1512559 -77.26 0.0005190098    1.016    0.016
       147 -12.4943      2.9870    100.4088   1.2337638868e+02   5.3023456303e+01    0.2455053    0.1852124 -87.89 0.0004434913    1.138    0.121
       148 -10.9829      1.4328     95.2797   1.2317634592e+02   5.4197539519e+01    0.3691954    0.1014104 -65.40  0.001337437    2.361    0.577
       149 -10.2942    243.4986    104.5261   6.8109576762e+01   9.7620259872e+00    0.1455835    0.1331581  -3.64 0.0001463363    1.039    0.038
       150  -9.9779    223.3237    104.0097   7.1335590756e+01   1.4448224746e+01    0.2122459      0.18177 -28.60 0.0004274872    1.134    0.118
       151 -10.5282      6.3718    106.2079   1.2319536139e+02   5.1584983673e+01    0.2348711    0.1327793 -72.80  0.001055159    1.293    0.227
       152 -10.8750    247.6905    102.1327   6.6861492135e+01   9.1937602044e+00    0.2395198    0.2058536  70.07 0.0008743498    1.375    0.273
       153 -10.4494     35.3794    101.2374   1.1514211940e+02   5.0412330024e+01    0.2538341    0.1815256  56.77   0.00138725    1.590    0.371
       154  -9.6827    119.7908    101.3911   9.2831697371e+01   3.8454194232e+01    0.1995897     0.138591  32.68 0.0007320592    1.691    0.409
       155  -9.3888     43.7371    100.9509   1.1287411671e+02   4.9674791759e+01    0.1598166   0.08715534 -63.44 0.0003666638    1.474    0.322
       156  -9.5656     57.7239     96.5752   1.0826687198e+02   4.9124900071e+01    0.1607029    0.1159787  52.68 0.0009454177    1.593    0.372
       157 -10.8100     61.9034     98.8016   1.0756840213e+02   4.8136554778e+01    0.2687445    0.2337781 -64.54 0.0006099265    1.044    0.042
       158 -10.6211     66.3607     97.7927   1.0614594256e+02   4.7805175310e+01    0.3676338    0.1697605 -44.97  0.001651013    2.225    0.550
       159  -9.3187     50.5350     99.4404   1.1077775728e+02   4.9299548958e+01    0.1249968    0.1026027 -64.71 3.187598e-05    1.038    0.037
       160 -11.4881     20.4336     97.1030   1.1846477698e+02   5.2553630438e+01     0.327269    0.1686649 -81.59  0.001511864    1.822    0.451
       161 -10.2767     30.3298     98.0861   1.1598345118e+02   5.1546411218e+01    0.1646603     0.117178 -69.97  0.000353307    1.099    0.090
       162 -10.3802     76.5329    102.5318   1.0439248714e+02   4.5403429705e+01     0.133379    0.1158702 -69.07 9.750184e-05    1.027    0.026
       163 -10.8383     31.2929     92.4537   1.1480433286e+02   5.2690370255e+01    0.3299833    0.1770977 -78.97  0.001776711    1.848    0.459
       164 -11.2240     25.5681     91.7097   1.1625877265e+02   5.3323514892e+01    0.2289516    0.1854678 -59.22 0.0008699889    1.151    0.131
       165  -9.6346    162.9776     91.9792   8.0007684956e+01   3.1033038457e+01     0.244041    0.1884162   8.79  0.000548586    1.677    0.404
       166 -10.6445    104.0023     92.0267   9.4542753955e+01   4.3358748497e+01    0.2457796    0.1885702 -46.98   0.00130035    1.214    0.176
       167 -11.3481     10.9977     90.8495   1.2009600211e+02   5.4555355071e+01    0.3048095    0.2105372  31.41  0.002151547    1.872    0.466
       168 -10.8339      4.4184     86.0571   1.2122250472e+02   5.5974469379e+01    0.3863306    0.1959993 -68.02  0.002404187    1.412    0.292
       169 -11.9824     12.7863     78.0775   1.1766905647e+02   5.7159377757e+01    0.5300244    0.1975362 -47.18  0.002683669    2.467    0.595
       170 -11.0551      3.1070     78.8994   1.2058808347e+02   5.7556626252e+01    0.2652668    0.1985023 -79.59  0.001090254    1.140    0.123
       171 -11.6102      7.2545     73.8287   1.1860813464e+02   5.8390823375e+01    0.3915886    0.2563863  13.22  0.002697842    2.136    0.532
       172 -10.6222    157.8418     90.1674   8.0652537640e+01   3.2581219978e+01    0.2738102    0.2654428 -49.85  0.001472509    1.032    0.031
       173 -10.7444     96.2991     90.3858   9.6202148924e+01   4.5030531462e+01     0.373105     0.236727  -0.47  0.001384326    3.710    0.730
       174 -11.4164     30.6534     66.2141   1.0989538897e+02   5.8370055153e+01    0.5136922    0.2256721 -41.25  0.001869995    2.280    0.561
       175 -12.5063     44.7256     75.3392   1.0753462087e+02   5.5151202890e+01    0.2557841    0.2228667 -82.84  0.000343351    1.231    0.187
       176 -11.2429     37.9982     70.3100   1.0848398477e+02   5.6866641918e+01    0.5814744    0.3974009  73.15  0.003360076    2.087    0.521
       177 -11.4923     48.2049     87.4969   1.0911180383e+02   5.2167777453e+01    0.7237045     0.313368 -66.32   0.00332666    2.178    0.541
       178 -11.1614     41.2032     81.5308   1.0993029341e+02   5.4164843493e+01    0.5435715    0.2914489  66.76  0.002377651    3.407    0.706
       179  -9.2234     21.3042     91.3268   1.1736801628e+02   5.3734824728e+01     0.117841   0.06913361 -48.08 0.0004579073    1.646    0.393
       180 -10.6898     22.8578     86.7848   1.1621074425e+02   5.4596985109e+01    0.2130658     0.144082 -59.69 0.0003841186    1.177    0.150
       181 -10.3614    112.0063     85.6565   9.0700363172e+01   4.3238824815e+01    0.3533487    0.2391534  73.09  0.001556214    2.217    0.549
       182 -10.7319     66.5735     85.5044   1.0337225766e+02   5.0468098462e+01    0.3021507     0.213834 -28.77  0.001038489    1.724    0.420
       183 -10.1859    167.4430     84.1258   7.6803197514e+01   3.1436010403e+01     0.328506    0.2179973  72.84  0.001349628    2.005    0.501
       184  -9.9674     15.1287     84.0083   1.1794576476e+02   5.5744027435e+01    0.1681079    0.1619752   9.03  0.001361763    1.396    0.283
       185 -10.2895    117.9361     82.8812   8.8350786604e+01   4.2667556599e+01    0.2728928    0.2005963 -41.26   0.00106681    1.296    0.229
       186  -9.1188     62.3087     82.6369   1.0394253529e+02   5.1623530501e+01    0.1305901   0.09483793 -89.65 0.0007039424    1.745    0.427
       187 -10.0280     29.5918     81.7221   1.1338734923e+02   5.5156555175e+01    0.1761958     0.166058  30.67  0.001262393    1.360    0.265
       188 -12.2346     21.4803     77.7333   1.1504887545e+02   5.6639989844e+01    0.4092962    0.2594728 -69.42   0.00118256    1.263    0.208
       189 -10.7737     91.9993     77.9790   9.4092039463e+01   4.8364727315e+01    0.3105654    0.2291823  -7.98  0.001553774    1.889    0.471
       190 -10.7679     89.7278     75.3143   9.3997634098e+01   4.9287906884e+01    0.2808523    0.2118639   2.19  0.001433842    1.803    0.445
       191  -9.6189     70.7889     79.3836   1.0064792702e+02   5.1232889421e+01    0.1586645    0.1275835  14.59 0.0004409055    1.557    0.358
       192 -10.3377    150.6412     77.7569   7.8711370320e+01   3.6610138396e+01     0.288452    0.2492464 -55.41  0.001464852    1.216    0.178
       193 -12.0748     57.9288     74.1660   1.0320801074e+02   5.3964951513e+01    0.4475499    0.3134882  65.37 0.0004416457    1.989    0.497
       194 -12.0699     62.4888     71.6210   1.0115516137e+02   5.3951741934e+01    0.3149594    0.2476568 -49.68 0.0005674973    1.073    0.068
       195 -11.0410    138.8214     74.9626   8.0692814062e+01   3.9833961232e+01    0.2627779    0.2375104 -55.19            0    1.145    0.127
       196  -9.8820    122.0886     76.3060   8.5340344852e+01   4.3153606218e+01    0.2060495    0.1892876  48.20 0.0008728206    1.148    0.129
       197 -10.8167    109.0825     74.6925   8.8347614870e+01   4.6027219393e+01    0.2812242    0.2410788 -60.55  0.001284494    1.226    0.184
       198  -9.4729     33.4951     75.5174   1.1100476450e+02   5.6159289232e+01    0.1219716   0.09435099 -56.80 9.325879e-05    1.050    0.048
       199  -9.7060    145.5274     73.4858   7.8624238381e+01   3.8590056382e+01    0.1512786    0.1475083 -24.66 0.0001069812    1.005    0.005
       200 -10.5584    102.7035     73.2552   8.9692740465e+01   4.7491212757e+01     0.248748    0.1763003  46.92  0.001262412    1.547    0.353
       201  -9.6198    150.6463     72.2827   7.7053860776e+01   3.7619869902e+01    0.1549749    0.1220366 -80.67 0.0007017197    1.660    0.398
       202  -9.7487    128.8147     71.7913   8.2227001011e+01   4.2624357646e+01    0.1968843     0.171855 -70.37 0.0002408657    1.309    0.236
       203 -10.0898     83.9857     72.3400   9.4836240371e+01   5.0809702040e+01    0.1728181    0.1696454 -20.34 0.0003066888    1.115    0.103
       204 -11.6759     76.5375     71.0618   9.6705818423e+01   5.2185118889e+01    0.4781013    0.3491062  60.15  0.001949529    1.793    0.442
       205 -10.7593     77.2757     63.8245   9.4379042227e+01   5.3556407673e+01    0.4092749    0.2204888 -45.84  0.000840341    1.617    0.382
       206  -8.9750    168.0289     70.1985   7.2556430264e+01   3.3784515081e+01    0.2024421    0.1217122  53.61 0.0004003069    1.667    0.400
       207  -9.8925    160.9263     69.8014   7.3969687463e+01   3.5600691884e+01     0.227639      0.20145  15.20 0.0003447921    1.213    0.176
       208  -9.9696    144.8642     69.6481   7.7598497017e+01   3.9449222884e+01    0.2932173    0.2054055  -5.05  0.001174866    1.966    0.491
       209 -11.6878     94.4720     68.1460   9.0514881123e+01   4.9959798524e+01    0.4471301    0.2479811 -39.96  0.002063022    1.683    0.406
       210  -9.9504     68.6867     69.9886   9.8805591053e+01   5.3496033332e+01    0.2288507    0.1385836 -49.52 0.0002584414    1.408    0.290
       211 -11.2656     50.8250     68.2096   1.0392520627e+02   5.6025861183e+01     0.381456    0.1803539 -37.25  0.001757341    2.393    0.582
       212 -10.9157     51.2589     63.5920   1.0258426448e+02   5.6940213460e+01    0.6145666    0.2204914 -39.87  0.002406235    3.153    0.683
       213 -10.4663    123.0259     68.4617   8.2690233292e+01   4.4479638737e+01    0.2780959      0.20063 -45.12 0.0006064262    1.352    0.261
       214 -10.0117    120.3113     65.0177   8.2315173303e+01   4.5692215068e+01    0.2074394    0.1813589 -34.06 0.0003722632    1.085    0.078
       215 -12.2446     17.4744     67.2400   1.1430715655e+02   5.9140083889e+01    0.4360258    0.2823414 -12.05  0.001191855    2.177    0.541
       216 -10.5739     19.9128     61.5287   1.1235451278e+02   6.0164804786e+01    0.4601613    0.2224939  55.39  0.002188785    3.698    0.730
       217 -10.4351    103.1678     68.0089   8.7972195847e+01   4.8452287490e+01    0.2066662    0.1591374  13.15  0.001052906    1.607    0.378
       218 -10.1881      6.6516     67.7268   1.1777415091e+02   5.9702063236e+01    0.1667218    0.1295512 -47.64 0.0006456883    1.257    0.205
       219 -11.9319      3.7770     64.5958   1.1812787709e+02   6.0507715641e+01    0.2879375    0.2184244 -88.03 0.0005246866    1.352    0.260
       220  -8.9206    160.3112     66.2609   7.3010816200e+01   3.6369214404e+01    0.1537538    0.1178137  21.91 0.0001904374    1.532    0.347
       221  -9.5200    128.5087     66.5641   8.0668426517e+01   4.3674829912e+01    0.1477791    0.1408878 -12.65 4.349881e-05    1.028    0.027
       222 -10.2441     81.4716     66.5179   9.3896607635e+01   5.2385107600e+01    0.1361746    0.1193787 -39.86 0.0001254597    1.011    0.011
       223  -9.0872    135.4832     65.4774   7.8563031285e+01   4.2343654323e+01    0.1501231    0.1432015  -9.93 -8.916722e-06    1.029    0.028
       224 -10.0776     99.7414     64.4206   8.7832117533e+01   4.9774109960e+01    0.2410927    0.1606538 -24.48 0.0006251567    1.716    0.417
       225  -9.8585     41.8565     64.6171   1.0589968179e+02   5.7699160919e+01    0.1568746    0.1378371 -57.51 0.0005607206    1.107    0.097
       226  -9.5874    216.2703     64.5682   6.1956566793e+01   2.2435774253e+01    0.2906234    0.1536658  66.41  0.001137761    2.132    0.531
       227 -10.9684     84.8928     61.7948   9.1415403808e+01   5.2796790850e+01    0.3772746    0.2563704  41.70  0.002002805    1.653    0.395
       228 -11.9474     87.0721     54.0194   8.8232955389e+01   5.3943002481e+01    0.6848586    0.2317083 -40.66  0.001971977    2.713    0.631
       229 -11.9177     61.7616     60.4654   9.8302787741e+01   5.6346181470e+01    0.6300074    0.3380361  27.87  0.003156824    2.325    0.570
       230  -9.8751    201.2827     61.9902   6.3711617421e+01   2.6664887959e+01    0.2119713    0.1912931 -31.83 0.0003050665    1.097    0.088
       231 -10.5010     45.2971     51.0511   1.0106466289e+02   6.0117774967e+01    0.3022438    0.1857326 -35.23  0.001139235    1.530    0.346
       232 -11.4555     29.7579     60.8390   1.0895202394e+02   5.9564138728e+01    0.5323427    0.2428571  13.05  0.002549646    3.569    0.720
       233 -12.7712     37.6533     51.0372   1.0372652632e+02   6.0872877915e+01    0.7068221    0.4728924 -35.64  0.003596662    1.379    0.275
       234 -10.6428      4.6685     47.0237   1.1440770807e+02   6.4044358393e+01    0.2694405     0.135433 -44.88  0.001683375    1.622    0.383
       235 -10.4359      6.9691     41.3544   1.1226429390e+02   6.5047780051e+01    0.2995534   0.09886493 -55.82 0.0009181612    1.990    0.498
       236 -10.9031      5.6693     57.8242   1.1628436208e+02   6.1803419491e+01    0.3621617    0.2012024 -75.60  0.002234957    1.642    0.391
       237 -11.6995      5.1142     51.6623   1.1524050708e+02   6.3087841755e+01    0.3374683    0.2025957 -47.97 0.0006885274    1.339    0.253
       238 -10.4730     47.7738     58.2672   1.0228370575e+02   5.8408376508e+01    0.2395346    0.1956917 -71.73  0.001551389    1.360    0.265
       239 -10.2077     43.8510     57.1235   1.0328550810e+02   5.9045939764e+01    0.1874753    0.1487854 -46.88 0.0002870872    1.018    0.018
       240 -11.0507    128.9852     56.6333   7.7305031756e+01   4.5364382662e+01    0.3850514    0.2644717   9.43  0.001678342    2.034    0.508
       241  -9.4818     22.7068     57.9559   1.1063374153e+02   6.0703970916e+01     0.146865    0.1164804  66.57  0.001009029    1.662    0.398
       242 -10.2989    123.0812     56.4494   7.8769497708e+01   4.6674468832e+01     0.256039    0.1925926 -50.21 0.0001602387    1.427    0.299
       243 -12.1393    128.3423     50.5560   7.5402057128e+01   4.6547447174e+01    0.6159045    0.3881966  -5.73  0.001462359    2.319    0.569
       244 -11.1457     98.7991     54.9894   8.5029375581e+01   5.1734050660e+01    0.5472353     0.324587  65.53  0.002207687    3.051    0.672
       245 -10.6171     11.1874     62.7618   1.1543982978e+02   6.0473012461e+01    0.1797241    0.1414358 -58.86 0.0003372478    1.071    0.066
       246 -10.5465    117.7615     53.4481   7.9164324430e+01   4.8321747924e+01    0.4053151    0.2578124  50.26  0.001904988    1.677    0.404
       247 -10.8355     12.6179     51.7094   1.1265885058e+02   6.2653909074e+01    0.2768313    0.1621311 -69.76   0.00172807    1.525    0.344
       248  -9.2883    143.6467     52.7180   7.2409148011e+01   4.2679610792e+01    0.1573113    0.1135104  21.40 0.0007016092    1.658    0.397
       249 -10.9644     70.0128     50.3325   9.2445433481e+01   5.7243077021e+01    0.3738818     0.292855 -83.41  0.002072765    1.968    0.492
       250 -11.0399    103.9835     47.7300   8.1005876578e+01   5.2069690998e+01    0.5849743    0.2096286 -40.12  0.002164045    2.603    0.616
       251 -10.4805     82.2457     50.0191   8.8386675328e+01   5.5470654545e+01    0.2283726    0.1717541  52.42 0.0009057728    1.661    0.398
       252 -10.3091    220.9436     48.9393   5.6863002194e+01   2.3528471391e+01     0.215593    0.2073028 -53.10 0.0002871987    1.010    0.010
       253 -11.4463    152.9104     47.8449   6.8678289962e+01   4.1223593389e+01    0.5858021    0.2964723  48.68  0.001564465    1.933    0.483
       254 -10.1800     75.1621     55.9952   9.2618121970e+01   5.5415739395e+01    0.1976948     0.165991 -38.54 0.0003835637    1.033    0.032
       255  -9.6118    114.0023     48.4849   7.8459466380e+01   4.9955109653e+01    0.2131578    0.1424551  49.59  0.001029045    1.597    0.374
       256  -9.1348     78.5078     47.4427   8.8692687534e+01   5.6531497517e+01    0.1339279    0.1154509 -25.79  0.000129471    1.028    0.027
       257  -9.4933     62.3000     47.3284   9.4032724479e+01   5.8856260543e+01    0.1752652    0.1590567 -28.00  0.000483751    1.099    0.090
       258 -10.6608     59.4979     45.4524   9.4367948588e+01   5.9570053250e+01    0.2478708    0.1933071  -9.67   0.00134298    1.388    0.279
       259 -10.9609     11.2815     44.4376   1.1143005220e+02   6.4192619371e+01    0.3828634    0.1576766 -47.48  0.001489802    1.809    0.447
       260 -10.2976    142.6748     45.6833   7.0242798330e+01   4.4039383033e+01    0.3048416    0.2415292 -67.05 0.0008065031    1.594    0.373
       261 -10.6261    121.9314     43.5981   7.4600296188e+01   4.9094437523e+01    0.5024471    0.2989558 -27.95  0.002276246    1.678    0.404
       262  -9.3745     18.4977     46.4215   1.0930707875e+02   6.3337119694e+01    0.1133681   0.08782326 -53.73 7.531414e-05    1.051    0.048
       263  -9.4735    233.4269     45.5091   5.4204105693e+01   2.0843985275e+01    0.1431224    0.1374514 -41.26 7.958133e-05    1.031    0.031
       264 -10.4812     86.1603     44.5441   8.5231125968e+01   5.5824636752e+01    0.3372893    0.1666199 -26.17  0.001375893    2.513    0.602
       265  -9.9815     51.2654     44.9980   9.7095117872e+01   6.0646211725e+01    0.1882685    0.1396017 -31.46 0.0003689902    1.205    0.170
       266 -11.0721     51.8958     40.7696   9.5462494576e+01   6.1370728813e+01    0.2644828    0.2107046 -67.96 0.0004282153    1.623    0.384
       267 -10.5212    184.5542     42.2936   6.0666817090e+01   3.3952222636e+01    0.4014352    0.2229482 -52.80  0.001573009    2.187    0.543
       268  -9.8669    110.5331     41.8480   7.7028975592e+01   5.1768317659e+01    0.2121373    0.1970104 -88.81 0.0005405373    1.347    0.258
       269 -11.6762    101.8205     36.8679   7.7643579705e+01   5.4294550624e+01    0.6156802     0.348128  23.73  0.002616096    2.434    0.589
       270 -11.1825     97.4899     41.0252   8.0476387262e+01   5.4434899527e+01    0.3697784    0.2734204  35.04 0.0007028977    1.416    0.294
       271 -11.5704     96.9202     36.9093   7.9101371220e+01   5.5216898088e+01    0.2713982     0.259022  -7.17  0.000375758    1.123    0.110
       272 -11.3347     98.0196     31.7991   7.6802174061e+01   5.5813876468e+01    0.3259121     0.243642  15.10 0.0003646978    1.428    0.300
       273 -10.3897    101.0276     28.4898   7.4618063719e+01   5.5729571624e+01     0.243731    0.2099339 -80.59 0.0003265174    1.671    0.401
       274 -12.2387     81.4915     37.8870   8.4270860612e+01   5.7749199344e+01    0.6173965    0.4130202 -52.42  0.001763944    1.771    0.435
       275 -10.4845     78.4300     31.7499   8.2909559803e+01   5.9265034146e+01    0.3650546    0.1854089 -18.60  0.001481149    2.845    0.649
       276 -10.7366     65.9822     41.8095   9.0880312150e+01   5.9389509983e+01    0.2660693    0.1805653  -3.91  0.001423604    1.880    0.468
       277 -10.4680     34.2160     34.3931   9.9877911127e+01   6.4403389684e+01    0.4500875    0.1275388  40.93  0.001665936    5.731    0.826
       278 -12.7259     25.2210     35.8157   1.0380427626e+02   6.4908121538e+01    0.4734289    0.3897692 -72.45  0.003040508    1.487    0.327
       279 -11.9178     20.5410     37.5326   1.0611973100e+02   6.4934593477e+01    0.3674547    0.2261822 -68.56  0.001891582    1.797    0.444
       280  -9.4533    220.4399     41.5199   5.4850462858e+01   2.4676269920e+01    0.1448487    0.1413368 -55.02 8.041618e-05    1.018    0.018
       281 -10.4276     42.6502     38.8605   9.8189287187e+01   6.2744166523e+01    0.5442557    0.3327294 -53.29  0.002043827    1.492    0.330
       282  -9.8219    226.0695     40.0296   5.3673914515e+01   2.3434523267e+01    0.2356452    0.1622502 -60.90 0.0007254216    1.594    0.373
       283  -9.0920    215.5415     40.5424   5.5258871335e+01   2.6072240683e+01    0.1458176    0.1422448 -67.78 0.0001251074    1.005    0.005
       284 -11.0429     89.3685     39.1597   8.2251832866e+01   5.6206484142e+01    0.3287314    0.1991458 -41.13  0.001132934    1.561    0.360
       285  -9.3471    249.7052     38.3638   5.0341510080e+01   1.7796785417e+01    0.1533938   0.09441211 -56.45 0.0007030579    1.712    0.416
       286  -9.5855     61.8368     37.8376   9.0893452819e+01   6.0666117345e+01    0.1595073    0.1334967 -47.02 0.0002746591    1.251    0.201
       287 -10.8771     18.6627     31.6517   1.0508343744e+02   6.6186874765e+01    0.2783781    0.2593047  31.57  0.002108181    1.456    0.313
       288 -10.6183      3.2120     36.8289   1.1256659073e+02   6.6129622742e+01    0.3545614    0.1400575 -55.03   0.00130305    1.695    0.410
       289 -12.2609    232.3528    246.9366   9.7835325598e+01  -6.5716374542e+00    0.4548874    0.2360247 -24.11  0.002808313    2.451    0.592
       290 -10.4083    166.2341     36.4421   6.2124594698e+01   3.9536623259e+01     0.213167    0.1471454  75.89 0.0009516511    1.687    0.407
       291  -8.9053    127.3384     36.2889   7.0568244172e+01   4.9028330922e+01    0.1514908    0.1063114  20.32    0.0003004    1.639    0.390
       292 -10.1136    130.1314     33.1652   6.8735304353e+01   4.8846783334e+01    0.3430035    0.1889352 -43.15  0.001471444    1.984    0.496
       293  -9.8623    206.0620     33.7190   5.4633449456e+01   2.9447243033e+01    0.2044746    0.1836389  67.37 0.0002852434    1.097    0.089
       294  -9.9837    150.5178     34.5107   6.4622506734e+01   4.3779419288e+01    0.1474033    0.1419327  20.46 0.0008103079    1.010    0.010
       295  -9.8935     60.2388     33.5992   8.9891667474e+01   6.1625100887e+01    0.1503856    0.1142965  12.28 0.0002392084    1.440    0.306
       296 -11.2581    178.1084     31.5710   5.8370136350e+01   3.7098047259e+01    0.4075659    0.2635809 -66.19  0.001729107    2.047    0.512
       297  -9.9675    145.0673     32.0353   6.4912483692e+01   4.5461449311e+01     0.216795    0.2065897  13.05    0.0003695    1.012    0.012
       298 -10.1866     56.1864     31.0881   9.0405772864e+01   6.2585800225e+01    0.2715285    0.1376561 -34.05  0.001381299    1.757    0.431
       299 -10.3528     49.6765     31.3147   9.2902841006e+01   6.3341695697e+01     0.207924    0.1844094 -60.72  0.000897171    1.454    0.312
       300 -10.9551     50.7026     28.0143   9.1261368434e+01   6.3792025848e+01    0.2051181    0.1703158 -14.08 0.0002192833    1.119    0.107
       301 -10.4507     42.4758     31.7736   9.5797076745e+01   6.4062822964e+01    0.1786006    0.1536174  -6.64 0.0004279856    1.216    0.178
       302 -10.0396    140.0643     29.0178   6.4918570290e+01   4.7081650614e+01     0.389962    0.1935108 -11.57   0.00141392    2.847    0.649
       303  -9.9906    153.6680     28.9492   6.2027088294e+01   4.3740371243e+01    0.2107035    0.1857934 -23.63 0.0004545246    1.150    0.130
       304 -11.4016    214.0968     26.8433   5.1532641695e+01   2.8207352667e+01     0.455583    0.2756028 -66.60  0.001107202    2.027    0.507
       305 -10.3121    181.2021    248.2176   1.0609924968e+02   1.4054468023e+00    0.1985997   0.08731249 -35.06  0.001035625    3.538    0.717
       306 -10.6739    129.4545     19.4586   6.3721400168e+01   5.0813070286e+01     0.277387    0.2217433  64.85 0.0007311063    1.376    0.273
       307  -9.4736    120.2019     27.9983   6.9238838140e+01   5.1805822444e+01    0.1848785    0.1671101  -5.84  0.001059228    1.043    0.041
       308 -11.0467     70.2822     26.1431   8.3414347062e+01   6.1437592194e+01    0.3920545    0.2509255  36.42  0.001731034    1.700    0.412
       309  -9.4219     21.4535     28.5036   1.0295367098e+02   6.6566588176e+01    0.2357234   0.09505859 -59.13  0.001135838    2.494    0.599
       310  -9.8002    156.6420    245.7341   1.0974177679e+02   5.6499662441e+00    0.1081264   0.07355511  31.50 0.0003070347    1.635    0.388
       311  -9.8265    247.9659     27.4576   4.7738456671e+01   1.9581239246e+01    0.1966931    0.1341029  74.10  0.000374594    1.512    0.339
       312  -9.7925     24.8431     26.8883   1.0103014349e+02   6.6594417508e+01    0.1721492    0.1197474 -35.50 0.0004754485    1.140    0.122
       313  -9.8517    145.9288     26.0923   6.2596734188e+01   4.6035189558e+01    0.2053319     0.191958 -64.04            0    1.205    0.170
       314 -10.5699     87.8173     24.9975   7.7168414180e+01   5.8714517263e+01    0.3825338    0.2744913  75.39  0.001867595    2.599    0.615
       315 -10.1393    147.7562    245.2600   1.1111483512e+02   7.1223444531e+00    0.1397192   0.09051839 -37.56 0.0008901976    2.414    0.586
       316 -12.0923     74.3027    238.3082   1.2207550831e+02   1.8883613342e+01    0.3945739     0.272278  86.48   0.00270206    1.300    0.231
       317 -11.1740     10.4963     34.7194   1.0920246973e+02   6.6137429442e+01    0.3292964     0.201742   4.10  0.001968181    2.108    0.526
       318 -11.3099     35.6843    239.6712   1.2790191525e+02   2.3325298126e+01    0.2825128    0.1837255 -49.84  0.001929697    3.232    0.691
       319 -10.8201     10.1955     25.1830   1.0650989941e+02   6.7950582359e+01    0.2223856    0.1618081 -30.54 0.0007407836    1.240    0.193
       320  -9.9768      8.0061     20.9979   1.0609228118e+02   6.8847381420e+01    0.1945469    0.1176587 -50.96 0.0005540582    1.232    0.188
       321 -10.0033    109.5449    242.8469   1.1695818976e+02   1.3297738803e+01    0.2216866    0.1015694  57.48 0.0008317999    1.821    0.451
       322  -9.6186    237.4702     25.4717   4.8352255423e+01   2.2400746853e+01    0.1397637    0.1304229 -63.78   8.0547e-05    1.005    0.005
       323 -10.3190    197.1637     25.1732   5.3358763761e+01   3.2864970182e+01    0.2180776    0.1943001  31.00 0.0005454258    1.195    0.163
       324 -10.2411    173.7136     24.2352   5.6723743472e+01   3.9171619670e+01    0.2441942    0.1980143  57.91 0.0002826397    1.180    0.153
       325  -9.3779    158.8145     24.1907   5.9366793996e+01   4.3036982760e+01    0.2050936    0.1606158  31.56 0.0004177306    1.307    0.235
       326  -9.7266     93.6286     23.8321   7.4909853793e+01   5.7819156039e+01    0.1900522    0.1138754 -37.89 0.0009443487    1.660    0.398
       327  -9.9594     54.1969     23.7968   8.8265601299e+01   6.4063100293e+01    0.1714992    0.1215096 -17.49 0.0007500312    1.313    0.238
       328 -10.1768    134.9806     22.6775   6.3700458945e+01   4.9116449212e+01    0.2712695    0.1919934  13.86  0.001034643    1.586    0.370
       329 -10.7267     81.1766     27.8818   8.0464491603e+01   5.9427729941e+01    0.5229001    0.2634318 -54.82  0.001930526    3.974    0.748
       330  -9.3482     35.9708     22.7651   9.4986069698e+01   6.6312633420e+01    0.2170916    0.1235319  -1.19  0.001149034    2.491    0.599
       331  -9.7978    120.3256     21.6553   6.6741762468e+01   5.2620601175e+01    0.2626484    0.1569826   1.70  0.001131667    2.183    0.542
       332 -10.1950     65.5615     21.1169   8.2978618540e+01   6.2923200098e+01    0.2535511     0.175464  39.23 0.0009964588    1.642    0.391
       333 -10.3980     46.0215     20.8862   9.0217621325e+01   6.5538127780e+01    0.1963122    0.1701643  20.06  0.000519932    1.357    0.263
       334 -10.4328    162.2364     19.6194   5.7159930127e+01   4.2703704810e+01    0.2525477    0.1724361  10.84 0.0008114153    1.772    0.436
       335 -10.3692    226.6445     18.9656   4.7810850072e+01   2.5901564822e+01    0.2600859    0.1934612  83.04 0.0005303851    1.352    0.260
       336 -10.3872     88.8742    241.2132   1.2005054475e+02   1.6479134491e+01    0.1621621    0.1349531 -43.76  0.001228811    2.121    0.529
       337 -10.0493    108.2741     17.5383   6.8169979539e+01   5.5746774677e+01    0.2281875     0.134254  56.38 0.0008465421    1.851    0.460
       338 -10.8543    156.5053    241.0759   1.0923427993e+02   6.2797865725e+00    0.1389175     0.113309 -57.96  0.001031171    1.585    0.369
       339  -9.4970     46.9933    241.4774   1.2636859714e+02   2.1759139076e+01    0.1369265    0.0745611  50.56 0.0001806284    1.489    0.329
       340  -9.3218     50.3231    240.3068   1.2581287978e+02   2.1552660713e+01   0.08063265   0.07389237  78.34 0.0006421593    1.644    0.392
       341 -10.4456    195.8177    238.3158   1.0247246932e+02   1.8294117288e-01    0.2470848    0.1565926  35.62  0.001595427    1.307    0.235
       342 -10.1065    217.5730     16.4928   4.8164861554e+01   2.8518630727e+01    0.2623422    0.1095953  56.49  0.001028767    2.259    0.557
       343 -10.4449    168.5072     13.4669   5.3996154701e+01   4.1762749518e+01    0.3694061    0.1147067  48.21  0.001155125    3.051    0.672
       344  -9.7959     49.8695     15.1483   8.6262434801e+01   6.5977298175e+01    0.1748703    0.1526018 -30.01  0.001055542    1.269    0.212
       345 -10.5209     31.5362    237.3239   1.2837443094e+02   2.4150872897e+01    0.2056156    0.1171742  76.28 0.0009253445    1.287    0.223
       346  -9.5675    140.0563     13.7366   5.9262975088e+01   4.8943259144e+01    0.1940589     0.172563  47.41 0.0004020439    1.079    0.073
       347 -10.4760     29.1854    232.9217   1.2848631813e+02   2.5109996910e+01    0.2252313    0.1071357  62.94  0.001212992    1.527    0.345
       348 -10.4765     26.4219     13.9636   9.5469513776e+01   6.8698603676e+01    0.1812051    0.1237515 -18.85 0.0003225091    1.338    0.252
       349  -9.8248     15.1793     14.1968   1.0052388775e+02   6.9573230258e+01    0.1403047    0.1092891 -51.50 0.0004190122    1.340    0.254
       350  -9.5385    243.5125    237.4882   9.4709583081e+01  -7.3926280033e+00     0.112597   0.08398408  28.54 0.0001330915    1.035    0.034
       351 -10.2543    159.8996    235.8997   1.0806810344e+02   6.4166634739e+00     0.174639    0.1339257  36.26 0.0007071404    1.288    0.224
       352 -11.8189    224.6499    247.4616   9.9112679642e+01  -5.4289830295e+00    0.3713198    0.1817658 -25.81  0.002186508    2.720    0.632
       353 -10.4079     55.0547     13.0818   8.3336262355e+01   6.5606486166e+01    0.1856764    0.1476024 -13.33 0.0003633804    1.026    0.026
       354 -10.0609     30.6595     12.9505   9.3210890071e+01   6.8467007810e+01    0.1654148    0.1116563 -35.42 0.0004787851    1.153    0.132
       355 -10.1405    177.6802    234.9458   1.0500718615e+02   3.5997460742e+00    0.2050437    0.1361212  31.62  0.001025529    1.498    0.332
       356 -11.3626    153.4208    234.1073   1.0892735651e+02   7.7221017582e+00    0.2193319    0.1953734 -21.52 0.0009422458    1.595    0.373
       357  -9.4941    167.0000    233.9551   1.0665254868e+02   5.5041147621e+00     0.154628   0.06761078 -47.21 0.0008041533    2.954    0.662
       358 -10.0245     85.9762    232.9495   1.1983257170e+02   1.8163441972e+01    0.1787671   0.09676482  68.35 0.0006523994    1.667    0.400
       359  -9.8893     24.0273    232.4467   1.2920739218e+02   2.5730540083e+01    0.1463787   0.09368365  82.87 0.0005666921    1.174    0.148
       360  -9.7898    142.3237    232.2839   1.1056069506e+02   9.7831534206e+00    0.1063605   0.08118245  29.93 0.0002045536    1.597    0.374
       361  -9.0965     38.4921    232.5379   1.2710242687e+02   2.4154919340e+01    0.1004042   0.06877269  71.58  0.000809275    1.026    0.025
       362  -9.9482     79.9368    231.4911   1.2067246582e+02   1.9217879374e+01    0.1586463   0.08181649  49.93 0.0004983295    1.537    0.349
       363  -9.2637     58.2975    230.2982   1.2396970417e+02   2.2196970218e+01   0.08348349   0.07674595  82.38 0.0002627258    1.573    0.364
       364 -10.9977      5.3250    227.0174   1.3162553895e+02   2.8461767267e+01    0.3944648    0.1215739  71.98  0.002142308    3.016    0.668
       365  -9.5131    249.3165    227.2933   9.2214608628e+01  -7.3074044558e+00    0.1176436   0.06905902  20.31 0.0003673952    1.601    0.375
       366  -9.9776    190.4794    226.2577   1.0169471756e+02   2.5432678605e+00    0.1734239    0.1179478 -31.66  0.000449254    1.893    0.472
       367 -10.0081    129.7802    226.8490   1.1205042843e+02   1.2599492597e+01     0.243998    0.1178724  61.77  0.001248534    2.234    0.552
       368 -10.0917     87.7990    227.2005   1.1905183913e+02   1.8834099975e+01    0.1361301    0.1191885  62.47   0.00107389    1.342    0.255
       369 -10.3709     66.7396    226.6721   1.2238989923e+02   2.1735314901e+01    0.2629892      0.13099  58.22  0.001119934    1.560    0.359
       370 -10.8994    120.0592    226.4926   1.1364704108e+02   1.4183567696e+01    0.1716359   0.09063068  48.04  0.000448511    1.513    0.339
       371  -9.8732    181.0000    224.9358   1.0311247029e+02   4.3354911755e+00    0.1600514   0.06949444 -43.58 0.0007981648    2.913    0.657
       372  -9.6079    156.2288    224.5556   1.0728398979e+02   8.6013573042e+00     0.162513   0.09410687  38.92  0.000403399    1.583    0.368
       373 -10.7139    123.5799    221.3651   1.1249329154e+02   1.4434829793e+01     0.472236    0.1769685  51.20  0.002286894    2.214    0.548
       374  -9.7966     13.3814    221.7458   1.3023632866e+02   2.8562838525e+01     0.121111   0.06937215 -79.01 0.0006042047    1.561    0.359
       375 -10.0190    141.8436    220.8666   1.0929544135e+02   1.1549652677e+01    0.1798673    0.1412333  42.99 0.0007244784    1.225    0.184
       376  -8.9995     73.2930    221.2738   1.2091392707e+02   2.1784898518e+01   0.08740027   0.08142968  65.01 0.0002069492    1.520    0.342
