#   1 NUMBER                 Running object number                                     
#   2 MAG_AUTO               Kron-like elliptical aperture magnitude                    [mag]
#   3 X_IMAGE                Object position along x                                    [pixel]
#   4 Y_IMAGE                Object position along y                                    [pixel]
#   5 X_WORLD                Barycenter position along world x axis                     [deg]
#   6 Y_WORLD                Barycenter position along world y axis                     [deg]
#   7 A_WORLD                Profile RMS along major axis (world units)                 [deg]
#   8 B_WORLD                Profile RMS along minor axis (world units)                 [deg]
#   9 THETA_WORLD            Position angle (CCW/world-x)                               [deg]
#  10 FWHM_WORLD             FWHM assuming a gaussian core                              [deg]
#  11 ELONGATION             A_IMAGE/B_IMAGE                                           
#  12 ELLIPTICITY            1 - B_IMAGE/A_IMAGE                                       
         1 -10.4332    158.8180     19.1554   7.0284444225e+01   4.3327492204e+01    0.5456875     0.422197  80.43  0.001791101    1.245    0.197
         2 -10.3013    173.7585     19.4494   6.8078722512e+01   3.9647924192e+01    0.6089681    0.3109074  79.05  0.001922559    2.093    0.522
         3  -9.0175    231.3005     16.8071   6.0702363504e+01   2.6149040052e+01      0.29863    0.2167788 -35.74  0.001466987    1.560    0.359
         4  -9.4982    178.8922      9.7089   6.4786557092e+01   3.9415238182e+01    0.5375867    0.2971613  86.24  0.002589964    1.896    0.473
         5  -8.2195     12.5101     11.5220   1.1107099207e+02   7.0342716743e+01    0.1073931   0.07734267 -16.09 0.0001062013    1.005    0.005
         6  -9.4933     44.6297    237.6033   1.4369256464e+02   2.0223963141e+01    0.3808484     0.252895  67.21  0.001621893    1.165    0.142
         7  -9.8559     69.3901    249.3865   1.4031006812e+02   1.4614363009e+01    0.3996879     0.230586  49.62  0.001635467    1.446    0.309
         8 -10.1387     17.8090    249.4856   1.4895074580e+02   2.1139203366e+01    0.4111288    0.2202006 -84.49  0.001847845    1.545    0.353
         9  -8.7552     68.9561    244.9306   1.3999425642e+02   1.5520055273e+01    0.2194818    0.1647757  70.50 0.0006853804    1.015    0.015
        10 -12.5183     69.8207    236.3574   1.3904911336e+02   1.7063435942e+01     1.403046    0.9626099  53.08  0.008854024    1.266    0.210
        11  -7.2923    171.0216    241.7456   1.2022412652e+02  -6.7835208667e-01    0.1717529   0.09590019  42.21 0.0005600198    1.514    0.339
        12  -7.0730    135.7236    241.3555   1.2703584218e+02   5.5463194370e+00    0.1304572   0.09035259  72.81 0.0007007484    1.651    0.394
        13 -10.3407     33.4830    241.0163   1.4586009869e+02   2.0934911462e+01    0.5749231    0.3889802  25.59  0.003531972    2.544    0.607
        14  -8.4288    155.0405    240.0875   1.2309234864e+02   2.3998599126e+00    0.1965483    0.1646284  52.64 0.0003942545    1.067    0.062
        15  -8.4355    124.5785    239.3063   1.2893903592e+02   7.8293758802e+00    0.2981435    0.1703518 -45.00  0.001500913    2.328    0.571
        16  -9.1168    183.3676    238.1700   1.1728417920e+02  -2.2551922478e+00    0.2350584    0.1902443  40.87 0.0003477027    1.081    0.075
        17  -8.5492    107.9239    237.1212   1.3190546640e+02   1.1029707773e+01    0.1923762    0.1538282  61.68 0.0003676893    1.023    0.022
        18  -8.3758     98.3499    236.0430   1.3362903892e+02   1.2790809915e+01    0.2079567    0.1449134  61.47 0.0004903907    1.212    0.175
        19 -11.2851     27.1126    248.2648   1.4739084413e+02   2.0306364517e+01     1.071634    0.4668606  63.47  0.006181797    1.879    0.468
        20  -7.9782    132.0597    234.5186   1.2684198079e+02   7.4260917670e+00    0.1956536    0.1125829  45.44 0.0004015499    1.485    0.327
        21  -7.6923    127.2952    234.0339   1.2772076858e+02   8.3436264415e+00    0.1764809    0.1507049  67.78 0.0003795333    1.074    0.069
        22  -7.6943    149.8070    236.6275   1.2362495967e+02   3.9246474262e+00    0.1900302    0.1047236  50.31  0.000391444    1.623    0.384
        23  -9.1497     86.3906    232.0628   1.3548901921e+02   1.5452993209e+01    0.2344382    0.1536701  57.07 0.0006617938    1.279    0.218
        24  -8.0225    123.9334    231.1208   1.2800220781e+02   9.4767711221e+00    0.1970811    0.1510103  68.01 0.0002897145    1.233    0.189
        25 -11.3729     51.1546    248.9232   1.4343669592e+02   1.7197246012e+01     1.334749    0.3467264  39.72   0.00557167    3.631    0.725
        26  -8.2327     11.1081    230.9247   1.4895082686e+02   2.5417619416e+01    0.1633356    0.1167797  79.90 0.0004812133    1.048    0.046
        27  -8.8609      5.4100    229.5890   1.4981153006e+02   2.6262444152e+01    0.1945722    0.1306063  75.36 0.0005692427    1.059    0.056
        28 -11.6692     38.4888    247.2160   1.4545018568e+02   1.9136526875e+01    0.9729037    0.5986969  58.74   0.00655427    1.277    0.217
        29  -8.2953     47.3791    226.3235   1.4228048981e+02   2.2137678260e+01    0.2228616    0.1911144  -1.61   0.00144048    2.220    0.549
        30  -7.6900     13.0213    226.9690   1.4838914898e+02   2.6000866674e+01    0.1347866   0.09449908  78.84 0.0004167252    1.005    0.005
        31  -7.9593    146.0568    226.2146   1.2285376076e+02   6.4880796297e+00    0.1919544    0.1530627  50.15 0.0003070482    1.091    0.083
        32  -7.4748    118.2619    226.3430   1.2850501356e+02   1.1382417380e+01    0.1177608    0.1059654 -14.86 0.0003088199    1.596    0.373
        33  -9.0737      8.4953    239.9358   1.4989166967e+02   2.3944767207e+01    0.1985445    0.1347899  75.77 0.0005580505    1.017    0.017
        34  -9.5655     57.5469    222.7997   1.4006523535e+02   2.1525983740e+01    0.2355233    0.2014377 -31.22  0.001504689    2.005    0.501
        35  -7.4481     33.2636    222.9679   1.4457572111e+02   2.4562031754e+01    0.1433952   0.08295058 -81.62 0.0004747422    1.460    0.315
        36  -7.1223    187.3202    221.6470   1.1380046435e+02  -2.2776115300e-01    0.1329064    0.1049321  76.17 0.0007047197    1.749    0.428
        37  -8.3522    149.7548    220.6181   1.2124543968e+02   6.8682409920e+00    0.2287371    0.2046112   5.01 0.0004943384    1.374    0.272
        38  -9.5874     79.8165    232.9769   1.3684206451e+02   1.6269480724e+01    0.2613855    0.1717841  42.66 0.0004166804    1.517    0.341
        39  -8.8469     90.3036    218.9803   1.3322478571e+02   1.7514111394e+01    0.2490676    0.1133478 -71.08  0.001092593    2.460    0.593
        40  -8.3030     40.0535    222.4951   1.4330345901e+02   2.3843575509e+01    0.2106144    0.1298616  82.07 0.0005925568    1.359    0.264
        41  -7.8144    125.8573    220.1352   1.2609940251e+02   1.1287182349e+01     0.170204    0.1549878  32.28            0    1.282    0.220
        42  -7.4701    110.7895    218.6292   1.2899703506e+02   1.4214892004e+01    0.1847798    0.1088542  52.17 0.0002843476    1.510    0.338
        43  -8.4127     57.3920    216.1730   1.3945581760e+02   2.2938656429e+01    0.2330082    0.1407343  67.96 0.0006717722    1.484    0.326
        44  -8.8036     68.3172    216.1428   1.3730730085e+02   2.1427893690e+01    0.1978165    0.1575214  47.70  0.000496093    1.340    0.254
        45  -8.3779    146.4565    214.4967   1.2096580512e+02   8.6589865888e+00    0.2414393    0.2128408  54.66 0.0007110674    1.009    0.009
        46  -8.2714     18.9587    215.0033   1.4655427147e+02   2.7808779870e+01    0.1766222    0.1233767  76.20 0.0004308887    1.083    0.077
        47  -9.3948     71.3256    212.1243   1.3626715106e+02   2.1854176657e+01    0.2205913    0.2098636 -22.67 0.0007711916    1.589    0.371
        48 -10.4808     81.6162    213.9111   1.3438416665e+02   1.9937087783e+01    0.3437514    0.2810544  27.34   0.00116854    1.669    0.401
        49 -10.5323     80.4128    206.3180   1.3371916315e+02   2.1763193263e+01    0.7268007    0.3766856 -82.91  0.003267613    2.302    0.566
        50  -9.6045     74.9540    209.1946   1.3519406688e+02   2.1955731714e+01    0.3038011    0.1485652  49.47  0.001476696    1.849    0.459
        51  -7.2549     44.7017    214.3228   1.4172776237e+02   2.4980066234e+01    0.1293708   0.07294776  72.24 0.0002436218    1.625    0.384
        52  -6.9519    114.3195    212.3291   1.2739225793e+02   1.4911966943e+01    0.1269653    0.1110254  -8.40 0.0007047744    1.687    0.407
        53  -8.0703    127.0187    210.5144   1.2444204611e+02   1.3033641826e+01    0.1977341    0.1757687  78.04 0.0005027294    1.072    0.067
        54  -8.0249     11.5745    209.4499   1.4748952700e+02   2.9723275280e+01    0.2078019    0.1170855  80.70 0.0006726959    1.426    0.299
        55  -9.9777     76.9878    213.0967   1.3523043046e+02   2.0810864116e+01    0.2988854    0.2131007 -79.34 0.0008365025    1.308    0.235
        56  -7.5466    133.0307    213.5019   1.2362636610e+02   1.1330627975e+01    0.1993067    0.1244156  45.24   0.00040583    1.443    0.307
        57  -7.2634     41.4354    205.5346   1.4155286710e+02   2.7269802044e+01    0.1249412    0.0948245  81.99  0.000224336    1.024    0.023
        58  -8.6191     12.4437    204.4849   1.4698074582e+02   3.0679432429e+01    0.2119488    0.1670946 -80.05 0.0007879368    1.263    0.208
        59  -7.4629      4.0058    203.2407   1.4843119068e+02   3.1747800093e+01    0.1495432    0.1129993  77.68  0.000517169    1.111    0.100
        60  -7.7773    123.7537    202.3953   1.2389200356e+02   1.5332791514e+01    0.1854892    0.1293209  36.04 0.0003601131    1.526    0.345
        61  -8.0367     76.6117    198.7148   1.3357656448e+02   2.4021149548e+01    0.2057036    0.1602396  33.81 0.0004937502    1.570    0.363
        62  -7.5070      8.4783    198.4789   1.4728065068e+02   3.2336311285e+01    0.1180152   0.08287048  82.72 -8.255161e-07    1.059    0.056
        63  -7.1541    182.7130    197.2984   1.1036546213e+02   5.0446738169e+00    0.1369411    0.1122467  80.25 0.0002769011    1.553    0.356
        64  -7.4956    164.1979    197.3516   1.1427891302e+02   8.6682595886e+00    0.2060982    0.1249322  51.18 0.0005046785    1.621    0.383
        65  -8.0567    126.9305    197.3229   1.2238561607e+02   1.5839140903e+01    0.1961643    0.1620696  51.41 0.0003185513    1.129    0.114
        66  -7.4418    204.3412    195.6799   1.0565529458e+02   1.1668410790e+00    0.1375931    0.1128877  82.79 0.0004715371    1.718    0.418
        67  -7.1472    111.4644    195.5028   1.2551336089e+02   1.9039883546e+01    0.1423849    0.1264447  74.48 0.0001106561    1.007    0.007
        68  -7.7097    141.8137    204.1650   1.2027288096e+02   1.1605709644e+01    0.1783597      0.16452  15.72 0.0002478191    1.281    0.220
        69  -7.0029     52.2691    192.6360   1.3803057487e+02   2.8776692771e+01    0.1357345   0.08133125  77.58 0.0006995414    1.654    0.395
        70  -7.5431    106.1963    188.7968   1.2564362725e+02   2.1468247412e+01    0.1705739    0.1652597  23.83 0.0002584847    1.287    0.223
        71  -7.5142    176.4704    187.4107   1.0978168363e+02   8.2166544283e+00     0.145425    0.1365342  44.53 6.859318e-05    1.018    0.017
        72  -6.9176    160.2976    184.6972   1.1275601740e+02   1.2042778979e+01    0.1479653    0.1148882  80.42 0.0003138495    1.582    0.368
        73  -7.6240     10.3193    183.2807   1.4575505877e+02   3.5455430832e+01    0.1062516   0.07787412 -57.03 0.0002464659    1.582    0.368
        74  -7.2296     71.3260    182.2868   1.3258450796e+02   2.8552635105e+01    0.1236413    0.1050002 -36.22 0.0003059944    1.608    0.378
        75  -7.1377    136.8391    180.8439   1.1728928218e+02   1.7564646825e+01    0.1984588    0.1616193  75.43            0    1.293    0.227
        76 -10.3266    100.9877    175.9891   1.2476592047e+02   2.5322910051e+01    0.2062351    0.1836308  84.26  0.001163235    1.011    0.010
        77  -6.9331     97.6867    169.7057   1.2448767207e+02   2.7365980350e+01    0.1356049    0.1153532 -23.93  0.000235005    1.597    0.374
        78  -7.6313     58.1146    168.5123   1.3373805860e+02   3.3605263266e+01    0.1753085    0.1286772  43.01 0.0004528128    1.475    0.322
        79  -7.2554     93.4788    166.4814   1.2495058901e+02   2.8838778788e+01     0.144458    0.1305335 -87.42 4.923765e-05    1.020    0.020
        80  -7.7967    181.3563    165.2981   1.0420224491e+02   1.1723436663e+01    0.1555131    0.1205935   7.59 0.0007035309    1.702    0.412
        81  -7.1299    122.3016    162.3043   1.1716771822e+02   2.4635831665e+01    0.1446056    0.1221584 -14.08 0.0004064183    1.593    0.372
        82  -7.2849     43.3210    160.3179   1.3612609572e+02   3.7347585229e+01    0.1267018   0.09053797 -44.96 0.0003829505    1.664    0.399
        83  -7.5340     73.5128    158.4369   1.2850228608e+02   3.3883534207e+01    0.1399947    0.1224953 -84.96 7.772946e-05    1.011    0.011
        84  -7.3689     50.8035    157.6381   1.3396255561e+02   3.7102541478e+01    0.1696057    0.1124227  51.68 0.0002550565    1.576    0.366
        85  -8.2535    114.6997    152.9255   1.1716229174e+02   2.8296047744e+01    0.2884783    0.2048207  54.90 0.0006530625    1.443    0.307
        86  -7.2802     87.3627    153.7469   1.2421851442e+02   3.2888957386e+01    0.1474049    0.1031535  70.65  0.000613192    1.620    0.383
        87  -7.8685     13.3486    152.7028   1.4223476373e+02   4.2056596658e+01     0.123725   0.07513134  72.13 0.0007034755    1.681    0.405
        88  -7.3336     50.5155    151.5474   1.3314933340e+02   3.8585445062e+01    0.1342672    0.1117254 -83.75 0.0001480825    1.046    0.044
        89  -7.8956    181.0171    145.9974   9.9980639495e+01   1.5850405904e+01    0.1854192     0.180364 -57.93 0.0003503962    1.020    0.020
        90  -7.1992     30.5467    145.4929   1.3726022383e+02   4.2178284899e+01    0.1276324     0.102254 -73.10 0.0001135492    1.040    0.039
        91  -7.0875     81.6897    143.3487   1.2375000665e+02   3.6287105285e+01    0.1503092    0.1055586  81.67 0.0007045068    1.713    0.416
        92  -8.1391    132.4263    139.8159   1.0988833192e+02   2.7854924399e+01    0.4494972    0.3089354 -10.53  0.001708387    2.684    0.627
        93  -9.0361    226.8316    140.0550   8.9549878090e+01   7.0482325482e+00    0.2953173    0.2130612  50.44  0.001467006    1.482    0.325
        94  -7.4690     42.4553    140.4483   1.3352459663e+02   4.2140823476e+01    0.1314977    0.1087336 -79.33 0.0001002808    1.050    0.048
        95  -7.3121     75.6836    139.2763   1.2456540819e+02   3.8173717128e+01    0.1409614    0.1034907  76.75 0.0002087782    1.568    0.362
        96  -7.9153    113.0557    138.2426   1.1446992343e+02   3.2085485503e+01    0.2019285    0.1931735  64.74 0.0003552105    1.071    0.066
        97  -7.5516     61.6716    129.3223   1.2647707643e+02   4.2495820611e+01    0.1403613    0.1000529  78.90 0.0007048863    1.692    0.409
        98  -7.3873     38.4408    125.4528   1.3219775354e+02   4.6086625593e+01    0.1296148    0.1075358 -72.69 5.745375e-05    1.052    0.050
        99  -7.5553    173.7613    123.9338   9.6289473965e+01   2.2183282535e+01    0.2032604    0.1320078 -41.96 0.0003369411    1.538    0.350
       100  -8.6855    245.3078    121.5593   8.2295067155e+01   6.6312798199e+00    0.2409845    0.2153666 -33.01  0.000363311    1.102    0.092
       101  -8.2245    134.5867    106.7170   1.0113560715e+02   3.4825428924e+01    0.2185639    0.1455401 -55.40 0.0009406951    1.594    0.373
       102  -8.1854     98.8531     94.2052   1.0748303597e+02   4.4721828906e+01    0.2151005    0.1974817  84.32 0.0006751638    1.245    0.197
       103  -7.6666    245.1999     88.3907   7.4901245880e+01   1.2468547889e+01    0.1926789    0.1296222  78.67 0.0009493884    1.722    0.419
       104  -8.9671    142.6976     84.0128   9.2794288425e+01   3.7595528530e+01     0.220673     0.201646 -45.06  0.001161286    1.106    0.096
       105  -9.3907    145.7403     79.2687   9.0697020827e+01   3.7771950955e+01    0.3546375    0.2538429  32.95  0.001073659    1.594    0.373
       106  -9.2027    184.3307     76.8509   8.1881391022e+01   2.8806979473e+01    0.2844002    0.2652791 -56.88 0.0006101746    1.076    0.071
       107 -10.4609    151.8325     65.0519   8.5151516917e+01   3.8804422606e+01    0.4638267    0.3622686  72.54  0.002323897    1.370    0.270
       108  -8.5763    102.0463     67.2653   9.8523408795e+01   4.9388906412e+01    0.1986665    0.1827066  30.94  0.001152867    1.089    0.081
       109  -9.9241    239.5253     65.3467   7.0486232537e+01   1.7502737659e+01    0.2650114    0.2417986  82.60 0.0006974431    1.160    0.138
       110  -8.0462    125.4952     62.4430   9.0581031214e+01   4.5345823161e+01    0.1438082    0.1356565  28.00 8.676512e-05    1.025    0.024
       111  -8.0925    244.4722     60.9759   6.8906805465e+01   1.7079180580e+01     0.207076    0.1220854 -41.11 0.0008320594    1.580    0.367
       112  -8.2371    233.6723     55.2973   6.8951685325e+01   2.0385988820e+01    0.1454683   0.09265865 -70.61 0.0003081814    1.633    0.388
       113  -8.4863    212.5020     53.5217   7.1313866718e+01   2.5653851321e+01    0.1421851     0.126269 -82.29   1.3849e-05    1.011    0.011
       114  -9.4274    146.6485     52.1501   8.2420784360e+01   4.2078248862e+01    0.3872716    0.2876917  80.64   0.00106076    1.585    0.369
       115 -10.7165    161.5978     45.7403   7.7505341805e+01   3.9371261524e+01    0.6839886     0.471018  72.40  0.003375403    1.482    0.325
       116  -9.5809    136.6014     39.5720   8.0698670580e+01   4.6220232350e+01    0.2662314    0.2402599  29.52 0.0003006354    1.116    0.104
       117  -8.3752    165.8980     35.6332   7.3825973306e+01   3.9665173367e+01    0.2856941     0.169697  79.89  0.001280383    1.934    0.483
       118  -9.0040      4.1702    247.2409   1.5095151747e+02   2.3018443245e+01    0.2781263    0.1514343 -80.91  0.001935718    1.531    0.347
       119  -8.1589    146.7805    247.1850   1.2567511269e+02   2.6269330512e+00    0.1886915    0.1474009  56.73 0.0004032633    1.152    0.132
       120  -7.9259    159.5224    243.9292   1.2276954432e+02   9.6712025667e-01    0.1776221    0.1299104 -51.56  0.001044408    1.627    0.386
       121  -8.3577      6.3152    242.6868   1.5038429217e+02   2.3649292760e+01    0.1606948    0.1019872  85.59  0.000631404    1.158    0.137
