#   1 NUMBER                 Running object number                                     
#   2 MAG_AUTO               Kron-like elliptical aperture magnitude                    [mag]
#   3 X_IMAGE                Object position along x                                    [pixel]
#   4 Y_IMAGE                Object position along y                                    [pixel]
#   5 X_WORLD                Barycenter position along world x axis                     [deg]
#   6 Y_WORLD                Barycenter position along world y axis                     [deg]
#   7 A_WORLD                Profile RMS along major axis (world units)                 [deg]
#   8 B_WORLD                Profile RMS along minor axis (world units)                 [deg]
#   9 THETA_WORLD            Position angle (CCW/world-x)                               [deg]
#  10 FWHM_WORLD             FWHM assuming a gaussian core                              [deg]
#  11 ELONGATION             A_IMAGE/B_IMAGE                                           
#  12 ELLIPTICITY            1 - B_IMAGE/A_IMAGE                                       
         1 -14.0708    182.4722     30.1307   6.9497514139e+01   3.5807556491e+01    0.9170662      0.90768  23.66  0.003057539    1.111    0.100
         2 -14.1493    189.2558     19.3445   6.5502584451e+01   3.5342465123e+01    0.7269414    0.6711203   1.75  0.001444809    1.269    0.212
         3 -11.3524      2.1637      4.1623   1.1474618340e+02   7.3707259278e+01    0.2723692   0.07045957 -50.04  0.001136494    3.803    0.737
         4 -12.2072    156.5373    239.6037   1.2264241602e+02   4.5148147570e+00    0.3603322   0.09710538  40.84  0.001403733    3.019    0.669
         5 -19.2924     27.4548    136.3023   1.3731291591e+02   4.4183402799e+01     19.29882     4.753177 -72.94   0.06480064    4.045    0.753
         6 -13.8259     74.8932    197.9195   1.3360148463e+02   2.4765185581e+01    0.8141222    0.7216628 -65.41   0.00389401    1.310    0.237
         7 -12.0373    198.0158    199.6257   1.0852993381e+02   3.6622101001e+00    0.4827638    0.2052348  36.07  0.002069142    2.251    0.556
         8 -11.9041    191.6310    192.2413   1.0841368444e+02   5.9884895115e+00     0.967037    0.4497697 -58.75  0.002898734    6.033    0.834
         9 -11.7462    110.6856    197.5928   1.2601099317e+02   1.9390687162e+01     0.308101    0.1565879  36.05  0.001427168    2.004    0.501
        10 -10.0265     93.2297    198.2076   1.2978650775e+02   2.2025285913e+01    0.1760937     0.130242  70.83 0.0003378434    1.296    0.229
        11 -11.4955      2.4088    237.6573   1.4982536063e+02   2.5451244099e+01    0.1465657    0.1239084  40.44 0.0008368855    1.658    0.397
        12 -12.2347     84.3284    181.9688   1.2960088698e+02   2.6784057541e+01    0.3674468    0.2695274 -42.93  0.002039985    1.739    0.425
        13 -12.1360     87.6209    176.5544   1.2810844998e+02   2.7468399746e+01    0.3575665    0.2496728 -49.02  0.000926691    1.626    0.385
        14 -10.7375    200.8542    181.4677   1.0457642258e+02   6.0752482593e+00    0.2579498    0.2357379 -24.69  0.001103126    1.151    0.131
        15 -12.1514     68.4082    233.7909   1.3834827693e+02   1.8690448390e+01    0.3306378    0.2008275  57.19  0.001035472    1.326    0.246
        16 -10.9630     71.8239    230.0237   1.3740032115e+02   1.8921266796e+01    0.4863603    0.2032598  69.18  0.002022582    3.593    0.722
        17 -11.6331    126.3634    173.0618   1.1870517465e+02   2.1733372469e+01    0.2950543    0.1985362  50.42  0.001469605    1.430    0.301
        18 -16.0954     72.9707    151.6296   1.2787001931e+02   3.5276328654e+01     4.527535      2.23987  66.48   0.01608086    3.197    0.687
        19 -10.2929    228.6894    172.3558   9.7595828795e+01   2.4529052390e+00    0.1258605    0.1078286 -68.39 0.0007043535    1.731    0.422
        20 -11.6374    136.5068    170.3088   1.1591571190e+02   2.0437986328e+01    0.2985503    0.2070884  65.77 0.0009969359    1.717    0.418
        21 -12.5567     99.0619    158.6422   1.2259175580e+02   2.9646706934e+01    0.6362348    0.3609137 -40.69  0.002780944    2.236    0.553
        22 -11.1270    190.5027    229.5909   1.1493153631e+02   4.7839454742e-01    0.3022499    0.1935519 -57.49   0.00163719    2.470    0.595
        23 -10.2719      6.2347    160.8774   1.4477770470e+02   4.0422425576e+01     0.165332    0.1175861  81.22 0.0003651613    1.133    0.117
        24 -12.3020     61.4612    228.4734   1.3917327835e+02   2.0567175670e+01    0.2739675    0.2248591 -52.66   0.00157542    1.709    0.415
        25 -11.0221    163.1593    155.6736   1.0705062582e+02   1.8190463996e+01    0.2636725    0.2066129 -58.66  0.001323423    1.428    0.300
        26 -11.4459    133.8284    145.1867   1.1153418345e+02   2.6309093255e+01    0.9813927     0.208004 -53.74  0.002017779    7.943    0.874
        27 -10.1808    179.8396    147.8254   1.0175596590e+02   1.6274456024e+01    0.1977989    0.1793707 -86.73 0.0005139947    1.306    0.234
        28 -11.9831    109.3948    142.3959   1.1697494562e+02   3.1558160360e+01    0.5227538    0.2973968 -35.50  0.002121118    2.364    0.577
        29 -12.3049     98.1075    143.2521   1.2001634051e+02   3.3328062038e+01     0.261609    0.2560578 -20.57  0.000379206    1.170    0.146
        30 -11.2578    116.2114    132.0778   1.1303917645e+02   3.2645263935e+01    0.3157874    0.2552487 -24.44 0.0009531238    1.498    0.332
        31 -11.7891    104.9002    129.5318   1.1542325264e+02   3.5314518668e+01    0.4621685    0.3427834 -82.62  0.001042374    1.629    0.386
        32 -13.1918     46.2814    131.0275   1.3160024493e+02   4.3510860606e+01    0.4462241    0.2870564  44.58  0.001298106    1.674    0.403
        33 -10.2938    111.0354    120.4916   1.1172730562e+02   3.6251887443e+01     0.215275     0.197201 -59.97 0.0003745438    1.054    0.051
        34 -10.9689    168.6571    113.4721   9.5863617837e+01   2.5477291579e+01    0.3531998    0.2628801 -68.94 0.0008733344    1.719    0.418
        35 -12.8918      7.7112    226.9859   1.4849373895e+02   2.6869751233e+01    0.3310401    0.2365704  11.57  0.002233414    2.806    0.644
        36 -10.2909    204.7620    110.5530   8.7895686811e+01   1.7771279107e+01    0.2905522    0.1398319  46.37  0.001139505    2.171    0.539
        37  -9.7165    123.6748    101.7263   1.0354847094e+02   3.7882779913e+01     0.150888    0.1212524   3.31 0.0002565175    1.581    0.368
        38 -11.3247    139.7069    217.5780   1.2286735244e+02   1.0827220955e+01    0.2095186    0.1551945 -88.77 0.0009300907    1.798    0.444
        39 -13.3970    171.9057     40.1568   7.4120270183e+01   3.7213453210e+01    0.6209068    0.4968645   3.90 0.0008655153    1.519    0.342
        40 -11.4058    161.6742    248.9253   1.2291335543e+02   2.3549177872e+00    0.2465474    0.1450271  45.00  0.001237021    1.403    0.287
        41 -13.3406    111.1924    206.8261   1.2715822998e+02   1.7496938410e+01    0.5254917    0.3187112 -60.76  0.002331007    1.799    0.444
        42 -12.0546    102.8754    208.3393   1.2905716822e+02   1.8521176848e+01    0.2611535    0.1985692  69.07  0.001584552    1.248    0.199
