#   1 NUMBER                 Running object number                                     
#   2 MAG_AUTO               Kron-like elliptical aperture magnitude                    [mag]
#   3 X_IMAGE                Object position along x                                    [pixel]
#   4 Y_IMAGE                Object position along y                                    [pixel]
#   5 X_WORLD                Barycenter position along world x axis                     [deg]
#   6 Y_WORLD                Barycenter position along world y axis                     [deg]
#   7 A_WORLD                Profile RMS along major axis (world units)                 [deg]
#   8 B_WORLD                Profile RMS along minor axis (world units)                 [deg]
#   9 THETA_WORLD            Position angle (CCW/world-x)                               [deg]
#  10 FWHM_WORLD             FWHM assuming a gaussian core                              [deg]
#  11 ELONGATION             A_IMAGE/B_IMAGE                                           
#  12 ELLIPTICITY            1 - B_IMAGE/A_IMAGE                                       
         1 -11.8014     17.2572     20.9500   7.4322235779e+01   7.1991867175e+01    0.4865154    0.2705529  25.71  0.001706538    1.737    0.424
         2 -11.1053      4.5085      7.7638   7.6021536580e+01   7.5451053505e+01    0.4342505    0.2930956  20.44  0.002846784    1.426    0.299
         3  -9.9651     61.2577     16.3788   5.0045289873e+01   6.5570596728e+01    0.3048354    0.1796515 -54.15 0.0009762336    2.912    0.657
         4 -10.9689     38.6960     16.1503   5.9645468095e+01   6.9715208678e+01    0.4445305    0.2721506 -15.22  0.002005397    1.776    0.437
         5 -11.5587     34.7452     12.1191   5.9451964966e+01   7.0882013947e+01    0.3174057    0.2445026  36.59 0.0006995957    1.299    0.230
         6 -11.8165     29.4588      8.1476   6.0004864955e+01   7.2218137879e+01    0.4296011    0.2713833  18.49  0.002109577    1.520    0.342
         7 -11.7626    236.3068     15.0192   2.2354668916e+01   2.6960458526e+01    0.3589475    0.2034435 -66.22   0.00162949    1.511    0.338
         8 -10.8226     82.9383     15.9221   4.2893673508e+01   6.1051788589e+01    0.2698525    0.1828567  26.78 0.0009415685    1.584    0.369
         9 -11.0975     13.5669     14.6906   7.3468137677e+01   7.3420314477e+01     0.405917    0.2579412 -48.22 0.0009580287    1.845    0.458
        10 -11.8204    207.9816     13.0277   2.3818227208e+01   3.2737936171e+01     0.245591    0.2029722 -59.03 0.0004314179    1.094    0.086
        11 -12.1262    125.9767     10.8677   3.1978587476e+01   5.1538324606e+01    0.2986194    0.2272058 -60.63  0.000299464    1.395    0.283
        12 -11.1624    171.5187     10.6425   2.6314178480e+01   4.0895257730e+01    0.3075892    0.1501585 -49.36  0.001562935    1.925    0.480
        13  -9.6903    164.8229     12.2133   2.7413234745e+01   4.2270127384e+01    0.1580184    0.1377745  54.70 0.0003616523    1.293    0.227
        14  -9.7776     91.3147     11.6885   3.8953386874e+01   5.9587956938e+01    0.2915159    0.1080239  44.90  0.001185719    2.560    0.609
        15 -10.5683     97.7897      9.6417   3.6663674157e+01   5.8288485532e+01    0.3211603    0.2072011  -8.34  0.001726981    1.888    0.470
        16  -9.9875     51.0671     10.7697   5.1166762249e+01   6.8176363120e+01    0.1774471     0.161177  40.71 0.0006443309    1.218    0.179
        17 -10.6002     45.8498     10.0254   5.2982663665e+01   6.9226629359e+01    0.2659941    0.1998538  34.44 0.0007147506    1.159    0.137
        18  -9.6974     42.3725      9.1966   5.4091319830e+01   6.9944494112e+01    0.1597809    0.1377274  -5.19 9.279434e-05    1.163    0.140
        19 -10.1715    200.5156      1.4503   2.1735675010e+01   3.5447502860e+01     0.221962    0.1119978  54.85 0.0008476967    2.394    0.582
        20 -11.2728    191.3321      9.8618   2.4364697099e+01   3.6580792440e+01    0.2840895    0.1786948 -87.93 0.0006661308    1.461    0.316
        21 -11.1308    195.9836      9.4761   2.3906874792e+01   3.5620812058e+01    0.2885901    0.1473936 -77.00  0.001324354    1.981    0.495
        22 -11.5925    193.7710      5.9171   2.3239836156e+01   3.6446272735e+01    0.2891979    0.2165987  -3.56  0.001753481    1.987    0.497
        23 -11.7172    197.3065      5.3122   2.2839784398e+01   3.5752251804e+01    0.3563237    0.1641803  77.98  0.001359159    2.021    0.505
        24 -10.5557     55.6296      9.2750   4.8586276687e+01   6.7457046960e+01    0.2356866    0.1944149  28.92 0.0007929131    1.028    0.027
        25 -10.0469    148.2287      9.4856   2.8505894657e+01   4.6393052765e+01    0.2730919    0.1222248 -43.10  0.001294234    2.202    0.546
        26 -10.7911    116.8785      8.7201   3.2704092313e+01   5.3891358803e+01    0.2609721    0.1963034  85.68 0.0006951713    1.315    0.239
        27  -9.9150    165.3977      7.8298   2.6164802822e+01   4.2560438049e+01    0.1480651    0.1197269  -5.47 5.153648e-05    1.635    0.388
        28 -12.2022     18.2421      2.9806   6.3513682803e+01   7.4510048171e+01    0.5738069    0.3491413  23.41  0.003098609    1.467    0.319
        29 -10.0191     88.9744      6.2448   3.7228342687e+01   6.0606539934e+01    0.1925647    0.1735064  -1.05  0.000363079    1.223    0.182
        30  -9.6261    246.8707      5.8486   1.9994595761e+01   2.6002339805e+01    0.1492674   0.08970075 -62.57 0.0003666931    1.285    0.222
        31 -11.4875    149.6456      3.1217   2.6475631970e+01   4.6628638835e+01     0.366663    0.2502953 -84.70  0.001575613    1.372    0.271
        32 -10.5026    104.7962      4.0954   3.3120496778e+01   5.7127206327e+01    0.2075937    0.1587315  62.66 0.0004800856    1.132    0.116
        33 -10.2603     59.7471      3.5390   4.4144030111e+01   6.7183523340e+01    0.3082364    0.1980333  76.88  0.001591725    2.273    0.560
        34  -9.6801     39.0324      4.0382   5.2709708742e+01   7.1099819222e+01    0.1541971    0.1452852  76.51 0.0003095628    1.549    0.354
        35  -9.8108    236.3406      4.6524   2.0301099079e+01   2.8044523038e+01    0.1243274   0.05671311 -59.69 0.0007045982    1.791    0.442
        36  -9.6886     43.4826      3.5767   5.0430611250e+01   7.0345540309e+01    0.1227353    0.1006687  25.56  7.50464e-05    1.015    0.015
        37 -10.8690    123.0286      1.8298   2.9369697862e+01   5.3008046223e+01    0.2545875    0.1642274  72.16  0.001031776    1.352    0.260
        38  -9.5485    170.3499      1.3190   2.3979343877e+01   4.2028363957e+01    0.1204459   0.08344822  47.17 0.0007048131    1.738    0.425
        39 -10.2278     80.1469      1.4368   3.7235462442e+01   6.2984008742e+01    0.1813472    0.1073627  60.61 0.0004740076    1.464    0.317
        40  -9.1879     28.9818      1.0000   5.5930988101e+01   7.3127634322e+01    0.1988716   0.05951148  45.15 0.0002070553    3.050    0.672
        41  -9.0549     22.6735    179.6819   1.0614456470e+02   3.3224074827e+01    0.1334451   0.09392457 -42.90 0.0003657022    1.677    0.404
        42 -10.2342    110.0379    250.5711   9.2351446936e+01   7.4023994462e+00    0.1879812    0.1029512  30.23 0.0005211849    1.541    0.351
        43 -10.7917     28.3611    250.3600   1.0960537525e+02   1.6878750166e+01     0.227557    0.1178094  34.50  0.001316353    1.626    0.385
        44 -12.0674     18.2426    248.0816   1.1153468796e+02   1.8306553897e+01     0.324375     0.296101  66.28  0.002501344    1.201    0.167
        45 -12.7404      3.8627    233.6306   1.1381422704e+02   2.2516476314e+01    0.4990737    0.3073283  43.75  0.003197551    1.354    0.262
        46 -12.0455      4.5154    240.8658   1.1397578956e+02   2.0986912709e+01    0.4360532    0.2883767  16.58  0.002777893    1.873    0.466
        47  -9.9542      1.6760    171.1268   1.1109100192e+02   3.7046905234e+01    0.1890921   0.09565467 -69.62 0.0004586183    1.732    0.423
        48  -9.7056      1.4601    158.3950   1.1027964414e+02   4.0278863952e+01    0.1293562    0.1102426  85.32 5.645269e-05    1.026    0.025
        49 -11.0672      4.5982    153.9875   1.0904715627e+02   4.1203150369e+01    0.4366572    0.2050943  39.45  0.002061965    2.121    0.529
        50 -10.3714     23.7170    148.4563   1.0277881174e+02   4.1188030194e+01    0.3092379    0.1574027  88.99  0.001300271    2.170    0.539
        51 -11.6398      6.4755    145.5209   1.0777312835e+02   4.3275734445e+01    0.3399828    0.2018709  80.10  0.001313594    1.660    0.398
        52  -9.4907     29.1434    143.1328   1.0043278912e+02   4.2114096721e+01    0.1884573    0.1516362  68.31 0.0002780742    1.268    0.211
        53  -9.3924    236.1683    138.4040   4.7934169200e+01   9.3029870338e+00    0.1472318    0.1251203  64.37 0.0009406594    1.622    0.384
        54  -9.2589     25.3247    136.2663   1.0078173847e+02   4.4283787068e+01    0.1406748   0.09734692 -38.73 0.0003373935    1.567    0.362
        55  -9.7648     95.9816    133.7753   7.7483805329e+01   3.5621141383e+01    0.2106071    0.2089262  88.62 0.0006927116    1.040    0.038
        56  -9.0320     29.7577    132.7223   9.8823550430e+01   4.4831209122e+01    0.1382153   0.09576748 -45.30 0.0006796932    1.446    0.309
        57 -10.5482     11.8179    128.8105   1.0435672450e+02   4.7312321155e+01    0.1950288    0.1479621  73.33 0.0006182499    1.348    0.258
        58  -9.4597     63.0125    127.9731   8.6755214643e+01   4.2265346335e+01    0.1758654     0.169589 -57.41 0.0009652989    1.022    0.022
        59 -10.3142     41.3854    127.1854   9.3989317165e+01   4.5141387609e+01    0.2076818    0.1322989 -79.28 0.0006379682    1.649    0.394
        60 -10.8249     26.0000    122.9834   9.8689355490e+01   4.7761908771e+01     0.277268     0.176634 -63.07 0.0009553595    1.367    0.269
        61 -10.0297     22.4851    121.5020   9.9712850650e+01   4.8451271598e+01    0.3262386    0.1472293  12.57  0.001316412    2.758    0.637
        62  -9.5473    226.4861    124.5213   4.6493958299e+01   1.3144142699e+01    0.1323111    0.1087431 -39.41 5.885417e-05    1.039    0.037
        63 -11.6607      9.6696    120.4257   1.0409623877e+02   4.9667518810e+01    0.3959851    0.2938994  44.04 0.0009166304    1.486    0.327
        64  -9.9578     55.8555    121.1609   8.7825144749e+01   4.5009996828e+01    0.2108688    0.1626098 -40.67 0.0005160684    1.294    0.227
        65 -10.2237     86.1456    118.8326   7.7083102479e+01   4.1038429973e+01    0.2204963    0.1783617 -28.06 0.0005085159    1.332    0.249
        66 -10.1224     69.1436    116.8090   8.2271913339e+01   4.4276409826e+01    0.2193663     0.203988  79.46 0.0002821586    1.166    0.142
        67 -11.1515     15.7948    118.3964   1.0165812776e+02   4.9787291888e+01    0.2918617    0.1739516 -17.76  0.001021171    2.134    0.531
        68 -11.1154      2.2589    113.6990   1.0593074936e+02   5.1862008955e+01    0.2634779    0.1919089 -57.87 0.0006260976    1.197    0.164
        69 -10.7137     15.7322    111.7610   1.0073390585e+02   5.1539445588e+01     0.189616    0.1264827  33.94 0.0009772724    1.661    0.398
        70 -11.5459     13.2934    103.5870   1.0041852794e+02   5.3842188224e+01    0.3791768      0.17638 -61.24 0.0007187646    1.746    0.427
        71  -9.1226     84.2899    110.2941   7.5570569677e+01   4.3464750417e+01    0.1542612    0.1178025 -19.69 0.0002069964    1.550    0.355
        72  -9.7486     44.4696    110.0628   8.9649694311e+01   4.9308928655e+01    0.2175642    0.1337352 -60.60 0.0004125077    1.485    0.327
        73 -10.0153     27.4013    108.1591   9.5737666867e+01   5.1552040438e+01    0.2025917    0.1275215 -80.76 0.0008060111    1.687    0.407
        74  -9.4567     39.2870    105.3278   9.0626404614e+01   5.1117164205e+01    0.1531378   0.09843086 -36.40 0.0007011104    1.612    0.380
        75  -9.6265     66.7379    104.4384   8.0146564200e+01   4.7762263145e+01    0.2057461    0.1471836  12.22 0.0009422706    1.658    0.397
        76 -10.1583      1.3726    103.4479   1.0500999840e+02   5.4567272250e+01    0.2775369   0.09650876 -67.40  0.001127283    2.217    0.549
        77  -9.3943    186.5095    102.9794   4.8040382149e+01   2.4289901917e+01    0.2180824    0.1290879 -38.57  0.000648535    1.539    0.350
        78 -10.3234    247.2078    101.5802   3.9025853877e+01   1.3434938453e+01    0.1408702    0.1172338  35.17 0.0005839437    1.582    0.368
        79 -12.4710    197.1724     97.5453   4.4960508749e+01   2.3113230924e+01    0.2517188    0.2209231 -46.26  0.000337182    1.003    0.003
        80 -10.4111     61.1702     99.2102   8.0858536350e+01   4.9886525133e+01    0.2015513     0.179087  82.57  0.000765646    1.314    0.239
        81  -9.6334     11.6091     97.7954   1.0015913792e+02   5.5448276764e+01    0.1864645    0.1187547 -82.90 0.0002480839    1.601    0.375
        82 -10.6753      7.1361     95.1795   1.0155340458e+02   5.6388168390e+01    0.1819229    0.1612221 -57.20  0.001122877    1.045    0.043
        83 -10.6700     10.9211     93.2925   9.9687405665e+01   5.6643882316e+01    0.2852527    0.1618345 -62.49 0.0004283623    1.468    0.319
        84 -11.3584      7.0965     90.6173   1.0083206788e+02   5.7550850798e+01    0.2960092    0.1857601 -62.41 0.0004203252    1.325    0.246
        85 -10.2647     36.9422     96.1253   8.9554228382e+01   5.3723977125e+01    0.2844773    0.1999835 -33.29  0.001089563    1.443    0.307
        86 -12.1126     20.0980     93.1633   9.5848714787e+01   5.6031428265e+01    0.5512091    0.2902366 -35.91   0.00249638    1.963    0.490
        87 -11.9364    125.1980     93.0708   5.8582498571e+01   3.9307471023e+01    0.2688054    0.2581713  12.89 0.0002760902    1.084    0.078
        88 -10.3336    105.8454     91.7473   6.3605252118e+01   4.3665649893e+01    0.2820522    0.1997321 -72.42 0.0006727663    1.978    0.494
        89 -11.4180     58.1098     91.2804   7.9923986917e+01   5.2265435880e+01    0.3383437    0.2591265 -12.22 0.0006846767    1.488    0.328
        90 -10.5198     83.1414     90.3214   7.0466562370e+01   4.8388030672e+01    0.2464658    0.2087606 -49.08 0.0003226575    1.166    0.143
        91 -10.0078    159.9254     89.1440   4.9499191637e+01   3.2448029206e+01    0.2203131    0.1892629 -73.66 0.0003926519    1.245    0.197
        92 -11.1934     66.6519     87.6849   7.5637848074e+01   5.1817305222e+01    0.3442529    0.2540116 -34.32 0.0009601032    1.358    0.264
        93  -9.6249     30.0527     84.6926   8.9772898401e+01   5.7280161498e+01    0.1843201    0.1668078 -22.84 0.0003824065    1.092    0.084
        94 -11.5765      8.6497     82.6145   9.8742196805e+01   5.9468374107e+01    0.5060524    0.2218136 -47.47   0.00228928    1.907    0.476
        95 -10.6157     65.5732     81.0546   7.4067253846e+01   5.3510210551e+01    0.3703224    0.2336638 -26.74  0.001616074    1.892    0.472
        96 -10.0267    250.2415     80.7720   3.4493485243e+01   1.6035937974e+01    0.1533294    0.1255694 -28.77 0.0007069776    1.308    0.235
        97  -8.9612     43.2288     80.6745   8.3049501496e+01   5.6795824217e+01     0.131474    0.1097119 -88.92 0.0001637273    1.512    0.339
        98 -10.2846     86.0320     78.5313   6.5844486723e+01   5.0424346954e+01    0.3188857    0.2729905  49.92 0.0005746766    1.247    0.198
        99  -9.6052     87.5359     75.4513   6.4338555377e+01   5.0771549082e+01    0.1962115     0.142635 -50.76 5.882254e-05    1.439    0.305
       100  -9.0580     80.6520     79.6948   6.8077535198e+01   5.1191457663e+01    0.1550887    0.1154031  -5.06 0.0005765062    1.698    0.411
       101 -10.5915     48.0758     78.9614   8.0502947856e+01   5.6576048930e+01    0.2142701    0.1880288 -28.36 0.0003560557    1.057    0.054
       102  -9.7423     22.6140     76.8153   9.1172988761e+01   5.9879945650e+01    0.1860258    0.1241657 -73.46   0.00039892    1.638    0.390
       103 -11.7169     12.5979     76.4911   9.5711618259e+01   6.0724603540e+01    0.3825461    0.2242959 -10.37  0.001311374    1.965    0.491
       104  -9.3175    240.5060     76.4901   3.4619920074e+01   1.8318568708e+01    0.1226124   0.09987495 -45.24 0.0005429134    1.067    0.063
       105  -9.9910    177.1136     76.2061   4.2934968773e+01   3.0932321564e+01    0.2030948    0.1957625  15.86  0.000679415    1.206    0.171
       106 -10.9620     53.1838     75.4803   7.7311108213e+01   5.6664886312e+01     0.408649    0.2617426  25.60  0.001140742    1.644    0.392
       107  -9.4355     33.5834     75.7369   8.5906049474e+01   5.9076396884e+01    0.1492019   0.09465043 -22.26 0.0006951371    1.766    0.434
       108  -9.5615     34.4483     73.0000   8.4746514282e+01   5.9622551999e+01    0.2465512    0.1494818  23.62  0.001200626    1.743    0.426
       109 -11.3727      4.3360     74.0769   9.9059170495e+01   6.1803794786e+01    0.3259622    0.2046419  21.14  0.001770661    1.796    0.443
       110 -10.3935    151.0718     72.0571   4.6543885099e+01   3.7468356085e+01    0.2119706    0.2011894 -67.01 0.0002869543    1.009    0.009
       111  -9.2383    116.2735     72.3945   5.4703172011e+01   4.5316109303e+01    0.1525463    0.1166854  -0.22 0.0006989287    1.736    0.424
       112 -10.7596     75.8119     71.0868   6.6997124972e+01   5.3892060236e+01    0.3833202    0.2777564   0.52  0.001794952    1.768    0.435
       113  -9.4880    105.9709     71.8134   5.7380794867e+01   4.7682354508e+01    0.1967168    0.1127725  47.07  0.000547017    1.737    0.424
       114  -9.9849     92.6110     71.4279   6.1338255822e+01   5.0563737181e+01    0.4220059    0.1391681  50.91  0.001278415    3.692    0.729
       115 -11.0764     81.0309     67.4573   6.3886739662e+01   5.3641340227e+01    0.3865722    0.1977208 -43.48            0    1.950    0.487
       116 -11.3921      8.3322     70.3446   9.6376509663e+01   6.2477599600e+01    0.3185211    0.1585241  28.85  0.001530405    2.239    0.553
       117 -11.5275      6.4665     64.6416   9.5996031099e+01   6.3936831545e+01    0.4986865    0.1559721 -42.69  0.001969478    2.691    0.628
       118  -9.3139     70.0133     69.9465   6.8775395839e+01   5.5167940379e+01    0.1687346    0.1568712 -18.87            0    1.021    0.021
       119 -11.5914    211.8279     67.5084   3.5879795153e+01   2.5013035038e+01    0.2268129    0.1996128 -50.77 0.0003267353    1.074    0.069
       120 -10.9648     58.7577     66.0513   7.1908827305e+01   5.7866747754e+01    0.3910362    0.2169796 -46.40  0.001103014    1.744    0.427
       121 -12.0414     11.3871     57.4819   9.1637754852e+01   6.5267024024e+01    0.5136759    0.2665995 -52.86  0.002596317    1.595    0.373
       122 -14.1172     20.5771     58.2260   8.7076752166e+01   6.4364419910e+01     0.590323    0.3761361 -37.86  0.001060177    1.385    0.278
       123 -11.1043     13.1192     48.5495   8.8021955375e+01   6.7098957073e+01    0.6791927    0.1720461  27.89  0.002535654    3.769    0.735
       124 -10.0658     63.7273     64.1437   6.9223637762e+01   5.7441424119e+01    0.5061888     0.210778 -59.50  0.001428558    5.179    0.807
       125  -9.2288     39.3307     65.3220   8.0171490160e+01   6.0787995249e+01    0.1487227   0.09641904 -22.38 0.0007049432    1.697    0.411
       126 -10.6215     55.0265     61.0396   7.1717494176e+01   5.9489855003e+01    0.2423285    0.1922107   4.11  0.001306927    1.310    0.237
       127 -10.8453     59.0104     58.7648   6.9213958597e+01   5.9304984689e+01     0.307291     0.196004  37.24  0.001503969    1.583    0.368
       128  -9.7679     90.9037     59.5078   5.7772463838e+01   5.3149832104e+01    0.2125353    0.1890508 -33.48  0.000553225    1.138    0.121
       129 -10.4508    145.8755     58.9888   4.3754928628e+01   4.0804358012e+01    0.2733125    0.1941431  60.99  0.001383984    1.400    0.286
       130  -9.1695     49.4828     59.5408   7.3595454017e+01   6.0638649089e+01    0.1383243    0.1269778 -13.77 8.396574e-05    1.039    0.037
       131  -9.2122    130.6949     57.2843   4.6375140490e+01   4.4616364309e+01    0.1427289    0.1094033 -76.06 0.0002574474    1.561    0.359
       132 -10.8305     71.9217     57.0422   6.3461314607e+01   5.7361021591e+01    0.2050683    0.1942721 -14.23 0.0003769499    1.062    0.058
       133  -9.5745     68.2853     56.2734   6.4560716218e+01   5.8173744315e+01    0.1396693      0.13113   3.04 0.0002046386    1.034    0.033
       134 -12.2605     67.0953     52.5385   6.3602137544e+01   5.9076948303e+01    0.4595207    0.2411334  36.64   0.00105682    1.901    0.474
       135  -9.9208     32.3694     55.8800   8.0350971407e+01   6.3659723737e+01     0.432957    0.2019739  -1.41  0.001305494    5.252    0.810
       136 -10.4491     37.8907     52.4789   7.6419454460e+01   6.3684327122e+01     0.440097    0.2292383 -26.19  0.001873434    2.384    0.580
       137 -13.3067    114.5218     53.2816   4.8866900172e+01   4.8993820485e+01    0.3542706    0.3043032  47.82 0.0005964629    1.131    0.116
       138 -12.1433    119.5183     47.5362   4.5710437247e+01   4.8713798869e+01    0.3078337      0.25344 -54.32  0.001686328    1.295    0.228
       139 -12.1484     86.7606     53.9728   5.7101704191e+01   5.4979693224e+01    0.4593102    0.2768368  39.46 0.0007838157    1.645    0.392
       140 -10.0877     60.0679     53.3497   6.6741516281e+01   6.0168527634e+01    0.1925673    0.1690172  20.79 0.0003632678    1.100    0.091
       141 -10.7876     44.9648     52.4414   7.3036222236e+01   6.2723220484e+01    0.2371488    0.1742922 -30.55 0.0003758308    1.284    0.221
       142  -9.8759    148.9287     52.1302   4.1142144908e+01   4.1129495409e+01     0.215424     0.176642 -74.47 0.0004980399    1.266    0.210
       143 -13.1310    106.0081     50.1478   4.9988568508e+01   5.1422612765e+01    0.4252135    0.3436439  77.97 0.0008093562    1.442    0.307
       144  -9.8531    232.3853     50.9368   3.0055407805e+01   2.3359359870e+01    0.2109048    0.0972931 -37.43 0.0003356422    1.830    0.454
       145 -10.9430    138.4862     50.4110   4.2590962849e+01   4.3836796731e+01    0.2576319    0.2317685  31.89 0.0005411007    1.236    0.191
       146  -9.4788     89.0081     49.0500   5.4538863625e+01   5.5327946680e+01    0.1648461    0.1567652   1.30  0.000337648    1.043    0.042
       147  -8.7661    146.2916     48.3138   4.0477726511e+01   4.2300868120e+01    0.1352914    0.1072026  25.65 0.0002972326    1.592    0.372
       148 -10.3174     74.5176     47.6545   5.8901583037e+01   5.8521711275e+01    0.2505002    0.2038976  72.80 0.0008651163    1.657    0.396
       149 -11.4741      2.7161     43.1240   9.2279729389e+01   6.8973035143e+01    0.3344201    0.2595237 -32.88  0.002153331    1.057    0.054
       150 -10.2823    155.0746     46.9178   3.8550327607e+01   4.0435280844e+01    0.2186885    0.2024533 -27.36 0.0005285731    1.196    0.164
       151  -9.4549    135.6232     46.2523   4.1850366184e+01   4.5111752333e+01    0.1426942    0.1034662 -81.14 0.0006959659    1.649    0.393
       152 -11.3946     79.1736     45.5382   5.6423956820e+01   5.7938707217e+01    0.2375509    0.2314092  -1.54 0.0002733839    1.094    0.086
       153 -10.1795     68.8527     46.3337   6.0479904987e+01   5.9835354692e+01    0.2284581    0.1665347  24.62 0.0004842152    1.402    0.287
       154 -10.5869     29.6834     41.2227   7.6243496606e+01   6.6924264125e+01     0.362528    0.3018449  72.26  0.001216692    1.952    0.488
       155 -11.1474     16.9540     42.2457   8.3682702119e+01   6.8083238682e+01    0.4847212    0.2731721 -48.47  0.001797722    1.575    0.365
       156  -9.9039    221.0165     43.2869   2.9449460168e+01   2.6545859809e+01    0.1639959    0.1350431 -69.30 0.0001878025    1.080    0.074
       157 -10.6631     95.0851     42.3883   5.0182635233e+01   5.5039171930e+01    0.3253353    0.2266328 -46.86  0.001190105    1.604    0.376
       158 -11.1518    184.2891     40.6982   3.2719494352e+01   3.4589221223e+01    0.3371608    0.2714746 -69.89  0.001356301    1.134    0.118
       159 -11.6416    141.6571     41.2015   3.9138973538e+01   4.4377638925e+01    0.2644483    0.2152521  85.86  0.000357149    1.238    0.192
       160  -9.6869     86.5493     42.0384   5.2618977326e+01   5.6945509717e+01    0.1965356     0.136033 -28.16 0.0003419196    1.526    0.345
       161 -10.2380     26.2773     44.7874   7.9471692708e+01   6.6626198481e+01    0.4086513    0.3308463  23.53  0.002503703    1.306    0.234
       162 -10.3658     36.6531     41.9772   7.2929053432e+01   6.5886299818e+01    0.2833573    0.1729468  19.62  0.001092423    1.698    0.411
       163 -10.5283    170.0234     40.0528   3.4379213165e+01   3.7892132295e+01    0.3106025     0.209925 -84.10 0.0008721895    1.594    0.372
       164 -10.0180    202.0687     41.5291   3.0917536973e+01   3.0634863606e+01    0.1763681    0.1176977  74.08 0.0004696584    1.528    0.346
       165 -12.7370    121.4161     37.3727   4.1832706582e+01   4.9682191133e+01    0.3438103    0.3051564  26.47 0.0009426796    1.232    0.188
       166  -9.5265      8.7151     38.6383   8.7205336197e+01   6.9505365133e+01      0.15817    0.1076519  24.50 0.0005228461    1.600    0.375
       167  -9.7804     49.9209     33.4860   6.2845966393e+01   6.5325868151e+01    0.1913895    0.1604349 -21.02 0.0003348431    1.158    0.137
       168  -9.4433     40.7289     34.6394   6.7717538122e+01   6.6604142377e+01    0.1627465    0.1157916  36.79 0.0006030904    1.450    0.310
       169 -10.1585     28.6943     33.1252   7.3331808675e+01   6.8534607662e+01    0.2383341    0.1553572 -11.39  0.000874492    1.634    0.388
       170 -11.4433    205.9648     32.2516   2.8359640134e+01   3.0980344575e+01    0.2168011    0.1739843 -53.90  0.000325026    1.088    0.081
       171  -9.4247    145.1503     32.4406   3.5855066473e+01   4.4666521342e+01    0.1978346    0.1257202  68.95  0.001007869    1.496    0.332
       172 -10.3379    144.7490     28.2030   3.4623900156e+01   4.5265358675e+01    0.2893475    0.2198178 -26.48  0.001645316    1.463    0.317
       173  -9.7511     82.0309     32.2923   5.0113148225e+01   5.9299805544e+01    0.1881831    0.1607761  44.52  0.000254962    1.096    0.088
       174 -11.4341    135.7878     29.2228   3.6395928709e+01   4.7278466606e+01    0.2488158    0.2129151 -75.21 0.0002805966    1.172    0.147
       175 -10.4596     90.7072     30.7817   4.6908619833e+01   5.7607445649e+01    0.3298289    0.2139624  57.23 0.0008387492    1.482    0.325
       176 -11.5231     91.4510     26.8111   4.5106252287e+01   5.7935734060e+01    0.3131035    0.2156547  62.75 0.0003029622    1.456    0.313
       177  -9.4827     59.5244     30.2496   5.7265075892e+01   6.4107589294e+01     0.177405     0.120122 -14.01 0.0009246551    1.641    0.391
       178  -9.7289     45.2964     30.6860   6.3694784512e+01   6.6532517870e+01    0.1154777     0.107004  88.91 0.0003821873    1.602    0.376
       179  -9.3956     38.9976     30.2344   6.6559077705e+01   6.7592277644e+01    0.1617261     0.100013  32.71 0.0004189248    1.551    0.355
       180 -10.1845     54.1502     29.1233   5.8980303000e+01   6.5254507373e+01    0.2231078    0.1794182 -54.19 0.0008307295    1.681    0.405
       181  -9.5426     51.6659     25.3327   5.8260255225e+01   6.6241520185e+01    0.2238756    0.1553422 -42.40 0.0008766073    1.681    0.405
       182  -9.6010     32.6114     28.2737   6.8957067203e+01   6.8840146794e+01    0.1751046    0.1065788 -28.18 0.0006060548    1.601    0.376
       183 -10.2248     80.8967     27.0067   4.8248992068e+01   6.0229637807e+01    0.1986812    0.1845082  22.04 0.0005910997    1.047    0.045
       184 -10.3601    217.0127     25.7968   2.5953855654e+01   2.9486372666e+01    0.1863266    0.1278853 -63.34 0.0004444221    1.230    0.187
       185  -9.5035    128.8876     31.4005   3.8335916494e+01   4.8662532058e+01     0.197064    0.1107826  52.04 0.0009338263    1.690    0.408
       186  -9.8638    102.8172     26.1896   4.1972973005e+01   5.5420160475e+01    0.1985663    0.1879183  28.78 0.0006292466    1.081    0.075
       187 -10.6415    102.3162     22.5785   4.0710704174e+01   5.5946220162e+01    0.2891019    0.2612545  -4.60  0.001543146    1.211    0.174
       188  -9.4870     75.8448     26.1520   4.9485577426e+01   6.1410784820e+01    0.1883426    0.1431131  22.45  0.001055315    1.341    0.254
       189  -9.6303     68.2512     26.4307   5.2207946677e+01   6.2937816822e+01    0.1743883    0.1226975  56.14  0.000557384    1.514    0.339
       190  -9.5574     18.5507     26.3435   7.6124675783e+01   7.0928373460e+01    0.1702485   0.09960409 -32.67 0.0007908454    1.550    0.355
       191 -10.3702    185.9377     24.1910   2.8361551350e+01   3.6229496607e+01    0.1947748    0.1622683 -52.95 0.0003413754    1.127    0.113
       192  -9.5265     34.2486     24.0165   6.6005994607e+01   6.9281406434e+01    0.1721966    0.1427987   2.01  0.001098184    1.019    0.018
       193 -10.4266    130.4208     22.2103   3.5030224150e+01   4.9348572472e+01    0.4826603    0.2151207  43.90  0.002013122    2.593    0.614
       194 -10.8082    191.4830    249.4790   7.5625418776e+01  -2.5370090364e+00    0.1704467    0.0949742  33.45 9.200971e-05    1.762    0.433
       195  -9.5885    230.1663    247.2147   6.8351379817e+01  -6.4525293593e+00      0.13592    0.1108921  -2.18 0.0004976811    1.276    0.216
       196  -9.7958    200.2270     21.8079   2.6446649942e+01   3.3405185317e+01    0.1485359    0.1362616  68.33 0.0003949495    1.302    0.232
       197 -12.9173      8.7186     29.2388   8.3582121173e+01   7.1352093334e+01    0.3719679    0.2335869  33.02  0.001203015    1.863    0.463
       198 -11.3851      2.2737     20.3602   8.4076473163e+01   7.3510448302e+01    0.2911497    0.2425132 -27.07 0.0007837696    1.125    0.111
       199 -10.3557      6.7386     19.9472   8.0775147545e+01   7.3219924518e+01    0.2456665    0.1515617 -32.94  0.001472729    1.375    0.273
       200  -9.6547    215.2920     19.0896   2.4617993102e+01   3.0592593608e+01    0.1685743   0.09674426  -4.43 0.0007017822    4.344    0.770
       201  -9.6787    184.4742     19.4988   2.7331548198e+01   3.7074091027e+01    0.1245851    0.1053595 -73.26  5.59543e-05    1.002    0.002
       202  -9.2997    120.0957     19.1596   3.5804774393e+01   5.2129657143e+01     0.172934    0.1422553 -82.65 0.0003315892    1.270    0.213
       203 -11.3173     69.8736     18.0911   4.7835129587e+01   6.3623279982e+01    0.3609365     0.173522  56.91  0.001372954    2.067    0.516
       204  -9.4009    224.5060    247.5231   6.9365793599e+01  -5.9091879237e+00    0.1136086   0.08352736  -4.10 0.0002027539    1.016    0.015
       205 -10.0663    170.7251    246.8378   7.9266568758e+01   3.3914885554e-01    0.2137558    0.1412861  12.20  0.001058704    1.356    0.262
       206  -9.5710    116.1558    246.7501   9.0605823522e+01   7.3016791199e+00    0.1620849    0.1346759  -6.87 0.0007952246    1.299    0.230
       207 -10.8727     75.2166     17.9777   4.6063839069e+01   6.2510293384e+01    0.2782095    0.1653266  54.26 0.0004207213    1.542    0.352
       208  -9.4334     54.4632     18.4718   5.3719066304e+01   6.6635609526e+01    0.1277908    0.1115383  20.96 4.641234e-05    1.034    0.033
       209 -10.5099     52.4578    244.4836   1.0419257992e+02   1.5489146857e+01    0.2502531    0.1411974 -61.19  0.001409764    1.982    0.495
       210  -9.8832    147.0067    244.0009   8.3707825847e+01   3.7912407036e+00    0.2014485    0.1350869  -6.79 0.0008975401    1.696    0.410
       211 -10.0574    153.9864     17.0233   3.0009320476e+01   4.4304267458e+01    0.2006676    0.1319931 -65.97 0.0003492496    1.555    0.357
       212 -10.1015    125.3127     17.0798   3.4178339517e+01   5.1100195927e+01    0.2158756    0.1559745  58.76 0.0002125199    1.259    0.206
       213 -10.1006     39.1445    242.3261   1.0688483441e+02   1.7359844127e+01     0.264578     0.108557  73.60  0.001025559    3.422    0.708
       214 -10.6412    170.7775     15.9980   2.7806152715e+01   4.0523944836e+01    0.2220041    0.1611885 -87.54 0.0003238456    1.262    0.207
       215 -10.9384    160.7350     15.8339   2.8863415357e+01   4.2851322391e+01    0.3820791    0.1500543  65.80 0.0008707324    2.253    0.556
       216  -9.4387     61.2028    240.6259   1.0199334033e+02   1.5263909326e+01    0.1666506    0.1083832  19.99 0.0005280694    1.659    0.397
       217 -10.4718     28.9712    241.0000   1.0895416034e+02   1.8670903753e+01    0.1896185   0.05898498  27.96 0.0006546418    2.937    0.659
       218  -9.7052     72.4362     13.9351   4.5086364500e+01   6.3535438100e+01    0.1747071   0.09839785 -49.81 0.0008070794    2.557    0.609
       219  -9.2505      3.4919    177.5324   1.1102541635e+02   3.5326532204e+01    0.1280089    0.1089313  85.30 3.179626e-06    1.030    0.029
       220  -9.4100    204.1763    235.4039   7.1126793314e+01  -1.9782414193e+00    0.1468028   0.09986512  29.49 0.0004934285    1.506    0.336
       221 -10.0917     49.7665    235.4494   1.0409444480e+02   1.7610929750e+01    0.1626028    0.1129395  18.13 0.0008622566    1.622    0.383
       222  -9.1575    238.7347    234.3143   6.4912354003e+01  -5.6455748814e+00   0.09356478   0.08156612 -22.85 0.0003244895    1.545    0.353
       223 -10.2233    220.3252     11.3092   2.2593446900e+01   3.0427181995e+01    0.1007574    0.0865633  44.93 0.0002819732    1.654    0.395
       224  -9.0865    105.4953     11.4947   3.5796609925e+01   5.6326138122e+01    0.1296661    0.1144807  58.96 1.983899e-05    1.011    0.011
       225  -9.9057     32.1864    233.1719   1.0778909694e+02   1.9955236039e+01    0.1651639    0.1517761  51.50 0.0004482814    1.156    0.135
       226 -10.2518    245.0795    230.1539   6.3213939825e+01  -5.7466554234e+00     0.306428    0.1268078  25.26  0.001667221    2.459    0.593
       227  -9.0291    205.6351    229.3177   6.9893520169e+01  -1.2501273726e+00    0.1048603   0.09591646  48.43 0.0007039882    1.775    0.437
       228 -10.8650    140.2495    228.0485   8.2934687015e+01   7.4829423477e+00    0.2818633    0.2180938 -75.41  0.001357442    1.904    0.475
       229 -12.8676     10.7585    243.6022   1.1283580214e+02   1.9884921689e+01    0.6705666    0.2988748 -87.86  0.003620342    2.239    0.553
       230 -11.0407      1.4961    223.9935   1.1390440454e+02   2.4741757050e+01    0.1661787    0.1256689  75.83 0.0003753527    1.111    0.100
       231  -9.7273    223.4453    226.5143   6.6247548477e+01  -2.9165890713e+00    0.1192467   0.08982299  -9.06   8.8049e-05    1.009    0.009
       232 -12.2194      3.2359    247.7852   1.1449538944e+02   1.9729660907e+01    0.5590802    0.3985394  47.22  0.003646747    1.155    0.134
       233  -9.4123    241.3508    225.2949   6.3032134540e+01  -4.7083168760e+00    0.1197137   0.06879257  -7.17 0.0007032458    1.681    0.405
       234  -9.6350     86.4473     10.4470   3.9617235835e+01   6.0805699070e+01     0.127904    0.1125507  49.09 -1.385891e-05    1.012    0.012
       235  -9.0454     61.4446    224.5039   1.0052274389e+02   1.8574603244e+01    0.1281726    0.1112913  54.11 0.0001249655    1.020    0.020
       236 -10.1806    131.2589    221.3882   8.3970210454e+01   9.9832646877e+00    0.2589189    0.1189473  27.25  0.001126315    2.108    0.526
       237 -11.5171      8.5499    218.6099   1.1213184970e+02   2.5311016124e+01    0.3704602    0.1354153 -60.35  0.001239234    2.911    0.656
       238 -10.3765      2.0683    219.1813   1.1357300489e+02   2.5732774091e+01    0.2466383    0.1073108  66.43 0.0009845198    2.106    0.525
       239 -10.0699     28.4653    219.5027   1.0772153175e+02   2.3266517059e+01     0.125021     0.104147  63.25 0.0008096286    1.013    0.013
       240 -10.5017     85.9282    215.0285   9.3720567898e+01   1.7551128078e+01    0.1912562    0.1774256  44.19  0.001191157    1.014    0.014
       241  -9.3600    205.5220    211.5085   6.6960961239e+01   1.5204360064e+00    0.1281438    0.1003282  -9.00 5.860575e-05    1.051    0.048
       242  -9.4876     20.4831    209.5228   1.0890436982e+02   2.6275697188e+01    0.1284316    0.1029345  65.18 0.0001640112    1.063    0.059
       243 -10.4068     39.3854    207.1963   1.0422397206e+02   2.4928317154e+01    0.2385083     0.178857  56.16 0.0005869672    1.202    0.168
       244  -9.5166    123.9998    205.9754   8.3349705653e+01   1.4123359522e+01    0.1579195     0.143718  19.12 -0.003769674    1.018    0.018
       245  -9.2533     46.4184    202.4969   1.0207499721e+02   2.5259556030e+01     0.132417    0.1160665  67.84 0.0001243233    1.029    0.028
       246  -9.3627    193.9974    201.4806   6.7399411119e+01   4.7226770828e+00    0.1872083    0.1193528  27.34 0.0005664545    1.556    0.357
       247 -10.9383      4.4844    201.0721   1.1214826667e+02   2.9608466749e+01    0.1862003    0.1067141 -82.40 0.0008403362    1.570    0.363
       248  -9.2409      6.3440    192.2936   1.1121165367e+02   3.1524698386e+01    0.1210055   0.08935929 -44.67 0.0007029835    1.662    0.398
       249  -8.9217     18.3418    182.3120   1.0750085105e+02   3.2954282378e+01    0.1312536   0.09260045 -42.63 0.0007046204    1.700    0.412
       250 -10.1630     13.6493    181.1530   1.0863672109e+02   3.3639843154e+01    0.3035137      0.13179  87.49  0.001285726    2.399    0.583
