#   1 NUMBER                 Running object number                                     
#   2 MAG_AUTO               Kron-like elliptical aperture magnitude                    [mag]
#   3 X_IMAGE                Object position along x                                    [pixel]
#   4 Y_IMAGE                Object position along y                                    [pixel]
#   5 X_WORLD                Barycenter position along world x axis                     [deg]
#   6 Y_WORLD                Barycenter position along world y axis                     [deg]
#   7 A_WORLD                Profile RMS along major axis (world units)                 [deg]
#   8 B_WORLD                Profile RMS along minor axis (world units)                 [deg]
#   9 THETA_WORLD            Position angle (CCW/world-x)                               [deg]
#  10 FWHM_WORLD             FWHM assuming a gaussian core                              [deg]
#  11 ELONGATION             A_IMAGE/B_IMAGE                                           
#  12 ELLIPTICITY            1 - B_IMAGE/A_IMAGE                                       
         1 -12.2063    186.1779     42.0040   5.0609735607e+01   3.3463782417e+01     1.390234    0.9251606  47.78  0.005405423    1.573    0.364
         2  -9.2582    205.2780     13.0111   4.0288365993e+01   3.2254279215e+01    0.6159848    0.3566924  87.62  0.003056017    1.762    0.432
         3  -9.2834    205.2301      8.7558   3.9207060526e+01   3.2711768389e+01     0.431772    0.3302922  89.99  0.002510939    1.190    0.160
         4  -9.3411    212.5024     10.9953   3.9065919704e+01   3.0742494642e+01    0.4774359    0.3731082  -4.49  0.002781268    1.704    0.413
         5  -9.6937    210.1684      6.8687   3.8262283290e+01   3.1725722742e+01    0.5456689    0.3076529 -88.75  0.002738915    1.796    0.443
         6  -8.2279    119.8750      8.5575   5.1409846671e+01   5.3739549792e+01    0.3247345    0.1713473  50.73  0.001562619    1.627    0.385
         7  -8.2712    238.1010      3.4184   3.5162821344e+01   2.5688594765e+01    0.1769259    0.1600705 -44.57 0.0004630731    1.242    0.195
         8  -7.2239    124.4574      3.5130   4.8615336817e+01   5.3091075813e+01    0.1332024    0.1165988  47.80 0.0001313184    1.004    0.004
         9  -9.1949    220.8328    209.7069   8.4457875936e+01  -2.3916389496e+00    0.3213041    0.2742515 -86.89   0.00135073    2.215    0.549
        10  -8.0845    249.2520    250.3841   8.6327380332e+01  -1.1570064100e+01    0.1514396   0.08798978  36.32 0.0009559466    1.680    0.405
        11  -9.3824    132.8625    249.0366   1.0725434737e+02   5.6928809408e+00    0.2259579    0.1902987  -0.68  0.001267963    1.567    0.362
        12  -9.3175    124.8794    250.1754   1.0887739847e+02   6.7187974818e+00    0.3434944    0.1293204  42.59  0.001449974    2.088    0.521
        13  -9.0231    125.3659    246.2315   1.0834439547e+02   7.2790258458e+00    0.1770898    0.1513871 -75.11 0.0005917435    1.392    0.282
        14 -10.3087    109.4973    249.5686   1.1167380950e+02   9.0957120785e+00    0.2475888    0.1925904  43.42 0.0005834681    1.126    0.112
        15 -10.2024    104.5781    248.3268   1.1246012576e+02   1.0016836675e+01    0.4026006    0.3473531 -33.54  0.002194074    1.655    0.396
        16 -17.7745     28.0195    238.2036   1.2540439371e+02   2.1603446891e+01     2.797039     2.341446  61.97   0.01363077    1.269    0.212
        17  -8.4841    133.0065    202.4868   1.0100981928e+02   1.3870215711e+01    0.2273053    0.1898318 -25.99 0.0006568047    1.468    0.319
        18  -9.1685    101.6695    202.8001   1.0782904509e+02   1.8943962767e+01    0.2335991    0.1801037 -64.79  0.001057776    1.367    0.268
        19  -7.6862     98.4055    198.8956   1.0802333375e+02   2.0260864992e+01    0.2909563    0.1766386  69.19  0.001135746    1.972    0.493
        20 -10.5332    146.1035    221.7438   1.0113252463e+02   8.1106557927e+00    0.3381256    0.2225445  29.39  0.001841447    1.505    0.335
        21 -10.3239    152.1916    216.7558   9.9155719000e+01   7.9632209281e+00    0.5528433    0.3523113   5.87  0.002485862    2.724    0.633
        22  -7.7682    245.3191    200.2995   7.8316797197e+01  -4.8705921292e+00    0.1304742    0.0831278   3.77 0.0002254601    1.619    0.383
        23  -9.2027    210.1694    199.4696   8.4586828556e+01   9.0263371377e-01    0.2405605    0.1972436  -0.21 0.0002541295    1.120    0.107
        24  -7.7071    129.0000    196.9401   1.0102292723e+02   1.5654623570e+01    0.2103995   0.07853303 -53.62 0.0007978635    2.911    0.656
        25  -9.7576     81.2930    195.4544   1.1133350341e+02   2.3545623407e+01    0.5344567    0.2582108  61.85  0.002047514    2.512    0.602
        26  -7.0757    220.2316    195.0224   8.1838945960e+01  -1.0031003634e-01    0.1616451    0.1031686 -31.50 0.0002896138    1.546    0.353
        27  -8.7527    210.7498    194.9419   8.3622067662e+01   1.5189371982e+00    0.2219898    0.1720292  29.23 0.0004174946    1.193    0.162
        28  -9.2976    157.5036    218.3680   9.8318236696e+01   6.7886699430e+00    0.3611759    0.2035822  32.71  0.001802522    1.668    0.400
        29  -8.4530     91.6891    192.3042   1.0863214424e+02   2.2691498385e+01    0.2618862    0.2193234  55.87     0.001426    1.094    0.086
        30 -10.6701    134.7056    218.8973   1.0305440566e+02   1.0498047697e+01    0.4595369    0.2616692  28.62  0.002239252    1.945    0.486
        31  -8.4548     97.1907    191.1366   1.0724134840e+02   2.2098426275e+01    0.2787422    0.1824493 -69.37  0.001144102    1.595    0.373
        32  -9.1071    236.9299    190.6702   7.7945702555e+01  -2.1854325229e+00     0.231179    0.1758321 -31.85 0.0005208491    1.344    0.256
        33 -10.1661    178.3186    190.3121   8.9249630885e+01   8.0784589199e+00    0.2430456    0.2393571  19.16 0.0002796401    1.145    0.126
        34  -9.4838     91.5479    215.0212   1.1145832280e+02   1.8007183014e+01    0.3392795     0.244395  81.81  0.001036484    1.438    0.305
        35  -8.4442    130.6599    189.8521   9.9519887230e+01   1.6807130012e+01    0.2123023     0.177962  32.45 0.0003773408    1.197    0.165
        36  -7.9368     73.3332    189.5985   1.1238382351e+02   2.5940747593e+01    0.2047359    0.1454169 -50.08 0.0007200621    1.647    0.393
        37  -7.8526     15.1501    187.9164   1.2465975696e+02   3.2961317705e+01    0.1715425    0.1168903  67.86  0.001140483    1.229    0.186
        38  -8.0209    120.2297    212.7763   1.0521375390e+02   1.4005199618e+01    0.1695801    0.1515313  13.63 0.0005961576    1.335    0.251
        39  -8.9555     72.9747    173.0244   1.1035256144e+02   2.9730075394e+01    0.3716689    0.2075143  55.77  0.001557663    1.855    0.461
        40  -9.7741     72.0086    183.8320   1.1197851588e+02   2.7404067750e+01    0.5563507    0.3747855  89.01  0.002409006    1.519    0.341
        41  -8.8832     63.8979    168.8948   1.1197041097e+02   3.1908100483e+01      0.26467    0.1687183 -63.29 0.0003661487    1.464    0.317
        42 -10.5577     76.0883    180.0756   1.1056256346e+02   2.7683224110e+01    0.7186736    0.3728677 -65.29  0.002301047    1.860    0.462
        43  -8.3025    129.2302    185.1090   9.9053407035e+01   1.8042523231e+01     0.230559    0.1623927  87.17  0.001082773    1.981    0.495
        44  -8.7265    123.9335    184.2106   1.0011002520e+02   1.9161814230e+01    0.2145498    0.1735046  63.91 0.0004303511    1.269    0.212
        45  -8.1591    110.7159    183.5783   1.0304351241e+02   2.1554463792e+01     0.237344    0.1658194 -87.91  0.001165895    1.766    0.434
        46  -9.2775     16.5128    183.9902   1.2410341743e+02   3.3686818286e+01    0.2374055    0.1606768  29.58 0.0006694548    1.823    0.451
        47  -9.5962     24.9519    177.7022   1.2182810314e+02   3.4281638987e+01    0.5252882    0.3188193 -86.23  0.003135369    1.387    0.279
        48 -10.3407     15.3080    174.3537   1.2363599838e+02   3.5916771955e+01    0.6725612    0.4003778   6.16  0.003127625    3.117    0.679
        49  -8.9197    151.3331    180.8919   9.3321967518e+01   1.4886451990e+01    0.4602304    0.2445288 -63.72  0.001759992    2.907    0.656
        50 -10.5200     68.8094    175.0468   1.1160499904e+02   2.9833319161e+01     0.750686    0.3812229  67.48  0.002578459    2.612    0.617
        51  -7.5851     22.6212    183.2899   1.2277934179e+02   3.3268299980e+01    0.3710796    0.1497325  61.91   0.00173461    2.585    0.613
        52  -9.2406    142.8352    209.0755   9.9927295392e+01   1.0936706279e+01     0.283271    0.1850586 -39.93  0.001477209    1.804    0.446
        53  -7.9478    189.6011    177.7347   8.4464306910e+01   8.2614272483e+00    0.2529664    0.1891079 -48.51  0.001046128    1.509    0.337
        54  -7.0809    221.5146    177.5219   7.8138639091e+01   2.4543221616e+00    0.1374782    0.1201758  -0.88 2.880804e-05    1.015    0.014
        55  -8.6373    199.1757    174.8162   8.1920739311e+01   6.9848931086e+00    0.2221942    0.2037749   3.84  0.000403576    1.029    0.028
        56  -7.5581     89.6956    174.6257   1.0659924860e+02   2.6922356433e+01    0.2014341    0.1647325 -19.34  0.001085194    1.716    0.417
        57  -8.0187    245.6465    228.6707   8.3364923009e+01  -8.6051637728e+00    0.1278922    0.0744077   6.23 0.0007046479    1.775    0.437
        58  -8.5163    127.6733    174.3780   9.7549103408e+01   2.0607781037e+01     0.231653    0.1704936  74.83 0.0009288534    1.696    0.410
        59  -8.1893    222.3317    227.1376   8.7225488571e+01  -5.0406305004e+00    0.1930272    0.1348608  20.81 0.0002402829    1.201    0.168
        60  -7.9433    185.2724    172.4070   8.4281690746e+01   1.0067042026e+01    0.2258299    0.1797969 -65.52 0.0004733271    1.677    0.404
        61 -10.6947     17.8428    164.2850   1.2225462430e+02   3.7964118801e+01    0.7684911    0.3706175  50.99  0.004137963    2.031    0.508
        62 -10.3699     78.4743    167.9762   1.0831816408e+02   3.0124663211e+01    0.9407578    0.3878878 -47.89  0.003355464    2.833    0.647
        63  -9.1659     83.9371    170.1038   1.0730672327e+02   2.8830756852e+01     0.289748    0.2623582 -32.10 0.0009595967    1.361    0.265
        64  -9.2774     87.0840    165.8833   1.0589335162e+02   2.9337908211e+01    0.4186286    0.3316443  89.19    0.0014068    1.273    0.215
        65  -7.5884    109.0312    169.0253   1.0104990556e+02   2.5070077330e+01    0.1708039    0.1565437  57.40 0.0003231304    1.055    0.052
        66  -8.8222    128.1610    166.7961   9.6041005357e+01   2.2177533339e+01    0.4312776    0.2276257  39.69  0.001376042    1.856    0.461
        67  -6.7088      6.2917    165.2839   1.2490316732e+02   3.8690153566e+01    0.1080475   0.07635847 -57.62 0.0003372717    1.535    0.349
        68  -6.9627    227.6411    163.7149   7.4125647367e+01   3.6293904163e+00    0.1443222   0.09936558   6.49 0.0007020782    1.677    0.404
        69 -10.1106     60.6176    162.7408   1.1195175622e+02   3.3773884904e+01    0.5161198    0.2132186  35.72  0.002236903    2.482    0.597
        70  -9.5706     56.0403    160.3612   1.1276251895e+02   3.4906338732e+01    0.3548236    0.2594855  65.37  0.001682534    1.351    0.260
        71  -9.9679     18.2046    159.9691   1.2179080441e+02   3.8921142994e+01    0.3757907    0.2281855  27.20  0.001920037    2.024    0.506
        72  -7.7716      1.5205    162.8694   1.2577025247e+02   3.9591061685e+01    0.2227144   0.08349367 -72.24  0.001120271    2.050    0.512
        73  -7.3069    132.2304    162.4135   9.4223193714e+01   2.2388022664e+01    0.1488808    0.1116301 -24.60 0.0006887754    1.686    0.407
        74  -9.6205     72.3699    161.0677   1.0880561378e+02   3.2611223788e+01    0.4884805    0.1736964  37.42   0.00190522    2.779    0.640
        75  -9.4159     27.7680    153.1799   1.1885328861e+02   3.9644537935e+01    0.3452221    0.2270518 -80.95  0.002034818    1.272    0.214
        76  -7.9686     35.4592    158.2363   1.1753674452e+02   3.7707848072e+01    0.2211509    0.1473234  75.71 0.0006715367    1.451    0.311
        77  -9.4025     32.1544    156.2124   1.1811407264e+02   3.8512952237e+01    0.3451298     0.218628 -49.02  0.001930343    1.771    0.435
        78  -8.0035    149.5569    156.8711   8.8971223771e+01   2.0237183746e+01    0.2852247    0.1447606 -42.82  0.001129443    2.036    0.509
        79  -7.6074     93.9057    157.5104   1.0280637442e+02   3.0237318595e+01    0.1977108    0.1398419  38.00 0.0005709346    1.465    0.317
        80  -8.9825     22.7135    156.5024   1.2040913223e+02   3.9327823823e+01    0.2111616    0.1466554  65.34  0.000630904    1.378    0.274
        81  -8.9177     60.0319    155.2036   1.1105908518e+02   3.5639805309e+01    0.2506686    0.1588084 -83.36  0.001194173    1.601    0.375
        82 -10.4583     83.0026    151.6210   1.0459083321e+02   3.3330352675e+01    0.4734045    0.2713704 -41.21 0.0009706666    2.122    0.529
        83  -8.9465      6.6536    153.9975   1.2394470413e+02   4.1217220790e+01    0.3757374    0.2111731   7.63  0.002036633    2.942    0.660
        84  -6.8276    126.6456    207.3037   1.0309056488e+02   1.4006697561e+01    0.1397241   0.09497181  65.69  0.000704003    1.710    0.415
        85  -8.6434     97.0370    152.2262   1.0106304557e+02   3.0978767187e+01    0.4197187    0.2460027  46.75  0.001902974    1.735    0.424
        86  -8.9317    100.2358    148.9831   9.9628311464e+01   3.1215904875e+01    0.3166496    0.1981924 -55.93  0.001407251    1.543    0.352
        87  -9.8780     20.6912    151.7682   1.2042559782e+02   4.0608744901e+01    0.3308285    0.2451448  14.56  0.001554506    1.863    0.463
        88 -10.4946     20.2285    146.8474   1.2003863657e+02   4.1801646702e+01    0.4154184    0.2824408  29.84   0.00176923    1.767    0.434
        89  -8.0236      1.9844    151.7289   1.2483970706e+02   4.2070962960e+01    0.2267944     0.116739  88.46 0.0009452546    1.660    0.398
        90  -7.6349    150.4265    147.7248   8.6782087027e+01   2.2033024952e+01    0.2775243    0.1481559 -51.32 0.0006432072    1.978    0.494
        91  -9.8937     44.3746    146.5667   1.1388207476e+02   3.9549266178e+01    0.3577738     0.299584  55.01   0.00131094    1.254    0.203
        92  -8.9725    133.7507    145.1890   9.0280518829e+01   2.5945413437e+01    0.5832139    0.1327383 -54.39  0.001185908    7.577    0.868
        93 -10.6219      2.9326    132.8456   1.2299045619e+02   4.6357523168e+01    0.5004582    0.1961375 -70.16   0.00250408    1.899    0.474
        94 -10.6252      4.8400    140.2782   1.2319851060e+02   4.4505892668e+01    0.4164712    0.3473209  88.58  0.001784338    1.106    0.096
        95  -7.4410    157.0088    146.5140   8.4959800901e+01   2.0939734283e+01    0.2195942    0.1495228  41.57 0.0009882938    1.463    0.317
        96  -8.4890     79.9308    138.6297   1.0309463567e+02   3.6925583027e+01    0.2905651    0.1817444 -45.39  0.001278682    1.663    0.399
        97  -9.2916     97.9706    137.0838   9.7872777810e+01   3.4435849455e+01    0.2641706    0.2243188  45.00 0.0003403297    1.220    0.180
        98  -8.5667    110.4886    136.6894   9.4423084017e+01   3.2333277350e+01    0.3666071    0.2152152 -25.86  0.001324608    2.914    0.657
        99  -8.6052     13.5330    134.5235   1.2043710026e+02   4.5235412886e+01    0.1243024   0.09761572 -81.43 0.0001021961    1.016    0.015
       100  -9.5708     48.3484    131.7029   1.1065137166e+02   4.2716410649e+01    0.3181951    0.2265778  82.98   0.00154809    1.505    0.336
       101 -10.9619     44.5754    130.5394   1.1152436367e+02   4.3409998997e+01     0.541284    0.3552995 -26.55  0.002729184    2.160    0.537
       102 -10.5930     29.8471    129.0950   1.1541068768e+02   4.5201144294e+01     0.578101    0.1909555  29.39  0.002428339    3.310    0.698
       103 -10.2408      7.0977    144.8713   1.2306023338e+02   4.3284283835e+01    0.3937666    0.2711508  34.71  0.002561397    1.708    0.415
       104  -9.4903     73.1273    126.0086   1.0258177016e+02   4.0985291905e+01    0.4084065    0.2065299  54.05  0.001635607    2.571    0.611
       105  -7.9626    103.9545    124.9034   9.3571997129e+01   3.6301629193e+01    0.2253047      0.19668 -21.73 0.0005763164    1.286    0.222
       106 -10.2963     57.1703    121.9881   1.0645867110e+02   4.4064212519e+01    0.6119263    0.1606047 -60.79  0.002030232    3.235    0.691
       107  -9.6991    202.3239    120.7005   6.9006379538e+01   1.6354405364e+01    0.3083163    0.2478069 -32.35 0.0003918743    1.181    0.153
       108  -8.5651    145.9667    122.7035   8.1928435544e+01   2.8433010899e+01    0.2505341     0.212992 -42.01 0.0004146998    1.157    0.136
       109  -9.2751     34.7323    144.4822   1.1610511401e+02   4.1044392271e+01    0.3182753    0.2081469  -1.75  0.001638048    2.524    0.604
       110  -7.5930    109.6582    117.6684   9.0255158301e+01   3.6957546727e+01    0.3085816    0.1770765  60.88 0.0009372037    2.551    0.608
       111  -8.0877    207.2014    117.0943   6.7189230838e+01   1.5955754972e+01    0.2243606    0.1941748  -7.45 0.0003895516    1.210    0.173
       112 -10.3355     45.4710    115.5869   1.0877597055e+02   4.6953415870e+01    0.3392644    0.3011515  53.81  0.001118256    1.264    0.209
       113  -9.0991    209.1202    204.1642   8.5655157242e+01   3.4906377746e-01    0.2489846     0.185105  35.34 0.0003616721    1.276    0.217
       114  -8.1114     13.5037    115.4861   1.1821128809e+02   4.9746063714e+01    0.1261628   0.09823777 -67.79 -3.18407e-05    1.052    0.050
       115  -7.1139    133.3510    118.7268   8.4118668069e+01   3.1995201598e+01    0.1569746    0.1246024  81.63 0.0004831578    1.634    0.388
       116  -8.3160      2.0000    108.9975   1.2072934416e+02   5.1978380327e+01    0.2094354   0.05395204 -72.77 0.0005912405    2.970    0.663
       117  -8.7963     65.8796    105.4576   1.0040597094e+02   4.6956621123e+01    0.2575689    0.1746557 -42.93  0.001293723    1.413    0.292
       118  -8.0610      4.6481    106.3231   1.1962731008e+02   5.2456161265e+01    0.1231199   0.07883535  71.02 0.0001765843    1.754    0.430
       119  -8.5376     39.2452    104.1351   1.0859235871e+02   5.0349552858e+01    0.2466337    0.1536486  58.21 0.0009924357    2.081    0.520
       120  -8.0697     57.2353     99.9968   1.0193275268e+02   4.9366326209e+01    0.1971115    0.1650357 -54.77 0.0004092429    1.044    0.042
       121  -8.5997     91.6598     96.9766   9.0195727782e+01   4.4990495565e+01    0.2741221    0.2264529  61.47 0.0002975548    1.436    0.304
       122  -7.3489    148.9706     96.5146   7.4144031369e+01   3.3312216095e+01    0.2180228    0.1561008  47.03 2.809197e-05    1.420    0.296
       123  -7.5871      1.4969     84.4504   1.1757323585e+02   5.7676866896e+01    0.1210945    0.0925243 -63.59 0.0001340823    1.006    0.006
       124  -8.2922    124.5927     82.4388   7.6264161276e+01   4.1649815039e+01    0.3243175    0.2252729   4.08 0.0007311752    2.125    0.529
       125 -10.2298    107.7545     76.9883   7.9364349725e+01   4.6287260599e+01    0.2514815    0.2358373  -2.89 0.0002243353    1.042    0.040
       126  -7.6623    119.0332     75.8715   7.5745689762e+01   4.4156097472e+01    0.2419508    0.1809083  -3.07 0.0006630408    1.682    0.405
       127  -8.8657    203.8024     72.9022   5.6362843923e+01   2.4484368241e+01     0.351653    0.2417051 -25.75   0.00132258    1.546    0.353
       128  -8.2337    134.7830     65.8199   6.8304664960e+01   4.2482399007e+01    0.2039679    0.1793663 -70.29 0.0003999134    1.327    0.247
       129  -8.5359    178.6916     63.0139   5.7952815362e+01   3.2224316361e+01    0.2070035    0.1927043 -36.00 0.0002287905    1.077    0.072
       130 -10.7773    170.8272     55.8666   5.7297310663e+01   3.5309932370e+01    0.5387744    0.4046817  24.50  0.002058302    1.630    0.387
       131  -8.2098    153.3952     50.6307   5.9106229733e+01   4.0460473819e+01    0.2171073    0.1711592 -69.72 0.0005453245    1.517    0.341
       132  -9.6598     90.7221    246.7961   1.1487119372e+02   1.2248084590e+01    0.3701346    0.2892607  66.43  0.002101961    1.121    0.108
       133 -10.6892    190.3282     35.4379   4.8137513764e+01   3.3295537481e+01    0.5915251    0.3766147  44.43  0.002115184    1.749    0.428
       134  -7.4118    134.3828     29.7674   5.6102208190e+01   4.7998287139e+01    0.1792795    0.1352586  -7.97 0.0002521225    1.480    0.324
       135  -8.2802    165.0522     20.8204   4.7559949293e+01   4.1399575221e+01    0.2057424    0.1922545 -32.25 0.0002512693    1.153    0.133
       136  -8.4770    132.3703     17.4638   5.2151275806e+01   4.9883827841e+01    0.2437117    0.2034092  33.74 0.0003508219    1.161    0.139
       137  -8.6930     87.8021    241.7001   1.1493995854e+02   1.3543954954e+01    0.4292215    0.1416095  52.50  0.001830979    2.918    0.657
       138  -9.7854    117.9307    243.7360   1.0947238412e+02   8.8124639419e+00    0.3680163    0.2394615 -32.38  0.002034497    2.524    0.604
       139 -10.3623    240.3401    202.4077   7.9584411046e+01  -4.4056372650e+00    0.2481437    0.2153063  -8.06  0.000290157    1.186    0.157
       140  -7.9622    234.5606    239.4890   8.7093448424e+01  -8.3678721817e+00    0.1187432   0.08966667  11.08 1.787004e-05    1.016    0.016
       141  -8.2766    250.6548    237.2123   8.3952365855e+01  -1.0291833811e+01    0.1847261   0.09606314 -32.89 0.0005941688    2.024    0.506
       142  -7.9582    186.0040    228.5522   9.4260911983e+01   4.4270133575e-01    0.2688961    0.1450644 -35.20  0.001392351    2.135    0.532
