#   1 NUMBER                 Running object number                                     
#   2 MAG_AUTO               Kron-like elliptical aperture magnitude                    [mag]
#   3 X_IMAGE                Object position along x                                    [pixel]
#   4 Y_IMAGE                Object position along y                                    [pixel]
#   5 X_WORLD                Barycenter position along world x axis                     [deg]
#   6 Y_WORLD                Barycenter position along world y axis                     [deg]
#   7 A_WORLD                Profile RMS along major axis (world units)                 [deg]
#   8 B_WORLD                Profile RMS along minor axis (world units)                 [deg]
#   9 THETA_WORLD            Position angle (CCW/world-x)                               [deg]
#  10 FWHM_WORLD             FWHM assuming a gaussian core                              [deg]
#  11 ELONGATION             A_IMAGE/B_IMAGE                                           
#  12 ELLIPTICITY            1 - B_IMAGE/A_IMAGE                                       
         1 -13.1667    197.5049     31.0510   6.4799028278e+01   3.2523517958e+01     1.277436     1.030413  58.76  0.007670456    1.296    0.228
         2 -13.4332    214.1494     13.2039   5.8870615716e+01   3.0767024969e+01    0.9806515    0.8314292  49.20  0.006457381    1.515    0.340
         3 -11.8711      2.2738     22.3986   1.1602830474e+02   6.9734443500e+01    0.5871668   0.09291191 -49.60  0.002083877    5.562    0.820
         4 -11.8430      2.2323      4.4802   1.0870012809e+02   7.2226142415e+01    0.5478828    0.2673607 -27.79  0.003631318    1.629    0.386
         5 -10.2823     14.5307     12.5177   1.0626800886e+02   7.0143441080e+01    0.1657244   0.08867721  35.08 0.0007932819    2.307    0.567
         6 -12.4190    137.8447    249.8086   1.2469676286e+02   2.9281556193e+00    0.5353982    0.4829771   4.86  0.003479573    1.380    0.275
         7 -11.4059    125.7504    250.0038   1.2709802172e+02   4.9083970538e+00    0.4525148    0.1388749  40.97  0.001753725    2.786    0.641
         8 -11.2547     81.6405    249.7348   1.3555798257e+02   1.1938936665e+01    0.3025856     0.200459  47.12  0.001820732    1.336    0.252
         9 -14.7767    103.9444    228.8934   1.2879226035e+02   1.2625282720e+01     9.090637    0.6488487  46.03    0.0175569   10.778    0.907
        10 -11.1018     63.6636    246.4841   1.3859523643e+02   1.5169979344e+01    0.3018551    0.1843986  81.36 0.0006430671    1.555    0.357
        11 -13.2621     33.2778    246.9100   1.4406160457e+02   1.9042977841e+01     1.266768    0.7366817  38.57  0.007786202    1.894    0.472
        12  -8.9046    152.7308    212.9784   1.1606575581e+02   7.3071091280e+00    0.1823768    0.1766776  73.69 0.0003093077    1.065    0.061
        13 -11.1616    109.5260    240.8643   1.2916496836e+02   9.3049885303e+00    0.2870465    0.1406197  54.35  0.001339305    1.940    0.485
        14 -11.4894     58.5906    195.5950   1.3430614125e+02   2.6916616069e+01    0.3335069    0.2396188 -51.90  0.001240193    1.603    0.376
        15  -9.7096    192.8431    194.4008   1.0414320293e+02   3.4251414886e+00     0.322108    0.1687925 -59.01  0.001215205    2.876    0.652
        16 -11.6577     64.9777    187.7826   1.3187996140e+02   2.7881762513e+01    0.2838364    0.2360212 -60.52 0.0004304286    1.275    0.215
        17 -12.6622     30.8206    228.6859   1.4314879736e+02   2.3048877501e+01    0.3213926    0.2541753 -85.35 0.0007635227    1.206    0.171
        18 -10.7661     75.5083    175.4101   1.2761957360e+02   2.9338402115e+01    0.2578388    0.2310448 -78.35 0.0002927181    1.072    0.067
        19 -13.1021     62.1616    173.0286   1.3049351681e+02   3.1824721443e+01    0.5545299    0.2837132 -46.85  0.002160801    2.279    0.561
        20 -11.8138     83.4858    166.3005   1.2416552318e+02   3.0341278149e+01     0.700532    0.6262147 -76.83  0.003987698    1.032    0.031
        21 -14.2510     36.6346    221.1254   1.4144109840e+02   2.3966670441e+01     1.365105    0.9505866 -45.25  0.005497435    2.192    0.544
        22  -9.8950     96.4980    151.0066   1.1797134114e+02   3.1955331922e+01    0.2835371    0.2708757 -47.98 0.0007567829    1.130    0.115
        23 -11.9036     84.9495    149.9391   1.2080953228e+02   3.4138938831e+01    0.3093975    0.2543585 -47.59 0.0005066951    1.241    0.194
        24 -12.2669     67.5974    143.7161   1.2428970724e+02   3.8276615441e+01    0.7166372    0.4810888  68.12   0.00270828    1.822    0.451
        25 -15.2726      5.5745    140.5265   1.4018478956e+02   4.5508705290e+01     6.913509     1.822057 -76.91   0.02338288    4.158    0.760
        26  -8.5565    192.2869    143.7284   9.3393895590e+01   1.3888784652e+01    0.1482261    0.1200393 -82.48 0.0002580726    1.505    0.336
        27  -9.5586    108.7143    136.4945   1.1161539867e+02   3.3282849930e+01    0.3385102     0.248595 -11.58  0.001461656    2.064    0.515
        28 -10.2870     95.8174    133.5158   1.1444711257e+02   3.6336464254e+01    0.2685892    0.2297629 -43.44 0.0006216802    1.173    0.148
        29  -9.0986     99.8054    146.9169   1.1626268116e+02   3.2379503538e+01    0.2256498    0.1979808 -37.07 0.0004763165    1.248    0.199
        30 -10.5040     50.3782    129.8550   1.2650425340e+02   4.3874475031e+01    0.2409224    0.2161897  67.81 0.0006128261    1.222    0.182
        31  -8.9364    106.2007    123.1961   1.0916515559e+02   3.6910169905e+01    0.2089492    0.1947509 -28.50 0.0003402573    1.129    0.114
        32 -10.2383    167.5832    112.5388   9.1051315341e+01   2.6051070801e+01    0.3329385    0.2679849 -86.83 0.0007970416    1.457    0.314
        33  -8.7952    203.6365    111.6780   8.3584467451e+01   1.7868637472e+01    0.1527895    0.1215587  10.15 0.0007040669    1.783    0.439
        34 -11.4883     53.4297    238.7965   1.3980607745e+02   1.8114228149e+01    0.3060611    0.2105445  70.78  0.001402291    1.182    0.154
        35 -10.2697     88.9303    249.4903   1.3415686447e+02   1.0887449042e+01    0.1902728    0.1052002  44.99 0.0004793994    1.561    0.359
        36 -10.4878    248.9011    249.1098   1.0347268104e+02  -1.4465250940e+01    0.2847849    0.1444265  22.69   0.00153417    1.967    0.492
        37 -14.2665      9.6111    240.6702   1.4767600448e+02   2.2958954666e+01     3.076529     1.948709 -66.05    0.0209183    1.745    0.427
        38 -11.3919     98.8624    248.4794   1.3214800084e+02   9.5432607689e+00    0.2947176    0.1981789  32.56  0.001652873    1.719    0.418
        39 -13.4427      9.6189    207.1274   1.4547060623e+02   2.9953552485e+01     1.875353     1.186427  14.15   0.01067946    2.940    0.660
