#   1 NUMBER                 Running object number                                     
#   2 MAG_AUTO               Kron-like elliptical aperture magnitude                    [mag]
#   3 X_IMAGE                Object position along x                                    [pixel]
#   4 Y_IMAGE                Object position along y                                    [pixel]
#   5 X_WORLD                Barycenter position along world x axis                     [deg]
#   6 Y_WORLD                Barycenter position along world y axis                     [deg]
#   7 A_WORLD                Profile RMS along major axis (world units)                 [deg]
#   8 B_WORLD                Profile RMS along minor axis (world units)                 [deg]
#   9 THETA_WORLD            Position angle (CCW/world-x)                               [deg]
#  10 FWHM_WORLD             FWHM assuming a gaussian core                              [deg]
#  11 ELONGATION             A_IMAGE/B_IMAGE                                           
#  12 ELLIPTICITY            1 - B_IMAGE/A_IMAGE                                       
         1 -10.2052     26.8264     22.8730   9.2090268322e+01   7.1745410445e+01     2.053783    0.5687357 -40.08  0.006628825    4.198    0.762
         2  -9.1984     45.9987     21.0761   7.9588096966e+01   6.9508027013e+01    0.6392127    0.2447565 -40.99  0.002570731    2.465    0.594
         3 -11.8656     80.4977     23.3061   6.5270848217e+01   6.2491609166e+01    0.5528079    0.2808985  41.61 0.0001744497    2.020    0.505
         4  -8.4759    144.6666     23.3089   4.9212486286e+01   4.6415362818e+01    0.2553417    0.2327831  38.54 0.0003243906    1.159    0.138
         5  -9.2373     74.4883     13.5297   6.2324452153e+01   6.5220746449e+01    0.3331803     0.257985   6.75  0.001451567    1.389    0.280
         6  -9.2950     78.8993     12.6867   6.0291068764e+01   6.4343154496e+01    0.4088192      0.27779  64.48  0.001715229    1.635    0.388
         7  -9.2844     63.7968     14.4354   6.7105865490e+01   6.7360559425e+01    0.4085368    0.2691032  15.91  0.001693563    1.884    0.469
         8  -9.7978    133.5646     13.5798   4.7362237089e+01   5.0470880106e+01    0.3889535    0.2406433  66.12 0.0003764233    1.532    0.347
         9  -8.0315    105.5805     12.9135   5.2731928263e+01   5.7855270498e+01    0.3889065    0.1485125 -20.39  0.001366296    3.012    0.668
        10  -8.0214     96.8485     12.0919   5.4540269397e+01   6.0141086037e+01    0.2631721    0.1902645  14.56 0.0009269732    1.590    0.371
        11  -9.7325     30.9576     10.9902   8.2915516385e+01   7.3550931277e+01    0.5032231    0.2876686  22.61   0.00144886    1.965    0.491
        12  -9.2465     32.0972      6.1974   7.9081571451e+01   7.4220755643e+01    0.2693337    0.2153279 -19.52 0.0002818702    1.114    0.103
        13  -7.3256    156.0000     11.9658   4.3410603243e+01   4.4670692286e+01    0.2216991   0.08074933 -22.74 0.0004092581    2.828    0.646
        14  -8.5747     14.0640     11.0255   9.5385842369e+01   7.5427191743e+01    0.2378157    0.1589843  -5.20 0.0006382369    1.618    0.382
        15  -9.6231     20.3386      8.6724   8.9149524753e+01   7.5276898128e+01    0.3318445    0.2273648  -4.51  0.001914644    1.586    0.369
        16  -8.7469    125.1737     10.0919   4.7406184684e+01   5.3062312720e+01    0.2223053    0.1802569  37.56 0.0004723622    1.281    0.219
        17  -8.3461    236.5511      9.1717   3.5427263860e+01   2.5402068782e+01    0.2048469    0.1726956  73.25 0.0007792292    1.346    0.257
        18  -7.1475    142.6882      9.6994   4.4411869222e+01   4.8440265825e+01    0.1482805    0.1024626  38.12 0.0002450214    1.606    0.377
        19  -9.1297     71.4818      8.9768   6.0866268954e+01   6.6476092284e+01    0.2553598     0.197632  51.30 0.0004989529    1.280    0.219
        20  -8.4723      3.7458      7.2148   1.0213807874e+02   7.6960736482e+01    0.3625517    0.1369411 -24.69  0.001455456    3.526    0.716
        21  -7.7115    156.0499      7.4552   4.1809870524e+01   4.5103852037e+01    0.2073569    0.1322581  72.85 0.0003708855    1.495    0.331
        22  -9.7996    119.2571      6.7435   4.7052021253e+01   5.4958736236e+01     0.250574    0.2354051  56.72 0.0002111794    1.023    0.023
        23  -9.4360     76.3594      6.0063   5.7428221211e+01   6.5735638249e+01    0.3992535    0.2374941 -27.21  0.001593693    1.691    0.409
        24  -9.4657     46.9378      6.0816   7.0064183658e+01   7.1812108993e+01    0.3232562    0.2196524  18.43 0.0004057475    1.612    0.380
        25  -8.5689     41.1735      5.7498   7.3075661224e+01   7.2866580420e+01     0.281463     0.204918  -9.71  0.001207428    1.397    0.284
        26  -8.6897     91.9938      5.5075   5.2492859253e+01   6.2063330677e+01    0.3621908    0.1924767  45.86 0.0009915447    1.785    0.440
        27  -9.9233     84.9190      5.4673   5.4439731916e+01   6.3787480403e+01     0.278643    0.2482422  -4.30   0.00162777    1.131    0.116
        28 -10.1921     13.3759      4.4970   9.2252082184e+01   7.6776666968e+01    0.3435304     0.246796  10.07  0.002147359    1.445    0.308
        29  -6.9513    179.3228      5.3206   3.8628007975e+01   3.9240032116e+01    0.1396481   0.09948209  38.77 0.0007045483    1.675    0.403
        30  -7.5744    131.5261      5.4544   4.4425092786e+01   5.1828115667e+01    0.1425571    0.1322267  59.72 0.0001264517    1.053    0.050
        31  -8.0537    125.5997      3.8446   4.4704380843e+01   5.3553599209e+01    0.2289806    0.1793057  54.66 0.0004340722    1.217    0.178
        32  -8.8842    110.7402      2.6639   4.6832688970e+01   5.7573820659e+01    0.3836954    0.2141263 -44.06  0.001590551    1.949    0.487
        33  -8.6892     57.7641      3.3275   6.2962060605e+01   7.0095399061e+01    0.2415564    0.2017155  17.68  0.000609303    1.118    0.106
        34  -7.4569    165.0000      3.0425   3.9285373048e+01   4.3155516392e+01    0.2251887   0.07827647 -20.89 0.0008075213    2.978    0.664
        35  -8.2820    248.4771      3.9683   3.3534417762e+01   2.3435515584e+01    0.1878885   0.09911997 -29.85 0.0009009166    1.595    0.373
        36  -7.9454    143.0412      1.9912   4.1432893794e+01   4.9066477367e+01    0.2069277    0.1955332  89.37 0.0003950565    1.013    0.013
        37  -7.9259    105.0392      1.8215   4.7581487612e+01   5.9126993811e+01    0.2605373    0.1288099  41.89  0.001089355    2.076    0.518
        38  -7.4095    159.9550      1.2218   3.9188771599e+01   4.4642234435e+01    0.1744296    0.1084425  78.57 0.0008350725    1.536    0.349
        39  -7.6805      3.1905      1.3318   9.9618714649e+01   7.8198980472e+01    0.1499899    0.1017406  24.38 0.0003723794    1.671    0.402
        40  -8.4106    240.3186     89.3399   5.4493754391e+01   1.5028529002e+01    0.1319416   0.09347053   5.76 0.0007049406    1.711    0.416
        41  -8.0525    207.3311    250.3226   8.9359437774e+01  -4.5196695613e-01    0.1089973    0.0618658   9.42 0.0007049815    1.699    0.412
        42 -10.4575    183.0104    249.6540   9.3367846247e+01   2.5642942750e+00     0.510413    0.1112756  36.80  0.002157815    3.475    0.712
        43 -10.3599    190.0869    248.7692   9.2047651927e+01   1.7895522547e+00    0.3529526    0.2598743  52.78  0.002476992    2.165    0.538
        44  -8.0252     62.4167     88.8024   9.6477609917e+01   5.1880879734e+01    0.2160784    0.1225766 -49.40 0.0009470037    1.708    0.415
        45 -10.1614     37.2622     81.2632   1.0472096077e+02   5.6879016695e+01    0.7429234    0.3943696 -27.37  0.003004497    2.872    0.652
        46  -8.5252      2.2784     85.4004   1.1963604897e+02   5.8364141326e+01    0.2351578    0.1287525  75.87  0.001196448    1.776    0.437
        47  -8.4538     65.9475     84.1380   9.3990945086e+01   5.2511946185e+01    0.2527873     0.202353 -44.67 0.0003949944    1.249    0.199
        48  -7.9508    126.3008     83.9878   7.4340490873e+01   4.0877611176e+01    0.3262986    0.1898254  25.45  0.001159349    2.751    0.637
        49  -7.6122    129.8065     97.3832   7.7248347393e+01   3.7323245445e+01    0.2174236    0.1431873  35.71 0.0007915118    1.649    0.394
        50  -9.8048      9.0240     76.8047   1.1593114781e+02   6.0199669588e+01    0.6443511    0.2366017 -36.56  0.002465768    3.552    0.718
        51  -8.6420     87.5425     79.2889   8.4793053882e+01   4.9993549977e+01    0.4800051    0.2736162  19.23  0.001692879    3.083    0.676
        52  -7.7027    200.9988     78.5469   5.7285242908e+01   2.4591975117e+01    0.3568041    0.1562755 -19.92  0.001199392    3.320    0.699
        53  -8.9207     48.4745     77.6479   9.9265823269e+01   5.6525179262e+01    0.4900237    0.2831632 -14.13  0.001885089    3.148    0.682
        54  -7.8989    184.2780     78.0679   5.9902360473e+01   2.8447649051e+01    0.2084029    0.1762971 -35.77  0.000581715    1.115    0.103
        55  -9.0219     28.7737     69.3718   1.0591902436e+02   6.0690757813e+01    0.2888219    0.1944513  -2.61  0.001282604    1.892    0.471
        56  -9.3565     24.1538     73.2876   1.0877775789e+02   6.0091325771e+01    0.5348421    0.1849084 -45.67  0.002007259    2.995    0.666
        57  -7.9706     23.3584     69.1929   1.0835257160e+02   6.1186851917e+01    0.2239884    0.1905278 -86.45 0.0003469211    1.140    0.123
        58  -8.3672     75.0026     74.2831   8.7803667131e+01   5.3413187370e+01     0.255993    0.2005547 -26.77 0.0005026412    1.464    0.317
        59  -7.6694     80.0191     70.9907   8.4908995795e+01   5.3285142374e+01    0.1862879    0.1605069 -50.25 0.0003455889    1.118    0.105
        60  -8.5025     48.7285     71.5587   9.7613073445e+01   5.8002498202e+01    0.3336742    0.1331435  32.39  0.001301521    2.616    0.618
        61  -7.4007    116.3507     68.8100   7.2292929453e+01   4.6208309500e+01    0.2221559    0.1435457 -30.94 0.0009387921    1.700    0.412
        62  -8.4991    106.8273     66.7234   7.4408152974e+01   4.8770856770e+01    0.2453756    0.1956278  27.83 0.0007347082    1.410    0.291
        63  -8.8723     83.3793     64.6795   8.1581648023e+01   5.4067339004e+01    0.5035632    0.3342226   1.47  0.001959502    2.692    0.628
        64  -9.1470     18.7650     61.8316   1.0905168129e+02   6.3370450234e+01    0.5004354    0.2096822 -34.45  0.001878383    3.028    0.670
        65  -7.2782    148.3090     63.3269   6.2472733411e+01   3.9560117466e+01    0.1566018    0.1203427  16.14  0.000703901    1.657    0.397
        66 -10.1411     61.9372     61.2876   8.8892661186e+01   5.8587051063e+01    0.6093638    0.3053247  25.19 0.0003243253    2.611    0.617
        67  -8.1933     26.4279     60.3560   1.0498984830e+02   6.3140508128e+01    0.3703471    0.1723114 -38.84  0.001491875    2.381    0.580
        68  -9.7695     36.5395     59.3855   9.9834866762e+01   6.2404550133e+01    0.4899074    0.3114325  -1.24  0.002025689    2.127    0.530
        69  -8.6180     11.2928     60.9323   1.1252846481e+02   6.4063506350e+01    0.2333025    0.1813706 -55.39 0.0007969904    1.145    0.127
        70  -7.9370    110.9171     58.6478   7.0337887604e+01   4.9442105604e+01     0.249707    0.1849288  28.86  0.001142043    1.573    0.364
        71  -8.9759    250.0000     57.4949   4.5975589207e+01   1.7280404212e+01    0.2905618   0.06084494 -28.73 0.0009374719    3.957    0.747
        72  -8.4785     99.0000     56.2268   7.3133910516e+01   5.2601819280e+01    0.2490232     0.175651  16.64  0.001065243    1.971    0.493
        73  -9.8815     75.0260     50.3551   7.9510678971e+01   5.8715765216e+01    0.4004605    0.2970746 -11.33 0.0003177555    1.725    0.420
        74  -8.0219    118.5728     51.0723   6.5399104303e+01   4.9015598829e+01    0.2341569    0.1962848  54.07 0.0004757439    1.195    0.163
        75  -9.2922     44.3756     49.3364   9.2853117365e+01   6.3858163934e+01    0.5229633     0.334988  -4.92  0.002383192    2.259    0.557
        76  -8.3520    106.6020     49.1191   6.8053178105e+01   5.2217163305e+01    0.3735777    0.2183298  21.90  0.001303493    3.048    0.672
        77  -9.1501     55.8959     43.8973   8.5215678688e+01   6.3406451244e+01    0.7552093     0.357142 -27.46  0.002417742    4.061    0.754
        78  -8.8637     10.4956     47.4961   1.1032359205e+02   6.7414744476e+01    0.2676187    0.2346911 -67.49 0.0009275263    1.058    0.055
        79  -9.1976     13.5372     45.5292   1.0817199255e+02   6.7713204890e+01    0.2416699    0.2256373 -63.82 0.0007245164    1.100    0.091
        80  -8.9707      3.6434     45.3321   1.1370845508e+02   6.8266204969e+01    0.3854007    0.2589818  54.97  0.002211311    1.759    0.431
        81 -11.0847     83.3643     40.0630   7.2045773241e+01   5.9054501066e+01    0.4791394    0.3424965  21.22            0    1.711    0.416
        82  -8.1999     32.1662     43.3566   9.7131308886e+01   6.6670348554e+01    0.2385266    0.1232106  25.26  0.001111342    2.135    0.532
        83  -8.7184     35.5305     37.5351   9.3132820747e+01   6.7610756232e+01      0.26105    0.1789328 -50.82 0.0008422374    1.307    0.235
        84  -8.6831     38.8285     35.3886   9.0427428159e+01   6.7674838011e+01    0.3023764    0.1822685  22.62  0.000951527    1.870    0.465
        85  -7.6605     49.5185     58.4968   9.3462967655e+01   6.1050268207e+01    0.1412875    0.1291408 -46.79 -2.857842e-05    1.010    0.010
        86  -9.3387     67.0708     37.7247   7.7520685655e+01   6.2737656623e+01    0.4193189    0.2537523 -39.90  0.001204476    1.592    0.372
        87  -9.4568     70.9668     35.6798   7.4943710102e+01   6.2383495704e+01    0.4663777    0.2178672  31.28  0.001692762    2.953    0.661
        88  -7.5095    124.1808     39.5952   5.9601451604e+01   4.9517141845e+01    0.2135181    0.1336396  46.47 0.0007219057    1.619    0.382
        89  -9.0447    222.7110    248.8346   8.6686397615e+01  -2.0918988112e+00    0.2432987    0.1095724  42.29  0.001383898    2.762    0.638
        90  -9.5875     19.3833     35.8003   1.0196823839e+02   6.9599600847e+01     0.516672    0.2732224 -54.03  0.001690895    1.566    0.361
        91  -8.7595     21.9535     32.0566   9.9070786628e+01   7.0236230824e+01    0.2589688    0.1815765 -31.59   0.00031194    1.381    0.276
        92  -7.8414     52.7974     38.5846   8.4490187725e+01   6.5012174473e+01    0.1820717    0.1321993  45.16 0.0006175624    1.541    0.351
        93  -7.8198     92.0009     37.2816   6.7802902063e+01   5.7658755360e+01    0.2079216    0.1860764  46.97 0.0004014611    1.123    0.109
        94  -7.6486    106.4821     36.5037   6.2994292206e+01   5.4394303604e+01    0.1500189    0.1423361  20.39 1.112756e-05    1.063    0.059
        95  -9.5090      5.8009     34.1059   1.0995149748e+02   7.0854286854e+01    0.4062258    0.2523396 -33.68  0.001979978    1.568    0.362
        96  -8.0953     55.7873     35.3069   8.1587322743e+01   6.5198144395e+01    0.1935116    0.1529964 -16.44   0.00103603    1.346    0.257
        97  -9.6499      2.2450     30.5869   1.1136816942e+02   7.1832498829e+01    0.4892763    0.2148341 -79.31  0.001661134    2.319    0.569
        98  -7.4958    133.8086     31.2430   5.4233765708e+01   4.8253582944e+01    0.2521625    0.1374456 -61.87 0.0009240681    2.627    0.619
        99  -9.0674     61.9788     26.9289   7.4654326073e+01   6.5686608796e+01    0.3868157    0.2545238  17.83  0.001363594    1.947    0.486
       100  -9.4275     41.8338     27.0408   8.4972807190e+01   6.9000020208e+01    0.5663505    0.2552144 -59.34 0.0009040449    3.279    0.695
       101  -9.5282    151.7714    248.8940   9.8810163229e+01   6.5909359220e+00    0.2140658    0.1445627   2.46  0.001434473    1.795    0.443
       102  -7.2787    144.2706     27.6885   5.0898967217e+01   4.5977194772e+01    0.1514762    0.1070494 -59.92 0.0002289352    1.548    0.354
       103  -7.8225    109.7480     26.2282   5.7709489310e+01   5.5120579607e+01    0.2616024    0.1760019 -32.88 0.0008891105    1.497    0.332
       104  -9.7980     69.7620     26.0864   7.0837064222e+01   6.4319844469e+01     0.314851    0.2961883   8.18 0.0008452578    1.025    0.025
       105  -7.8365    171.3468    250.2996   9.5473386244e+01   3.9438089747e+00    0.1101472   0.06735974  12.06 0.0007036954    1.682    0.405
       106  -7.0307    171.3421     26.3578   4.6260407546e+01   3.9054649265e+01     0.153393    0.1055989  31.22 0.0007036597    1.826    0.452
       107  -7.7055    102.3112     25.3014   5.9291320836e+01   5.7095478318e+01    0.1516082     0.109105  25.13 0.0002686089    1.607    0.378
       108  -8.3626    230.0685    244.5100   8.4950056942e+01  -2.5152214011e+00    0.1526777   0.07628343  28.62    0.0006832    1.547    0.353
       109  -8.8350     92.4555     20.4510   5.9890723824e+01   6.0152612960e+01    0.2775154    0.2445594  30.48 0.0005807492    1.115    0.103
       110  -8.2351    140.2457     19.9964   4.8720106595e+01   4.7979149045e+01    0.2356126    0.1996747  70.07 0.0005611056    1.143    0.125
       111  -9.2202      8.0884     19.7018   1.0389548189e+02   7.4021928557e+01    0.3822047    0.2571472  18.21  0.002296799    1.664    0.399
       112  -9.1115     12.8864     18.3647   9.9782549256e+01   7.3988433220e+01    0.4507838    0.2119642  -9.79  0.001866772    3.146    0.682
       113  -8.4082    129.8785     21.9184   5.1370106826e+01   5.0490226115e+01    0.3723248     0.171603  51.76  0.001469136    2.078    0.519
       114  -8.5722    127.7653     16.8606   4.9731696613e+01   5.1644610942e+01    0.2113388     0.192348  38.41  0.000431819    1.125    0.111
       115  -8.4201    161.6533    244.3031   9.6507773852e+01   5.8970814758e+00    0.1065693   0.07238241  48.58 0.0003965309    1.690    0.408
       116  -9.0037    246.9311    242.4923   8.2090055920e+01  -4.1990218118e+00     0.149953    0.1184979  -9.16 0.0006055009    1.451    0.311
       117  -9.0052    106.6989    239.2029   1.0631687534e+02   1.3711711100e+01    0.1994215    0.1444454  49.10 0.0007880433    1.213    0.176
       118  -7.5902    189.4425     15.5184   4.0785743561e+01   3.5668464768e+01    0.1354436     0.126607 -60.93 0.0002198145    1.044    0.043
       119  -9.6648    188.1236    233.8553   9.0484270050e+01   3.7346473470e+00    0.2644452    0.1617433 -32.48   0.00176371    1.891    0.471
       120  -8.9403    216.4302    214.7983   8.2890487367e+01   2.2693493700e+00    0.2078586    0.1992168  18.06 0.0008002738    1.633    0.387
       121 -10.1902    236.0602    207.8144   7.8603311167e+01   5.2981448228e-01    0.1985943      0.14833   5.81 0.0003285617    1.019    0.019
       122  -8.2775     87.9791     13.0451   5.7544843750e+01   6.2182752609e+01    0.2281453    0.1545102  30.94  0.000613297    1.581    0.367
       123  -8.9181    205.6016    204.4721   8.3140677277e+01   4.9769911317e+00    0.1971291     0.161228  16.91 0.0001769593    1.122    0.108
       124  -7.0520    177.3898    205.2298   8.8404290333e+01   8.9192962776e+00    0.1240302   0.07791594  15.59 0.0006742883    1.636    0.389
       125  -8.1227    206.1638    199.8625   8.2304493692e+01   5.4833689080e+00    0.1609352    0.1380889  14.89 0.0003573956    1.188    0.159
       126  -7.4691    232.8445    195.8714   7.7166034432e+01   2.2957473566e+00     0.137232    0.1172986   1.82 0.0002668818    1.261    0.207
       127  -9.6471    173.9327    194.9710   8.7484762032e+01   1.0923039883e+01    0.2298687    0.2038103  14.04 0.0003561924    1.096    0.087
       128  -7.9950    181.3840    177.1904   8.3051853619e+01   1.2451505158e+01     0.164555    0.1202339 -47.95 0.0007078936    1.688    0.408
       129  -7.1157    143.6515    169.6767   8.9623020115e+01   2.0020892266e+01     0.139323    0.1017219   2.13 0.0007049229    1.746    0.427
       130  -7.1094    214.9783    155.7804   7.2835830612e+01   1.0134112502e+01    0.1546201    0.0971621  37.14 0.0003344551    1.574    0.365
       131  -7.2418    133.6334    147.6875   8.7935574429e+01   2.6026713813e+01    0.1472864     0.110558   1.15 0.0001809409    1.765    0.433
       132  -9.1167     67.0663    144.6403   1.0510949902e+02   3.7465327449e+01    0.4651569    0.2591282  55.55  0.002160228    1.847    0.459
       133  -7.3182     55.3127    135.3229   1.0727018843e+02   4.1210243747e+01    0.1345817    0.1021716 -36.67 0.0007039781    1.657    0.396
       134  -7.9625    142.6635    126.8650   8.1365979917e+01   2.8535060921e+01    0.2522379    0.1881944  30.58 0.0006896522    1.396    0.284
       135  -7.9086    198.8724    125.3105   6.9205969588e+01   1.7630274222e+01    0.1884833     0.165507  17.18 0.0004614654    1.113    0.102
       136  -7.6823    119.6914    118.6710   8.5348629790e+01   3.4810335225e+01    0.1511677    0.1195166  -8.11 0.0007039755    1.661    0.398
       137  -7.5643     15.3687    117.7178   1.1782150861e+02   4.9482985360e+01    0.1386399    0.0786046  58.30 0.0007015446    1.694    0.410
       138  -8.7360      2.0646    109.8076   1.2159896757e+02   5.2280827763e+01    0.3588735     0.105942 -54.35  0.001385443    3.407    0.706
       139  -7.8760    250.3326    107.6796   5.7355450434e+01   1.0819911479e+01    0.1229194    0.0887121 -52.04 -1.108173e-05    1.698    0.411
       140  -7.8015    109.0511    106.9750   8.5527824535e+01   3.9501262219e+01    0.2459822    0.1904094 -10.57  0.001131958    1.761    0.432
       141  -7.6458     76.3022    107.2977   9.5795649706e+01   4.5211194968e+01    0.1438435    0.1135814 -25.71 0.0002217128    1.581    0.367
       142  -7.9231    133.9928    106.0324   7.8465500358e+01   3.4615836758e+01    0.2502556    0.1920535  -0.15   0.00113902    1.758    0.431
       143  -9.2959     14.4560    105.1812   1.1698325366e+02   5.2687956929e+01    0.3194257    0.1999083 -49.36  0.001722075    1.690    0.408
       144  -7.5823     93.5282    103.4918   8.9364842658e+01   4.3223874463e+01    0.1483651    0.1446874 -76.80 5.592456e-05    1.019    0.019
       145 -10.3265     11.7297     94.5910   1.1690012274e+02   5.5541122108e+01    0.6214697    0.3233826 -24.95  0.002831798    2.746    0.636
       146  -9.3200     19.6833     92.9530   1.1368594492e+02   5.5424215911e+01    0.3633173    0.1239484 -53.66  0.001251556    2.668    0.625
       147  -8.7312     43.6482     92.3630   1.0436621181e+02   5.3374121315e+01     0.340772    0.2143426 -25.22  0.001546658    2.236    0.553
       148  -8.6546     96.9754     90.2022   8.4808311867e+01   4.5685752088e+01    0.4648857    0.3101478  -4.95  0.001747089    2.837    0.648
       149  -8.1380    109.9936     90.9778   8.1007371299e+01   4.2907587245e+01    0.2473677    0.1935926   0.21  0.001128543    1.733    0.423
       150  -8.2818     56.5839     91.2076   9.9217424444e+01   5.2086123190e+01     0.214442    0.1210989 -52.81 0.0009580867    1.665    0.399
