#   1 NUMBER                 Running object number                                     
#   2 MAG_AUTO               Kron-like elliptical aperture magnitude                    [mag]
#   3 X_IMAGE                Object position along x                                    [pixel]
#   4 Y_IMAGE                Object position along y                                    [pixel]
#   5 X_WORLD                Barycenter position along world x axis                     [deg]
#   6 Y_WORLD                Barycenter position along world y axis                     [deg]
#   7 A_WORLD                Profile RMS along major axis (world units)                 [deg]
#   8 B_WORLD                Profile RMS along minor axis (world units)                 [deg]
#   9 THETA_WORLD            Position angle (CCW/world-x)                               [deg]
#  10 FWHM_WORLD             FWHM assuming a gaussian core                              [deg]
#  11 ELONGATION             A_IMAGE/B_IMAGE                                           
#  12 ELLIPTICITY            1 - B_IMAGE/A_IMAGE                                       
         1 -15.9654    185.7979    131.7415   7.2921298278e+01   1.8249969488e+01     3.962884     3.437412 -19.03   0.01589231    1.149    0.130
         2 -16.5920    139.4614     29.9587   5.3062034907e+01   4.6961336293e+01     7.182631     4.467883 -40.59    0.0347146    1.734    0.423
         3 -15.6281    212.7838    115.6233   6.3668256576e+01   1.5527760673e+01      3.83696     2.399798 -81.79   0.01309378    3.908    0.744
         4 -18.0713    236.9995     59.6196   4.6365550501e+01   1.9492813497e+01     9.737948     3.444037 -33.54   0.03794444    2.604    0.616
         5 -11.1853    208.8236      3.5223   3.5828799171e+01   3.2802787194e+01    0.1122399   0.09020458  11.58 0.0006610499    1.736    0.424
         6 -14.9267    225.3250     64.3119   4.8964727778e+01   2.1367619956e+01    0.7369074    0.5922149 -52.60  0.004167528    1.141    0.124
         7 -13.1162    204.9134    199.3559   8.3506975662e+01   2.0519341950e+00    0.4874077    0.3168865   4.75  0.002419807    1.837    0.456
         8 -14.8547     10.1652    172.9979   1.2359857845e+02   3.6610204115e+01     2.259988     1.002937  88.13   0.01129221    2.099    0.524
         9 -15.1756     26.2907    170.1120   1.1972518868e+02   3.5867145642e+01      1.24778     1.119594  11.24  0.004805945    1.512    0.339
        10 -10.8402    202.1644    248.3600   9.2305782883e+01  -4.7830059917e+00    0.1838491    0.1424652  -1.69 0.0004178902    1.235    0.191
        11 -13.3789     52.1641    156.1693   1.1181615923e+02   3.6488063567e+01    0.3844734    0.3442007 -39.47 0.0009826577    1.323    0.244
        12 -15.6320     63.4202    149.0135   1.0780918501e+02   3.6866942846e+01     1.901117     1.385995 -13.90  0.004971713    2.032    0.508
        13 -14.0129    163.4821     78.7294   6.3500326509e+01   3.3660983244e+01    0.6844763    0.4787847  28.44  0.002190844    1.745    0.427
        14 -13.0245    192.2487    153.3310   7.6613065429e+01   1.2665807055e+01    0.6358335      0.27515 -50.30  0.002228254    2.865    0.651
        15 -12.3815    189.5095    148.4912   7.6090443573e+01   1.4159991819e+01    0.2891397    0.2510044 -50.96 0.0009076028    1.256    0.204
        16  -9.6769    247.6205    174.2484   7.0643017452e+01  -9.7772859755e-01      0.11253    0.1062133 -87.26  0.000694984    1.647    0.393
        17 -12.2741    172.3630    149.6458   8.0086505571e+01   1.7434332494e+01    0.3460014    0.3051015  85.77  0.001769756    1.422    0.297
        18 -11.5794    133.8027    145.7619   8.8442802997e+01   2.6078129372e+01     1.020071    0.2569979 -54.01  0.002419667    5.543    0.820
        19 -10.6033    132.4647    138.9548   8.7249920564e+01   2.7899529239e+01    0.3337851    0.2295148 -68.22  0.001425899    1.836    0.455
        20 -10.6522    149.2862    149.0214   8.5331508335e+01   2.2270626856e+01    0.2176105    0.2123295 -39.70  0.001174293    1.037    0.035
        21 -10.9900    143.9625    147.1214   8.6206143241e+01   2.3760061079e+01    0.4279666    0.2648412 -63.51  0.001723286    2.100    0.524
        22 -10.6236    132.4684     92.4874   7.5075170135e+01   3.8206293468e+01     0.289617     0.215852 -54.97  0.000769477    1.470    0.320
        23 -11.4933    136.0000    129.4507   8.4086314930e+01   2.9355914539e+01     1.013224    0.1970902 -49.16  0.002292911    5.642    0.823
        24 -11.6236    135.2705    121.8978   8.2395685934e+01   3.1212788036e+01     1.194996    0.2651898 -49.58  0.002808369    5.215    0.808
        25 -12.6572    134.6489    108.3963   7.9005020454e+01   3.4342285311e+01     1.754672    0.2565629 -44.62  0.003606579    6.682    0.850
        26 -11.9025    132.3555     98.3110   7.6796231138e+01   3.7010888075e+01    0.5318993    0.3073176 -44.33  0.001010782    1.697    0.411
        27 -14.3849    195.8340     75.0276   5.6205569808e+01   2.6507775360e+01     1.295988     0.912962 -24.57  0.006174487    1.537    0.349
        28 -10.6859     95.2388    220.9877   1.0988855413e+02   1.6186161311e+01    0.2462638    0.1038816  60.75 0.0009030693    3.622    0.724
        29 -13.5615    167.7501    114.0705   7.2410723284e+01   2.5804833719e+01      0.82773    0.6268727  44.92  0.002678223    1.355    0.262
        30 -13.6063    160.9075    128.1962   7.7616104661e+01   2.4362738706e+01    0.8698756    0.6296363 -52.79  0.003574435    1.464    0.317
        31 -11.6328    202.7877    172.0460   7.8510929073e+01   7.1385105476e+00    0.2614125    0.1824673  15.79  0.001279933    1.592    0.372
        32 -13.6338    159.5805    116.3132   7.4891709685e+01   2.7170377191e+01      1.25701    0.7198783 -68.37  0.003909896    3.706    0.730
        33 -12.3357    112.7582    105.5795   8.4291245481e+01   3.9469645650e+01     1.012897    0.5076425 -42.91  0.003932921    1.939    0.484
        34 -13.3953    121.4968    107.1869   8.2246910169e+01   3.7362659373e+01     1.114458    0.7228499 -47.13  0.003822969    1.502    0.334
        35 -15.0615    177.5673     85.1053   6.2392530122e+01   2.9127497860e+01     3.549347     1.424671  34.05  0.008319446    6.444    0.845
        36 -10.8063    140.6035    106.1383   7.6834264360e+01   3.3538743208e+01    0.3289296     0.256719 -11.61  0.001120387    1.548    0.354
        37 -11.6552    145.0992    103.3131   7.4907970178e+01   3.3141884774e+01    0.3847295    0.2899902  34.91 0.0007374401    1.403    0.287
        38 -12.0004    138.1493     93.6021   7.3910931460e+01   3.6715209889e+01    0.3518339    0.3427852 -69.75 0.0006563315    1.092    0.084
        39 -11.1712    113.6096     95.0573   8.1089558669e+01   4.1640213261e+01    0.2708701    0.2252519  29.89  0.000391397    1.256    0.204
        40 -10.6509    137.8007    171.3506   9.2736991622e+01   1.9585816894e+01    0.3510284    0.2335585 -83.85  0.001429867    2.507    0.601
        41 -11.3871    202.5325     88.4676   5.8617697739e+01   2.2652562997e+01    0.4832563    0.2908891  57.85  0.001923927    1.787    0.440
        42 -12.3531    127.3386    105.6754   8.0221165911e+01   3.6490154508e+01    0.9823511    0.3124403 -47.29  0.002956397    3.162    0.684
        43 -10.8927    109.8657     85.8749   7.9462103618e+01   4.4356260604e+01    0.2362261    0.2039605 -10.32 0.0005803247    1.210    0.174
        44 -11.7070     90.1331     81.8884   8.4403760631e+01   4.8926294431e+01    0.4094719    0.2170681 -57.71  0.001591223    2.384    0.581
        45 -13.2594    187.1667    169.2602   8.1149131654e+01   1.0594787922e+01    0.5210803    0.3145199  36.37  0.002385617    1.644    0.392
        46 -11.1966     87.2065     75.5656   8.3392638051e+01   5.0772314815e+01    0.4119624     0.186777 -56.75  0.001407748    3.184    0.686
        47 -13.7666    208.0608     67.7258   5.2286192280e+01   2.4798289814e+01    0.7786905    0.4953151  66.21  0.002846987    1.689    0.408
        48 -11.3241    176.2363     53.0887   5.3439097042e+01   3.4738221980e+01    0.5107842    0.1889886 -43.19  0.001801506    2.747    0.636
        49 -12.1187    182.3499    207.3217   8.9499974277e+01   4.5398311572e+00    0.6485138    0.3355818   9.89  0.001960835    5.325    0.812
        50 -10.5917    174.5309     42.5924   5.0645135581e+01   3.6649216168e+01    0.3995123    0.1339763 -31.81    0.0012307    2.953    0.661
        51 -12.0937    191.3666     42.6901   4.8055265287e+01   3.2475270278e+01    0.3029543    0.2038872 -48.42 0.0005345684    1.473    0.321
        52 -10.3640    186.7691     44.5280   4.9253955711e+01   3.3354142776e+01    0.1867514    0.1355612  65.97 0.0004480909    1.348    0.258
        53  99.0000    205.4186     42.2908   4.6007467306e+01   2.9129890297e+01    0.6172589     0.282052  43.97  0.002410803    2.882    0.653
        54 -10.3376    205.3963     38.6965   4.5072478569e+01   2.9610817665e+01    0.2903256    0.2127098 -76.26  0.001376286    1.421    0.296
        55 -11.0681    223.7192    205.4076   8.1033400792e+01  -1.9553410828e+00    0.2410364    0.1152013  40.30  0.001138828    2.095    0.523
        56 -10.7633    190.0435     35.6540   4.6300143865e+01   3.3721911919e+01     0.174812    0.1664359 -88.50 0.0006566891    1.041    0.040
        57 -11.2005    166.1248     33.8361   4.9415708152e+01   3.9884813779e+01    0.2478146    0.2012755 -54.80  0.001124829    1.292    0.226
        58  -9.7590    206.2717     34.2982   4.3822225946e+01   2.9967044703e+01    0.1261714    0.1039032  30.54 0.0004439576    1.526    0.345
        59 -11.6261    212.4830     28.7044   4.1677736960e+01   2.9191595174e+01    0.3724968    0.2434215 -26.26  0.001745506    1.678    0.404
        60 -11.4728    216.9726     25.5734   4.0421195309e+01   2.8521441083e+01    0.4823359    0.2843368 -82.43  0.002385194    1.877    0.467
        61 -11.6112    202.4113     29.8433   4.3133107859e+01   3.1442492158e+01    0.3535758    0.1591729  60.00  0.001550921    2.105    0.525
        62 -11.4082    199.3976     24.7841   4.2167951866e+01   3.2769377518e+01    0.3260006    0.1741877 -56.69  0.001496835    2.009    0.502
        63 -10.5732    205.4373     25.3116   4.1607152385e+01   3.1261467137e+01    0.1287273    0.1130666  76.69 0.0001945104    1.112    0.101
        64 -10.3073    174.6331     23.6019   4.5049569865e+01   3.8977403911e+01    0.1713179    0.1243559  78.42  0.000900172    1.340    0.254
        65  -9.8148    203.5020     18.1508   3.9988281726e+01   3.2537840586e+01    0.3028599     0.152262 -87.33  0.001303443    2.420    0.587
        66 -11.4990    209.9977     16.9662   3.9015573951e+01   3.1133209228e+01    0.1498941    0.1268755 -88.39  0.000924294    1.067    0.063
        67 -11.2377    221.7938     15.0543   3.7428147506e+01   2.8618545687e+01    0.1905512    0.1602606  14.66  0.001169692    1.655    0.396
        68 -10.8401     79.0170     15.2872   6.2866821592e+01   6.2091362004e+01    0.2134692    0.1688101  -8.11 0.0004733734    1.207    0.171
        69 -12.1139    177.5989    169.7375   8.3304084837e+01   1.2338489844e+01    0.2584761     0.189109 -50.32 0.0008937771    1.502    0.334
        70 -12.6613    199.6266    163.1101   7.7248789073e+01   9.3687913274e+00    0.7638615    0.4346654 -66.40  0.002217581    5.558    0.820
        71 -13.6578    192.8776    194.9715   8.5092526284e+01   4.8548387735e+00     1.081515    0.6071827 -63.95  0.003641467    4.830    0.793
