#   1 NUMBER                 Running object number                                     
#   2 MAG_AUTO               Kron-like elliptical aperture magnitude                    [mag]
#   3 X_IMAGE                Object position along x                                    [pixel]
#   4 Y_IMAGE                Object position along y                                    [pixel]
#   5 X_WORLD                Barycenter position along world x axis                     [deg]
#   6 Y_WORLD                Barycenter position along world y axis                     [deg]
#   7 A_WORLD                Profile RMS along major axis (world units)                 [deg]
#   8 B_WORLD                Profile RMS along minor axis (world units)                 [deg]
#   9 THETA_WORLD            Position angle (CCW/world-x)                               [deg]
#  10 FWHM_WORLD             FWHM assuming a gaussian core                              [deg]
#  11 ELONGATION             A_IMAGE/B_IMAGE                                           
#  12 ELLIPTICITY            1 - B_IMAGE/A_IMAGE                                       
         1 -14.8325      3.5690    127.9205   1.4434231665e+02   4.8460092244e+01     5.937638    0.5400495 -74.83   0.01477304    8.196    0.878
         2 -13.5617    198.5021     26.9174   6.7598442445e+01   3.2323168212e+01     1.651164     1.409464  21.84  0.007026551    1.452    0.311
         3 -13.5498    214.0201      7.7676   6.0787983390e+01   3.0540590672e+01    0.9515381    0.8002546  70.63  0.002848455    1.193    0.162
         4  -9.6538     99.5296    148.9602   1.2239392864e+02   3.2166920807e+01    0.2430634    0.2073643  35.80 0.0004589568    1.300    0.231
         5 -11.4163    248.6434    249.3210   1.0921747446e+02  -1.0670914653e+01    0.2983786    0.2052323  37.48  0.002109569    1.463    0.316
         6 -12.5255    237.5642    247.1364   1.1070150807e+02  -8.9022897976e+00    0.4570094    0.3081625 -16.80  0.003172021    1.554    0.357
         7 -11.5527    145.4941    248.6935   1.2707274748e+02   5.1701732791e+00     0.373583    0.2858059   8.21  0.002385553    1.885    0.469
         8 -12.1052    123.9265    249.6152   1.3106245898e+02   8.4163183482e+00    0.6192479    0.1606807  45.17  0.002562259    2.881    0.653
         9 -11.7787     99.2601    249.3962   1.3544376224e+02   1.2166806758e+01    0.4541809    0.1703649  40.15   0.00224267    2.245    0.555
        10 -13.0716     33.3938    246.7287   1.4650909841e+02   2.1238905655e+01     1.628596    0.9759512 -45.23  0.009121372    4.001    0.750
        11 -13.0861     46.6312    216.4313   1.4229858558e+02   2.5220019763e+01    0.9747799    0.6496145 -69.45  0.005846294    1.592    0.372
        12 -13.2777     31.4693    234.5192   1.4616664081e+02   2.3606063322e+01    0.3156776    0.2519228 -88.40 0.0007721297    1.342    0.255
        13 -14.0888     36.5710    228.1166   1.4491078224e+02   2.4195588203e+01    0.6883527    0.4415348  67.52  0.002454127    1.158    0.136
        14 -12.2426      4.7170    241.0937   1.5083387387e+02   2.5242518125e+01    0.6544508    0.2395397 -80.72  0.003969069    2.383    0.580
        15 -12.4900     12.2301    241.1067   1.4964986577e+02   2.4492600988e+01    0.6985423    0.2276734  79.39  0.003472517    3.179    0.685
        16 -10.7884    198.8195    246.8171   1.1728341357e+02  -3.0635440793e+00    0.1567462    0.1259289  47.36  0.001087433    1.350    0.259
        17 -11.3908    172.1385    246.9180   1.2204458534e+02   1.1554697654e+00    0.3029924    0.1275443  34.44  0.001451832    2.185    0.542
        18  -9.8384     84.6665    246.3058   1.3775476541e+02   1.4771562944e+01    0.1219953   0.06568073  63.29 0.0003799468    1.665    0.399
        19 -12.2160     19.6010    243.6221   1.4858437051e+02   2.3290310046e+01    0.4906381    0.2033396  82.55   0.00291708    2.190    0.543
        20 -11.3972    151.1935    249.1059   1.2609280914e+02   4.2035732460e+00    0.3642474    0.1477384  38.73  0.001787101    2.029    0.507
        21 -11.0643      3.0996    249.6662   1.5139669148e+02   2.3936092338e+01    0.3707561   0.09602453  43.11  0.002108039    2.634    0.620
        22 -12.7152    107.9710    230.9409   1.3202652264e+02   1.3950596731e+01    0.9124822    0.1404483  45.77  0.002868388    4.733    0.789
        23 -12.5186     92.3389    227.7475   1.3465925068e+02   1.6891951705e+01     1.263621    0.1041603  46.87  0.003268291    7.278    0.863
        24  -9.8440     54.2524    229.2355   1.4184231213e+02   2.1857228459e+01     0.242812    0.1106057  65.44  0.001307767    2.036    0.509
        25 -10.1037    173.4605    222.3748   1.1836201338e+02   4.4678703372e+00    0.2601145    0.1859774  54.12  0.001527635    1.428    0.300
        26  -8.9895     92.0673    214.3626   1.3332278214e+02   1.9420292361e+01    0.2185444    0.1064467  74.37 0.0008997019    3.179    0.685
        27 -11.3209     58.4652    212.9969   1.3978058887e+02   2.4407903231e+01    0.5229318     0.141755  55.04   0.00197081    3.800    0.737
        28  -9.0077    152.5087    213.0047   1.2104351647e+02   9.6386978940e+00    0.1631812    0.1316067 -53.42 0.0003312891    1.461    0.315
        29 -12.3189     10.2994    206.9343   1.4837177299e+02   3.1007807492e+01    0.5501396    0.3406077  32.85  0.002809376    1.981    0.495
        30 -10.3397     59.1401    207.6389   1.3918503925e+02   2.5381806274e+01    0.1923874     0.114825  57.37  0.000500451    1.390    0.281
        31 -11.9372     58.7722    200.2298   1.3858565860e+02   2.6931298035e+01    0.2510005    0.2096728 -84.54 0.0004799539    1.217    0.178
        32 -10.8739     38.6840    197.4621   1.4238152472e+02   2.9949569470e+01    0.6312827     0.188502  65.93  0.001783329    7.275    0.863
        33 -10.1580     10.8252    195.0028   1.4762204340e+02   3.3333642494e+01    0.2399707    0.1275748  47.96 0.0009068129    1.660    0.397
        34 -12.1961     65.3782    191.5902   1.3636211332e+02   2.7857377004e+01    0.2532873    0.2224215  89.25 0.0004749406    1.178    0.151
        35 -10.7980     28.6596    186.8416   1.4357467246e+02   3.3262807171e+01    0.5639654    0.1781898  68.12  0.001867426    5.335    0.813
        36 -13.7247     10.2309    156.3719   1.4516012901e+02   4.1592010210e+01     2.059423    0.8057525 -87.99    0.0098764    2.356    0.575
        37 -12.2786    138.6471    249.9294   1.2844904146e+02   6.0717427237e+00    0.4448106    0.3831508 -63.38  0.003278165    1.474    0.322
        38 -12.1399     85.1080    152.1790   1.2657700011e+02   3.3780781663e+01    0.2998101    0.2449305 -51.08 0.0006946998    1.343    0.255
        39 -12.1591     67.3470    143.4695   1.2971089713e+02   3.8420886704e+01    0.6657708     0.408663  65.31  0.003054228    1.818    0.450
        40 -10.6614     95.7865    135.2050   1.2075014308e+02   3.6002631307e+01    0.2364646    0.2232887 -53.20 0.0003002729    1.148    0.129
        41 -10.2754    108.9041    137.6661   1.1781299352e+02   3.3107147543e+01    0.4710729      0.33446 -10.45  0.001983762    2.540    0.606
        42  -9.2126    115.0008    130.1921   1.1463225470e+02   3.3676504465e+01    0.2368023    0.1808645   2.36  0.001068929    1.994    0.498
        43 -11.7166     26.8321    129.0396   1.3837957703e+02   4.6402892990e+01    0.5607319    0.2014383  51.80  0.002333825    3.317    0.699
        44 -11.7076     19.7169    125.1569   1.3981739171e+02   4.7910683920e+01    0.4286541    0.1893707  49.46  0.002127735    2.472    0.596
        45  -9.2442    106.2769    124.1158   1.1559116941e+02   3.6721843591e+01    0.1958075    0.1772238 -75.80 0.0003035759    1.070    0.066
        46  -9.2429     97.0775    174.0657   1.2711773942e+02   2.6922440457e+01    0.2227228    0.1471153  72.42 0.0007287258    1.660    0.398
        47  -9.1857     41.5316     96.5038   1.2888933904e+02   5.2628636070e+01    0.2286134    0.1018788  43.12  0.001027895    2.605    0.616
        48 -12.2411     84.0755    168.7930   1.2937352242e+02   3.0148038275e+01    0.7167919    0.6927235 -25.72  0.004547471    1.360    0.265
        49 -11.0129    158.2610     76.4837   8.9364202682e+01   3.5290380886e+01    0.3008982     0.294945 -52.29 0.0008088549    1.024    0.024
        50 -13.2659     62.4230    176.6900   1.3536928700e+02   3.1472852031e+01    0.4864973    0.2753979 -48.69  0.001915822    2.273    0.560
        51 -10.9851     76.0628    178.3864   1.3250662975e+02   2.9209851849e+01    0.2321942    0.2038357  79.01 0.0003365713    1.074    0.069
        52 -11.2917     47.8549    248.2505   1.4421412666e+02   1.9276591831e+01    0.3450862    0.2227942 -52.27   0.00204514    2.544    0.607
        53 -10.7606     96.4443    153.1706   1.2391324607e+02   3.1720878622e+01    0.3281384    0.3145681 -48.00 0.0008557764    1.224    0.183
        54 -10.4670     80.9130    248.7557   1.3861304094e+02   1.4886473627e+01    0.2221513     0.114168  72.33   0.00118952    2.119    0.528
