#   1 NUMBER                 Running object number                                     
#   2 MAG_AUTO               Kron-like elliptical aperture magnitude                    [mag]
#   3 X_IMAGE                Object position along x                                    [pixel]
#   4 Y_IMAGE                Object position along y                                    [pixel]
#   5 X_WORLD                Barycenter position along world x axis                     [deg]
#   6 Y_WORLD                Barycenter position along world y axis                     [deg]
#   7 A_WORLD                Profile RMS along major axis (world units)                 [deg]
#   8 B_WORLD                Profile RMS along minor axis (world units)                 [deg]
#   9 THETA_WORLD            Position angle (CCW/world-x)                               [deg]
#  10 FWHM_WORLD             FWHM assuming a gaussian core                              [deg]
#  11 ELONGATION             A_IMAGE/B_IMAGE                                           
#  12 ELLIPTICITY            1 - B_IMAGE/A_IMAGE                                       
         1 -10.6501     37.2537      9.5089   9.1375205426e+01   7.0118533599e+01     0.924297    0.3164414 -46.87  0.002698422    2.869    0.651
         2 -10.2681     10.3339     18.8030   1.0892126460e+02   7.1008052000e+01     1.126875    0.3880246 -28.36  0.003605118    6.871    0.854
         3 -10.1985     27.2379     11.6587   9.7317377295e+01   7.0889880018e+01    0.7277004    0.2947594  37.57  0.003608997    3.077    0.675
         4 -10.2849     18.4064      5.6480   9.8961937862e+01   7.2796739991e+01    0.6476663    0.3622341 -52.64  0.003078997    1.702    0.412
         5  -9.9381     26.2231     24.4170   1.0332984647e+02   6.8635714478e+01    0.9819369    0.3285212 -33.83  0.003267658    5.153    0.806
         6  -9.4787      2.2079     14.3048   1.1151101243e+02   7.2391515313e+01    0.4370081    0.2014309 -71.12  0.001711937    2.596    0.615
         7 -10.5528      5.0561      4.6383   1.0599320741e+02   7.4037648079e+01    0.4809313    0.3891993 -16.70  0.001624076    1.279    0.218
         8 -10.3430      4.8417     42.1842   1.1825206985e+02   6.6541929373e+01     1.056857    0.3338695 -73.56  0.004308744    3.344    0.701
         9  -8.1750     72.3157      8.4770   7.6494283607e+01   6.4870144883e+01    0.3928589    0.1768705 -25.79  0.001303706    2.116    0.527
        10 -10.3109     69.6194     40.1769   9.1780314649e+01   6.0178003618e+01      1.55369    0.3719964 -42.91  0.005005843    3.703    0.730
        11  -9.5769     73.7488     19.6956   8.1534273964e+01   6.3008745472e+01    0.4864481     0.215507 -37.01  0.002159973    2.036    0.509
        12  -8.8255     74.0049     12.7492   7.8077921127e+01   6.3980927043e+01    0.4694703    0.2162606 -16.41  0.001790745    3.102    0.678
        13 -10.0459     79.6081     23.9225   8.1470480457e+01   6.1297093721e+01    0.7375871    0.3504428  29.11  0.002132411    3.184    0.686
        14 -10.0096     63.3711      3.6698   7.7149531747e+01   6.7088207939e+01    0.6798979    0.4179736 -13.78  0.003605427    1.609    0.379
        15  -9.7595     60.8092     31.7559   9.1661250314e+01   6.3083623473e+01    0.8682547    0.3441874 -36.19   0.00276377    2.488    0.598
        16  -9.0055     47.0214     19.7593   9.1985718662e+01   6.7146604918e+01    0.4960052    0.2385741 -25.69  0.002118589    2.698    0.629
        17 -10.1076     52.6943     13.3471   8.6488145459e+01   6.7412694769e+01    0.8331136    0.4054075  24.44  0.003650417    3.059    0.673
        18  -9.6866     62.9975     21.0033   8.6090218930e+01   6.4608300668e+01    0.5466432    0.2517701 -50.28  0.001535965    2.769    0.639
        19  -9.7836     64.6219     13.3112   8.1745518160e+01   6.5541132132e+01     0.352098    0.2756865 -19.50 0.0003091926    1.111    0.100
        20  -9.8321    124.5960      5.7359   6.1176785710e+01   5.3794626509e+01    0.7090009    0.1917438  56.63  0.002407438    3.066    0.674
        21  -8.9644    126.9425      9.0603   6.2119777148e+01   5.2872386588e+01    0.3341711    0.1825487  35.55 0.0005367364    1.980    0.495
        22  -8.8247    125.3911     13.3453   6.4253067324e+01   5.2784217109e+01    0.3274156    0.2504987 -46.99 0.0005124513    1.447    0.309
        23  -8.5515    128.6210     24.9742   6.8330924713e+01   5.0560270654e+01    0.7077487    0.3166721 -14.62  0.002426858    3.074    0.675
        24  -9.1206     40.9420     21.0259   9.5209037672e+01   6.7694077455e+01    0.3477202    0.1445459 -44.16  0.001511887    1.978    0.494
        25  -8.5514    104.7636     14.6421   6.9705960472e+01   5.7468975448e+01    0.4190399     0.229165  -3.02  0.001696596    2.498    0.600
        26  -8.5524     97.0018     12.2415   7.0689404392e+01   5.9467822765e+01    0.4413949    0.2478854   1.75   0.00184123    2.469    0.595
        27  -8.7491    112.3324     15.6544   6.8240748994e+01   5.5623585887e+01    0.3005333     0.210879 -40.12 0.0007943591    1.495    0.331
        28  -9.1182    114.0799     10.1065   6.5370018258e+01   5.5867822830e+01     0.374507    0.2295963  29.36 0.0002987509    1.784    0.440
        29  -9.5328     85.2446     13.0825   7.4551440280e+01   6.1792804318e+01    0.4129508    0.3093824 -59.70  0.001480911    1.873    0.466
        30  -7.7887     80.5791     12.7743   7.5886195421e+01   6.2745954045e+01    0.2523781    0.1049303 -40.13 0.0007314934    2.465    0.594
        31  -9.6161    133.3343     11.9551   6.2046969005e+01   5.0965344731e+01    0.5546229     0.216403 -32.08  0.002072596    2.419    0.587
        32  -9.2934    135.2043      2.7124   5.7899118136e+01   5.1423219817e+01     0.568795    0.3327213  13.70  0.002473934    2.076    0.518
        33  -8.4511    141.3289     12.0210   6.0558615090e+01   4.8922934111e+01    0.2068593    0.1876319 -20.00 0.0008126643    1.108    0.098
        34  -8.5149    110.2311      7.9985   6.5324183755e+01   5.7001142810e+01    0.2669388    0.1638543 -36.59  0.000908773    1.676    0.403
        35  -8.8279    110.0346      3.4661   6.3292746571e+01   5.7523001990e+01     0.332752    0.2783566 -82.50  0.001596953    1.510    0.338
        36  -8.5804    101.9410      7.7948   6.7276286898e+01   5.8912028136e+01    0.2573696    0.1853185 -30.57 0.0007021039    1.374    0.272
        37  -8.5978     85.5141      5.5356   7.0729013669e+01   6.2681243001e+01    0.4561926    0.2349191 -15.99  0.002074898    2.022    0.506
        38  -8.3222     88.9975      2.7974   6.8328192241e+01   6.2269939009e+01    0.2402389    0.1756322 -19.76 0.0007157658    1.281    0.219
        39  -9.0917     78.0743      4.0761   7.2281092529e+01   6.4334833361e+01    0.4589192    0.2468796 -11.16  0.001440856    2.064    0.516
        40  -8.9988     96.5058      4.2023   6.6971446794e+01   6.0508751981e+01    0.4582792    0.2061428 -37.36  0.001954649    2.308    0.567
        41  -8.8363    115.5113      4.0115   6.2320567762e+01   5.6173456450e+01    0.3290568    0.2032513 -38.94  0.001228809    1.729    0.422
        42 -10.2099     46.3113     29.7832   9.6626700018e+01   6.5425465789e+01    0.4951023    0.2632137 -56.67  0.001005873    2.065    0.516
        43  -8.1969    104.1517      2.1823   6.4069765603e+01   5.9010945825e+01    0.2630387    0.2010249  29.94  0.001105255    1.251    0.200
        44 -10.3350    129.5169     99.5148   9.2838635101e+01   3.7117361735e+01     1.171116    0.6574629 -22.39  0.003998552    3.559    0.719
        45 -12.0379    235.1655    248.5352   1.0015122448e+02  -4.0398724020e+00    0.2108201    0.1519239  29.28 0.0003234456    1.061    0.057
        46  -8.3715    220.7699    250.2251   1.0248756760e+02  -2.1641081486e+00    0.1748789   0.05568954  36.44 0.0008881007    2.465    0.594
        47 -11.5769    187.3841    248.4918   1.0732229697e+02   2.8319949636e+00    0.8754525    0.2100832  42.86  0.003944262    3.024    0.669
        48 -10.9100    200.4626    248.8118   1.0536122821e+02   8.8657377791e-01    0.4952145    0.2574842  51.14  0.003116049    1.906    0.475
        49 -10.9912    121.1477    109.5737   9.7361254609e+01   3.6717170252e+01     1.487738    0.5961039 -48.09  0.004525103    2.450    0.592
        50 -10.3416    108.4564     99.4845   9.8140400243e+01   4.1252768987e+01    0.9049066    0.4981211  67.60  0.002419742    3.073    0.675
        51  -9.8072     27.2149    122.8602   1.2366025163e+02   4.7099850880e+01     0.515668    0.2255827  75.07  0.002050127    2.869    0.651
        52  -8.9384    129.4526    124.3507   9.8706332591e+01   3.2069624094e+01    0.2505583    0.2064754 -30.10 0.0008098774    1.440    0.306
        53  -9.6762     41.3463    121.9260   1.2001485125e+02   4.5920219070e+01    0.5204405    0.2167569 -86.32  0.002058207    3.112    0.679
        54  -6.9325     22.7026    125.7129   1.2506311334e+02   4.6881590388e+01    0.1063831   0.07690325 -55.54 0.0002518472    1.552    0.356
        55  -8.1957    158.2259    122.1104   9.1812236296e+01   2.6644561212e+01    0.2690955    0.1874404  76.88  0.001095524    2.010    0.502
        56  -7.9309     10.2159    122.1896   1.2775890231e+02   4.8658602761e+01    0.1813422    0.0873656 -46.91 0.0009502653    2.820    0.645
        57 -10.0088    140.8637    118.4643   9.4788225056e+01   3.0972460639e+01    0.5716244    0.3803212 -78.49   0.00125797    2.289    0.563
        58  -8.5717    141.6548    112.7012   9.3254943593e+01   3.1947366052e+01    0.2581474    0.2060655  35.24 0.0009345797    1.352    0.260
        59  -7.9798    249.2003    119.8885   7.4866567256e+01   7.6238913719e+00    0.1854516    0.1420871  11.20 0.0004159362    1.286    0.223
        60  -7.5213    185.0061    117.3177   8.5212844848e+01   2.1670960582e+01    0.1961489     0.179332  42.72 0.0003481642    1.074    0.069
        61 -10.1070     91.9477    112.9810   1.0546914813e+02   4.1187150165e+01    0.5951689    0.3892359 -82.93  0.001793735    1.874    0.466
        62  -8.8211     92.0736    103.5251   1.0341574537e+02   4.3242126599e+01    0.3619876    0.3036653 -28.02  0.002035291    1.480    0.324
        63 -10.2146     78.2652    113.0862   1.0904995989e+02   4.3271302932e+01    0.5381356    0.3035481 -82.93  0.001709057    2.389    0.581
        64  -7.9569     77.6868    105.6518   1.0774526059e+02   4.5011643863e+01    0.2393334       0.1605 -31.79  0.001169402    2.145    0.534
        65  -8.3981      1.4166    116.5702   1.2943624838e+02   5.0488316228e+01    0.2249123   0.08315832 -79.69 0.0009620321    2.074    0.518
        66  -9.2837    246.3162    115.8839   7.4370671865e+01   8.7219146463e+00    0.2136231    0.1870707  60.65  0.000588819    1.388    0.279
        67  -9.3910     19.7198    116.0397   1.2480790785e+02   4.9245088512e+01    0.2328257    0.1536671   6.08  0.001402079    2.542    0.607
        68  -7.7325    167.1982    114.3952   8.8087187911e+01   2.6125653908e+01    0.2079522    0.1382107  61.65 0.0004708749    1.696    0.410
        69  -8.0114     63.5798     81.7939   1.0658201817e+02   5.2327391507e+01    0.2183435    0.1431085 -86.94 0.0006902528    1.977    0.494
        70  -9.3008     59.4877    109.6657   1.1343056719e+02   4.6580128485e+01    0.5043849    0.3142426  85.80  0.001683448    1.850    0.459
        71  -9.9268     65.9289    110.9166   1.1191906666e+02   4.5472410044e+01    0.6668506    0.3582177  85.57  0.002631763    2.955    0.662
        72  -9.7778     67.1000    104.1142   1.1033856818e+02   4.6843963401e+01     0.604153    0.4013839   4.00  0.002804955    2.973    0.664
        73 -10.4897     62.9557     95.5967   1.0981764202e+02   4.9309968489e+01    0.7058235    0.3628357 -77.21  0.001647052    2.469    0.595
        74  -8.9937     64.2176     86.3679   1.0745260913e+02   5.1219834887e+01    0.5705509    0.3585027  -9.38  0.002350971    3.628    0.724
        75  -9.5806     14.3109    111.4632   1.2571712379e+02   5.0679049836e+01    0.4246771    0.1866495  78.28  0.001588942    2.569    0.611
        76  -8.8606     14.0474    105.0157   1.2509693692e+02   5.2118549718e+01    0.2518968    0.1506528 -51.06  0.001331129    1.800    0.445
        77  -8.4598    158.8971    111.7574   8.9198891939e+01   2.8436594825e+01    0.2535971    0.2047782 -41.34 0.0004288437    1.254    0.202
        78  -9.3313    150.0661    110.2944   9.0772408128e+01   3.0633182663e+01    0.3767359    0.2042497 -49.74  0.001087497    1.942    0.485
        79  -8.8964     31.5663    109.3070   1.2090945834e+02   4.9696400117e+01    0.3558033    0.1515984 -62.14  0.001811724    1.920    0.479
        80  -9.1854     35.5490    110.7983   1.2004428767e+02   4.8982772569e+01    0.2436134    0.1498953  79.60 0.0008225459    1.650    0.394
        81 -10.9048     44.8752    102.5485   1.1625563747e+02   4.9881672058e+01    0.8098978    0.3823259  73.90  0.003070667    3.837    0.739
        82 -10.8574     20.4526    100.4370   1.2279666647e+02   5.2640846941e+01     1.099583     0.439523  80.27  0.004129503    4.244    0.764
        83  -9.7411     20.2791     85.2379   1.2072688107e+02   5.6058299515e+01    0.7452365    0.2308411 -70.03  0.003241129    2.550    0.608
        84 -10.7176     25.1871     78.1050   1.1800646083e+02   5.7269024564e+01     0.815502    0.5181926  85.21  0.003274256    1.702    0.412
        85 -10.4680     32.7475     64.2591   1.1263893008e+02   5.9702388993e+01     1.186705    0.5268831 -34.36   0.00491161    3.526    0.716
        86 -10.2014     34.4806     90.7019   1.1729822631e+02   5.3609701895e+01    0.6896051     0.267333 -80.73  0.001885693    3.617    0.724
        87 -10.1447     37.2091     80.9112   1.1467781213e+02   5.5558609309e+01    0.7348591    0.3979142 -21.36  0.003046073    4.101    0.756
        88  -9.7481      6.5238    104.0034   1.2700754977e+02   5.2873581988e+01    0.4233591    0.2390619  71.40  0.001531307    1.713    0.416
        89  -8.6876    166.0487    104.1493   8.5755098652e+01   2.8251172896e+01    0.3037941    0.2033455 -45.37 0.0005082057    1.523    0.343
        90  -9.5560    149.5935    103.2589   8.9105126431e+01   3.2092229157e+01    0.4140928    0.2845055 -57.93  0.001017163    1.642    0.391
        91  -8.9351    149.4364     97.2261   8.7556339284e+01   3.3286943242e+01    0.4253392    0.2496229  29.22  0.001654149    2.442    0.590
        92  -8.3617     74.0368    102.3132   1.0806302348e+02   4.6286945474e+01    0.3445473    0.1594333 -58.14 0.0009464205    1.928    0.481
        93  -8.9832    158.9670    100.9125   8.6423848314e+01   3.0450626364e+01    0.4169908    0.2536271 -55.56  0.001010762    1.950    0.487
        94  -9.5752     81.4905     98.9922   1.0529007657e+02   4.5925565215e+01    0.7061176    0.2704241 -56.76  0.001554776    2.396    0.583
        95  -8.7987     96.3118     90.7412   9.9211879788e+01   4.5316241120e+01    0.5070124    0.3307168 -17.35   0.00207273    2.900    0.655
        96  -9.4771    241.0770     96.5557   7.0498922260e+01   1.2410490420e+01    0.5361578    0.1844146  45.47  0.001949858    3.039    0.671
        97 -10.5238      5.2334     86.7607   1.2548494851e+02   5.6756224657e+01      1.39905    0.3375528 -68.19  0.003816656    2.742    0.635
        98 -10.3573    108.9820    113.0545   1.0116030361e+02   3.8256791460e+01     1.210831    0.4520557 -52.72  0.002859719    2.619    0.618
        99  -9.7342     15.9194     70.6510   1.1975265899e+02   5.9640255393e+01    0.4510294    0.2250725 -61.13  0.001193737    1.524    0.344
       100 -10.5260    180.5646    245.9771   1.0808515842e+02   4.1030342216e+00    0.3722806    0.1110007  37.37  0.001685759    3.067    0.674
       101  -7.5843     12.5408    246.5440   1.3393471483e+02   2.5652825991e+01   0.09122996   0.05901883  65.58 0.0001482365    1.042    0.040
       102 -10.0104    188.3419    233.7356   1.0538079521e+02   4.2668148155e+00    0.2063294    0.1981088  42.48 0.0009591817    1.321    0.243
       103  -9.8583     16.8985     61.1874   1.1764005630e+02   6.1667931388e+01    0.7817519    0.1923034 -62.02  0.003271311    2.714    0.632
       104 -10.7096     23.0923     34.3509   1.0827431286e+02   6.6934707402e+01    0.6120172     0.410174 -18.38  0.003477218    1.797    0.443
       105  -7.7571    112.3576    232.8674   1.1766831542e+02   1.5786442487e+01    0.1214039   0.09750834 -54.01 0.0006592582    1.708    0.415
       106 -10.1271    147.2264    225.2409   1.1108111666e+02   1.1673118127e+01    0.1888894    0.1483878  47.36 0.0002297036    1.030    0.029
       107  -7.4919    110.3476    224.3066   1.1720304784e+02   1.7319901664e+01   0.09890679   0.08089374  24.52 0.0007042848    1.701    0.412
       108  -7.3979     20.3981    217.5324   1.3164817846e+02   2.9411935983e+01   0.09764907   0.06691051  70.63 0.0001335143    1.035    0.034
       109 -10.8533     21.8153     53.3701   1.1409623808e+02   6.3015784278e+01    0.8474081    0.4171273  89.51  0.002835434    4.078    0.755
       110 -10.2185     13.0715     45.4864   1.1564420856e+02   6.5342322165e+01    0.6096654    0.3265962 -28.32  0.002517864    2.368    0.578
       111  -9.5622      6.9014     32.5208   1.1494321356e+02   6.8458473814e+01    0.2212706     0.187952 -48.13 0.0007579595    1.149    0.130
       112 -10.0324      7.1927     28.4224   1.1363755442e+02   6.9285192063e+01    0.3122519    0.2506694  65.19  0.001029307    1.679    0.404
       113  -8.2666    170.9935     94.9669   8.2293163444e+01   2.8769251477e+01    0.2328008    0.2136497 -34.70 0.0007336145    1.083    0.076
       114  -9.4446    164.4114     93.4386   8.3249399399e+01   3.0579656799e+01    0.6299304    0.2225941 -36.44  0.001433155    2.878    0.652
       115  -8.3601    163.3906     87.2667   8.1745688430e+01   3.1936037628e+01    0.2632715    0.1412686 -37.67 0.0006737497    1.834    0.455
       116  -9.1613    150.3761     89.1234   8.5120650801e+01   3.4617522395e+01    0.2792359    0.2495379 -48.84 0.0006729618    1.113    0.102
       117  -9.2842    157.7267     90.7872   8.3954077180e+01   3.2616997104e+01    0.3968163    0.1980416 -37.78  0.001560438    1.994    0.498
       118  -9.0782     39.9232    106.7382   1.1828315218e+02   4.9456237282e+01    0.2357913    0.1491749 -78.63 0.0006079391    1.364    0.267
       119  -9.5561    110.9098     89.8485   9.5023332136e+01   4.2832955749e+01    0.7828461    0.3665811  30.78  0.002636588    3.669    0.727
       120  -9.1673     48.7272     77.4202   1.1025402738e+02   5.5132413309e+01    0.5497388    0.2232279 -42.93  0.002253677    2.893    0.654
       121  -9.7771    227.2015     86.8520   7.0097083673e+01   1.6845369113e+01    0.2770173    0.2392851 -13.35 0.0002434332    1.103    0.094
       122 -10.1568     85.2891     86.5651   1.0126618750e+02   4.8075043569e+01    0.4757801    0.3314207 -85.61 0.0008751001    1.880    0.468
       123  -9.4908     94.3580     97.2476   1.0135178419e+02   4.4236331229e+01     0.353937    0.2554263 -76.86 0.0007557819    1.561    0.359
       124  -7.3929    174.3103     88.6691   7.9884043151e+01   2.9094732389e+01    0.1560725    0.1189284 -70.11 0.0004208004    1.669    0.401
       125 -10.2798     47.9810     84.5467   1.1202663846e+02   5.3613480881e+01    0.6319086    0.3494909 -73.98  0.001731217    1.806    0.446
       126 -10.3267    104.0349     82.6410   9.4910446115e+01   4.5651927333e+01     0.548764    0.3094523 -58.98 0.0009771684    1.959    0.489
       127  -9.4181    105.0922     71.2542   9.1269384299e+01   4.7805799769e+01    0.7644693    0.3378605 -38.12  0.002803189    2.369    0.578
       128  -9.4114     87.8519     78.6228   9.8412071666e+01   4.9377930304e+01    0.4574559     0.333131  12.31  0.001574016    2.033    0.508
       129  -9.3644    231.5046     82.7083   6.8374120521e+01   1.6447845089e+01    0.2831856    0.2295931 -21.22 0.0008694741    1.156    0.135
       130  -9.1048    157.6308     83.6067   8.1935141391e+01   3.3957692788e+01    0.2878101    0.2493994 -60.20 0.0006231246    1.229    0.186
       131  -7.9870    170.5270     83.0461   7.9055563849e+01   3.0981255227e+01    0.2405239      0.14787 -36.05  0.001032685    1.597    0.374
       132  -9.3461    150.0945     79.6726   8.2451891984e+01   3.6447415509e+01    0.6166739    0.2932523 -29.53  0.002222254    2.484    0.597
       133  -8.9214    118.9835     80.4492   9.0262204717e+01   4.3166715410e+01    0.3286153    0.2242565 -56.71 0.0007220118    1.546    0.353
       134  -8.1569    120.0222     76.0006   8.8667434883e+01   4.3842838059e+01    0.3028187    0.2505849  12.91  0.001005058    1.486    0.327
       135  -9.2042     74.1937     79.0761   1.0263998947e+02   5.1436804140e+01    0.6315876    0.2195996 -53.36    0.0018991    2.529    0.605
       136  -8.5629     68.5388     80.1021   1.0463868709e+02   5.2026351227e+01    0.2124587    0.1182502 -57.56  0.001027313    1.589    0.371
       137  -9.0452    166.1093     78.9198   7.8761680842e+01   3.2768161921e+01    0.2326173    0.2202075   5.89 0.0006850642    1.090    0.082
       138  -9.1629    157.4736     77.5020   8.0171707184e+01   3.5097164594e+01    0.4482252    0.2663264 -56.55  0.001338461    2.121    0.528
       139  -7.6422    240.4771     78.5504   6.6023406140e+01   1.4987032473e+01     0.141626     0.129219 -14.03 0.0001757736    1.017    0.017
       140  -8.2658    184.2096     77.8025   7.4864454397e+01   2.8530109945e+01    0.2206451    0.2084273 -63.00 0.0006970977    1.117    0.105
       141  -7.3885    174.2949     78.6682   7.7027756711e+01   3.0819510318e+01    0.1571328    0.1182292 -66.00 0.0003960529    1.637    0.389
       142  -6.9379    222.2760     76.3709   6.8058713263e+01   1.9490107807e+01    0.1525621    0.1095479  11.91 0.0007006285    1.685    0.407
       143  -8.7064    129.8833     58.0514   8.0356342653e+01   4.5072736198e+01    0.3173266    0.2088896 -46.07 0.0004500599    1.527    0.345
       144  -8.8458    129.0714     54.1128   7.9198763610e+01   4.5951946352e+01    0.3578795    0.3448504 -65.39  0.001987718    1.095    0.087
       145  -9.4078    127.4164     75.3366   8.6564122443e+01   4.2396849072e+01    0.3932563    0.2798207 -59.18 0.0008108437    1.575    0.365
       146  -9.3463    129.2933     69.3229   8.4217297651e+01   4.3136899695e+01    0.6197276    0.3477143  24.64  0.002129991    3.298    0.697
       147  -8.6039    130.4799     64.5253   8.2372309514e+01   4.3765290876e+01    0.4840546    0.2213747 -34.42  0.001056727    2.225    0.551
       148  -9.9042     81.6331     72.4713   9.8550309714e+01   5.1718450358e+01    0.4371432    0.3033932 -76.31  0.000960759    1.848    0.459
       149  -9.1935     83.2739     64.6964   9.5714805767e+01   5.3089237011e+01    0.5030288    0.3462086 -13.27  0.002340629    2.216    0.549
       150 -10.0312     62.8785     60.6610   1.0114881130e+02   5.7040015861e+01    0.5561042    0.2945125  32.44  0.002460066    2.284    0.562
       151 -10.5729     55.0030     70.9170   1.0664284089e+02   5.5839387632e+01    0.5696622    0.3982103  68.45  0.001237625    1.870    0.465
       152  -9.2466     54.9928     63.5725   1.0469136508e+02   5.7447838489e+01    0.3270667    0.2441228  -9.37  0.001416627    1.843    0.457
       153  -8.7994    162.6262     73.1142   7.7749174768e+01   3.4624842716e+01     0.341099    0.2327439 -58.32   0.00076339    1.756    0.430
       154  -9.0873    115.3572     72.3047   8.8772113351e+01   4.5544558301e+01    0.5171471    0.2564162 -38.48  0.001778579    2.006    0.502
       155  -9.3009    169.5278     70.5521   7.5554946049e+01   3.3363584672e+01    0.5731269    0.2344966 -26.67  0.001313338    2.930    0.659
       156  -8.6378    156.1264     70.7679   7.8412591351e+01   3.6614038199e+01    0.3788583    0.2171931 -22.52  0.001473762    2.121    0.529
       157  -9.6309    147.0038     68.3818   7.9687827723e+01   3.9226755450e+01    0.6834961    0.2765187 -41.16  0.001679396    2.390    0.582
       158  -9.8340     94.8637     68.3054   9.3309657823e+01   5.0326571244e+01    0.4266042    0.2562971 -55.26 0.0008703711    1.696    0.410
       159  -9.0970     97.2906     58.7376   8.9485282181e+01   5.1797577187e+01    0.8300303    0.5125257 -32.41  0.003845937    1.690    0.408
       160  -9.2231    121.2105     66.0758   8.5243122778e+01   4.5523205439e+01    0.4174324    0.2984013 -55.33 0.0006089288    1.505    0.336
       161  -8.1233    121.6839     61.6674   8.3665495950e+01   4.6250077616e+01    0.2810878    0.2094863  -5.65  0.000912293    1.751    0.429
       162  -9.2182    138.0933     66.2928   8.1093692001e+01   4.1697508227e+01    0.3337809    0.2074475 -46.35 0.0006200676    1.623    0.384
       163  -9.3290    109.8002     63.7839   8.7570784869e+01   4.8355621547e+01    0.3819046    0.2490913 -53.19 0.0006350133    1.603    0.376
       164  -8.9909    110.7091     58.1726   8.5433048846e+01   4.9242183995e+01    0.4083688    0.3078266  19.73  0.001455847    1.656    0.396
       165  -8.3444    157.6728     63.2839   7.5722406582e+01   3.7521589915e+01    0.2758752    0.1717917 -44.13   0.00066141    1.619    0.382
       166  -9.2839     49.4735     61.0409   1.0590910186e+02   5.8663144355e+01    0.3501473    0.1100761 -57.10  0.001354176    2.707    0.631
       167 -10.1265     73.3824     57.2656   9.6541406509e+01   5.6215105492e+01       1.0405    0.3382729 -44.05  0.003253997    2.819    0.645
       168  -9.1501     80.0275     46.4719   9.0577210961e+01   5.7277991499e+01    0.4203941    0.2132183 -37.53 0.0006916511    1.862    0.463
       169 -10.3803     85.0922     47.8488   8.9426793060e+01   5.6135489551e+01    0.5390717    0.3149124 -58.31  0.001626488    2.165    0.538
       170  -8.4462      9.8975     60.6615   1.2006487768e+02   6.2246269853e+01    0.2451225    0.1391798 -75.18   0.00146015    1.457    0.314
       171  -7.6493    164.5491     60.4917   7.3410266252e+01   3.6268622162e+01    0.1542217     0.146857 -53.07 0.0001942264    1.069    0.065
       172  -8.4052    153.1871     34.8433   6.6942845523e+01   4.3049436889e+01    0.3256951    0.2022947 -36.50  0.000678361    1.576    0.365
       173  -9.6483    138.7429     55.3120   7.7286073307e+01   4.3477794968e+01    0.7997904    0.2440837 -36.57  0.001973877    3.067    0.674
       174 -10.1720    152.6138     41.4772   6.9423722711e+01   4.2248826184e+01    0.7689631    0.4071184  42.40  0.002181642    2.048    0.512
       175  -8.7605    141.9638     48.4327   7.4156610693e+01   4.3838375781e+01    0.3477642     0.213329 -35.09 0.0003813704    1.574    0.365
       176  -8.0924    142.5139     44.5061   7.2639518636e+01   4.4323959328e+01    0.4735638    0.1521455  48.92  0.001515539    3.072    0.675
       177  -8.4757    146.5860     58.8162   7.6675298570e+01   4.0994193187e+01    0.2982397    0.1695016 -44.79 0.0009449258    1.793    0.442
       178  -8.8706    147.3900     53.7358   7.4786674000e+01   4.1646468028e+01    0.6393414    0.2581583 -25.36  0.002051346    3.092    0.677
       179  -8.7247     87.4933     58.4351   9.2372678698e+01   5.3645460778e+01    0.3032241     0.221189 -60.85 0.0007839362    1.497    0.332
       180 -10.2768     90.1600     38.0450   8.4044539266e+01   5.6987544908e+01    0.8064146    0.3485135  33.51   0.00288737    3.407    0.706
       181  -9.3576    118.2635     54.8464   8.2228139940e+01   4.8247157354e+01    0.5085263    0.2746546 -40.96  0.001289284    1.761    0.432
       182  -8.7577     53.4984     39.0534   9.7342005470e+01   6.2724506670e+01    0.2025911    0.1747785 -78.34 0.0008609522    1.456    0.313
       183  -8.8312     54.7487     35.4309   9.5478029067e+01   6.3257607419e+01    0.4078223    0.1777075 -35.96  0.001754852    2.362    0.577
       184  -9.9276     49.9521     54.3811   1.0381552115e+02   6.0034552601e+01    0.5215381    0.2985653 -71.75  0.001308777    2.282    0.562
       185  -9.8899     55.9875     43.5730   9.8034802943e+01   6.1500822699e+01    0.9121546    0.4996797 -11.54  0.003034042    5.305    0.811
       186  -9.2139     43.8614     53.4107   1.0576887274e+02   6.0941021598e+01    0.3978413    0.2337208 -68.67 0.0009308845    1.839    0.456
       187  -7.9486     40.3781     50.1855   1.0612814826e+02   6.2002790290e+01    0.1865179     0.135131 -56.19 0.0005661917    1.149    0.130
       188  -9.0621    162.6208     54.0741   7.1710629804e+01   3.7781617674e+01    0.2797344    0.2219732  87.68 0.0007120033    1.509    0.337
       189  -8.6638    105.1386     53.0607   8.5216694162e+01   5.1340107142e+01    0.3471865    0.2317121 -69.02  0.001040148    2.281    0.562
       190  -8.1784    105.4955     49.4917   8.3826374388e+01   5.1920760302e+01    0.2907118    0.2043096   2.81  0.000884147    2.025    0.506
       191  -8.5480    157.4848     49.0717   7.1067850263e+01   3.9864799588e+01    0.2329162    0.1476469 -31.87  0.000436222    1.538    0.350
       192  -8.8314    130.1798     47.8454   7.6701148774e+01   4.6758924883e+01    0.3126186    0.2166917 -38.83 0.0005395146    1.398    0.284
       193  -8.6089    131.1991     42.8087   7.4616013968e+01   4.7334800263e+01    0.5126467    0.2669675 -14.41  0.001800384    2.903    0.655
       194  -9.0892    121.0554     46.7203   7.8575652508e+01   4.9047837992e+01     0.371723    0.2100531 -37.11 0.0005702386    1.683    0.406
       195  -8.2368    122.7930     40.9643   7.5981986307e+01   4.9598665928e+01    0.2835465      0.20285   1.85  0.001196633    1.765    0.433
       196  -7.8110    162.4913     46.4571   6.9191065103e+01   3.8981913634e+01    0.2645137    0.1288044 -40.84 0.0005840483    2.037    0.509
       197  -8.5232    112.0088     46.8593   8.1032166179e+01   5.1018387887e+01    0.2668606    0.1988702 -45.28 0.0004595951    1.335    0.251
       198  -8.7214    113.1497     42.2221   7.8974831148e+01   5.1561185552e+01    0.5667349    0.3170397  -9.12  0.001984384    3.260    0.693
       199  -9.2889    104.9853     41.3412   8.0901769663e+01   5.3457399615e+01    0.5654562    0.2366499 -40.98   0.00163297    2.266    0.559
       200  -8.4128    106.0402     36.2763   7.8606587130e+01   5.4075486791e+01    0.2606324    0.2317403  39.80 0.0006678345    1.172    0.146
       201  -9.9536     37.8002     41.9827   1.0457975403e+02   6.3987231001e+01    0.3987574    0.2712985 -80.13  0.001423573    2.024    0.506
       202 -10.6008     35.9121     37.9576   1.0400722551e+02   6.5005607429e+01    0.6280093    0.3170916 -29.74  0.000371691    2.574    0.611
       203  -7.1373      2.4855    217.5224   1.3445967791e+02   3.1095665123e+01   0.09592632   0.06309473  69.78 0.0008100074    1.020    0.019
       204  -7.0115     55.9980    217.0000   1.2578964312e+02   2.5637669090e+01    0.1519898   0.04774072  40.20  0.000770145    2.723    0.633
       205 -10.0116     76.0710     32.0033   8.6211138394e+01   6.0592300802e+01    0.4726228    0.3815802  86.25  0.001156862    1.898    0.473
       206  -7.6294    148.8444    210.8262   1.0906846253e+02   1.3422496686e+01    0.1501507    0.1171909  65.01 0.0003182368    1.301    0.231
       207  -9.9107     10.0820    207.5412   1.3288281291e+02   3.2072765680e+01    0.3513077    0.2053016  30.44  0.002516467    2.320    0.569
       208  -8.9959    191.5173    193.5180   9.9115662214e+01   8.6430972136e+00     0.518707    0.3027076 -67.11   0.00203202    5.068    0.803
       209  -8.9392     84.7114     21.9153   7.8878224558e+01   6.0646983927e+01    0.2724583    0.2310613 -22.04 0.0005908406    1.067    0.063
       210  -8.9818    139.5549     39.8287   7.1597218756e+01   4.5769774619e+01    0.4513276     0.224745 -38.08  0.001254793    1.945    0.486
       211  -9.4359    222.4977     38.4380   5.7414853450e+01   2.4523838931e+01    0.4168108    0.2477808 -29.85  0.001303481    1.556    0.357
       212  -8.5282    149.8758     48.0942   7.2309677030e+01   4.1934717804e+01    0.3070503    0.1980659 -41.51 0.0005021415    1.543    0.352
       213  -9.0927    144.1831     36.6402   6.9424002117e+01   4.5087303658e+01    0.3319153    0.2559686 -57.18   0.00065632    1.473    0.321
       214  -8.8725    132.9565     36.0122   7.1658072205e+01   4.7954588190e+01    0.3323557    0.2498465 -30.16 0.0005388825    1.292    0.226
       215 -10.6766    134.1058     30.9374   6.9454846092e+01   4.8404617663e+01    0.3781187    0.2752188  -2.75  0.001795299    1.565    0.361
       216  -8.8537    118.9506     34.7642   7.4554083376e+01   5.1452785771e+01    0.3795778    0.1969332 -32.38 0.0006897708    1.839    0.456
       217  -9.2383    100.8254     32.3035   7.8475713865e+01   5.5812028255e+01    0.5573989    0.2807227 -37.35  0.001625546    1.860    0.462
       218  -9.0935    110.3791     33.2241   7.6181713252e+01   5.3617923950e+01    0.4214419    0.2238379 -45.59 0.0009009683    2.044    0.511
       219  -7.3164     24.5339    176.4393   1.2873244125e+02   3.6319670996e+01    0.1079537   0.07851299  75.98 0.0001230793    1.006    0.006
       220  -9.0962    241.3381    171.2922   8.6883254571e+01   2.7014919975e+00    0.2457604    0.1791472  42.91 0.0002459598    1.370    0.270
       221  -9.0561    241.8535    166.5697   8.5896883387e+01   3.1654357402e+00    0.2329304    0.1789771   4.00 0.0003737565    1.187    0.158
       222  -9.1346     96.9392    165.9303   1.1310896715e+02   2.9343780706e+01    0.1820847    0.1571373  85.47 -0.0009232552    1.078    0.072
       223  -8.4380    163.0614    163.1765   9.9203797440e+01   1.8365227349e+01     0.193653      0.16935  44.68 0.0003879695    1.031    0.030
       224  -9.0988    242.0317    161.7900   8.4934212434e+01   3.7033501370e+00    0.2160925    0.1747254   3.86 0.0004017949    1.096    0.088
       225  -7.2735    195.9835     31.0312   5.8612659032e+01   3.2272833109e+01    0.1714118    0.1634178  77.63            0    1.063    0.059
       226  -8.4519    152.4285     30.1616   6.5390037308e+01   4.3878312003e+01    0.2571842    0.1981187  35.79 0.0006089149    1.355    0.262
       227  -9.0598     91.2599     26.2981   7.8775399857e+01   5.8699908703e+01    0.4324702    0.2474085 -52.35  0.001794399    2.319    0.569
       228  -8.8018     92.0241     21.0410   7.6200501854e+01   5.9329172655e+01    0.3711958     0.220161  27.98 0.0009683036    2.034    0.508
       229  -8.8101    156.0473     27.0073   6.3565384329e+01   4.3345433474e+01    0.2926588    0.1791109 -41.51  0.000939929    1.667    0.400
       230  -8.8404    144.1508     25.8718   6.5401229334e+01   4.6564908148e+01    0.3047155    0.1907314 -32.00 0.0009697421    1.560    0.359
       231  -7.9266    110.3780     26.7944   7.3529476867e+01   5.4579004552e+01    0.2041803    0.1314832 -17.19 0.0009435135    1.642    0.391
       232 -10.3120    210.1101    159.3979   8.9768092125e+01   9.9180696349e+00    0.2388587    0.2168716  33.43 0.0003680839    1.108    0.098
       233  -7.5937     23.3361    157.6942   1.2767539875e+02   4.0117323796e+01    0.1186166   0.06177452  67.46 0.0007040372    1.671    0.402
       234  -8.3289     95.9682    150.7314   1.1115131904e+02   3.2518574291e+01    0.1924629    0.1606231 -81.98 0.0005062142    1.129    0.114
       235  -7.8776    128.9727     16.4721   6.4793576889e+01   5.1540490305e+01    0.2465358    0.1933855 -48.75 0.0007624671    1.410    0.291
       236  -8.5125    133.6698    145.6727   1.0202646564e+02   2.7054650494e+01    0.5234108    0.1269511 -52.49  0.001560999    4.825    0.793
       237  -8.8164    132.7617     17.4816   6.4413695817e+01   5.0479853226e+01    0.3120855    0.2501551  13.14 0.0005485431    1.309    0.236
       238  -7.8649    155.4627     23.4672   6.2375915354e+01   4.3937861856e+01    0.1464462    0.1441419 -49.79 7.249473e-06    1.045    0.043
       239  -8.6543    237.4858    146.4968   8.2540215411e+01   6.4392234221e+00    0.1325264    0.1125142  10.71 0.0003688706    1.027    0.026
       240  -8.3788    140.4751     22.9657   6.5018379117e+01   4.7868923020e+01    0.2132539    0.1071278 -47.93 0.0005774614    2.370    0.578
       241  -9.2557    118.9763     21.4405   6.9115826346e+01   5.3337766654e+01    0.3627581    0.1946053 -30.88 0.0005063289    1.783    0.439
       242  -8.0868    120.1869     16.2215   6.6624429359e+01   5.3706691467e+01    0.3702856    0.1816279  31.16  0.001312807    2.669    0.625
       243  -8.2109    111.6205     21.1247   7.0797050018e+01   5.5085212344e+01    0.3368474    0.1315072 -27.75  0.001259082    2.480    0.597
       244  -8.9197    103.0736     21.1926   7.3086603551e+01   5.6981044557e+01    0.3183097    0.2039131 -35.61 0.0007429821    1.515    0.340
       245  -9.2717     66.9263    144.4026   1.1680025047e+02   3.8011285018e+01    0.4907394    0.2568974  68.72  0.002383111    2.249    0.555
       246  -8.2977    139.5646     18.0023   6.3256592202e+01   4.8702509652e+01    0.2201547    0.1403876 -24.56 0.0004575043    1.553    0.356
       247  -7.9617    154.9871     16.9868   6.0062321135e+01   4.4821019848e+01    0.2855835    0.1241794 -45.39 0.0006463288    2.612    0.617
       248  -8.4227     95.8329     16.8082   7.3144412101e+01   5.9128047077e+01    0.2110586      0.19021 -12.27 0.0003963739    1.041    0.039
       249  -8.9713    229.3076    141.9944   8.2911422117e+01   8.6022182580e+00    0.2298471    0.1770281  38.03 0.0002300123    1.235    0.191
       250  -8.5005     42.2489     28.0686   9.7639970819e+01   6.6242464883e+01    0.2390819    0.1516391 -37.32 0.0003047956    1.347    0.257
       251  -7.2495    215.0229    140.5237   8.5008208844e+01   1.1641992788e+01     0.168335    0.1225859  78.13 0.0005487434    2.238    0.553
       252  -7.1467    162.2103    136.0167   9.4059013978e+01   2.3259954843e+01    0.1671829    0.1137966 -42.29 0.0008222695    1.547    0.353
       253  -8.4950    112.1347    133.8210   1.0462196746e+02   3.3323248844e+01    0.2716113      0.18544  78.43 0.0009789158    1.808    0.447
       254  -9.7648    134.1302    131.4047   9.9129057759e+01   2.9752532312e+01    0.4963168    0.4861503  60.84  0.002379798    1.080    0.074
       255  -8.2493     82.0068    130.5222   1.1119305153e+02   3.8893355892e+01    0.3943147    0.1983864 -82.89  0.001561188    3.085    0.676
       256 -10.4579     70.6155    126.2400   1.1329407381e+02   4.1441059820e+01    0.5802888    0.4754152 -64.83  0.001567672    1.190    0.160
       257 -10.1930     58.4177    124.6226   1.1609103066e+02   4.3377185495e+01    0.8495607    0.3936263  74.08  0.002267046    3.914    0.745
       258  -9.6701     98.5417    128.6418   1.0686738681e+02   3.6721251121e+01    0.5569984    0.3192215  77.69  0.002169015    2.834    0.647
       259 -10.2978    131.9251    119.8941   9.7159625580e+01   3.2486938055e+01    0.8673753    0.4940368  72.49  0.003166865    3.212    0.689
       260 -10.8541    133.4212    109.5903   9.4416955664e+01   3.4270227815e+01    0.8396458    0.4415744 -47.31   0.00214279    1.892    0.471
       261  -9.5488    139.3232    104.4986   9.1774265333e+01   3.4063831308e+01     0.429114    0.2969434 -58.96 0.0007129207    1.590    0.371
       262  -9.9157    117.1418    125.6656   1.0185279333e+02   3.4117906571e+01    0.8253382     0.509495  88.96  0.001848465    2.739    0.635
       263 -10.6937    123.5919     91.7137   9.2246651115e+01   3.9928194360e+01     1.061286    0.6351933 -33.65  0.003598419    1.920    0.479
       264 -10.0848    138.8997     91.5929   8.8466768575e+01   3.6707935775e+01     1.052627    0.4157096 -46.09  0.003124395    2.533    0.605
       265  -9.3896    140.5278     82.3473   8.5453603379e+01   3.8140327020e+01    0.6243012    0.3080485 -37.63  0.001720566    2.028    0.507
       266  -8.7353    139.9737     75.5505   8.3552900842e+01   3.9554541787e+01    0.3844137    0.2041686 -47.35 0.0009962625    1.931    0.482
