#   1 NUMBER                 Running object number                                     
#   2 MAG_AUTO               Kron-like elliptical aperture magnitude                    [mag]
#   3 X_IMAGE                Object position along x                                    [pixel]
#   4 Y_IMAGE                Object position along y                                    [pixel]
#   5 X_WORLD                Barycenter position along world x axis                     [deg]
#   6 Y_WORLD                Barycenter position along world y axis                     [deg]
#   7 A_WORLD                Profile RMS along major axis (world units)                 [deg]
#   8 B_WORLD                Profile RMS along minor axis (world units)                 [deg]
#   9 THETA_WORLD            Position angle (CCW/world-x)                               [deg]
#  10 FWHM_WORLD             FWHM assuming a gaussian core                              [deg]
#  11 ELONGATION             A_IMAGE/B_IMAGE                                           
#  12 ELLIPTICITY            1 - B_IMAGE/A_IMAGE                                       
         1 -11.8025    227.9821     25.7338   3.2331276129e+01   2.6644785741e+01    0.6663914    0.5719078 -75.40  0.003682185    1.139    0.122
         2 -12.5813    210.6942     40.5884   3.7113541770e+01   2.8386453728e+01      1.43553     1.156352  28.48  0.008631866    1.903    0.475
         3 -10.8453      2.0508     27.3286   9.2469287275e+01   7.0505485835e+01    0.5080772    0.1331241 -50.24  0.002237794    3.013    0.668
         4 -10.7074      2.2257     11.6470   8.5843954765e+01   7.3011595488e+01    0.5766996    0.1477832 -45.24  0.002565644    3.365    0.703
         5 -10.1810    249.0048      6.3395   2.7163218479e+01   2.4764002243e+01    0.3610086    0.2279121 -67.89  0.001899235    1.216    0.178
         6 -10.1217    247.9943      2.4826   2.6534945247e+01   2.5366119604e+01    0.3384297    0.1776749  78.02  0.001794434    1.762    0.433
         7  -7.5855     21.3136     19.6708   7.8612285430e+01   6.9988947723e+01   0.09830924   0.09431144  35.00 0.0007044011    1.673    0.402
         8  -9.7725    116.4166    247.1707   9.9029538455e+01   6.4385743082e+00    0.5476648    0.2346916 -61.38  0.002394118    2.951    0.661
         9  -8.5857    115.3392    240.1897   9.8387617369e+01   7.9299740874e+00    0.2176414    0.2038688 -79.78 0.0008234178    1.209    0.173
        10 -14.5430     17.5337    243.6629   1.1937473434e+02   1.9814122716e+01     4.394741     1.812122  26.08   0.02119766    2.915    0.657
        11 -11.5784     29.8420    199.8904   1.1360704326e+02   2.8214686460e+01    0.5251642    0.3993293 -35.86  0.001402484    1.762    0.432
        12 -14.1869     39.7984    190.7821   1.1031383908e+02   2.9327790674e+01     10.72844     4.288019  81.39   0.03087412    5.477    0.817
        13 -10.2375     46.0207    223.5006   1.1200363146e+02   2.0957783696e+01    0.7440812    0.3086021  83.20  0.002655283    4.028    0.752
        14  -8.1622    186.5987    175.7835   7.1578605482e+01   9.1716104925e+00    0.1999138    0.1326149 -50.97 0.0005339858    1.608    0.378
        15 -10.3177     58.6104    174.2480   1.0339979941e+02   3.1185088663e+01    0.4674861    0.3027731 -32.15  0.001693117    2.092    0.522
        16 -10.2671     63.9492    169.2534   1.0121099087e+02   3.1750527706e+01    0.3558638    0.2784343 -31.56 0.0007604978    1.533    0.348
        17  -8.1580     47.2756    168.2636   1.0568209513e+02   3.4103181798e+01    0.1911054    0.1455846  70.35 0.0004706073    1.342    0.255
        18  -9.6771     83.0375    163.0726   9.4859438711e+01   3.0565510220e+01    0.2464033    0.1779342  72.71  0.001133357    1.671    0.402
        19 -10.9085     81.9920    153.5858   9.3431863537e+01   3.3141051303e+01    0.7221863      0.49449 -20.63  0.001930302    2.062    0.515
        20 -10.9809     57.8506    129.8027   9.6246104063e+01   4.2692343687e+01    0.9170932      0.37098 -73.35  0.002706434    4.177    0.761
        21 -12.1726     67.9015    144.5312   9.5918905734e+01   3.7554641390e+01     1.272695    0.7747513  73.63  0.004473253    2.505    0.601
        22 -10.1362     82.6041    215.1909   1.0270811434e+02   1.8011154733e+01    0.3206083    0.2471445  85.61 0.0005351967    1.384    0.277
        23 -11.4254     75.9783    219.6990   1.0480243380e+02   1.7935429533e+01     1.144057    0.3445101  47.63  0.003955724    3.382    0.704
        24  -9.8144     97.4087    140.0852   8.6188613192e+01   3.4000262240e+01     0.643076    0.4092223 -12.52  0.002360244    2.784    0.641
        25 -10.6927     84.5577    138.9342   8.9761633488e+01   3.6456257685e+01    0.3184762    0.2887951 -44.40  0.000458752    1.085    0.079
        26 -11.8471     61.1265    155.8367   9.9908122343e+01   3.5568274357e+01    0.5477602    0.3591823 -42.03  0.001307004    1.660    0.397
        27  -9.3456    107.5845    130.5170   8.1052485664e+01   3.4496994653e+01    0.4639906     0.294328  24.41  0.001912575    1.914    0.478
        28  -7.7140     96.6101    125.1737   8.3023114673e+01   3.7810845491e+01    0.2171375    0.1384236 -41.77 0.0002682336    1.588    0.370
        29  -7.9978    105.6997    118.9277   7.8775399292e+01   3.7615981702e+01    0.2125217    0.1874275 -49.92 0.0002812736    1.116    0.104
        30  -8.2503    160.5083    117.4584   6.4154944658e+01   2.6507382378e+01    0.2582928    0.1398032 -53.82 0.0006176804    2.040    0.510
        31 -10.6368     74.2366    159.9448   9.6810695312e+01   3.2685893048e+01    0.5295745    0.3536406 -52.23 0.0005802991    1.455    0.313
        32 -10.3701     42.1167    208.6076   1.1153036151e+02   2.4806280895e+01    0.4512487    0.3272513  78.29  0.001636556    1.283    0.221
        33  -8.0106     75.9917    111.3163   8.6179172615e+01   4.4664764861e+01    0.2447525    0.1008839  52.05 0.0007043633    4.227    0.763
        34 -11.0324     21.8493    223.4110   1.1723178945e+02   2.3663027243e+01      0.56972    0.3682698  58.87  0.002811966    1.324    0.245
        35  -7.8135    205.2559    110.4121   5.3726784768e+01   1.8406576072e+01    0.1917215    0.1360853  69.72 0.0009520784    1.700    0.412
        36 -10.0141     52.1465    105.7687   9.3049981826e+01   4.9402442090e+01    0.4341714     0.182445 -59.28  0.001681909    2.284    0.562
        37  -8.8813     52.8026     92.1938   8.9469938476e+01   5.2517997460e+01    0.3161969    0.1152083 -61.45  0.001029481    3.495    0.714
        38  -8.2139    161.5266     83.4901   5.5179400946e+01   3.2897166310e+01    0.1441898    0.1414167 -85.18 4.797113e-05    1.045    0.043
        39  -8.8334      7.3241     65.3299   1.0127133045e+02   6.2805608202e+01    0.1369837   0.07095653 -35.08 0.0002748817    1.700    0.412
        40 -10.6035      2.1047     60.8916   1.0256025133e+02   6.4040855650e+01    0.6144233    0.1448586 -66.10  0.001997106    4.862    0.794
        41  -8.7716     32.9639     61.8327   8.8846349005e+01   6.1403016441e+01    0.2199591    0.1744749 -88.41 0.0008996003    2.037    0.509
        42 -10.6621     12.4440     59.4728   9.7430156051e+01   6.3702791398e+01    0.3536746    0.3039464  77.68  0.001203053    1.670    0.401
        43  -9.3278     55.5332    248.4697   1.1209564238e+02   1.4515896660e+01    0.2136831    0.2064686 -74.39  0.000806487    1.299    0.230
        44 -10.9315    220.0166     32.9105   3.4516356607e+01   2.7400525279e+01    0.4487991    0.3376872  48.33  0.001135358    1.770    0.435
        45 -11.6023    202.5533     46.2758   3.9321544350e+01   2.9392034445e+01    0.5712538    0.3842176  60.66  0.002072359    1.525    0.344
        46 -10.2744     21.0680    194.9981   1.1525503525e+02   3.0265117479e+01    0.3819452    0.1988763  53.60  0.001323825    1.830    0.454
        47 -10.1106      2.3793     36.8147   9.5619225484e+01   6.8793868898e+01    0.2473484    0.1527866 -44.50  0.001554725    1.329    0.247
        48  -8.7204     34.8167     55.9017   8.6116492130e+01   6.2363891917e+01    0.2333973    0.1744115  28.38 0.0008084768    1.434    0.303
        49  -8.2771    130.9194     38.0955   4.8394585480e+01   4.7092533646e+01     0.201169     0.169625 -83.85 0.0004068094    1.295    0.228
        50 -12.7320    102.1381    227.1293   9.9671743971e+01   1.2540406865e+01     2.320935    0.6091391  36.31  0.007974274    3.220    0.689
        51 -10.0554      2.7679     50.0689   9.9440300041e+01   6.6225990841e+01    0.3531202    0.1423168 -42.45  0.001781684    1.912    0.477
        52 -13.5435      9.1200    207.5740   1.1889860809e+02   2.8447698145e+01     2.133922    0.9836415 -82.50  0.004131944    1.931    0.482
        53 -11.0078     58.2329    225.0637   1.0942713246e+02   1.9105790068e+01    0.5900536     0.309014  73.86  0.002576843    2.386    0.581
        54  -7.9307     99.4787    181.4196   9.3565554502e+01   2.3381784645e+01    0.1443343    0.1426892  21.33 0.0001793575    1.062    0.059
