#   1 NUMBER                 Running object number                                     
#   2 MAG_AUTO               Kron-like elliptical aperture magnitude                    [mag]
#   3 X_IMAGE                Object position along x                                    [pixel]
#   4 Y_IMAGE                Object position along y                                    [pixel]
#   5 X_WORLD                Barycenter position along world x axis                     [deg]
#   6 Y_WORLD                Barycenter position along world y axis                     [deg]
#   7 A_WORLD                Profile RMS along major axis (world units)                 [deg]
#   8 B_WORLD                Profile RMS along minor axis (world units)                 [deg]
#   9 THETA_WORLD            Position angle (CCW/world-x)                               [deg]
#  10 FWHM_WORLD             FWHM assuming a gaussian core                              [deg]
#  11 ELONGATION             A_IMAGE/B_IMAGE                                           
#  12 ELLIPTICITY            1 - B_IMAGE/A_IMAGE                                       
         1 -11.8588     58.4709    134.5478   1.2888633600e+02   4.1472643081e+01     1.692191    0.3075198 -61.95  0.004507326    5.365    0.814
         2 -11.6859    195.5257     21.2880   6.6158300862e+01   3.3933692676e+01    0.8864153    0.7127883 -86.63   0.00526018    1.133    0.117
         3 -10.8712    201.1293     13.2023   6.3494634994e+01   3.3479937488e+01       0.4361    0.3258854  38.50  0.001159333    1.709    0.415
         4 -10.2095     40.4343     11.1214   9.9513099145e+01   6.7213629347e+01    0.3056611   0.09430441 -30.94  0.001378034    3.098    0.677
         5 -11.2546    208.9908      3.5044   6.0380231513e+01   3.2624093113e+01    0.7335003    0.3779174  75.64  0.003158975    1.674    0.402
         6  -8.2985     83.0000      8.9786   8.3991724858e+01   6.0774739672e+01    0.1859694   0.06562401 -24.68 0.0008078847    2.980    0.664
         7  -9.2868     58.7388      3.7053   8.9432161304e+01   6.5417431169e+01    0.2939209    0.1428163 -16.99  0.001605734    2.115    0.527
         8  -7.7104     73.6767      2.3175   8.4028517584e+01   6.3060271137e+01    0.1014752   0.09399804 -67.23  0.000378414    1.669    0.401
         9 -10.1021     64.8074    249.7164   1.4162691404e+02   1.5328849047e+01    0.2832329    0.1821358  48.25  0.001825609    1.402    0.287
        10 -10.4954    125.0016    245.1444   1.3019185347e+02   6.8708114518e+00    0.7406412      0.13189 -54.58  0.002294141    6.286    0.841
        11 -11.7711    127.0800    232.2055   1.2813710830e+02   8.8690040123e+00    0.8750256    0.3526502 -58.68  0.003749013    2.905    0.656
        12 -11.5349    133.9505    231.6645   1.2670422902e+02   7.7738108630e+00    0.4365432    0.4036227  72.92  0.002848838    1.120    0.107
        13 -16.3008      9.2634    149.1957   1.4320460638e+02   4.2991038562e+01     18.29752     2.297126 -72.25   0.04711243    7.472    0.866
        14 -14.1765     57.7989    210.0408   1.3925218528e+02   2.4208983247e+01     5.950519     1.097688  51.02   0.01732934    5.991    0.833
        15  -9.9759     67.0708    233.6706   1.3980307955e+02   1.8079079743e+01    0.2498409     0.175971 -86.59  0.001602348    1.285    0.222
        16  -9.5963     79.7465    247.6812   1.3882361660e+02   1.3572644157e+01     0.324645    0.1253278 -77.38  0.001345079    3.679    0.728
        17 -11.0048    101.3923    237.9187   1.3382435567e+02   1.2076907941e+01    0.4088418    0.1968691  39.14  0.001990105    2.036    0.509
        18 -11.3801     94.4487    249.1607   1.3632175863e+02   1.1083473643e+01    0.5882784    0.3922661  33.42  0.002411984    1.841    0.457
        19 -10.0543    162.5399    225.4909   1.2007358557e+02   3.7649137287e+00      0.32824    0.1858148  30.60  0.001521345    1.969    0.492
        20 -10.7798     83.3788    245.3561   1.3794891674e+02   1.3466555752e+01    0.5173455    0.2075351 -73.95  0.002317779    3.102    0.678
        21 -10.8580     74.6375    234.2716   1.3846532431e+02   1.6878425103e+01    0.3657318    0.2120712  81.11  0.002006347    1.784    0.440
        22 -10.0932     73.3785    190.4676   1.3376696320e+02   2.6337244609e+01    0.4217305    0.2588058 -44.97   0.00208278    2.167    0.539
        23  -9.9814     77.7180    184.0650   1.3195041619e+02   2.7152736939e+01    0.2874986    0.2312061 -48.18 0.0009511767    1.491    0.330
        24  -9.7644     85.3447    172.5978   1.2850585535e+02   2.8640222557e+01    0.3513136    0.2867495  79.86  0.001119704    1.156    0.135
        25 -10.7211     91.6828    165.1138   1.2577037506e+02   2.9383509243e+01    0.5662209    0.4873711 -11.64  0.001804056    1.624    0.384
        26 -10.1797     83.4158    163.1985   1.2745004093e+02   3.1152369735e+01    0.5425355     0.252124 -63.55  0.002274812    2.076    0.518
        27 -11.5902     73.6728    169.4862   1.3077193408e+02   3.1132011197e+01     0.509609    0.2878896 -49.61  0.001493421    1.912    0.477
        28 -10.7933     73.6051    134.3033   1.2478420844e+02   3.9495838358e+01    0.9502227    0.1797355 -59.39  0.002431204    5.420    0.815
        29 -10.7950     72.9146    154.6064   1.2860470952e+02   3.4761507729e+01    0.7291662    0.3790453 -84.75  0.002785636    2.934    0.659
        30 -11.5392     67.8554    144.0607   1.2809329574e+02   3.7983281265e+01    0.7683946    0.4822164  61.88   0.00337892    1.879    0.468
        31 -12.8886     51.5213    230.0709   1.4230945331e+02   2.0900369548e+01      1.17617     0.942001  24.79  0.004355208    1.970    0.492
        32  -8.2289    134.3704    148.5889   1.1206696999e+02   2.5358617779e+01    0.3028623    0.1377455 -62.66 0.0009514906    3.230    0.690
        33 -10.3643     92.5526    147.6731   1.2239209464e+02   3.3379291725e+01    0.2700581    0.2554977 -22.76 0.0004726599    1.253    0.202
        34 -10.1451    163.9749    249.0017   1.2328766531e+02  -4.3682421882e-01    0.2649551    0.1944953  29.57  0.001452299    1.353    0.261
        35 -11.8320     40.9719    126.0116   1.3212661960e+02   4.5473350782e+01    0.9372877    0.1935246 -63.09  0.002991427    4.012    0.751
        36  -8.3790    109.1769    122.2298   1.1250997253e+02   3.6424831509e+01    0.2177801    0.2022973 -21.01 0.0004781538    1.177    0.151
        37  -8.5868    168.1225    113.1774   9.5523198739e+01   2.5666530493e+01    0.2935512    0.2011321 -70.06  0.001041937    1.944    0.486
        38  -9.5612    103.7286    147.9461   1.1959157898e+02   3.1396399049e+01    0.3753948    0.2653782 -42.12  0.001798318    1.544    0.352
        39  -8.9781     83.0000    130.0711   1.2139065636e+02   3.9093163908e+01    0.4052832   0.07576101 -55.77  0.001048821    4.911    0.796
        40  -9.2866    100.7482    131.5909   1.1692560558e+02   3.5786780579e+01    0.3262034    0.2292151 -29.72 0.0009637114    1.812    0.448
        41  -9.4036    113.6104    134.4762   1.1417529391e+02   3.2748968526e+01    0.3826646    0.2439246 -27.90  0.001546598    2.277    0.561
        42 -11.4871     50.5695    222.3294   1.4180706982e+02   2.2588988204e+01    0.5369754    0.3554304 -64.02  0.001239426    1.615    0.381
        43 -11.3027    187.4307     28.4161   6.9073016502e+01   3.5079076946e+01    0.6840012    0.4296041  78.07  0.002844569    1.547    0.353
        44  -9.6948    164.0000    241.0381   1.2214266402e+02   8.4325278880e-01    0.2871671    0.1248337 -38.36  0.001212849    3.240    0.691
        45 -10.6846    140.5380    248.6015   1.2768099417e+02   3.6453972959e+00    0.4096583    0.1701125  35.72  0.001748869    2.549    0.608
        46 -10.1201     73.7091    248.4136   1.3996140695e+02   1.4314533870e+01    0.3152381    0.1514174 -75.42  0.001684527    2.215    0.549
        47 -10.7579    109.1562    246.1424   1.3329113708e+02   9.3048673026e+00    0.4541613    0.2123981 -60.16   0.00205239    2.417    0.586
        48  -9.7900    183.0502    247.0034   1.1937774791e+02  -3.3967880046e+00    0.2005359    0.1423759  13.99  0.001135151    1.690    0.408
        49 -10.4527     74.2781    242.4642   1.3931585789e+02   1.5348942811e+01    0.4981481    0.1482146 -71.75  0.001869901    4.389    0.772
