#   1 NUMBER                 Running object number                                     
#   2 MAG_AUTO               Kron-like elliptical aperture magnitude                    [mag]
#   3 X_IMAGE                Object position along x                                    [pixel]
#   4 Y_IMAGE                Object position along y                                    [pixel]
#   5 X_WORLD                Barycenter position along world x axis                     [deg]
#   6 Y_WORLD                Barycenter position along world y axis                     [deg]
#   7 A_WORLD                Profile RMS along major axis (world units)                 [deg]
#   8 B_WORLD                Profile RMS along minor axis (world units)                 [deg]
#   9 THETA_WORLD            Position angle (CCW/world-x)                               [deg]
#  10 FWHM_WORLD             FWHM assuming a gaussian core                              [deg]
#  11 ELONGATION             A_IMAGE/B_IMAGE                                           
#  12 ELLIPTICITY            1 - B_IMAGE/A_IMAGE                                       
         1 -13.9108     67.8871    144.7613   1.3022142051e+02   3.7695737890e+01     3.040678     1.390794 -89.41  0.005382146    5.846    0.829
         2 -13.2303    211.0698      2.4740   6.0782794407e+01   3.1572787611e+01     1.790076    0.7268118  68.64  0.007816648    2.202    0.546
         3 -14.1805    188.4406     25.5524   6.9661436405e+01   3.4827189399e+01     1.685781       1.4602  -9.99  0.006070782    1.316    0.240
         4 -13.8747    195.9215     18.6321   6.6725367252e+01   3.3699562274e+01     1.252163    0.9780307 -70.08  0.004198732    1.277    0.217
         5 -12.6935    201.3483     10.8536   6.3957946148e+01   3.3154523399e+01      0.61879    0.5111211  40.46  0.001379743    1.386    0.279
         6  -9.8101     32.6779      2.3308   1.0064449038e+02   7.0875830049e+01   0.09981043   0.08952613 -42.40  0.000704953    1.697    0.411
         7 -11.4428    173.4868    221.6466   1.1924347197e+02   4.9707856298e+00    0.4070554    0.1825714  40.76  0.001961332    1.867    0.464
         8 -11.7096    247.5979    249.3352   1.1058178932e+02  -9.9787576722e+00    0.5397558    0.1857062  35.35  0.002765669    2.328    0.570
         9 -12.1983    139.5820    248.4474   1.2894863021e+02   6.5387215861e+00    0.3523414    0.2835943  88.12  0.002364415    1.525    0.344
        10 -14.5357    101.9897    245.3944   1.3525141535e+02   1.2685210482e+01     4.842634      2.57165  26.23   0.01499511    3.345    0.701
        11 -13.4202     73.2562    226.7901   1.3867980710e+02   1.9901624372e+01    0.6671712    0.2672948  64.42  0.002510021    3.141    0.682
        12 -12.6156     52.0536    233.1966   1.4293659906e+02   2.1483024027e+01    0.4836293    0.3460461 -65.66   0.00150755    1.673    0.402
        13 -13.3370     48.5435    226.5794   1.4307651714e+02   2.3095301120e+01    0.5895942    0.4853509  -4.51  0.002203444    2.491    0.598
        14 -16.4833     48.8263    203.3313   1.4121960580e+02   2.7475957876e+01     16.64639     5.972383 -87.50   0.06200912    4.513    0.778
        15 -11.9000     77.1616    186.1169   1.3373385063e+02   2.7279181302e+01    0.2900198     0.226477 -56.48  0.000721536    1.464    0.317
        16 -10.2682    103.1251    149.3891   1.2227105300e+02   3.1230046680e+01    0.3034711    0.2600568 -46.91 0.0007953356    1.268    0.211
        17  -9.7200    105.7159    145.2778   1.2086647666e+02   3.1703206663e+01    0.2920269    0.2056666 -33.67  0.001174878    1.836    0.455
        18 -12.2601     92.0450    148.9518   1.2490823201e+02   3.3163181643e+01    0.2683506     0.250542 -45.79 0.0004310882    1.227    0.185
        19  -8.8653    134.3890    148.2173   1.1454595752e+02   2.5721874057e+01    0.2094296    0.1378662 -61.66 0.0009517407    1.698    0.411
        20 -15.3880      8.8361    240.8375   1.5041692612e+02   2.4903608130e+01     6.850126     0.590408 -74.92    0.0139073    7.489    0.866
        21 -10.6828    202.8291    249.3255   1.1801346899e+02  -3.4568839843e+00    0.2403133   0.08395841  45.74  0.001096657    2.632    0.620
        22  -9.9735    112.7256    135.5852   1.1717503635e+02   3.2619503469e+01    0.2935386    0.2299209 -18.83  0.001146556    1.743    0.426
        23  -8.7735    181.5230    192.4452   1.1292341143e+02   8.1453104316e+00    0.1349819    0.1186733  30.33 6.523173e-05    1.018    0.017
        24 -11.2369     69.4225    134.4924   1.2814852762e+02   3.9859407526e+01    0.3574885     0.225258  33.03  0.001830995    1.815    0.449
        25 -10.8640    100.4465    132.5312   1.1967378804e+02   3.5499978934e+01     0.285104    0.2304181 -29.54 0.0005390871    1.512    0.338
        26 -10.0111    228.8975    205.7292   1.0652289759e+02  -2.1714146170e+00    0.2068588    0.1717953 -31.43  0.000604134    1.402    0.286
        27  -9.5938    108.9961    122.9264   1.1536638200e+02   3.6150974461e+01    0.2080574    0.2015508 -72.47  0.000305143    1.029    0.028
        28 -10.5567    126.2738    174.1321   1.2125948884e+02   2.1828372216e+01    0.3264162     0.230231  43.40  0.001711817    1.341    0.254
        29 -10.9982    168.3072    113.1719   9.8527156445e+01   2.5675877364e+01    0.3871931    0.3090399 -82.00 0.0009799432    1.607    0.378
        30 -11.6182     85.4688    174.2154   1.3038560023e+02   2.8591392325e+01    0.2677568    0.2517419  79.75 0.0006671835    1.151    0.131
        31  -9.7180    204.9851    110.3755   9.0430909111e+01   1.7710599981e+01    0.3704836    0.2184579  34.27  0.001533816    2.042    0.510
        32 -13.4306     73.1810    171.6501   1.3279516388e+02   3.0929470386e+01     0.455636    0.2706611 -45.68  0.001809027    2.172    0.540
        33 -12.9198     91.2364    166.3626   1.2793541219e+02   2.9412585114e+01     2.326724    0.6168259  49.96  0.001352688    4.578    0.782
        34 -10.7015    192.7866    194.4062   1.1109226445e+02   5.7561533043e+00    0.7985148    0.3895589 -60.34  0.002400298    6.435    0.845
        35  -9.6238    154.6042     76.1939   9.1206814438e+01   3.5946117517e+01    0.2139401    0.1484621 -23.46 0.0005026696    1.614    0.380
        36  -9.9339    127.3375     53.9142   9.0484538535e+01   4.6268524864e+01      0.23376    0.2044661  67.81 0.0003693106    1.263    0.208
        37 -12.5517     35.7931    228.7554   1.4542414704e+02   2.4185701607e+01    0.5601349    0.4123439 -77.58  0.001489671    1.428    0.300
        38 -14.0343     33.7175    246.1945   1.4678013568e+02   2.1382935221e+01      1.95242    0.5920068  42.45  0.009713247    2.529    0.605
        39 -10.0962    164.1141    250.2410   1.2484670075e+02   2.4507738720e+00    0.1942278    0.1118137  57.46  0.001086445    1.998    0.499
        40 -11.8904     72.7217    192.7865   1.3543270535e+02   2.6521369422e+01    0.3685236    0.2572234 -49.79  0.001786508    1.817    0.450
        41 -10.4745    138.0462    171.5029   1.1820229602e+02   2.0192878744e+01    0.2216175    0.1307868  43.51  0.001032255    1.588    0.370
        42 -14.2616     11.5950    206.7018   1.4831294850e+02   3.0813344200e+01     1.069014    0.7921547  50.91  0.003110015    1.372    0.271
