#   1 NUMBER                 Running object number                                     
#   2 MAG_AUTO               Kron-like elliptical aperture magnitude                    [mag]
#   3 X_IMAGE                Object position along x                                    [pixel]
#   4 Y_IMAGE                Object position along y                                    [pixel]
#   5 X_WORLD                Barycenter position along world x axis                     [deg]
#   6 Y_WORLD                Barycenter position along world y axis                     [deg]
#   7 A_WORLD                Profile RMS along major axis (world units)                 [deg]
#   8 B_WORLD                Profile RMS along minor axis (world units)                 [deg]
#   9 THETA_WORLD            Position angle (CCW/world-x)                               [deg]
#  10 FWHM_WORLD             FWHM assuming a gaussian core                              [deg]
#  11 ELONGATION             A_IMAGE/B_IMAGE                                           
#  12 ELLIPTICITY            1 - B_IMAGE/A_IMAGE                                       
         1  -8.4410     65.2318     24.1579   3.9394223942e+01   6.4649837090e+01    0.1848474    0.1628224 -55.70      0.00108    1.376    0.273
         2  -9.6217    142.8532     18.4529   1.7306337292e+01   4.6872744172e+01    0.4669456     0.367367  49.48  0.002247474    1.286    0.222
         3  -9.6838    172.1140     12.7247   1.1513969782e+01   3.9808664328e+01    0.3378704    0.2820382  35.72  0.001298907    1.385    0.278
         4  -9.0173      5.5896      9.2465   6.3157011534e+01   7.5661423856e+01    0.2713647    0.1656238 -37.35  0.001668989    1.320    0.242
         5 -10.8743    166.1962      5.3820   9.7670747279e+00   4.2056161437e+01    0.6119496    0.5816712  -6.33   0.00326528    1.183    0.155
         6  -9.4263    212.3363      4.7666   5.7015642472e+00   3.0583981317e+01    0.2283507    0.1874025 -87.23  0.001397772    1.176    0.150
         7  -8.5198     79.1660      5.1213   2.4657894738e+01   6.4070913613e+01    0.2181422    0.1661797  26.46  0.000728535    1.273    0.214
         8  -9.6017    236.2404      2.3209   3.6213774687e+00   2.5386326082e+01    0.4059958    0.2156055 -72.61   0.00211686    1.849    0.459
         9  -8.5260    201.3216      2.6507   5.9029848541e+00   3.3431735307e+01    0.1501783   0.07982888 -56.19  0.000614153    1.743    0.426
        10  -8.3877    149.1897      1.3386   1.0239502450e+01   4.6853760862e+01    0.2995368   0.09488653  63.96  0.001097601    2.661    0.624
        11  -8.5101    125.7668    203.3985   6.9315980336e+01   1.5817448033e+01    0.1801351    0.1097038  31.44 0.0009461479    1.625    0.385
        12  -9.3567    194.6904    206.4417   5.6423362039e+01   4.3527749672e+00    0.2352584     0.104186  42.50  0.001143741    2.128    0.530
        13  -9.6070    200.8445    193.9539   5.3217012823e+01   5.1372498151e+00    0.2834217    0.1753703 -34.30  0.001608542    1.679    0.404
        14  -8.4841     12.6633    177.6770   9.1608782208e+01   3.6016142817e+01    0.1089834   0.08364363 -52.90  0.000705081    1.714    0.417
        15  -9.2026    124.6012    166.2674   6.3814646220e+01   2.3151556080e+01    0.3720811    0.2718616 -50.23  0.001968263    1.450    0.310
        16  -9.0093    198.2556    161.3909   4.7546224278e+01   1.0506918239e+01    0.2320445    0.1620376 -52.86  0.001197923    1.837    0.456
        17  -9.4796     80.9007    144.6913   7.0916694716e+01   3.5353288203e+01    0.3994424    0.2835639 -79.43  0.001587082    1.446    0.309
        18 -10.4592     56.8296    129.0383   7.5042500063e+01   4.2645957699e+01    0.6594102    0.3772603 -52.34  0.003125235    1.762    0.432
        19 -11.7077    116.5084    121.3757   5.6627641385e+01   3.4471842828e+01    0.8844948    0.6768653 -47.29  0.004350706    1.298    0.229
        20  -9.9689      2.7071    109.8379   8.9135100486e+01   5.2756026570e+01    0.6397205    0.1685829 -62.68  0.002579745    2.814    0.645
        21 -10.6352    242.1838    109.7245   2.9061222516e+01   1.0342996322e+01    0.4905279    0.2863506 -27.57  0.002505447    1.500    0.333
        22 -11.8342    244.1185    103.6948   2.7416176285e+01   1.0851065742e+01    0.9639009    0.6530435 -29.39  0.005365545    1.249    0.199
        23  -9.6566    228.9457    110.7038   3.1152590461e+01   1.2713312628e+01    0.3984244     0.242144 -27.60  0.001637047    1.491    0.330
        24  -9.9063    160.3983    100.6263   4.0711652251e+01   2.9301311232e+01    0.6345915    0.4125161 -35.35   0.00281377    1.520    0.342
        25  -9.0655    180.8230    100.8434   3.6678289722e+01   2.4574286669e+01    0.3916789     0.246103 -33.52  0.001751884    1.535    0.349
        26  -8.6223     48.0579     99.4688   7.2365326407e+01   5.1162638801e+01    0.2915419    0.1694584 -50.06  0.001380166    1.641    0.391
        27  -9.9652     14.1138     95.7004   8.3611377745e+01   5.5474514205e+01    0.6208501    0.2681632 -61.71  0.002931878    1.847    0.459
        28  -9.3247     37.3664     98.6630   7.5908606257e+01   5.2608492021e+01    0.2432047    0.1802627  25.96  0.001280657    1.599    0.374
        29  -8.7862    108.0813     94.1464   5.1818790077e+01   4.2338022040e+01    0.2454662    0.2171053  -9.65  0.001242843    1.330    0.248
        30  -9.6509    210.9763     89.7541   2.8663571355e+01   1.9686050028e+01    0.5922785    0.2934448 -36.49  0.002543576    1.779    0.438
        31  -9.5086    211.1208     84.0891   2.7174547174e+01   2.0543566905e+01    0.3756977    0.3420952  23.57  0.002017607    1.228    0.186
        32 -10.2127    241.2941     89.1681   2.4368856307e+01   1.3474263040e+01    0.3828269    0.2626352 -31.27  0.002105002    1.235    0.190
        33  -8.6604     43.6580     89.3444   7.1727962552e+01   5.4216869704e+01     0.146045    0.1004775  75.07 0.0007047126    1.786    0.440
        34 -10.9685     83.9443     83.0208   5.5912104289e+01   4.9601738383e+01    0.6425787    0.4684925   7.06  0.002887505    2.037    0.509
        35  -9.4869    128.9788     83.7105   4.3067117901e+01   3.9962421130e+01    0.3475901    0.2917288 -42.24   0.00166374    1.154    0.134
        36 -10.7870      5.6036     68.2264   8.2461337349e+01   6.2793470023e+01    0.7922392    0.4701386  86.23  0.004194873    1.838    0.456
        37  -9.6933    213.8585     69.8044   2.3036937646e+01   2.2102904196e+01    0.5764829    0.3135938 -39.19  0.002626979    1.605    0.377
        38  -8.1303    247.3294     68.3354   1.8700143119e+01   1.5176940973e+01    0.1297934    0.0983622   8.75 0.0004601019    1.727    0.421
        39 -10.8410    139.6481     64.5582   3.4341266398e+01   4.1042352724e+01    0.7803436    0.6239498 -77.48  0.003737724    1.465    0.318
        40 -10.0415    184.2327     63.6150   2.5612171243e+01   3.0057874956e+01    0.6943821    0.4580781 -14.20  0.003063201    1.869    0.465
        41 -10.5345     86.6271     64.5022   4.8933222318e+01   5.3135474900e+01    0.5186579     0.478714  12.78  0.002856618    1.166    0.142
        42  -8.4034    250.6450     62.7853   1.7041268039e+01   1.5256953976e+01    0.1983296   0.09448253 -38.54 0.0005575029    1.671    0.402
        43  -9.3480     20.2383     56.7394   7.3250705937e+01   6.4475036674e+01    0.3114459     0.171249 -52.16  0.001617157    1.485    0.327
        44  -9.8082     95.9758     53.7983   4.1948874089e+01   5.3292134305e+01    0.5630767    0.4100204 -17.06  0.002649048    1.620    0.383
        45  -9.7286    234.4526     47.2472   1.4843462561e+01   2.0649346425e+01    0.4473665    0.3253039  -3.98  0.002390984    1.761    0.432
        46 -10.5554    199.5208     45.1391   1.8101950697e+01   2.8987784779e+01    0.8125476    0.4486603 -30.99  0.003672412    1.680    0.405
        47  -8.3561     14.2615     49.3323   7.4049344491e+01   6.6664905891e+01    0.2567573    0.1162795 -53.50  0.001253124    1.720    0.419
        48 -10.6363     81.1367     45.1805   4.3314843032e+01   5.7998590509e+01    0.6874924    0.4954566 -21.31  0.003396459    1.504    0.335
        49  -9.7391     50.2593     42.7323   5.4391179581e+01   6.3978777407e+01    0.4489317    0.3404881 -13.79  0.002455361    1.465    0.318
        50 -10.0694    140.5602     38.1517   2.4927556848e+01   4.5014232367e+01    0.5085308    0.4187636 -68.24  0.002603996    1.301    0.231
        51  -9.5975    172.8871     36.6720   1.9076398864e+01   3.6815035242e+01    0.4193728    0.3418534 -33.10  0.001655529    1.202    0.168
        52  -9.4004     40.2866     33.3970   5.4916177912e+01   6.7252523559e+01    0.5439706    0.1747759 -48.26  0.002044194    2.903    0.655
        53  -9.7959    181.0357     26.1397   1.4712097765e+01   3.6031709943e+01    0.5417681    0.3835278  13.52  0.002593301    1.934    0.483
        54  -9.5544    109.7759     24.3538   2.6008246929e+01   5.4672277921e+01    0.4574457    0.2592319  29.65  0.001882618    2.278    0.561
        55  -7.9881    150.6716    239.6779   6.9152634065e+01   6.3236340248e+00    0.1132628   0.07957347  11.68 0.0006040503    1.691    0.409
        56  -9.2672    202.8414     18.2481   1.0127632851e+01   3.1468239957e+01    0.3321033    0.2504053  45.55  0.001814401    1.583    0.368
        57  -8.9489    119.4394     18.1675   2.1309564444e+01   5.2979103317e+01    0.2644138    0.1436054 -18.28  0.001132354    2.017    0.504
        58  -7.7649     25.3561    234.3056   9.2003445090e+01   2.3521063997e+01   0.08733059   0.08343442 -30.99 0.0001134372    1.719    0.418
        59  -9.3970     37.5054    225.4970   8.9293502881e+01   2.3795632484e+01    0.1130845   0.08356038  61.87 0.0008106612    1.005    0.005
        60  -9.3971    218.2142    220.6488   5.4646135286e+01  -9.0078263598e-01    0.3079416    0.2143177 -54.48  0.001816181    2.761    0.638
        61 -10.8219     30.4188    216.8692   9.0163192282e+01   2.6188614200e+01    0.2874257    0.2002599  70.51  0.002028018    1.130    0.115
        62  -8.2078      7.9426    213.1804   9.4320002098e+01   2.9162586730e+01     0.194747   0.07093205  55.30  0.001061888    2.016    0.504
        63  -8.8403    138.2785    210.9728   6.7818192515e+01   1.2541940554e+01    0.2691984    0.1424198 -35.15  0.001295946    2.696    0.629
        64  -9.1197    204.6174    210.7010   5.5365783013e+01   2.2811287678e+00    0.2130367    0.1057351 -30.27   0.00113061    2.175    0.540
        65 -11.5922     33.2402    205.3607   8.8909069043e+01   2.8128654718e+01    0.6377708    0.3023356  54.97  0.003598155    1.700    0.412
