#   1 NUMBER                 Running object number                                     
#   2 MAG_AUTO               Kron-like elliptical aperture magnitude                    [mag]
#   3 X_IMAGE                Object position along x                                    [pixel]
#   4 Y_IMAGE                Object position along y                                    [pixel]
#   5 X_WORLD                Barycenter position along world x axis                     [deg]
#   6 Y_WORLD                Barycenter position along world y axis                     [deg]
#   7 A_WORLD                Profile RMS along major axis (world units)                 [deg]
#   8 B_WORLD                Profile RMS along minor axis (world units)                 [deg]
#   9 THETA_WORLD            Position angle (CCW/world-x)                               [deg]
#  10 FWHM_WORLD             FWHM assuming a gaussian core                              [deg]
#  11 ELONGATION             A_IMAGE/B_IMAGE                                           
#  12 ELLIPTICITY            1 - B_IMAGE/A_IMAGE                                       
         1 -13.0021    191.7900     45.4080   4.0981165685e+01   3.1986167396e+01     1.706565    0.4451457 -33.88  0.005811832    3.826    0.739
         2 -19.0126    231.8848     63.7245   4.0284915354e+01   2.0680921363e+01     8.084318     4.677145 -37.90   0.03905076    1.613    0.380
         3 -15.1772    135.8649     22.1991   4.3113178266e+01   4.8052512166e+01     0.909205     0.754661  -1.78  0.004768894    1.458    0.314
         4 -15.4541    125.0064     23.6924   4.5636459449e+01   5.0461355143e+01    0.8470293    0.8101343 -71.13  0.002798889    1.155    0.134
         5 -15.3930    146.6201     32.7607   4.4434824152e+01   4.4299197501e+01     1.338672    0.8307472 -45.56  0.006812079    1.733    0.423
         6 -16.3119    138.2025     40.4897   4.8363778046e+01   4.5348861551e+01     3.468092      1.74191  80.21   0.01234251    3.432    0.709
         7 -10.7410    155.2166     14.4834   3.7799243213e+01   4.4225492247e+01    0.2158361    0.1790563  16.83 0.0005973355    1.546    0.353
         8 -10.4506    156.5325      9.9895   3.6372801264e+01   4.4342242410e+01    0.2210883    0.1326437 -17.25  0.001162314    2.167    0.539
         9 -14.2522    154.0155     42.3989   4.5962245820e+01   4.1311549156e+01     2.091503    0.5585158 -27.28  0.005888457    5.604    0.822
        10 -14.5596    128.3581      7.6688   3.9817752070e+01   5.1201541241e+01      0.89313    0.5464373  68.11   0.00440837    1.415    0.294
        11 -13.4315    137.8900      8.7217   3.8627516342e+01   4.8866601421e+01      0.38028    0.2413167 -85.88  0.001715303    1.784    0.439
        12 -12.5470    105.6497      2.4851   4.2202339788e+01   5.6851350289e+01    0.2618766    0.2333266  35.55  0.001781838    1.134    0.118
        13 -11.8750    204.8707      9.5599   3.1171004673e+01   3.3312791877e+01    0.1991988    0.1689467  22.77  0.001001386    1.768    0.435
        14 -10.4283    249.4328      4.5980   2.7020151877e+01   2.4729385494e+01    0.1099118   0.08171164 -70.26 0.0007984398    1.018    0.018
        15 -14.9471     21.8314    161.8309   1.1330847828e+02   3.8265336835e+01    0.9208945    0.7617595 -84.93  0.003638319    1.035    0.034
        16 -12.3239    134.9998    121.6257   7.2682351581e+01   3.1204264272e+01    0.8831541    0.2066197 -47.70  0.001971346    4.358    0.771
        17 -12.5001    135.0000    110.4480   6.9755561043e+01   3.3687048358e+01    0.8047111    0.1978984 -42.06  0.002098847    4.193    0.761
        18 -13.2176    133.6634    102.1829   6.7855122453e+01   3.5751843356e+01     1.055552    0.4072131 -53.65  0.003104113    3.621    0.724
        19 -13.4123    161.3010    128.3947   6.7880151398e+01   2.4100483864e+01    0.5683457    0.4843211  45.48  0.002153788    1.218    0.179
        20 -12.4332    245.6525    164.5668   5.9563068141e+01   1.3618629926e+00    0.3065336    0.2107764  -2.16  0.001664427    1.762    0.432
        21 -14.2401      5.9101    155.8345   1.1698042142e+02   4.1021864100e+01     1.532509    0.5758007 -85.68  0.006164073    2.708    0.631
        22 -11.9631    192.3837    125.8333   6.0636770876e+01   1.8081200277e+01    0.2451253    0.2103118  65.23 0.0006873835    1.328    0.247
        23 -13.0957    172.1932    124.4933   6.4476467319e+01   2.2599899072e+01    0.5011916    0.3326335 -57.07  0.002192711    1.688    0.408
        24 -13.8785    190.9713    151.3686   6.6763972528e+01   1.3235869029e+01    0.8070521    0.3662659 -55.34   0.00273234    3.159    0.683
        25 -12.7351    162.4286    120.3284   6.5618787257e+01   2.5579021641e+01    0.3552731    0.3214033 -77.85 0.0002416506    1.219    0.180
        26 -13.2044    167.4237    114.7147   6.3086156893e+01   2.5655573543e+01    0.5968078    0.4848769  13.78  0.001835311    1.513    0.339
        27 -12.7140    112.5462    104.4273   7.4338692158e+01   3.9750235227e+01    0.5061465    0.4247802 -14.27  0.001594695    1.320    0.243
        28 -13.7951    126.3742    108.6525   7.1579331045e+01   3.5932641283e+01     1.034075    0.5578061 -42.85  0.001556079    1.835    0.455
        29 -13.2518    119.4279    102.4638   7.1808261727e+01   3.8757932921e+01    0.4583329    0.4066635 -89.21  0.002306518    1.330    0.248
        30 -10.7844    178.5030    109.8829   5.9531023164e+01   2.4191420533e+01    0.2144681    0.2061114  53.21 0.0005432647    1.093    0.085
        31 -10.1558    140.3206    107.3338   6.7548991093e+01   3.3194837997e+01    0.1614974    0.1251597  -0.16 0.0007049561    1.701    0.412
        32 -11.4166    145.6519    104.6463   6.5497092286e+01   3.2577271558e+01    0.3002324    0.2770913   1.26 0.0005690406    1.171    0.146
        33 -12.2100    175.3868     90.9712   5.5327540405e+01   2.8494537839e+01    0.2880668    0.2682031 -15.37 0.0003382008    1.187    0.157
        34 -12.9251    155.1113    100.6398   6.2178500361e+01   3.1265261962e+01    0.6033967    0.4855053  43.71  0.001884824    1.278    0.217
        35 -13.5683    168.3755     94.2119   5.7580587731e+01   2.9492677259e+01    0.8379954    0.7026549  -9.92   0.00246791    1.437    0.304
        36 -12.4197    160.7259     96.8382   5.9903176927e+01   3.0737578010e+01      0.39546    0.3191246  48.21  0.001338653    1.266    0.210
        37 -12.0230    138.8965     95.2814   6.4589720535e+01   3.6011725099e+01    0.3465503    0.2945431  74.72  0.000853436    1.340    0.254
        38 -12.8665    152.2059     92.1597   6.0535625182e+01   3.3596717532e+01    0.3467219    0.2847996 -43.13 0.0006832499    1.205    0.170
        39 -14.0024    130.9762     64.2253   5.7354287035e+01   4.3552945923e+01    0.7719339    0.3917933 -31.48  0.003147198    2.190    0.543
        40 -15.0420    139.6729     60.9161   5.4322407421e+01   4.2050994135e+01     1.368092    0.8573027 -10.07  0.005640012    2.533    0.605
        41 -12.6207    159.4834     35.8567   4.3174407061e+01   4.0838273314e+01    0.3643256    0.2472863 -54.38  0.001057647    1.564    0.361
        42 -12.6348    224.3208    204.4074   7.1016021429e+01  -2.2040327692e+00    0.3769239    0.2116496 -15.77  0.001133508    2.104    0.525
        43 -13.5278    192.6413    194.6979   7.5407559194e+01   4.4031160943e+00      1.05937    0.5363498 -62.50  0.002973872    6.331    0.842
        44 -10.5852    201.9229    248.0879   8.2878820537e+01  -5.9745584852e+00    0.1717696    0.1475106  15.27 0.0003545832    1.214    0.176
        45 -11.9354    181.5766    211.2285   8.0813689945e+01   3.1196954955e+00    0.4612377    0.2874684  61.80  0.001860248    3.303    0.697
        46 -13.3656     48.9367    149.7364   1.0405185117e+02   3.8628122411e+01    0.4211436    0.3469595  -5.53 0.0009256438    1.491    0.329
        47 -11.4334    174.5677     48.7156   4.4304693923e+01   3.5547348617e+01    0.2548178    0.2163699 -73.85 0.0006532303    1.138    0.121
        48 -11.3426    103.0000     54.4730   6.1586680114e+01   5.1405902427e+01    0.3535212    0.1067889 -34.82  0.001148846    3.576    0.720
        49 -15.5780     60.9602    144.6140   9.9596269277e+01   3.8477615042e+01      1.99689     1.397983  -3.99  0.005160192    1.969    0.492
        50 -10.9609    182.8018     41.2806   4.1160989778e+01   3.4618358499e+01    0.3772232    0.1765426  52.68  0.001403716    2.191    0.544
        51 -11.5272    166.2605     40.5758   4.3408943819e+01   3.8618543099e+01    0.2794305    0.1929483  76.51 0.0009313681    1.420    0.296
        52 -11.1028    176.9115     35.3191   4.0436882997e+01   3.6762224390e+01    0.2142753    0.1797759 -32.65 0.0004835903    1.338    0.252
        53 -11.6907    167.0726     31.9811   4.0943832570e+01   3.9499160142e+01     0.365626    0.2151335 -14.98  0.001697636    2.482    0.597
        54 -12.4755    204.5069     29.5084   3.5690536143e+01   3.1154196137e+01    0.3607284    0.2108421 -44.43  0.001564785    1.594    0.373
        55 -10.5358    197.1608     26.6947   3.5820858353e+01   3.3133031340e+01    0.2032548    0.1450203 -51.87 0.0009970597    1.315    0.240
        56 -14.0427    165.6991     82.3161   5.4948075818e+01   3.2296964348e+01    0.6060799    0.5570016   2.05  0.001620101    1.254    0.202
        57 -11.9703    133.6273    146.0022   7.8946546418e+01   2.5831920289e+01     0.872045    0.2526172 -54.69  0.002182668    4.699    0.787
        58 -12.7198    116.9555     19.5565   4.5891146972e+01   5.2765638915e+01    0.2764851      0.20017 -16.55  0.000604675    1.607    0.378
        59 -11.6063    198.0122     18.6105   3.3846777958e+01   3.3863279699e+01    0.2249298    0.1807092 -66.94 0.0008626449    1.108    0.098
        60 -14.3732    190.5405    138.6710   6.3986749623e+01   1.5888746303e+01    0.8241987    0.5009396  35.70  0.002755186    1.861    0.463
        61 -12.1710    193.1225    133.1357   6.2195445256e+01   1.6480969075e+01    0.2327476    0.1967466 -66.99 0.0002634707    1.349    0.259
        62 -14.5643      8.0545    171.3851   1.1777815299e+02   3.7022486680e+01     1.125365    0.7203552  69.78  0.006390835    1.488    0.328
        63 -12.9751    201.7596    136.0289   6.1186657696e+01   1.4195223761e+01    0.4373294    0.2929263 -43.27  0.002119452    1.371    0.271
        64 -14.1951    179.5801    133.3537   6.5019305051e+01   1.9205667588e+01    0.6640749    0.5276092  13.29  0.003200064    1.523    0.344
        65 -14.2243    184.1554    124.6656   6.1999428139e+01   2.0026751816e+01    0.6998772    0.5709654 -47.89  0.003591375    1.176    0.150
        66 -10.8959    209.9026    170.1358   6.7017754185e+01   6.1298250587e+00    0.1978868    0.1850338 -41.07 0.0002833088    1.203    0.169
        67 -13.7856    185.6993    119.3629   6.0412569452e+01   2.0761573844e+01    0.5894169     0.495513 -76.46  0.003030472    1.385    0.278
        68 -12.1889    136.0000    129.9730   7.4516717637e+01   2.9091149014e+01    0.6746646    0.1902406 -46.11  0.001909437    3.460    0.711
