#   1 NUMBER                 Running object number                                     
#   2 MAG_AUTO               Kron-like elliptical aperture magnitude                    [mag]
#   3 X_IMAGE                Object position along x                                    [pixel]
#   4 Y_IMAGE                Object position along y                                    [pixel]
#   5 X_WORLD                Barycenter position along world x axis                     [deg]
#   6 Y_WORLD                Barycenter position along world y axis                     [deg]
#   7 A_WORLD                Profile RMS along major axis (world units)                 [deg]
#   8 B_WORLD                Profile RMS along minor axis (world units)                 [deg]
#   9 THETA_WORLD            Position angle (CCW/world-x)                               [deg]
#  10 FWHM_WORLD             FWHM assuming a gaussian core                              [deg]
#  11 ELONGATION             A_IMAGE/B_IMAGE                                           
#  12 ELLIPTICITY            1 - B_IMAGE/A_IMAGE                                       
         1 -11.3743    203.1685     22.0567   3.1170045421e+01   3.2448397096e+01     1.066136    0.4851299 -50.33  0.005625736    1.975    0.494
         2 -14.3290    235.1050    102.9952   4.4379978279e+01   1.4464902608e+01     5.934318     1.822823 -52.03   0.02026203    3.849    0.740
         3 -13.5997    219.5307     29.9698   3.1326004607e+01   2.8145397090e+01     2.751204     1.143039 -38.07   0.01401901    2.286    0.563
         4 -12.6165    247.2819      8.7250   2.5378144887e+01   2.5271194638e+01     1.567214    0.7367095 -52.99  0.009906746    1.633    0.388
         5 -12.9304    248.9933     33.9688   2.9711608160e+01   2.2020932034e+01     1.023919    0.4228157 -39.54  0.003495215    2.165    0.538
         6  -9.6465    188.7037     46.3458   3.8136448259e+01   3.2570960067e+01     1.428309    0.2224722 -36.08  0.004177384    5.666    0.824
         7  -9.9780    129.2050     21.4730   4.0445587215e+01   4.9178996248e+01    0.3902809    0.2214628  -5.27  0.001797576    2.963    0.662
         8 -10.8701    142.4616     12.5110   3.5777260895e+01   4.6991275461e+01    0.9162259    0.2986887 -20.30   0.00331279    5.020    0.801
         9 -10.7292    135.4693     17.8017   3.8320925607e+01   4.8098752370e+01     0.545701    0.3293637  -8.40  0.002780828    2.508    0.601
        10  -8.2787    155.5362     13.4831   3.4292808297e+01   4.3896098062e+01    0.2169183    0.1259558 -25.59  0.001180413    2.125    0.529
        11 -11.4036    118.7148      9.5249   3.8620176678e+01   5.2709512700e+01    0.6489678    0.4607161  60.30   0.00275498    1.167    0.143
        12 -14.5295    238.2010     49.9966   3.3575864445e+01   2.1930645492e+01     2.622717    0.7475683 -37.80   0.01088951    3.240    0.691
        13  -8.8242     92.6220      8.7413   4.3581484862e+01   5.8596230348e+01    0.1498238      0.11327 -36.72 0.0004554257    1.588    0.370
        14 -15.0866    243.6061     68.1109   3.6532397461e+01   1.8384235017e+01     3.808898     2.551184  49.39    0.0231107    2.023    0.506
        15  -7.3245    142.3340    208.6401   8.3834624934e+01   1.0108567240e+01    0.1462601    0.1126085  69.94 0.0007039872    1.807    0.447
        16  -9.1051    248.1334    249.5665   6.9404178564e+01  -1.1280271120e+01    0.2547401    0.1555597   2.79  0.001651709    1.478    0.323
        17  -8.9925    241.9966    207.3202   6.3341533522e+01  -4.3667108124e+00    0.1704263    0.1396798  -9.46   0.00056223    1.093    0.085
        18  -9.5489    248.7388    201.4957   6.1196125341e+01  -4.2681140610e+00    0.4192448    0.1895802  35.25  0.002160245    2.536    0.606
        19  -9.5128    230.1673    194.2659   6.3013677867e+01  -6.7977908878e-01    0.4320813      0.32859 -68.36  0.002220141    2.252    0.556
        20 -10.3164    240.7040    199.1540   6.2102828847e+01  -2.8885559789e+00    0.4226196    0.3221563  55.45  0.001952976    2.162    0.538
        21  -9.3296    235.6421    196.9709   6.2564093873e+01  -1.8710442954e+00    0.2878391    0.2165916  27.64 0.0008343947    1.469    0.319
        22  -9.1499     17.2728    201.7049   1.1400226497e+02   2.9033636231e+01    0.2122279    0.1879154 -71.19 0.0004982772    1.195    0.163
        23  -9.1937    191.8149    192.6456   6.9959713188e+01   5.3018400077e+00    0.6800207    0.3513108 -63.26  0.002155998    4.902    0.796
        24  -7.4051     84.2618    195.3075   9.6218202432e+01   2.2434420427e+01    0.1407042    0.1106068 -29.49 0.0002510168    1.526    0.345
        25  -9.7577    221.4877    186.5125   6.3101770988e+01   1.8975377149e+00    0.3148396    0.2640496  54.32   0.00128956    1.643    0.392
        26  -9.1990    210.2964    187.7611   6.5397620012e+01   3.3416304676e+00    0.2597324    0.1602218 -54.20  0.001256865    1.981    0.495
        27  -8.8129     20.2636    186.0548   1.1191929691e+02   3.2588608059e+01    0.1944131     0.181827  52.87 0.0005465799    1.167    0.143
        28  -9.4099    220.9673    176.2013   6.1223000939e+01   3.8257154076e+00    0.4838507      0.24135 -55.77  0.001968824    2.920    0.657
        29  -9.7382    237.5269    175.0737   5.8190160000e+01   1.5874374737e+00    0.3379564    0.2384443  60.34  0.001666186    2.298    0.565
        30  -8.7004    101.0012    175.9989   8.8561657278e+01   2.4575017551e+01    0.2054115     0.204303  30.46            0    1.016    0.016
        31 -10.3721    227.0313    173.6672   5.9677645156e+01   3.3654591214e+00    0.4856957    0.2616522 -24.53  0.002224756    2.183    0.542
        32  -9.2927    194.1831    171.9002   6.5412236523e+01   8.9640534349e+00    0.4114332    0.2857307 -74.37  0.001809986    2.534    0.605
        33  -9.7686    230.3026    167.0269   5.7843507017e+01   4.0554628061e+00    0.3429577    0.2363411 -61.74  0.001689206    1.976    0.494
        34  -9.0646    240.5990    165.7767   5.5936409745e+01   2.7501669596e+00    0.1844871     0.103475 -46.42 0.0009529658    1.622    0.384
        35  -8.5034    211.2313    165.8643   6.0939776265e+01   7.2762282578e+00    0.2122794    0.1903909  61.19  0.001266394    1.410    0.291
        36 -10.5319      2.6941    160.0232   1.1421167550e+02   4.0570690128e+01    0.4509935    0.2797066 -83.31   0.00186349    1.409    0.290
        37 -11.6773      4.3789    154.5412   1.1322194675e+02   4.1842206711e+01    0.8234074    0.4559029  86.86  0.003503173    1.808    0.447
        38  -8.1044    203.2786    160.2869   6.1283175333e+01   9.6793368275e+00    0.1817553    0.1574738 -62.71 0.0006714981    1.331    0.249
        39  -9.6424    165.7348    159.8627   6.8942156742e+01   1.6578332142e+01    0.2451943    0.2403151 -18.94 0.0002757876    1.051    0.048
        40 -10.2804    193.5014    156.1263   6.2298542476e+01   1.2219288349e+01    0.4942444    0.3284457 -50.23  0.001050186    1.490    0.329
        41  -8.4586    171.0452    156.9935   6.7147543989e+01   1.6191732615e+01    0.2229882    0.1839393 -88.93  0.000492427    1.617    0.382
        42 -10.8637    220.1570     96.3605   4.5017354010e+01   1.8337503368e+01    0.4488266    0.2664089 -54.94 0.0003571611    1.586    0.369
        43  -8.1828    237.3982    249.2109   7.1197364303e+01  -1.0104865859e+01     0.148006   0.09706118 -38.75 0.0009461766    1.648    0.393
        44 -12.8648    176.2666     84.7224   4.9235650877e+01   2.9443754276e+01     1.560884     1.399136 -38.32  0.005622537    1.185    0.156
        45  -9.3054    175.9382    248.2908   8.2830176090e+01  -2.4293716060e+00    0.2701854    0.2364666  48.34  0.001357949    1.512    0.339
        46  -7.7337     42.4527    246.5812   1.1183330870e+02   1.6178620256e+01    0.1239275    0.1016205  59.20 8.658596e-05    1.010    0.010
        47  -8.4411    170.8399    150.3634   6.5753209130e+01   1.7642587772e+01    0.2100077    0.1397177  30.00 0.0003874766    1.719    0.418
        48  -8.9721    134.0402    147.6419   7.3907694851e+01   2.5462311117e+01    0.5916091    0.2177462 -54.79  0.001814341    3.187    0.686
        49  -9.9405    249.7855    143.8461   5.0387517068e+01   5.1500973689e+00    0.6370643     0.185331 -46.78  0.002401714    3.124    0.680
        50 -11.6706     65.1200    138.4184   9.2055871580e+01   3.9773874435e+01     1.807181     1.404526  64.67  0.008907435    1.504    0.335
        51 -11.3471     49.8537    140.7105   9.7392879712e+01   4.1180816017e+01    0.7637594    0.4894883 -68.43   0.00197315    1.521    0.342
        52 -11.8768     42.4010    142.1373   1.0002622236e+02   4.1674483688e+01    0.9837863    0.7126825 -65.24  0.002989721    1.267    0.211
        53 -11.4602     34.9519    144.8208   1.0281270189e+02   4.1768501505e+01    0.5529786      0.44798  16.24  0.001359465    1.398    0.285
        54  -7.9490    192.1955    143.8891   5.9944782491e+01   1.4902338415e+01    0.2123395    0.1830379 -62.44 0.0004170681    1.247    0.198
        55  -8.3884    185.1899    144.3591   6.1428564046e+01   1.6134525071e+01    0.2031839    0.1375941  55.33 0.0009514453    1.738    0.424
        56  -9.2843    214.5204    140.2835   5.5131727671e+01   1.1528724743e+01    0.3066255    0.2180372 -58.10 0.0005143964    1.514    0.339
        57  -9.1039    210.5715    137.1515   5.5150469924e+01   1.2819804589e+01    0.3024696    0.2271575  57.65   0.00164303    1.582    0.368
        58 -10.8361     15.2751    137.5108   1.0800850127e+02   4.5408954674e+01    0.3863225    0.2679365 -73.46   0.00210188    1.275    0.216
        59  -8.5738    194.8544    136.9327   5.7927475038e+01   1.5776810196e+01    0.2227087    0.1905186 -15.20   0.00101601    1.286    0.223
        60 -10.2845     24.3445    136.7657   1.0500063158e+02   4.4860293837e+01    0.4341364    0.2323834 -81.10  0.001916034    2.001    0.500
        61  -9.1423    181.5657    135.3409   6.0160969466e+01   1.8673523111e+01    0.2816173    0.1899051  41.82  0.001341047    1.602    0.376
        62 -10.3673    186.4922    125.9511   5.7075097777e+01   1.9573609017e+01    0.8176895    0.4393766 -61.84  0.003092988    2.701    0.630
        63  -9.2344    136.3243    128.7126   6.8902721960e+01   2.9349566568e+01    0.6273177    0.2045039 -50.67  0.001875924    3.291    0.696
        64  -7.7097    197.2952    128.9526   5.5730254587e+01   1.6862784546e+01    0.2370855   0.09856777 -57.64 0.0007031315    4.167    0.760
        65  -8.7465    160.4865    128.4927   6.3063714891e+01   2.4377624266e+01    0.3439685    0.2500249 -70.20  0.001555661    1.738    0.425
        66  -7.4886    116.0282    129.0096   7.4417505710e+01   3.3382737504e+01    0.1799643    0.1722575 -43.34  0.000933514    1.031    0.030
        67  -7.7279    168.6526    126.3162   6.0766671566e+01   2.3139196441e+01    0.1540499    0.1181845 -84.55 0.0007047931    1.724    0.420
        68  -8.1838     93.4172    124.6980   8.0051041200e+01   3.8676810020e+01    0.2647673    0.1914334   9.07  0.001039931    1.774    0.436
        69  -8.3376     59.8338    119.8148   8.9917864160e+01   4.5233793808e+01    0.2103814    0.1858045 -34.93  0.000284668    1.095    0.087
        70  -9.3855    174.3959    114.1824   5.6714477265e+01   2.4385834914e+01    0.3990745    0.2810506 -51.39  0.001538062    1.381    0.276
        71 -10.3484    197.1911    242.9419   7.7689877027e+01  -4.3844569554e+00    0.2186615    0.1904768 -20.12 0.0003470872    1.227    0.185
        72  -9.6987    135.0000    111.8634   6.5026827996e+01   3.3322713703e+01    0.6460772    0.1851417 -43.74  0.001894892    3.490    0.713
        73 -10.3787    133.1751    105.9965   6.3961159997e+01   3.4952384165e+01    0.4185957    0.3728359 -76.29   0.00165607    1.226    0.184
        74 -10.6646    134.9945    100.5183   6.2051793501e+01   3.5682262724e+01    0.5509201     0.467489 -82.20  0.001404682    1.360    0.265
        75  -9.5643    205.7233    110.4435   5.0213949496e+01   1.8683157405e+01    0.3790199    0.3284777  47.70  0.001703924    1.310    0.237
        76  -9.5702    208.4109    105.4422   4.8692901145e+01   1.9050895238e+01    0.4496523    0.2446231 -53.67  0.002079611    1.823    0.451
        77 -10.7904    114.4657    104.5954   6.8605366571e+01   3.9215324365e+01    0.5896645    0.2876908  31.33  0.002069284    2.677    0.626
        78 -11.5768    125.1606    104.0582   6.5526787870e+01   3.7080369005e+01    0.7641099    0.5514107  65.80  0.003462787    1.683    0.406
        79  -8.7317    149.3716    105.5605   5.9941324519e+01   3.1509808725e+01    0.2737855    0.2566097  17.65 0.0009177537    1.171    0.146
        80 -10.3499     78.8824    102.8389   7.9208755469e+01   4.6373527079e+01    0.2413611    0.2281807 -20.37            0    1.011    0.011
        81  -9.9228    159.8102    101.7400   5.6671430471e+01   2.9968709430e+01    0.4892544    0.2704801  43.07  0.001749544    1.957    0.489
        82  -9.2934    163.7247    242.2707   8.4474976243e+01   2.9969025931e-01    0.2583818    0.1964437  36.38 0.0003845136    1.315    0.240
        83  -7.8865    150.9743    100.9346   5.8390167128e+01   3.2076464001e+01    0.1784962    0.1656511 -50.72 0.0003583222    1.063    0.060
        84 -11.0426    158.6082     93.7413   5.4892014246e+01   3.1756660499e+01    0.5241264    0.3908235 -41.77 0.0007086503    1.336    0.252
        85  -9.1550    161.7475     88.8065   5.2989181032e+01   3.1960660900e+01    0.2860603    0.1927036  49.06 0.0002985923    1.518    0.341
        86 -10.4455    142.7735     95.8880   5.8943982659e+01   3.4883067770e+01    0.5094067    0.3768286  68.40  0.001419557    1.538    0.350
        87  -8.0579    207.1537    155.4066   5.9561474992e+01   9.9516780027e+00    0.1779037    0.1343795  56.76 0.0007385998    1.652    0.395
        88  -8.0067    157.3608     81.8189   5.2060511431e+01   3.4194200654e+01    0.1968085    0.1364458 -30.60 0.0005583364    1.636    0.389
        89  -8.4182    193.0333     72.9488   4.3716868483e+01   2.7723499558e+01     0.203143    0.1835206 -72.01 0.0005357546    1.035    0.034
        90  -8.5889    109.0776    154.0329   8.2036707835e+01   2.8635113626e+01    0.2228255    0.2139088 -47.21            0    1.029    0.029
        91  -7.9822    192.8545     67.5420   4.2491676414e+01   2.8606203843e+01    0.2211799    0.1387394 -46.94 0.0006144361    1.485    0.327
        92  -9.9520    206.2833     64.6731   4.0037760305e+01   2.6182835182e+01    0.2852199    0.2140703 -68.25 0.0008182034    1.225    0.184
        93  -9.1376    165.2813    237.7357   8.3439918789e+01   8.8298542106e-01    0.2265581    0.1892298  -0.58 0.0002758816    1.099    0.090
        94  -9.1132    193.0154     56.0426   3.9817165012e+01   3.0279390559e+01    0.3470355    0.2283197 -74.13  0.001326975    1.603    0.376
        95  -8.2040    136.3236     63.6518   5.1475273295e+01   4.2050245122e+01    0.1480608    0.1077327 -77.32 4.808798e-05    1.745    0.427
        96  -8.4684    162.3709     63.1611   4.6243183412e+01   3.6109850089e+01    0.3277327     0.131379  47.87  0.001249398    2.717    0.632
        97 -11.2895    168.3629     57.6902   4.3824894299e+01   3.5556144651e+01    0.6914058    0.4211639 -63.81   0.00331528    1.891    0.471
        98 -11.1892    161.3321     51.6463   4.3416582169e+01   3.8039440294e+01    0.5791554    0.4610214  78.08  0.003346476    1.179    0.152
        99  -8.7537    197.4115    151.6949   6.0608701316e+01   1.2393617535e+01    0.4192874    0.2420752 -63.87  0.001653692    2.759    0.638
       100  -7.8257    152.4844     59.5317   4.7068331570e+01   3.8943175407e+01    0.1378412    0.1276042  76.59 0.0008094984    1.025    0.024
       101  -8.3986    145.1008     57.0786   4.7802268619e+01   4.1022415445e+01    0.2049712    0.1867831  86.94 0.0004150563    1.056    0.053
       102  -9.9112    181.5529     52.1388   4.0461190096e+01   3.3364970060e+01     0.386503    0.2166267 -37.98  0.001409654    1.819    0.450
       103 -10.0301    136.0830     51.0274   4.7876945929e+01   4.3991422824e+01    0.4259049    0.2730966  57.93  0.001575178    1.428    0.300
       104  -7.5754    114.0018     60.9640   5.5966280705e+01   4.7540770324e+01    0.1637543    0.1527868 -31.64 0.0004436124    1.144    0.126
       105 -11.0020    151.8446     47.6675   4.3962582421e+01   4.0788656814e+01    0.5411618    0.4480574 -89.32  0.003179018    1.183    0.155
       106  -9.0875    114.5842     48.0809   5.1759300761e+01   4.9332578684e+01    0.2462892    0.1775846  47.65 0.0003773644    1.270    0.212
       107  -8.9031    205.7026     46.0699   3.6050027004e+01   2.8942279976e+01    0.2908118    0.1978955 -62.39  0.001722339    1.321    0.243
       108  -8.0404    193.0000     45.9668   3.7512509348e+01   3.1679752808e+01    0.1978915   0.06866109 -35.99  0.000796096    2.899    0.655
       109 -11.2575    141.0762     42.4803   4.4447031216e+01   4.3985703096e+01    0.4756416    0.4071586 -88.56  0.002437234    1.161    0.139
       110 -11.1546    133.6243     37.2766   4.4334621867e+01   4.6376991937e+01    0.4574775    0.4091611  23.98  0.002835399    1.298    0.230
       111  -9.2681    205.0764     37.9289   3.4362902846e+01   3.0136972757e+01     0.391784    0.1564712 -36.48  0.001115565    2.489    0.598
       112  -8.9677    191.8822     37.8679   3.5803967924e+01   3.2978451717e+01    0.4169263    0.1592517 -54.46  0.001730441    2.856    0.650
       113 -10.6485    198.7284     56.3062   3.9137898497e+01   2.9006939973e+01     0.846676    0.3014846 -36.65  0.002885754    2.805    0.644
       114 -10.4400    139.5818     29.9336   4.1129424079e+01   4.5859357170e+01    0.3348022    0.1976197 -41.69  0.001751241    1.825    0.452
       115  -9.4555    170.0121    235.9684   8.2150819315e+01   5.1823017994e-01    0.3318079    0.2001688  48.14  0.001623729    2.120    0.528
       116  -9.8791    125.2077     22.5846   4.1498440664e+01   4.9987055680e+01    0.2898741    0.1387176  54.62  0.001397591    1.771    0.435
       117  -8.9941    166.0542    233.0181   8.2526794743e+01   1.6233582321e+00    0.2382041    0.1773567  32.65 0.0003666353    1.281    0.219
       118  -7.6649    194.4557    231.1702   7.6306560879e+01  -2.0816996634e+00    0.1527572    0.1210833 -47.50 0.0003653484    1.537    0.349
       119  -8.0106    160.1315     19.4954   3.5255073222e+01   4.2239781340e+01    0.1770419    0.1071384  71.39 0.0003640521    1.425    0.298
       120 -11.9218    230.4453     78.3130   3.9970972231e+01   1.9289258172e+01    0.5258014    0.3854836  67.80  0.001694173    1.487    0.328
       121  -8.1247    234.9826     14.7412   2.7218070029e+01   2.6892056743e+01    0.1537015    0.1119076 -82.27 0.0004086805    1.124    0.110
       122 -10.1893    133.4991    225.6764   8.8654267138e+01   7.9587598406e+00    0.2571286     0.240346 -29.70  0.000543297    1.135    0.119
       123  -8.5866     84.9748    218.6536   9.9248347520e+01   1.6804768177e+01    0.2306133    0.1931941 -81.99 0.0002709834    1.262    0.207
       124  -8.1691    239.4781    218.4579   6.5716441464e+01  -5.8112570529e+00    0.1222294   0.09544615 -15.60 0.0001066068    1.009    0.009
       125  -8.5783    156.6973    212.2647   8.1143001975e+01   7.0421813047e+00    0.2120971    0.1783531  19.34 0.0002964161    1.115    0.103
