#   1 NUMBER                 Running object number                                     
#   2 MAG_AUTO               Kron-like elliptical aperture magnitude                    [mag]
#   3 X_IMAGE                Object position along x                                    [pixel]
#   4 Y_IMAGE                Object position along y                                    [pixel]
#   5 X_WORLD                Barycenter position along world x axis                     [deg]
#   6 Y_WORLD                Barycenter position along world y axis                     [deg]
#   7 A_WORLD                Profile RMS along major axis (world units)                 [deg]
#   8 B_WORLD                Profile RMS along minor axis (world units)                 [deg]
#   9 THETA_WORLD            Position angle (CCW/world-x)                               [deg]
#  10 FWHM_WORLD             FWHM assuming a gaussian core                              [deg]
#  11 ELONGATION             A_IMAGE/B_IMAGE                                           
#  12 ELLIPTICITY            1 - B_IMAGE/A_IMAGE                                       
         1 -15.8022    177.5706    108.7903   6.5694648976e+01   2.4926392772e+01     2.816414     1.584678 -50.52  0.008660912    1.911    0.477
         2 -14.6296    203.2554     81.8565   5.3870853092e+01   2.3936247864e+01     3.439214     2.631673 -80.14   0.01740463    1.538    0.350
         3 -15.6718    225.2924     31.3763   3.8609718655e+01   2.6255751583e+01     3.083848     1.966456 -54.59   0.01129805    1.417    0.295
         4 -14.6609    147.0983     35.0061   5.0437011657e+01   4.4527341775e+01     1.888671     1.282557  51.46  0.007036963    1.370    0.270
         5 -13.9613    196.7971      6.2294   3.5385976751e+01   3.5562928021e+01      2.07268    0.6789422  80.76   0.00757994    3.506    0.715
         6 -15.0963    189.9956     26.4936   4.1316741556e+01   3.5025884087e+01     1.709295    0.9665571 -45.03  0.007886204    1.734    0.423
         7 -15.5830    170.7798     11.8733   3.9730424891e+01   4.1248826293e+01     1.544853     1.073816  85.05  0.005530339    1.370    0.270
         8 -13.4589     94.9323     14.7990   5.4936148491e+01   5.8933750264e+01    0.9225268    0.7071526  18.90  0.003216003    1.266    0.210
         9 -13.1256    169.0817    233.4416   9.3313643018e+01   2.3818938435e+00    0.6002311      0.49907 -80.87  0.002498951    1.823    0.451
        10 -11.6157    168.4201    250.1978   9.5877402861e+01  -1.4308765695e-01    0.4234746     0.154724  32.31  0.001825638    2.480    0.597
        11 -13.5438     97.6688    246.0447   1.0947215255e+02   1.1057020928e+01       0.9649    0.2645952  31.59  0.003163602    4.711    0.788
        12 -12.1616     69.9949    246.5795   1.1494496454e+02   1.4711991588e+01     0.344963     0.253771  54.44  0.001474712    1.089    0.082
        13 -11.7836     86.0000    249.2819   1.1208296237e+02   1.2092682721e+01     0.288588    0.2480924  41.73  0.001318112    1.192    0.161
        14 -12.1881     81.7005    249.5910   1.1294529677e+02   1.2617846792e+01    0.4787713    0.1934587  32.79  0.002247931    2.460    0.594
        15 -12.3611     61.0920    249.3180   1.1685715724e+02   1.5334723116e+01    0.4332325    0.3578417  67.10  0.002172289    1.083    0.077
        16 -10.3389     26.4811    250.1458   1.2320890058e+02   1.9172401968e+01    0.2361785     0.151773  24.69 0.0009804073    2.116    0.527
        17 -10.9517     30.8974    247.8410   1.2230084443e+02   1.9125632587e+01    0.3440517    0.1569228  59.07  0.001999075    1.801    0.445
        18 -14.1064      5.2847    238.7364   1.2635491525e+02   2.3420508434e+01     2.174942    0.6927124 -81.39   0.01104334    2.823    0.646
        19 -14.1229     86.4673    227.5536   1.0983373833e+02   1.6149598110e+01     1.413073    0.6944756  57.25   0.00153021    2.139    0.532
        20 -13.0409     25.5675    208.2907   1.2082773505e+02   2.7618603954e+01    0.4031716    0.3220416 -64.80 0.0008188559    1.416    0.294
        21 -16.2482     35.5251    195.8668   1.1774595260e+02   2.9317323266e+01     10.12809     3.727454  84.58   0.03368942    4.741    0.789
        22 -13.3521    114.3547    230.7778   1.0433396367e+02   1.1428094858e+01    0.8617249     0.174988  41.04  0.002834072    3.841    0.740
        23 -12.1987    197.0831    215.4336   8.4711196618e+01   8.6861284786e-01    0.5752505    0.4382044 -63.82  0.003129984    2.123    0.529
        24 -10.1332    123.4707    217.7825   1.0066348139e+02   1.2509609522e+01    0.3421279    0.1967169 -84.57  0.001356889    3.447    0.710
        25 -12.0453    170.2308    213.9272   8.9962111998e+01   5.5188227917e+00    0.7928549    0.3927217  24.70  0.003315506    2.411    0.585
        26 -13.3678    147.7875    234.0246   9.7769380984e+01   5.6385034308e+00    0.7924023     0.505064 -46.71  0.002935601    1.814    0.449
        27 -12.0656    248.8464    211.7305   7.4401395502e+01  -6.2900840513e+00    0.3425344    0.2146315 -32.19  0.001943017    1.507    0.336
        28 -12.1997    164.5139    222.6772   9.2588227229e+01   4.9245184375e+00    0.4766109    0.3870498  51.42  0.002468514    1.363    0.266
        29 -11.5719    155.4370    196.6711   9.0197721466e+01   1.1295082272e+01    0.5940074    0.3825387 -49.63  0.002417206    1.687    0.407
        30 -11.2151    191.5459    188.6047   8.0883749200e+01   6.4179665283e+00    0.3910718    0.3732797  34.46  0.001583274    1.208    0.172
        31 -14.1053    224.7544    183.5029   7.3340451413e+01   1.6215091250e+00     1.315813    0.8033822 -44.13  0.006665283    1.768    0.434
        32 -13.1304    224.6283    166.3945   6.9864848688e+01   4.5357670083e+00    0.7913108    0.6790463  84.54  0.003284622    1.811    0.448
        33 -11.7857    215.7475    161.8657   7.0562279255e+01   6.9113099137e+00    0.4752302    0.3893099  45.29  0.002114686    1.384    0.277
        34 -10.7153     61.2625    234.6404   1.1565573632e+02   1.8104972826e+01    0.2382541    0.1677375  71.41 0.0005828876    1.273    0.214
        35 -13.3721    187.4851    174.7311   7.8956451120e+01   9.7437668184e+00      1.31309     0.672107 -29.20  0.005251035    2.342    0.573
        36 -11.9046    194.7471    180.6910   7.8653513347e+01   7.2960912944e+00    0.6656172    0.4115984 -17.28  0.002359536    2.045    0.511
        37 -12.8428    199.9398    167.5951   7.4884276431e+01   8.7743539110e+00     1.420058    0.5044242 -44.28  0.004846839    2.860    0.650
        38 -11.6072    206.3722    163.3529   7.2694169511e+01   8.3646537392e+00    0.6298876    0.3853133 -43.24  0.002095387    1.628    0.386
        39 -11.6845     55.2539    180.4232   1.1161541726e+02   3.0639655574e+01    0.3864509    0.2598677 -38.59   0.00120471    1.985    0.496
        40 -11.8484     61.3814    174.5333   1.0937888819e+02   3.1280698231e+01    0.3081751    0.2566473 -38.61 0.0009464515    1.455    0.313
        41 -11.3726    166.4224    218.2275   9.1474420731e+01   5.3901828296e+00    0.2927468    0.2615457 -83.12  0.001248403    1.503    0.334
        42 -12.7773    173.9757    170.5388   8.1014748792e+01   1.3115468362e+01     1.031937    0.6660315 -27.60  0.003439225    1.749    0.428
        43 -10.7782    153.0154    169.3198   8.5556467720e+01   1.7385002311e+01    0.4060863    0.3295451 -10.26  0.002036707    1.424    0.298
        44 -11.2870     72.1271    164.6192   1.0523153946e+02   3.2259557701e+01    0.2671047    0.2339174 -57.91  0.000385793    1.160    0.138
        45 -13.4137     58.6677    160.9114   1.0824518840e+02   3.4928392325e+01    0.5271928    0.2973379 -44.32  0.001626194    2.058    0.514
        46 -12.6648     78.5870    157.6802   1.0240828683e+02   3.3047189859e+01     1.295608    0.6523297  58.82   0.00127555    2.711    0.631
        47 -12.1315     69.9794    145.5114   1.0272957853e+02   3.7275129017e+01    0.5087286    0.3480787  26.94  0.001232071    1.657    0.396
        48 -12.4110     67.7682    142.5688   1.0284941168e+02   3.8308497378e+01    0.5717034    0.3186947  43.12  0.001437973    1.882    0.469
        49  -9.7283    124.2604    153.1778   8.9338064186e+01   2.6485071583e+01    0.3043335    0.1895076 -77.27  0.001141367    2.594    0.614
        50 -13.1358    246.3031    146.9231   6.2005988993e+01   4.0879480871e+00    0.6485987    0.6050543 -51.51  0.002681792    1.289    0.224
        51 -13.1477    191.1279    143.8020   7.1434256973e+01   1.5065920543e+01     1.553815      1.07035  81.78  0.006169203    2.792    0.642
        52 -14.3139    139.6898     82.7885   6.7131537125e+01   3.8738160706e+01     1.724615     1.294856 -27.56  0.006924807    1.412    0.292
        53 -13.0033    232.0661     96.2518   5.2913949228e+01   1.5271848683e+01     1.199148    0.6202395 -40.10  0.004072425    1.695    0.410
        54 -13.0611     14.8488    214.1906   1.2335026046e+02   2.7415262551e+01    0.4603905    0.3935455  84.80  0.002111141    1.191    0.161
        55 -13.4726    154.7869    115.2847   7.2543762980e+01   2.8732824074e+01     1.011291     0.801504 -45.91  0.002776865    1.250    0.200
        56 -13.9468    151.7860    100.0236   6.9145074922e+01   3.2566792867e+01     1.268314    0.8692808 -59.49  0.003441855    1.748    0.428
        57 -12.4508    114.3739    243.6229   1.0585678716e+02   9.0724251816e+00    0.4215946     0.227518 -72.21  0.002094259    2.631    0.620
        58 -12.8158    164.9900    146.7344   7.7851693293e+01   1.9838969998e+01    0.8828412    0.6942877 -52.93  0.002471607    1.347    0.257
        59 -11.1765    121.6672    224.8729   1.0202194058e+02   1.1421160474e+01    0.2336942    0.1706075  28.87  0.001044671    1.355    0.262
        60 -11.8686    153.7215    137.1212   7.8271167216e+01   2.4255399513e+01    0.9768482     0.437868  51.34  0.003388895    2.598    0.615
        61 -10.0555     94.9977    143.7209   9.5309278969e+01   3.3940717379e+01     0.236182    0.2229201 -63.47 0.0006389293    1.020    0.020
        62 -12.2428     82.8873    142.2041   9.8444443653e+01   3.6235642042e+01    0.3002339    0.2525215 -51.85 0.0004745794    1.152    0.132
        63 -14.1976     10.1723    206.9083   1.2384459634e+02   2.9377959433e+01    0.8515708    0.7197048  16.71  0.003320655    1.680    0.405
        64 -12.2496    249.4723    128.0036   5.7454117866e+01   6.6629687603e+00    0.8809028    0.2916863 -35.53  0.003327471    2.665    0.625
        65 -10.3850    106.6364    131.5290   8.9390318245e+01   3.4890711354e+01    0.3185794     0.275731  42.94  0.001249717    1.190    0.159
        66 -11.6137    222.5951    222.4717   8.1028422518e+01  -4.1064384975e+00    0.5222493    0.2881218 -21.59   0.00271948    1.922    0.480
        67  -9.8218     94.8534    128.0577   9.2012313870e+01   3.7797179586e+01    0.2429765    0.1806051 -18.85  0.001111397    1.729    0.422
        68 -10.1908    221.6823    134.1275   6.3343145328e+01   1.0780382686e+01    0.2657871      0.20924  30.69   0.00102055    1.391    0.281
        69 -10.7778    238.8009    124.7586   5.8379565534e+01   9.1494502116e+00    0.4726509    0.2984392  66.94  0.002227416    2.351    0.575
        70  -9.3900    105.1839    119.9383   8.7057447139e+01   3.7923840660e+01    0.1963281    0.1715832 -16.24 0.0002828323    1.252    0.201
        71 -10.6522     97.3596    117.3244   8.8739343952e+01   3.9952952575e+01    0.3891388    0.2488416 -27.18  0.001612727    2.029    0.507
        72 -11.0903     98.1421    112.3404   8.7256396587e+01   4.0995212409e+01    0.6181785    0.3625652 -68.49  0.002363124    2.424    0.587
        73 -15.0651    202.6085    117.3760   6.2873939901e+01   1.7748937157e+01     2.701256     1.055101 -40.33  0.009819546    2.373    0.579
        74 -10.8962    250.4317     92.8961   4.9634923843e+01   1.2173936939e+01    0.4766826    0.1365664 -38.49  0.001746705    2.851    0.649
        75  -9.9063    247.2841     86.5594   4.8635763235e+01   1.3777176348e+01    0.2332164    0.1334493  67.43  0.001140659    2.155    0.536
        76  -9.6025     24.8054     82.7758   1.0536749869e+02   5.7452879050e+01    0.1603786    0.1434171  89.86 0.0003582561    1.309    0.236
        77 -14.8031    167.0773     82.2342   6.0689714809e+01   3.2383216005e+01     1.897195     1.416133  42.22  0.007334512    1.400    0.286
        78 -12.7677    248.9918     66.7362   4.4054159493e+01   1.6433944904e+01    0.8067437    0.4291496 -32.13  0.002814787    1.825    0.452
        79 -12.6842     82.7001    243.8922   1.1222966500e+02   1.3527873552e+01    0.4029512     0.259982  24.54  0.002298279    1.890    0.471
        80 -13.6456    127.1533    230.1310   1.0155200773e+02   9.5757409640e+00    0.8819532    0.2737369  37.95  0.003404276    2.738    0.635
        81 -11.3790    150.3544     60.9092   5.7940744964e+01   4.0044559795e+01    0.2606204    0.2099757  72.09  0.001144375    1.331    0.249
        82 -11.4995     13.3888     60.2714   1.0473643047e+02   6.3240916986e+01    0.2164261    0.1855009 -53.32 0.0004540033    1.155    0.135
        83 -11.8140    157.7754     51.7374   5.3602866285e+01   3.9636168207e+01     0.598478    0.3734436  76.53  0.002627345    1.949    0.487
        84  -9.3856     28.1953     52.3951   9.5910999027e+01   6.3769715971e+01    0.1553524    0.1124779  30.89 0.0005470788    1.638    0.389
        85 -12.6062    139.1763    230.7302   9.9102865394e+01   7.5770479522e+00    0.3771597    0.2428611  33.29  0.001487364    1.382    0.277
        86 -13.0703    126.8915     43.8518   5.7719828293e+01   4.8222909846e+01    0.8894238     0.499795  57.52  0.002367982    1.742    0.426
        87 -11.9610    131.3559     38.6714   5.4908370936e+01   4.7871080405e+01    0.4817986    0.3138272 -81.00  0.001404865    2.521    0.603
        88 -14.2698    200.6507    234.9823   8.7295931814e+01  -2.6980590953e+00     1.022791    0.7567227  51.31  0.004911539    1.838    0.456
        89 -10.2958     21.0153    239.2738   1.2360010385e+02   2.1784255591e+01    0.1966603    0.1242598  79.01 0.0005947617    1.303    0.232
        90 -11.7577     14.0755    239.3637   1.2484353538e+02   2.2461489743e+01     0.268378    0.2370363  21.07  0.001853884    1.680    0.405
        91 -11.3749     89.1909     33.8559   6.4419888190e+01   5.7881607679e+01    0.4893752    0.3221799  47.04  0.001924322    1.471    0.320
        92 -11.3150    161.6016     25.0478   4.4848360035e+01   4.2129452850e+01    0.3067735    0.2615558 -50.30  0.001338844    1.229    0.186
        93  -9.8664    250.4918     22.5963   3.4503848811e+01   2.1966597843e+01    0.2356074    0.1054394 -34.15  0.001191111    2.100    0.524
        94 -11.3319    120.9572     21.5483   5.1200121913e+01   5.2371239503e+01    0.3018618    0.1910197  38.59  0.001330591    1.540    0.351
