#   1 NUMBER                 Running object number                                     
#   2 MAG_AUTO               Kron-like elliptical aperture magnitude                    [mag]
#   3 X_IMAGE                Object position along x                                    [pixel]
#   4 Y_IMAGE                Object position along y                                    [pixel]
#   5 X_WORLD                Barycenter position along world x axis                     [deg]
#   6 Y_WORLD                Barycenter position along world y axis                     [deg]
#   7 A_WORLD                Profile RMS along major axis (world units)                 [deg]
#   8 B_WORLD                Profile RMS along minor axis (world units)                 [deg]
#   9 THETA_WORLD            Position angle (CCW/world-x)                               [deg]
#  10 FWHM_WORLD             FWHM assuming a gaussian core                              [deg]
#  11 ELONGATION             A_IMAGE/B_IMAGE                                           
#  12 ELLIPTICITY            1 - B_IMAGE/A_IMAGE                                       
         1 -13.6174     80.4262     57.8156   3.5064887546e+01   5.5790150712e+01     1.819417     1.322075   2.36  0.007973723    2.052    0.513
         2 -13.0001    120.3529     26.1383   1.2103194272e+01   5.0984163059e+01    0.9522352    0.5245942  44.10  0.004204925    2.097    0.523
         3 -15.0326    122.3623     36.9252   1.5575228795e+01   4.9077572506e+01     2.297359    0.7238321  52.56  0.007880469    3.011    0.668
         4 -14.5134    166.8025     29.4922   6.5624444987e+00   3.9122858114e+01     0.970993    0.7965545  82.78  0.003758912    1.173    0.147
         5 -14.6003    147.5294     29.6635   8.9991943592e+00   4.3721621649e+01     1.361903    0.7300899  71.36   0.00489581    1.783    0.439
         6 -14.7635     60.4191     58.5684   4.3571322785e+01   5.9760224891e+01     3.322309     2.190324  -2.07   0.01320081    2.538    0.606
         7 -13.8639     87.7421     64.7851   3.5004444188e+01   5.2785331956e+01     1.105209    0.7306527  -5.90  0.004150412    2.837    0.647
         8 -15.0950      6.6001     71.4658   7.6176415704e+01   6.3239460678e+01     1.321952    0.9292758 -61.26  0.005100349    1.295    0.228
         9 -13.8922    177.9371     56.6027   1.2541639097e+01   3.3038329901e+01    0.9059432    0.5195107 -47.08  0.002949186    1.574    0.364
        10 -14.1851     41.5490      5.0993   2.5623768484e+01   7.2699064236e+01     1.008281     0.665509  15.41  0.004587063    1.830    0.453
        11 -12.8310      7.8585      2.4925   4.9730911693e+01   7.8901152725e+01    0.5481926    0.4709324  21.09  0.003643736    1.194    0.162
        12 -16.0069     11.6185     22.7987   5.8497832347e+01   7.4617968035e+01     2.197555      1.24769 -30.28   0.01087938    1.817    0.450
        13 -14.2320     26.3674     13.0763   4.0734193087e+01   7.4472306777e+01    0.8772678    0.5549442  18.45  0.004125685    1.735    0.424
        14 -15.3361    218.1995     16.5933   3.5917293976e+02   2.9590457180e+01     1.896934    0.8964562 -29.78   0.01041747    1.980    0.495
        15 -12.1465    232.6069      2.1009   3.5540694269e+02   2.8346372278e+01    0.3614335    0.2047642  70.74  0.001935149    2.020    0.505
        16 -14.8261    212.5977     40.8174   4.9946877857e+00   2.7940614000e+01     1.939721    0.6415185  77.58  0.007649746    4.172    0.760
        17 -14.1989    190.3610     24.5770   2.9842473141e+00   3.4401514223e+01     1.421116     0.766314 -51.79  0.006662827    1.585    0.369
        18 -13.9609    242.4154     34.2569   1.4448975946e+00   2.3281230511e+01    0.7090621    0.5113247 -69.90  0.003276033    1.308    0.235
        19 -13.1514    187.8580     11.8616   3.5998483382e+02   3.6304026595e+01    0.6383994    0.4563439 -39.77  0.003583437    1.295    0.228
        20 -15.5567     99.4296     11.9164   1.0508322351e+01   5.7955530616e+01     1.723723    0.9597201  60.57  0.003357821    1.566    0.361
        21 -12.6770     85.6209     13.9838   1.4556137068e+01   6.1276126988e+01    0.4254234    0.3959718   7.95  0.001889745    1.221    0.181
        22 -11.9839     71.0849     16.1711   1.9884538644e+01   6.4634565449e+01    0.4048825    0.2826601 -17.90  0.001658114    1.685    0.407
        23 -12.2008     74.6567     10.2997   1.5742491386e+01   6.4418501596e+01    0.4256718     0.282951 -23.27  0.001979537    1.715    0.417
        24 -12.2446     60.0904     15.3966   2.3496565099e+01   6.7329499017e+01      0.61217    0.3090401  43.49  0.002727663    1.861    0.463
        25 -12.1129     46.6686     12.7803   2.8001809216e+01   7.0645929612e+01    0.3831087    0.2902401  69.93  0.001462875    1.617    0.381
        26 -11.5267    153.1085      8.2045   1.7828626759e+00   4.4686099272e+01    0.2197224    0.2141703 -84.15 0.0007811131    1.217    0.179
        27 -11.0918     80.2130      6.9412   1.2534899049e+01   6.3361673613e+01    0.2156162    0.1777135 -72.53  0.001230536    1.325    0.245
        28 -12.2390    120.1366      3.1203   3.6824591014e+00   5.3418208479e+01    0.5745023     0.248908 -79.99  0.002191367    2.922    0.658
        29 -10.2848    176.5529      4.5024   3.5886620540e+02   3.9534778154e+01    0.1247585    0.1016317 -67.53 8.900692e-05    1.009    0.009
        30 -11.4641     67.8750      2.7142   1.3674837518e+01   6.6837465349e+01    0.3262636    0.1979299  44.12   0.00165082    1.555    0.357
        31 -12.4984     80.1663      1.7720   9.9651921565e+00   6.3837571548e+01    0.7451066    0.1211398  64.27  0.002230919    4.041    0.753
        32 -11.6025     61.2040      1.4814   1.5045429081e+01   6.8578316250e+01     0.483687    0.1177992  63.65  0.001566045    3.588    0.721
        33 -13.0230     85.0253    179.8390   6.2494127110e+01   2.5949797803e+01    0.4319721     0.282272  82.85  0.001935741    2.232    0.552
        34 -12.8885    108.0412    245.6740   6.4612568410e+01   1.0061277615e+01    0.5739084    0.5231678 -76.87  0.004168532    1.511    0.338
        35 -14.6709     95.1017    235.1242   6.6471737713e+01   1.3357679815e+01     1.203747    0.7740623  59.48  0.006661883    2.049    0.512
        36 -13.1955     57.0711    246.8476   7.6256738371e+01   1.5412301681e+01    0.5712451    0.3144423  21.39   0.00316071    1.564    0.360
        37 -12.1623     41.2972    249.5918   8.0001109439e+01   1.6479242532e+01    0.2903957    0.1897502  64.76   0.00185051    1.601    0.375
        38 -14.1464     28.1889    246.5511   8.2809556805e+01   1.8260925002e+01     1.371225    0.6679037  64.62   0.00753084    2.137    0.532
        39 -12.1724      2.8550    249.6236   8.8496349841e+01   1.9842673292e+01    0.3640999    0.1913815  36.90   0.00175899    1.358    0.263
        40 -14.1928      9.3401    245.4945   8.6978800565e+01   2.0085646319e+01     1.031044    0.6727762  55.59  0.004296502    1.285    0.222
        41 -14.5618     26.7145    225.9978   8.2216008574e+01   2.2397297974e+01     1.448034    0.7206905  77.82  0.007403658    2.287    0.563
        42 -13.9625     20.8911    224.4723   8.3559353693e+01   2.3231705389e+01    0.6288413     0.525224 -66.70  0.002629973    1.449    0.310
        43 -10.9088    101.9875    160.7669   5.4702957276e+01   2.7831764059e+01    0.2075963    0.1175094  31.68 0.0008880874    1.663    0.399
        44 -12.1361     26.7108    158.4814   7.7842038712e+01   3.8185547295e+01     0.570554   0.09004733  36.43   0.00170888    3.878    0.742
        45 -12.4394     77.3153    156.9228   6.1357267711e+01   3.2525178628e+01     0.595616    0.4112231  22.08  0.001989854    1.462    0.316
        46 -13.5873     74.0157    153.4900   6.1841013697e+01   3.3859988464e+01    0.7864418    0.6321608  26.63   0.00235171    1.203    0.169
        47 -10.9988    155.6520    157.3276   4.0538562710e+01   1.9712490498e+01    0.1339334    0.1126373  79.26 0.0001653994    1.756    0.430
        48 -12.5566    111.7469    155.5148   5.1031345576e+01   2.7445187651e+01    0.5641271    0.3770943  72.97  0.002323762    2.493    0.599
        49 -12.8003    208.5419    154.1548   2.9851065602e+01   1.2083036271e+01    0.5605321    0.3938002  27.45  0.003458986    1.537    0.349
        50 -12.0551     89.7503    169.9815   5.9706398213e+01   2.7559532766e+01    0.2782811     0.185995  13.84  0.001148732    1.656    0.396
        51 -11.8236     55.7720    155.4214   6.7987276304e+01   3.5830474203e+01    0.4463911    0.2632667 -29.09   0.00181274    2.373    0.579
        52 -12.1756     85.6109    152.7124   5.8106600710e+01   3.2320043053e+01    0.5541641    0.3143272 -40.72  0.002296701    2.036    0.509
        53 -12.2786     13.6557    152.1564   8.1652921964e+01   4.0929964929e+01    0.3479501    0.1974517  41.46  0.001190051    1.608    0.378
        54 -12.7939      8.3172    148.4453   8.3197425647e+01   4.2288596821e+01    0.6335474    0.4610568  54.63  0.003437046    1.273    0.214
        55 -11.9075    103.5683    149.6701   5.2217896322e+01   3.0154206735e+01    0.3938338    0.2885686 -17.74  0.001448428    1.701    0.412
        56 -11.8216     59.7725    149.1894   6.5793336577e+01   3.6929962305e+01    0.2123732    0.1767274 -23.19  0.001078093    1.379    0.275
        57 -12.0995     62.8689    146.1070   6.4293113677e+01   3.7315170427e+01    0.2496471    0.2002841  59.21  0.001250237    1.283    0.221
        58 -10.5761     38.2005    145.7897   7.2678085170e+01   4.0403397451e+01    0.1992348    0.1670859 -32.65 0.0004650191    1.343    0.255
        59 -12.5966     42.3914    138.5749   7.0285493923e+01   4.1877744092e+01    0.4709376     0.284522  27.61   0.00211804    1.598    0.374
        60 -12.9054    246.5132    133.1191   2.0497074753e+01   9.9598309845e+00    0.3979436     0.270428 -39.83  0.002718116    1.282    0.220
        61 -14.6859    232.6608    127.5289   2.1186156251e+01   1.2621791236e+01     1.179812    0.5352653 -42.82  0.006165847    1.932    0.482
        62 -11.6091     47.3477    132.6771   6.7641568483e+01   4.2885093843e+01    0.4977372    0.2228757 -73.27  0.001828896    2.452    0.592
        63 -10.6403     11.0213    134.0025   8.1232976326e+01   4.5967703274e+01    0.1662803    0.1516772  35.77 0.0004387883    1.114    0.103
        64 -12.5000    136.5891    132.0207   3.9651389327e+01   2.8166233370e+01    0.6752914    0.3120903  39.43   0.00265402    2.184    0.542
        65 -14.3719    105.3079    122.6747   4.5989860751e+01   3.6196445817e+01     1.893383     1.124411  34.36    0.0079657    1.701    0.412
        66 -15.0175    105.6769    105.3153   4.1569800157e+01   4.0142610976e+01     1.687854     1.532091  79.60  0.008720678    1.199    0.166
        67 -12.5754      4.3507    119.3854   8.2639147431e+01   5.0354505941e+01    0.6212761    0.3948157  -8.40  0.002869715    1.843    0.457
        68 -12.3141     42.6802     90.2817   6.1532896720e+01   5.4891779716e+01    0.5755396    0.4464551 -28.25  0.002764049    1.412    0.292
        69 -14.5730     18.3333    110.5729   7.6006082711e+01   5.1860742348e+01     1.283811    0.9197322 -27.60   0.00522264    1.562    0.360
        70 -14.5125     11.1006    102.4269   7.8178550134e+01   5.4610174503e+01     1.113094    0.9175274 -26.22  0.005204596    1.293    0.227
        71 -13.7718      2.4312     97.0020   8.1533376040e+01   5.6568053078e+01      0.94088    0.4026669 -77.49  0.003400878    2.143    0.533
        72 -14.6091     23.5795     95.2961   7.1444294289e+01   5.5624208330e+01     1.907104    0.6934257  14.81  0.006536646    3.097    0.677
        73 -12.7783     29.8296     89.4821   6.7401768328e+01   5.6601738180e+01    0.5417591    0.3728027  73.25  0.001847136    1.754    0.430
        74 -12.6934     78.9825    110.4644   5.1678495804e+01   4.4015241122e+01    0.4836858    0.3211396 -68.16  0.001934308    1.735    0.424
        75 -13.1603     84.9084    115.1709   5.0736246440e+01   4.1785523385e+01     1.018373    0.5428328  20.00  0.003392233    2.687    0.628
        76 -12.3685     88.2386    109.3565   4.8196298501e+01   4.2606962774e+01    0.6482611    0.4412933 -76.98  0.002692476    1.985    0.496
        77 -11.1488    186.0107    115.9938   2.5751345913e+01   2.1950578805e+01    0.2023439     0.159873 -71.09 0.0005615881    1.641    0.390
        78 -12.6548    121.3538    111.8113   3.8764724697e+01   3.5491668767e+01    0.3787868    0.2876704  64.20  0.001158396    1.553    0.356
        79 -11.6210     45.9332    110.1724   6.4338676056e+01   4.9152699006e+01    0.6000266    0.3082135 -37.36  0.002239148    2.436    0.589
        80 -11.1138     43.1226    106.8325   6.4862888923e+01   5.0407695192e+01    0.2918088    0.1958413 -46.69  0.001065398    1.522    0.343
        81 -11.7151     63.0880    110.5556   5.7589161428e+01   4.6628554595e+01     1.273298    0.5494127 -73.86   0.00371945    3.938    0.746
        82 -11.1503     64.5341    101.5302   5.4926962810e+01   4.8742398004e+01    0.3783291    0.2983304   6.71 0.0009699427    1.472    0.321
        83 -12.1987     62.0381     98.3024   5.5128350461e+01   4.9975682831e+01    0.5702714     0.369373  61.16  0.001817726    1.961    0.490
        84 -12.9134    223.3322    128.0757   2.2546386184e+01   1.3895067014e+01    0.6144817    0.4065928 -59.79  0.003441762    2.157    0.536
        85 -13.2386     21.3915     86.0708   7.0877619059e+01   5.8314252228e+01    0.9068248    0.6197928   1.25  0.003174868    1.616    0.381
        86 -12.6603    135.8874    102.8675   3.2746246384e+01   3.4336611908e+01     0.633543    0.3505248  46.34  0.001896224    1.838    0.456
        87 -13.5248    120.0386    102.4324   3.6683490460e+01   3.7790962796e+01    0.6756721    0.3760912  41.68  0.002778793    1.820    0.451
        88 -12.5555     48.9730     92.8194   5.9305066334e+01   5.3373342805e+01    0.9438305    0.5969152 -48.19  0.002553115    1.583    0.368
        89 -11.3554     48.6725    100.6935   6.1247478548e+01   5.1336542603e+01     0.324816    0.2769042 -10.77  0.001276463    1.295    0.228
        90 -12.3186     52.2819     98.0197   5.9106991544e+01   5.1537936507e+01    0.7121673    0.3945216   5.09  0.002508149    2.876    0.652
        91 -13.6050    248.3473     95.1121   1.3073436136e+01   1.4821113823e+01    0.7957785      0.24633 -43.12  0.003673842    2.576    0.612
        92 -11.8172    176.7771    110.1080   2.6028659503e+01   2.4678669062e+01    0.3332046    0.2410859 -23.58  0.001753118    1.474    0.321
        93 -13.6452     32.5859    112.1038   7.0208766506e+01   5.0158602392e+01    0.7823442    0.4422262 -57.04  0.003413079    1.690    0.408
        94 -12.2992    163.7398     97.4602   2.5384981392e+01   2.9502549476e+01    0.3381111    0.2682553  58.77 0.0007906354    1.365    0.268
        95 -13.0251    137.3367     95.2140   3.0370403264e+01   3.5545831498e+01    0.5090707    0.4165128  83.91  0.001309646    1.452    0.311
        96 -11.4432    129.2137     96.0155   3.2553162062e+01   3.7155890414e+01    0.2766829     0.199273  65.08  0.001271784    1.609    0.378
        97 -13.1201     28.4022    121.9402   7.3330942788e+01   4.7865843160e+01    0.5961314    0.4272695 -49.46  0.002657149    1.427    0.299
        98 -10.8182     59.0056    125.0293   6.2061331576e+01   4.3405336653e+01    0.1866358    0.1718714 -70.09 0.0004385527    1.100    0.091
        99 -12.4302    179.4634    120.5640   2.7927153173e+01   2.2349881648e+01    0.5028417    0.2378676  39.03  0.002170554    2.441    0.590
       100 -11.1498     35.1954     86.4306   6.4164365953e+01   5.6828869865e+01    0.2743949    0.2075489 -62.32 0.0007320609    1.295    0.228
       101 -14.8056    214.1350     76.9969   1.2985963960e+01   2.2888672094e+01     3.605147     1.356229  71.92   0.01267618    5.390    0.814
       102 -13.5202    188.6665     83.9204   1.7882080442e+01   2.6699330451e+01    0.6179488    0.5397645  39.51  0.002464546    1.339    0.253
       103 -14.8663    198.9088     69.9246   1.3172420957e+01   2.6771427680e+01     2.157207    0.9049624  44.00  0.008726363    3.561    0.719
       104 -14.3733    160.6118     80.8082   2.1666591782e+01   3.3070766379e+01     2.017986     1.193704 -16.91  0.005423088    2.733    0.634
       105 -14.4575    169.5594     76.9756   1.9109321854e+01   3.1761583883e+01    0.9073275    0.7467644   9.97  0.003471929    1.608    0.378
       106 -12.4496    132.4889     85.8330   2.8912993243e+01   3.8439811659e+01    0.2779143    0.2185318  53.09 0.0009630447    1.282    0.220
       107 -13.8843    239.4931     81.3989   1.1236667148e+01   1.7982443403e+01    0.6570619    0.4104385 -79.70  0.003794607    2.404    0.584
       108 -11.0564     98.0539     83.7400   3.7814356737e+01   4.6552651899e+01      0.22443    0.2017639  49.54  0.000724395    1.089    0.081
       109 -11.5700    209.5907    249.2447   4.5068046239e+01  -1.2311963798e+00    0.1468733   0.07691334 -23.02 0.0009581501    1.688    0.408
       110 -14.3485    170.0329    242.2907   5.1282081942e+01   3.6244983918e+00    0.9792032    0.5748863  11.56  0.006085743    1.449    0.310
       111 -14.5183    100.8611     49.7003   2.5365163481e+01   5.2498234364e+01      1.21729     1.037332  48.61  0.005219033    1.148    0.129
       112 -13.2520    237.2274    230.4338   3.7993750856e+01  -1.5591640961e+00     0.351477    0.2423907  14.82  0.002771946    1.371    0.271
       113 -14.7032    119.5723     54.3542   2.2201033346e+01   4.7144069652e+01     1.044089    0.6921213  48.46  0.002035267    1.524    0.344
       114 -12.7498    135.7831     51.2906   1.7746750623e+01   4.3649903263e+01    0.6879658    0.5223438 -31.47  0.002068964    1.413    0.293
       115 -11.8862    235.8665    247.8841   4.0658020533e+01  -3.3962448409e+00    0.1677567   0.09888329  -5.11  0.001257009    1.269    0.212
       116 -14.1126     57.5930    201.9597   7.2624463364e+01   2.4386740963e+01     2.878882    0.7685001 -75.51  0.008377084    5.988    0.833
       117 -14.1189     68.5356    221.1489   7.1533761283e+01   1.9083250820e+01     0.743814    0.6103089 -43.13  0.004677076    1.455    0.313
       118 -14.1348     64.1995    214.4941   7.2032134169e+01   2.0938668832e+01    0.5530646    0.4527129  27.40  0.002841525    1.072    0.067
       119 -13.8213     61.2214     76.0131   4.9228617575e+01   5.5652059441e+01     0.858112    0.4992718 -43.61  0.002081998    1.794    0.442
       120 -12.2060    114.1438     80.0991   3.1911780140e+01   4.3728319349e+01    0.4336732    0.3827209 -61.56 0.0008260249    1.166    0.142
       121 -11.8603     42.5003     79.4922   5.8909731211e+01   5.7717607874e+01    0.4055075    0.3369327 -78.63  0.001997239    1.323    0.244
       122 -11.5287     41.6184     75.7671   5.8322535901e+01   5.8783715396e+01    0.3214534    0.2679921 -79.47 0.0007834835    1.337    0.252
       123 -12.9208    135.2881     79.1868   2.6353149625e+01   3.9053386057e+01    0.8052476    0.3891098  54.23  0.003209239    2.101    0.524
       124 -13.2902     55.2756     80.7310   5.3288091612e+01   5.5507237827e+01    0.6536734    0.4521264 -30.44  0.001944615    1.694    0.410
       125 -13.3559    124.9868    167.9903   4.9835912096e+01   2.2560997875e+01    0.7157165    0.3285724 -52.73  0.002911906    2.362    0.577
       126 -14.2840      5.4953     63.3562   7.5422652900e+01   6.5416719530e+01    0.7796643    0.6591277   8.09  0.003802424    1.231    0.188
       127 -11.7191     27.4590     76.3182   6.5726123437e+01   6.0334779626e+01    0.3766152    0.2638622  77.48    0.0013307    1.789    0.441
       128 -13.2034    133.5971     66.2548   2.2868869241e+01   4.1751089485e+01    0.9475296    0.7334269  13.62  0.003952216    1.824    0.452
       129 -12.2453    100.2746     64.2503   3.0766187757e+01   5.0029243311e+01    0.4578423     0.391436 -18.15  0.002332149    1.362    0.266
       130 -12.9832    241.8739     71.1874   8.9524088824e+00   1.8929689219e+01    0.3976955    0.2311014 -64.12  0.002341714    2.013    0.503
       131 -13.6786     95.3265    218.4286   6.4635103097e+01   1.6433469214e+01    0.6380996    0.2674611  26.64  0.002828125    2.023    0.506
       132 -11.8484     34.6790     60.4797   5.7386151186e+01   6.3484142521e+01    0.4023109    0.2755857 -45.92  0.001966272    1.428    0.300
       133 -12.5438     35.9376     54.5212   5.4641767327e+01   6.4722798185e+01    0.6845184     0.364634 -26.95  0.002611462    2.692    0.629
       134 -12.1627     24.8019     59.3572   6.2762196689e+01   6.4924844497e+01    0.5154462    0.2648576 -47.74  0.001754016    1.839    0.456
       135 -13.1560    247.7566     53.8667   5.0078730847e+00   2.0124929081e+01    0.5813521    0.2574438 -42.95  0.003269862    1.649    0.393
       136 -12.1444    249.2078     48.5897   3.8609576503e+00   2.0514545677e+01    0.2663081    0.1782767 -56.54  0.001559342    1.274    0.215
       137 -13.9221     74.6782     73.7129   4.2901511040e+01   5.3652550953e+01     1.764097    0.8055107  25.44  0.005061991    4.153    0.759
       138 -11.4997     17.5740     55.0020   6.5963602095e+01   6.6699498739e+01    0.3400695    0.2329374 -78.58  0.001689661    1.674    0.403
       139 -12.1794    230.8034     54.8796   6.5454768681e+00   2.2849140126e+01    0.3413875    0.1913946  78.92  0.001986866    2.201    0.546
       140 -10.5603     23.5418     49.9647   6.0583650988e+01   6.7330532838e+01    0.2000504    0.1334075 -57.10  0.000414896    1.481    0.325
       141 -11.5267    201.8437     46.8204   7.3668075079e+00   2.9322876383e+01    0.1786028    0.1655388 -46.94 0.0008074151    1.175    0.149
       142 -12.3644    154.6319     46.2322   1.2973581636e+01   3.9831880844e+01    0.4160232    0.3119785  56.01  0.002036241    1.403    0.287
       143 -13.0793    158.2347     43.0202   1.1508302245e+01   3.9418738056e+01    0.5488106    0.5373148  18.71  0.002504344    1.235    0.190
       144 -11.4585     38.8323     46.4783   4.9885204244e+01   6.6102374213e+01    0.3102128    0.2519552  35.03  0.000983913    1.215    0.177
       145 -13.3536      6.0005     43.1938   7.0576814688e+01   7.0443083041e+01     1.079571    0.5279102   7.49  0.004883416    2.119    0.528
       146 -10.5287      5.4967    219.4964   8.7107976466e+01   2.5545044061e+01     0.122645   0.09749411  46.44 -0.0001217825    1.009    0.009
       147 -12.3537     85.6105    215.6022   6.6721840331e+01   1.8182496482e+01    0.2671149     0.207275  41.21  0.001594066    1.190    0.160
       148 -12.9195    148.1012    239.3052   5.5276842735e+01   6.4887434877e+00    0.4506641    0.2780239  52.52  0.002349412    2.873    0.652
       149 -11.1751    136.5150    211.0023   5.3968569579e+01   1.2532772844e+01    0.1795974    0.1259789 -45.20   0.00103295    1.592    0.372
       150 -11.5848     39.3725    210.7123   7.8149704951e+01   2.4408738856e+01    0.3940307    0.1371903  38.02  0.001691114    2.165    0.538
       151 -12.8573     46.6996    208.9018   7.6104735719e+01   2.4050369384e+01     0.513289    0.2281838  64.23   0.00211106    2.893    0.654
       152 -12.0735      5.3518    209.4671   8.6828153909e+01   2.7699545259e+01    0.2591389    0.1812398 -27.29  0.001494973    1.973    0.493
       153 -11.8352     80.6132    208.4791   6.7217061323e+01   2.0248021748e+01    0.2886533    0.2044425  54.70  0.001476002    1.508    0.337
       154 -13.0466     46.2933     33.1163   3.9581652664e+01   6.7498062677e+01     0.623753    0.6103644 -39.30  0.003509304    1.153    0.133
       155 -12.4847     36.7359     34.2271   4.5673657180e+01   6.8965700993e+01     0.662572    0.3451516  10.99  0.002168913    4.091    0.756
       156 -12.2224     40.4721     40.2669   4.6261893168e+01   6.7145094700e+01    0.5404804    0.3236099  33.07  0.002538015    1.605    0.377
       157 -13.2071     32.8002     40.2896   5.0919638966e+01   6.8332643054e+01    0.4851507    0.3233767  15.04 0.0007743168    1.611    0.379
       158 -12.9711     76.0959     37.0564   2.8142735954e+01   6.0494708525e+01     0.623095    0.3717097  51.34  0.001152111    1.549    0.355
       159 -11.9051     70.9566     36.0000   2.9594115113e+01   6.1846665346e+01    0.3590089    0.2377372  56.28  0.001156306    1.476    0.323
       160 -11.6159     50.3552     39.0041   4.0262219810e+01   6.5637034852e+01    0.2435132    0.1945124  45.51 0.0002701152    1.241    0.194
       161 -13.2861     59.4685    212.5428   7.3076080254e+01   2.1881858105e+01    0.4829402    0.2913106 -24.19  0.001466235    2.466    0.594
       162 -12.0118     64.4871     24.5172   2.6600791169e+01   6.5087317758e+01    0.3571838    0.3095428  -7.09   0.00137962    1.279    0.218
       163 -13.4033     16.2432    197.2141   8.3493144814e+01   2.9570833326e+01    0.7414678    0.2816111 -56.19  0.002789757    3.084    0.676
       164 -11.4948     98.1054     26.6935   1.7022501248e+01   5.6601804447e+01    0.3234437    0.2637437  82.46   0.00102835    1.216    0.177
       165 -12.5489     30.7588     25.1884   4.4891631229e+01   7.1651097025e+01    0.4564405    0.2524677  27.91  0.002025646    1.805    0.446
       166 -11.9722     36.0270     23.0150   4.0217549804e+01   7.1157413310e+01     0.337611    0.2795766  -9.93  0.001336556    1.241    0.194
       167 -10.9830    151.3017    206.1425   4.9988727466e+01   1.1438179326e+01    0.2554452    0.1352478  14.83  0.001207592    2.068    0.516
       168 -13.5328     39.7985    195.6965   7.6951179440e+01   2.7730114912e+01    0.7928019    0.4419871  58.09  0.003857573    1.800    0.444
       169 -12.4864     48.2513     19.8368   3.1410835310e+01   6.9317386777e+01    0.8167741    0.2378926  50.47  0.002738355    3.301    0.697
       170 -12.5816    105.7687     33.2549   1.7810324281e+01   5.3786106784e+01    0.7733825    0.4779855 -16.45  0.003430409    2.182    0.542
       171 -12.5498    144.3883    233.5160   5.5311460826e+01   7.8074358849e+00    0.4321943    0.2202982 -37.15  0.002338124    2.138    0.532
       172 -13.1203    164.1242    194.2712   4.5384265980e+01   1.1747772979e+01    0.5137469    0.3268468 -59.91  0.002570375    2.510    0.602
       173 -14.0354     30.1815    169.0585   7.7635114526e+01   3.5143715908e+01     1.058797    0.8009064   8.12  0.004541035    1.458    0.314
       174 -13.4256     56.5615     27.0717   3.1328174090e+01   6.6457656985e+01    0.9768872    0.3348177  50.01  0.002533321    2.727    0.633
       175 -13.0259    140.3989     21.1934   7.2786881323e+00   4.6478281038e+01    0.6367812    0.3239656  71.00   0.00107961    1.815    0.449
       176 -13.7009     22.2443    180.9269   8.0895397984e+01   3.2916955787e+01    0.8153746    0.4793476 -55.32  0.003427335    1.903    0.475
       177 -10.7540    124.1183     11.4687   6.1893635975e+00   5.1627859599e+01    0.2117463    0.1213213  74.62  0.001022868    1.567    0.362
       178 -14.9470      8.1652    183.2504   8.5076046108e+01   3.3498667966e+01     1.222143     1.064955  -0.88  0.007677457    1.340    0.254
       179 -15.3508     14.9762    174.8400   8.2668846593e+01   3.5024963476e+01     2.344177     1.054084  47.40   0.01052544    1.946    0.486
       180 -12.1009    201.0668    191.2333   3.7785477468e+01   7.4195912635e+00    0.3000208    0.2017386  -5.07  0.001357446    1.405    0.288
       181 -12.3755     48.5689    181.3568   7.3201639185e+01   3.0184044037e+01    0.5464187    0.3282172 -48.25  0.002605056    1.912    0.477
       182 -11.2896    109.3324    183.3255   5.6427485663e+01   2.1700698984e+01    0.1469046    0.1042209 -11.65 0.0007051053    1.710    0.415
       183 -12.0410     38.9973     59.9134   5.4807319245e+01   6.3030739139e+01    0.4743006    0.2969722  63.79  0.001942879    2.483    0.597
       184 -13.2887    197.6235    179.6064   3.6389906420e+01   9.6251301494e+00    0.5440241     0.393526 -69.77  0.002723036    3.221    0.690
