#   1 NUMBER                 Running object number                                     
#   2 MAG_AUTO               Kron-like elliptical aperture magnitude                    [mag]
#   3 X_IMAGE                Object position along x                                    [pixel]
#   4 Y_IMAGE                Object position along y                                    [pixel]
#   5 X_WORLD                Barycenter position along world x axis                     [deg]
#   6 Y_WORLD                Barycenter position along world y axis                     [deg]
#   7 A_WORLD                Profile RMS along major axis (world units)                 [deg]
#   8 B_WORLD                Profile RMS along minor axis (world units)                 [deg]
#   9 THETA_WORLD            Position angle (CCW/world-x)                               [deg]
#  10 FWHM_WORLD             FWHM assuming a gaussian core                              [deg]
#  11 ELONGATION             A_IMAGE/B_IMAGE                                           
#  12 ELLIPTICITY            1 - B_IMAGE/A_IMAGE                                       
         1 -14.9593    165.8737     43.9131   7.4430251576e+01   3.8307287359e+01     1.458888     1.126221  -2.91  0.003866872    1.389    0.280
         2 -15.0858    184.0405     10.2975   6.0150018401e+01   3.7423098040e+01     2.389754     1.264318  65.33  0.007282981    1.770    0.435
         3 -12.3264    125.1038    241.5317   1.2457355209e+02   1.2530904216e+01    0.3618014    0.1415049 -54.58  0.002005756    3.416    0.707
         4 -14.9126    100.7562    243.1931   1.2897193019e+02   1.5519812837e+01    0.5877751    0.5102471 -56.65  0.004976641    1.586    0.369
         5 -19.9722     63.5391    169.9766   1.2974766334e+02   3.2538072382e+01     14.81026     6.543526 -71.82   0.07517508    2.341    0.573
         6 -12.5185    146.5158    179.1721   1.1269282537e+02   1.8679753789e+01    0.4749635    0.2364766  42.13  0.001771662    1.718    0.418
         7 -12.6916    142.4942    175.3020   1.1293941031e+02   2.0016634298e+01     1.198544    0.7708715   4.45  0.005498267    2.656    0.623
         8 -13.0686    204.4556    175.8944   1.0036976879e+02   9.0172893406e+00    0.4646907    0.4004974  26.96  0.001059643    1.176    0.150
         9 -12.0816    202.1870    167.2790   9.9172569251e+01   1.0619932773e+01    0.9955453     0.444581  26.09   0.00389291    2.813    0.645
        10 -12.2305    197.2654    176.9438   1.0194728146e+02   1.0141262411e+01    0.3683244    0.3055117 -58.33   0.00207077    1.877    0.467
        11 -12.7889    193.4895    166.1151   1.0065684625e+02   1.2377714555e+01    0.3910337    0.3081801 -21.50 0.0006969825    1.341    0.254
        12 -12.2954    190.0491    160.8706   1.0032527863e+02   1.3801465394e+01    0.3980334    0.3399876  36.40 0.0009970337    1.178    0.151
        13 -12.2978    189.8940    155.5615   9.9295324701e+01   1.4645030069e+01    0.4811913    0.3805858  36.27  0.001638772    1.165    0.142
        14 -12.5987    176.7530    169.4451   1.0467786472e+02   1.4933299692e+01    0.3688942    0.2109784 -33.83  0.001724603    1.983    0.496
        15 -12.0061    188.0067    175.1353   1.0343726674e+02   1.2045026474e+01    0.4373283     0.213567 -52.87  0.001719566    3.865    0.741
        16 -10.9301     11.1560    174.2343   1.4109938229e+02   3.6761355943e+01    0.1399217     0.113699  89.39 0.0005403402    1.182    0.154
        17 -11.5633     21.5911    237.6911   1.4184857122e+02   2.5048048290e+01    0.1136932   0.08353356  67.97 0.0005971554    1.121    0.108
        18 -11.0428    131.0681    234.9397   1.2286344596e+02   1.2592831304e+01    0.1463236    0.1223145  47.39 0.0006274781    1.143    0.125
        19 -11.7974    230.2709    167.0228   9.3897508784e+01   5.6529404483e+00    0.2812413    0.1423188 -42.00  0.001290796    2.738    0.635
        20 -11.6630    141.8389    164.6015   1.1131545812e+02   2.2005285038e+01     0.236265    0.2036755 -65.53 0.0009230486    1.399    0.285
        21 -13.2892    137.8109    171.3507   1.1332580156e+02   2.1498152235e+01     0.535886    0.4392376  32.51  0.001675113    1.108    0.097
        22 -10.0072    141.4435    230.3123   1.2048865768e+02   1.1739660518e+01     0.123491    0.1059066  80.59 0.0005967031    1.521    0.343
        23 -11.4122    236.8571    158.1820   9.0960537171e+01   5.6111787367e+00    0.1912183    0.1299415  12.42 0.0004149834    1.330    0.248
        24 -12.1517    167.2201    155.7697   1.0410502727e+02   1.8922192835e+01    0.2476803    0.2172874  76.44  0.001326045    1.524    0.344
        25 -11.0897     16.7634    225.5579   1.4219311214e+02   2.7357683140e+01   0.09061095   0.07835567  50.72 0.0003921276    1.382    0.276
        26 -12.4908    132.5005    168.7214   1.1407777864e+02   2.2863046886e+01    0.3873086    0.2800989 -66.79  0.001774258    1.750    0.429
        27 -11.5379    174.2677    148.5366   1.0113080271e+02   1.8789516351e+01    0.3549232    0.2749399 -62.11  0.001548008    1.854    0.461
        28 -10.7865    138.5476    250.6640   1.2310900202e+02   9.5240774613e+00    0.1661138   0.07460979  36.07 0.0009751127    1.688    0.408
        29 -11.4171     12.6305    241.4775   1.4336408511e+02   2.5281097865e+01    0.1671518    0.1362842 -74.45  0.001588814    1.650    0.394
        30 -11.9544      5.0419    137.8053   1.4050135385e+02   4.4456146212e+01    0.2768725    0.2322495 -69.52  0.001164726    1.274    0.215
        31 -12.5003    152.4226    139.0447   1.0404272366e+02   2.4722754892e+01    0.3294675    0.2744549 -65.54  0.001397401    1.520    0.342
        32 -11.7319     22.2573    138.2484   1.3645614685e+02   4.3148938064e+01    0.2063263    0.1937232 -33.53 0.0006509584    1.389    0.280
        33  -9.8052    151.3802    241.5540   1.1994103628e+02   8.8574487852e+00    0.1093002   0.08127225  35.04 0.0002850098    1.052    0.049
        34 -10.0998    168.5183    135.0811   9.9517053506e+01   2.2244868736e+01    0.2011313    0.1435645 -37.73  0.000544775    1.495    0.331
        35 -12.5610    160.4585    127.8420   9.9722364614e+01   2.5186765952e+01    0.4129595    0.3216391 -52.60  0.001747402    1.524    0.344
        36 -13.3964     11.8062    205.7996   1.4230772221e+02   3.1028469914e+01    0.3781227    0.2655943  20.34  0.002932619    1.989    0.497
        37 -12.8746    105.9436    204.2557   1.2440263271e+02   2.0755531328e+01    0.3780917    0.2844966 -87.78   0.00211352    1.575    0.365
        38 -10.9699    152.6372    198.1033   1.1427616882e+02   1.4647093223e+01    0.2720665    0.2155016 -34.61  0.001552609    1.532    0.347
        39 -10.8891    167.7494    112.7430   9.4422191127e+01   2.6394795867e+01    0.2972524    0.2295768 -87.05  0.001329581    2.124    0.529
        40 -11.0037    109.1264    239.9419   1.2724230542e+02   1.4888934887e+01    0.1495275    0.1098889  51.16 0.0003649369    1.100    0.091
        41 -10.4438    112.6419    196.5075   1.2217808471e+02   2.1095201351e+01    0.2835033    0.1869219   0.25   0.00137446    3.113    0.679
        42 -11.1150    205.1970    110.7084   8.6024717593e+01   1.8521696472e+01    0.3773585    0.2654311  14.71   0.00102457    1.534    0.348
        43 -10.1365    103.3555    194.5914   1.2386157945e+02   2.2758492439e+01    0.3140831    0.1557841  28.34   0.00153761    2.326    0.570
        44 -12.0118    152.8628    192.0915   1.1335400067e+02   1.5534288266e+01    0.3722501    0.2064573  42.07  0.001249193    1.505    0.336
        45 -11.5599      7.8691    101.9663   1.3718547194e+02   5.2036413867e+01    0.2548017    0.2238265  58.60  0.001849438    1.251    0.201
        46 -10.6510    145.7772     81.2019   9.1094966875e+01   3.7118061773e+01    0.2171312    0.1771987   9.19 0.0004964496    1.319    0.242
        47 -11.6769    155.3211    187.6527   1.1217944896e+02   1.5820493672e+01    0.1983877     0.186166  79.44  0.000771606    1.335    0.251
        48 -12.2819    152.1246    184.5980   1.1236565833e+02   1.6843191506e+01    0.2906573    0.2340006 -64.64  0.001211729    1.651    0.394
        49 -14.4842    154.2176     58.4346   8.1836555921e+01   3.9077885830e+01     1.360074     1.149976  29.99 0.0009795035    1.146    0.127
        50 -12.4661    126.6059    172.5922   1.1598861560e+02   2.3136897758e+01    0.5082908    0.3510158  49.60  0.001949188    1.346    0.257
        51 -13.0327    170.3857     35.8743   7.0842008251e+01   3.8206338203e+01    0.4632679    0.4149258   5.07 0.0008775977    1.116    0.104
        52 -11.0492     13.4949     59.9716   1.3008746854e+02   6.1251235992e+01    0.1872583    0.1574733  57.84 0.0004198584    1.420    0.296
