#   1 NUMBER                 Running object number                                     
#   2 MAG_AUTO               Kron-like elliptical aperture magnitude                    [mag]
#   3 X_IMAGE                Object position along x                                    [pixel]
#   4 Y_IMAGE                Object position along y                                    [pixel]
#   5 X_WORLD                Barycenter position along world x axis                     [deg]
#   6 Y_WORLD                Barycenter position along world y axis                     [deg]
#   7 A_WORLD                Profile RMS along major axis (world units)                 [deg]
#   8 B_WORLD                Profile RMS along minor axis (world units)                 [deg]
#   9 THETA_WORLD            Position angle (CCW/world-x)                               [deg]
#  10 FWHM_WORLD             FWHM assuming a gaussian core                              [deg]
#  11 ELONGATION             A_IMAGE/B_IMAGE                                           
#  12 ELLIPTICITY            1 - B_IMAGE/A_IMAGE                                       
         1 -10.9202     33.7498     62.9572   9.2917924271e+01   6.1145754481e+01     1.630291     0.643578 -29.92  0.005355813    3.399    0.706
         2 -10.6819     23.1587     34.1715   8.7863690787e+01   6.7716597590e+01    0.7162393    0.4204774 -10.82  0.003034817    1.733    0.423
         3  -9.8618     26.1567     24.2981   8.2124021109e+01   6.9040300236e+01    0.8751485    0.3505846 -25.33  0.003645453    3.137    0.681
         4 -10.1815      5.0069     41.6793   9.9921176292e+01   6.7701314068e+01     0.898644    0.3906575 -67.50  0.003950639    3.217    0.689
         5 -10.1447      7.4552     28.0522   9.3876760687e+01   7.0093369323e+01    0.4419876    0.2765821  31.27  0.001034304    2.023    0.506
         6 -10.1919     63.0848      3.2136   5.5537904464e+01   6.5925611255e+01    0.5768617    0.4028486  -6.68  0.003607145    1.447    0.309
         7  -9.4821     63.2735     21.3729   6.3927763970e+01   6.4004648943e+01    0.4157051    0.2674309 -47.96  0.002146545    2.363    0.577
         8  -9.9804     64.3934     13.6037   5.9964096031e+01   6.4681515837e+01    0.4051945    0.2663508   9.94  0.002306866    1.537    0.349
         9 -10.2992    130.6615     45.7376   5.3484717032e+01   4.6445860748e+01     2.668149     1.020296 -17.22  0.002879562    9.215    0.891
        10 -10.7440    134.0086     30.9380   4.7906282762e+01   4.7539867473e+01     0.365851      0.27382   8.61   0.00193106    1.664    0.399
        11  -8.8445     71.9625      8.6125   5.5081949422e+01   6.3722993861e+01    0.2059443    0.1631368  -0.89 0.0005704481    1.256    0.204
        12 -10.0667     73.4878     17.8575   5.8697501180e+01   6.2493084026e+01      0.96899    0.2135162 -29.32  0.003261717    4.612    0.783
        13  -9.4588     77.7798      4.0696   5.1267346325e+01   6.2943081808e+01     0.473513    0.2867258   2.96  0.002069465    1.865    0.464
        14  -9.9499     76.2330     32.0667   6.3816529869e+01   6.0237305906e+01    0.5457242    0.3150955  50.47  0.001995213    1.812    0.448
        15 -10.1156     52.2759     14.0327   6.4879260342e+01   6.6773758102e+01    0.8261284    0.3922947  20.02  0.003613769    2.766    0.638
        16 -10.2524     46.2394     29.3566   7.4615899353e+01   6.5700550316e+01    0.6879042    0.2793996 -41.66  0.002196331    2.636    0.621
        17  -8.6465    137.7681      8.7922   4.0108109097e+01   4.8883010559e+01    0.2168746     0.164148  84.99 0.0008365868    1.307    0.235
        18  -8.7739    120.5454     15.6337   4.5452658314e+01   5.2390520799e+01    0.3728793    0.1797495  22.28  0.001398554    3.595    0.722
        19  -8.4627    131.3015      5.6832   4.0152770707e+01   5.0700907143e+01    0.1835414      0.13271  44.90  0.000519775    1.318    0.241
        20  -8.3820    134.3857      5.1775   3.9496394297e+01   5.0002283718e+01    0.2536273    0.1511002 -34.34  0.001109885    1.885    0.470
        21  -7.9885    136.2625      1.6189   3.8085356557e+01   4.9834994568e+01    0.2250142    0.1306216  41.25  0.001172386    1.787    0.440
        22  -8.7488    125.0554     12.9876   4.3668778752e+01   5.1564348254e+01     0.263804    0.2032657  42.84 0.0006754912    1.223    0.182
        23  -8.1198    120.7904      5.6180   4.1940641527e+01   5.3208954020e+01    0.3023544    0.1535592  61.65  0.001497173    1.625    0.385
        24  -8.7014    126.9992      8.5140   4.1812207630e+01   5.1494219142e+01    0.3446847    0.1640697  44.75  0.001002235    1.997    0.499
        25  -8.5765    125.9500      5.0312   4.0832047280e+01   5.2032019496e+01    0.2777208    0.1974999  38.04  0.001140301    1.414    0.293
        26  -8.8050    112.3966     15.7047   4.7187921775e+01   5.4296303677e+01    0.3083658    0.2090424 -24.14  0.001387404    1.659    0.397
        27  -9.1347    114.0306      9.9243   4.4756082355e+01   5.4439266823e+01    0.3435819    0.2113746  42.50 0.0003326285    1.485    0.326
        28  -9.1175    104.5749      2.3446   4.3926563054e+01   5.7232687900e+01    0.4773589    0.1720266  58.53  0.002090169    2.155    0.536
        29  -8.3834    110.4580      7.5342   4.4625056153e+01   5.5471743849e+01     0.211107    0.1286563 -13.91  0.000640985    1.937    0.484
        30  -8.6160    111.3032      4.3136   4.3281822113e+01   5.5534291612e+01    0.2149585    0.1443628  41.73 0.0005355895    1.349    0.259
        31  -8.4901    104.4460     15.2251   4.8821393769e+01   5.6169790882e+01    0.5599014    0.2415173  22.52  0.001790689    4.920    0.797
        32  -9.8669     10.6897     18.6277   8.8106805025e+01   7.1436988615e+01    0.7659051    0.3094986 -12.68  0.002807493    4.712    0.788
        33 -10.3784     27.6297     11.3064   7.5099071585e+01   7.0729829682e+01    0.8288678    0.3416066  35.76   0.00419697    2.398    0.583
        34 -10.2436     18.3169      5.1152   7.6965009420e+01   7.2641099000e+01    0.5538116    0.3983897 -45.71  0.002831795    2.163    0.538
        35 -10.7925     37.3594      9.6056   6.9326993356e+01   6.9621412405e+01    0.8992743    0.3161031 -38.93  0.002185276    3.437    0.709
        36  -9.3063      2.3110     14.4445   9.1241436679e+01   7.2748589319e+01    0.3529412    0.2306493 -61.38  0.001860031    2.432    0.589
        37 -10.4669      5.5641      4.8290   8.4538847491e+01   7.3952599566e+01    0.5429061    0.3514577  -3.88  0.002014132    1.248    0.199
        38  -8.9513    133.7989     12.2613   4.1865988205e+01   4.9532421370e+01    0.3285219    0.1904348 -46.33  0.001651453    2.006    0.502
        39  -9.2927    132.8183     17.1903   4.3638980630e+01   4.9304433100e+01    0.2830685    0.2026677 -63.22  0.001065818    1.684    0.406
        40  -9.1050     96.2224     15.2038   5.0850544234e+01   5.8014340526e+01    0.4949295     0.225432 -13.00  0.001832757    2.898    0.655
        41  -9.4868     85.3510     12.9902   5.2911375599e+01   6.0574072369e+01    0.3791364    0.2535183 -52.71  0.001514359    2.258    0.557
        42  -8.2403     85.4704      5.1111   4.9566853204e+01   6.1244996486e+01    0.4739739    0.2404117  -3.50  0.002258542    2.533    0.605
        43  -8.3047     89.1673      2.4756   4.7509779569e+01   6.0657407407e+01    0.2284441    0.1696087   7.93  0.000733508    1.428    0.300
        44  -7.9123     80.6499     12.6936   5.4167657995e+01   6.1583110396e+01     0.229052    0.1339347 -44.61   0.00111126    2.397    0.583
        45  -8.0061    141.3229     12.0212   4.0555938349e+01   4.7734523983e+01    0.1795438    0.1643484  74.99  0.001148352    1.064    0.060
        46  -8.1907    156.2710      8.4439   3.7331456463e+01   4.4434762836e+01    0.3033899    0.1256051 -15.83  0.001224608    3.524    0.716
        47  -8.8917    102.1225      7.9972   4.6609037614e+01   5.7342261269e+01    0.2623754    0.1857648 -46.08 0.0005544507    1.779    0.438
        48  -8.5282     97.7664      5.9767   4.6833077118e+01   5.8487992621e+01    0.2118919    0.1936605  37.38 0.0003530587    1.106    0.096
        49  -8.6162     96.0029      2.7637   4.5978215076e+01   5.9133018376e+01    0.2581038     0.162811  49.28 0.0007901653    1.288    0.224
        50  -7.7281    143.4385      4.9725   3.8073704758e+01   4.7838827571e+01    0.1720665    0.1260503 -29.49 0.0006845783    1.569    0.363
        51  -8.5234    167.0421      1.9035   3.4221023737e+01   4.2420756560e+01    0.1851594    0.1555108  81.42 0.0003379482    1.013    0.013
        52  -8.6525    115.2799      4.1948   4.2467373348e+01   5.4617248364e+01    0.2180406    0.1840568 -75.36 0.0006005444    1.388    0.280
        53  -9.9105     41.8657    122.3660   1.0391674243e+02   4.6314481765e+01    0.7474481    0.3808058 -89.85  0.002651349    3.422    0.708
        54 -10.4990    198.5905    248.7175   8.6065372182e+01  -5.7080110811e+00    0.4442264    0.2589911  29.17 0.0008693784    1.452    0.312
        55  -8.1704     86.2748    250.0708   1.0934592571e+02   1.0559145101e+01    0.1950323    0.1388702  61.49 0.0006531501    1.318    0.241
        56  -8.4224    158.0734    122.0333   6.9340291648e+01   2.5933723736e+01     0.250326    0.1989202 -83.60 0.0008982433    1.675    0.403
        57  -7.2601    152.3335    121.2781   7.0533535093e+01   2.7363751254e+01    0.1601924    0.1257069   5.41 0.0004454743    1.607    0.378
        58  -9.8904    140.8156    118.3397   7.2671715059e+01   3.0539436519e+01    0.5045255    0.3695486 -77.49  0.001152882    1.964    0.491
        59 -10.3472     92.1446    112.8614   8.5298227429e+01   4.1609970448e+01    0.6924647    0.5495933  63.79  0.001583037    1.549    0.355
        60  -9.3685     92.6146    103.4425   8.2637204288e+01   4.3753083644e+01    0.8402551    0.4326853  22.27  0.002933042    2.857    0.650
        61 -10.3953     14.2950    110.3812   1.1106746052e+02   5.1658708604e+01    0.8428645    0.4371562  85.19  0.003665539    2.622    0.619
        62 -10.9123     21.8043    102.0325   1.0707276184e+02   5.3188126931e+01     1.459591    0.7740738  79.29  0.004574681    3.356    0.702
        63  -9.7548     19.6548     85.8861   1.0470544125e+02   5.7218255631e+01    0.7119718    0.2953072 -67.80  0.003029255    2.355    0.575
        64  -8.5731    152.8344    115.3654   6.8870677555e+01   2.8529292096e+01    0.2255761     0.197863 -52.61 0.0005866924    1.161    0.139
        65 -10.5052     77.8638    112.6465   8.9873454096e+01   4.4054732266e+01    0.6116312    0.4191967  89.28  0.001888362    2.341    0.573
        66  -9.8103     81.3362     99.8912   8.5389790312e+01   4.6544838862e+01    0.9695147     0.385536 -43.73  0.002021265    2.441    0.590
        67  -7.5557    167.2276    113.9480   6.5137849524e+01   2.5592532583e+01    0.2071206    0.1264002 -42.37 0.0003892869    1.588    0.370
        68  -8.8818    158.9416    111.5716   6.6412718713e+01   2.7956121094e+01    0.4399724    0.1996454 -41.73  0.001320342    2.155    0.536
        69  -9.2786    240.9566    111.8654   5.1255869616e+01   1.0508706593e+01    0.2833184    0.1874736  44.17  0.001243522    1.800    0.444
        70  -8.5768      1.6257    116.6623   1.1603953125e+02   5.0852437669e+01    0.3892973    0.1428014 -80.37  0.001369852    2.663    0.624
        71  -8.4083     68.8568     79.3322   8.3821169931e+01   5.3170937157e+01    0.4698735    0.1145227 -47.26  0.001354606    3.739    0.733
        72 -10.5774     62.9933     95.5151   9.0621824856e+01   5.0386224296e+01     1.042522     0.628855 -83.37  0.002846691    3.554    0.719
        73  -8.9842     64.9850     85.9282   8.7232462616e+01   5.2305649651e+01    0.6690534    0.3742243  -5.26   0.00235633    3.423    0.708
        74  -7.5733     63.5123     81.9822   8.6621509990e+01   5.3397787847e+01    0.2696594    0.1372214 -54.99 0.0007041525    2.059    0.514
        75  -8.9422     63.9807    101.4949   9.1821333524e+01   4.8827112151e+01    0.4002524    0.2662427 -59.45  0.001356398    1.500    0.333
        76 -10.3822     65.7307    110.8955   9.3517570263e+01   4.6292698863e+01     0.662027    0.5161823 -76.50  0.001056138    1.475    0.322
        77  -9.2900     59.1697    109.1880   9.5365725328e+01   4.7602144802e+01    0.5415492    0.2739059 -66.50  0.001425583    2.253    0.556
        78  -9.1899     36.1890    111.3235   1.0376705761e+02   4.9665962709e+01    0.2908884    0.1956262  55.75  0.001458029    1.866    0.464
        79  -9.2228     40.0431    106.4202   1.0144665846e+02   5.0505183058e+01    0.3313806    0.1771484 -61.91 0.0008408974    1.668    0.401
        80 -10.8200     44.7202    102.0273   9.8830139878e+01   5.1092904677e+01    0.8678672    0.5133488  80.15  0.002942266    3.379    0.704
        81  -9.3593      6.5725    103.7948   1.1269710681e+02   5.3735571190e+01    0.3886462    0.2662559  72.94  0.001350607    1.746    0.427
        82  -9.9864    149.4908    103.2563   6.6424539214e+01   3.1835337190e+01    0.7224467    0.3235688 -47.59  0.001030646    2.329    0.571
        83  -8.3691    150.8693     96.2953   6.4158805978e+01   3.2931405869e+01    0.5557976    0.3724363 -19.92  0.002052575    1.934    0.483
        84  -8.2532    166.0793    103.7738   6.2717100795e+01   2.7916119892e+01    0.2689774    0.2017026 -53.51 0.0005561975    1.391    0.281
        85  -8.2362     73.8114    102.7094   8.8712439007e+01   4.7089640688e+01    0.2637983     0.182528 -42.91 0.0006750361    1.354    0.261
        86  -8.7378    159.0799    101.1770   6.3590608269e+01   3.0050745930e+01    0.3259346    0.2098582 -47.26 0.0005569225    1.563    0.360
        87  -8.6588     72.7706    115.9766   9.2357248120e+01   4.4015243668e+01    0.2718776    0.1975323  10.33  0.001278425    1.662    0.398
        88  -8.2096    141.0664     99.0310   6.7341047334e+01   3.4632691745e+01    0.2579183    0.1946978   8.74 0.0008348222    1.756    0.431
        89  -9.5865     94.2493     97.1362   8.0334810534e+01   4.4896128644e+01    0.4174694    0.3161575 -65.20 0.0006760879    1.597    0.374
        90 -10.4823     93.6328     91.4784   7.8881325986e+01   4.6269147703e+01     0.532285     0.336042  18.27  0.002196843    2.068    0.516
        91  -9.0897    189.0346     95.6463   5.5923288913e+01   2.4199272363e+01    0.3741547    0.2574818 -32.91 0.0008318695    1.471    0.320
        92  -9.7065    243.1216     95.6108   4.7418875004e+01   1.2809986257e+01    0.2600945    0.1794479 -35.88  0.001434313    1.307    0.235
        93 -10.6329     25.6962     77.8486   1.0045256012e+02   5.8617078190e+01    0.7444221    0.5045561 -89.81    0.0020814    2.219    0.549
        94  -9.5104    167.5012    250.5096   9.2566762019e+01  -1.4926691911e+00     0.330256    0.1308014  40.30  0.001286964    2.253    0.556
        95  -9.8427     37.2878     80.5401   9.6439266168e+01   5.6948585370e+01    0.7569841    0.3705031 -13.10  0.002816531    3.487    0.713
        96  -8.7119    164.3833     94.0940   6.0473071696e+01   3.0204782359e+01     0.357222    0.2511978 -43.37  0.001188262    1.397    0.284
        97  -9.7739    138.5881     92.4140   6.6077850951e+01   3.6547433803e+01    0.4226023    0.3264882 -60.60 0.0007499797    1.488    0.328
        98  -8.9214    157.5343     90.6989   6.1046660601e+01   3.2465329652e+01    0.4592862    0.2363171 -45.73  0.001679086    1.972    0.493
        99 -10.3023      4.4910     89.4711   1.1117777878e+02   5.7279230417e+01     1.290098    0.3312612 -69.07  0.003994668    3.247    0.692
       100 -10.9004     21.7539     53.4145   9.5383503853e+01   6.4203586207e+01    0.7702775    0.4993976 -86.47  0.002964592    3.431    0.709
       101  -9.8051     16.0650     70.0017   1.0255709995e+02   6.1096165492e+01    0.7987456    0.2592783 -45.03  0.001331734    2.378    0.579
       102  -9.2403     17.0533     60.6470   9.9687791130e+01   6.3061807781e+01     1.242107     0.564224 -40.22  0.006137765    1.816    0.449
       103 -10.3051     11.7266     45.7810   9.7817877262e+01   6.6479239744e+01     0.960109    0.4077913  -0.28  0.003350036    3.052    0.672
       104  -9.9967    151.1031    248.0155   9.5595808396e+01   1.3666182116e+00    0.3237336    0.2461694  30.57  0.001988925    1.096    0.087
       105  -9.8437    160.3035    249.1170   9.3843812574e+01  -1.9925823658e-01    0.2611378    0.1940901  16.57  0.001579599    1.252    0.201
       106  -8.0080    238.1850    243.1987   7.7708428349e+01  -1.0172812433e+01    0.1452544    0.1225091   6.15 0.0003357455    1.302    0.232
       107  -9.5931      6.7346     32.4314   9.5906256592e+01   6.9352350085e+01    0.2925674    0.1852186  -8.71 0.0008648015    1.466    0.318
       108  -9.0361    188.1828    233.4982   8.5700230749e+01  -1.8825342551e+00    0.2274377     0.172951 -31.64 0.0008669957    1.389    0.280
       109 -10.1842     85.2876     86.4266   8.0149774445e+01   4.8897045274e+01    0.4705377    0.3945225 -83.82 0.0008572859    1.627    0.386
       110  -9.7012     87.3048     78.8141   7.7087162488e+01   5.0140203191e+01    0.7025483    0.3911492  21.50   0.00222584    2.442    0.590
       111  -8.1949    163.3294     86.9215   5.8721114453e+01   3.1806487487e+01    0.2447726    0.2126772  74.41 0.0005040924    1.226    0.184
       112 -10.4398     48.4008     82.4677   9.2559840484e+01   5.5289029321e+01     1.110208    0.4859914 -49.21  0.002201126    1.971    0.493
       113 -10.0975     62.7091     60.6503   8.0004315651e+01   5.7918873395e+01    0.6511807     0.299664  33.17  0.002707831    2.213    0.548
       114 -10.6322     54.9893     70.8498   8.6498950532e+01   5.6988367314e+01    0.7069243     0.467722  56.20  0.002373514    2.414    0.586
       115  -9.2751     54.9974     62.8893   8.3878669555e+01   5.8613385509e+01    0.4964191    0.3763085 -20.16   0.00173079    1.235    0.190
       116 -10.3323    104.0147     82.6061   7.2852743744e+01   4.6107093828e+01    0.5703772    0.3573564 -54.21 0.0009176102    1.879    0.468
       117  -9.5240    105.1289     71.6295   6.8976743292e+01   4.8022411833e+01     0.743156    0.3911818 -26.99  0.002586409    2.366    0.577
       118  -8.3899    157.8291     83.2475   5.8877802328e+01   3.3791708648e+01    0.2840822    0.2080517 -55.54 0.0009258208    1.482    0.325
       119  -8.9418    157.3829     77.1822   5.7240024239e+01   3.4990432116e+01    0.5982475    0.2349143 -46.47  0.001653563    2.765    0.638
       120  -9.5583    140.5568     82.1798   6.2576269801e+01   3.8081623797e+01    0.6021107    0.3142726 -30.12  0.001453373    2.234    0.552
       121  -8.9662    140.0014     75.3988   6.0674169900e+01   3.9460249794e+01    0.4722961    0.2371487 -41.48  0.001224717    2.020    0.505
       122  -7.4612    170.2010     83.4164   5.6327289069e+01   3.0813858290e+01    0.2037797     0.144817  70.25 0.0006891565    1.595    0.373
       123  -8.6543    149.9346     80.3071   5.9798421361e+01   3.6211290035e+01    0.4361866     0.231664 -39.24  0.001533515    1.888    0.470
       124  -9.2148    115.3658     72.1170   6.6116277743e+01   4.5719726458e+01    0.5550568    0.2762048 -35.68  0.001594629    2.090    0.521
       125  -8.9154    119.0730     80.6319   6.7770379873e+01   4.3288252758e+01    0.3499434    0.2554822 -55.57 0.0006655636    1.587    0.370
       126  -8.3384    119.8420     75.8068   6.6037684329e+01   4.4038750047e+01     0.253162    0.2198105  11.05 0.0005660687    1.221    0.181
       127  -9.0585     74.0971     79.5790   8.1976184881e+01   5.2281839870e+01    0.6289397    0.2701025 -46.96  0.001957406    2.229    0.551
       128  -9.9999     81.5605     72.3243   7.6963859941e+01   5.2498091833e+01     0.449559    0.3514021 -66.12 0.0008587667    1.744    0.427
       129  -7.8586    166.4777     78.8888   5.5826265524e+01   3.2506981477e+01    0.2219659    0.1450531 -40.73  0.001000652    1.514    0.339
       130  -8.1579    184.3175     78.1297   5.2230113825e+01   2.8395464976e+01    0.2466127    0.1988145  47.06 0.0006587861    1.320    0.242
       131  -6.9820    174.2761     78.6649   5.4227824627e+01   3.0682359655e+01    0.1530836    0.1119128 -68.06 0.0005197969    1.606    0.377
       132  -8.5858     44.1243     54.1066   8.5422813071e+01   6.1758340931e+01    0.2189452    0.1758084   2.94 0.0002917169    1.171    0.146
       133  -9.0215    130.1019     56.9841   5.7294599839e+01   4.4911747447e+01    0.5432193    0.2375829 -32.51  0.001601876    2.457    0.593
       134  -9.3720    127.3789     75.1930   6.3800230545e+01   4.2443669890e+01    0.3964617    0.2723551 -58.57 0.0008381168    1.822    0.451
       135  -8.4526    129.4641     68.8421   6.1258697436e+01   4.3098250315e+01    0.4861813    0.2898332  21.01   0.00179854    2.746    0.636
       136  -8.4933    130.5150     64.4215   5.9587457966e+01   4.3607773863e+01    0.4693965    0.2256104 -36.12  0.001782487    2.150    0.535
       137  -8.0931    162.7757     72.9361   5.4899346845e+01   3.4427940144e+01    0.2730685    0.1894827 -56.79 0.0007234672    1.599    0.374
       138  -8.4092    169.4761     70.9974   5.3033704437e+01   3.3137123919e+01    0.3633833    0.1443035 -35.97  0.001017935    2.536    0.606
       139  -9.3761    146.8210     69.0186   5.7156119034e+01   3.8946020277e+01    0.4209304    0.2673027 -57.05 0.0009624782    1.927    0.481
       140  -8.5251    156.6590     69.5028   5.5169511451e+01   3.6487434821e+01    0.3283841    0.1769613 -35.04  0.001282647    1.914    0.478
       141  -9.7229     94.7540     68.2677   7.1122820691e+01   5.0781486077e+01    0.3964454    0.2668683 -47.22  0.000869598    1.617    0.382
       142  -9.5030     97.3282     58.5620   6.6936972303e+01   5.1991729633e+01     0.899213    0.4973325  -6.74  0.002940106    3.950    0.747
       143  -9.1592     83.2797     64.6739   7.3760153754e+01   5.3661831719e+01    0.5346474    0.3242283  -1.71  0.002085892    2.723    0.633
       144 -10.1718     34.3738     89.9218   9.9905967908e+01   5.5054072324e+01     0.806272    0.3611633 -74.25  0.002064091    3.565    0.719
       145  -9.0800    138.0985     66.3315   5.8345716904e+01   4.1490590655e+01    0.3565188    0.3126398  72.01  0.001077995    1.208    0.172
       146  -8.2371    138.7964     61.7933   5.6767487054e+01   4.2072200598e+01    0.2361561    0.1989958  22.23 0.0009211262    1.309    0.236
       147  -8.9911    121.1502     65.8425   6.2472158953e+01   4.5537960247e+01    0.3845668    0.2725245 -56.27  0.001013685    1.731    0.422
       148  -7.9693    122.0288     61.4514   6.0797968514e+01   4.6079289676e+01    0.3210738    0.2077828  29.31 0.0006988726    1.804    0.446
       149  -8.3346    170.8181     65.1685   5.1157969360e+01   3.3763220408e+01    0.2233402    0.1887053 -73.09 0.0005260654    1.236    0.191
       150  -9.3313    109.6835     63.6722   6.4959854651e+01   4.8479668725e+01    0.3591408     0.288835 -55.70 0.0007438275    1.480    0.324
       151  -8.8159    110.8945     58.1917   6.2746191892e+01   4.9138291229e+01    0.3956381    0.2620977  14.21  0.001445416    2.054    0.513
       152  -8.3255    157.6218     63.0738   5.3094869983e+01   3.7305229272e+01    0.2832819     0.208036 -53.11 0.0007123352    1.449    0.310
       153  -9.7963     73.1898     59.3189   7.5507256797e+01   5.6456921518e+01    0.4450317    0.2581927 -50.14 0.0009433071    2.035    0.509
       154  -9.3056     75.0586     51.0666   7.1774218092e+01   5.7580084028e+01    0.7564438    0.4210419  11.28  0.002900858    3.005    0.667
       155  -8.7797     53.4689     38.7938   7.5470637889e+01   6.3173390717e+01    0.6056668     0.177849 -36.96  0.002210736    3.379    0.704
       156  -9.1727    198.2507    230.8379   8.3219381794e+01  -2.9637397169e+00    0.2757869    0.2418682  53.62   0.00127903    1.650    0.394
       157  -9.4602     60.3289     33.8635   7.0557315183e+01   6.2840262860e+01    0.4234799    0.3573948  48.68  0.001963688    1.531    0.347
       158  -8.6061     62.2584     26.9432   6.6798989777e+01   6.3477576846e+01     0.434762    0.2275001  22.86  0.002002964    2.197    0.545
       159  -9.8777     49.9737     54.4671   8.3024248941e+01   6.0932671128e+01    0.5632824    0.2828898 -48.42  0.002601076    2.031    0.508
       160  -9.8497     55.2685     44.0835   7.6845390927e+01   6.2032435851e+01     1.036821    0.5281348  -0.81  0.003307991    4.908    0.796
       161 -10.3837    218.3207    224.7337   7.8225873000e+01  -4.9326367002e+00      0.23089    0.1949435 -12.42  0.000393004    1.167    0.143
       162  -9.2078    186.7584    225.2185   8.4606938614e+01  -3.0851924307e-01    0.3327973    0.1991688  36.79  0.001724627    1.567    0.362
       163  -7.6417    152.5170     60.0154   5.3228812263e+01   3.9032454333e+01    0.2152502     0.144855 -36.04 0.0006709654    1.536    0.349
       164  -8.8413    146.3370     58.9891   5.4218331828e+01   4.0696833304e+01    0.2601924    0.2058422 -54.41 0.0005485674    1.370    0.270
       165  -8.5839    147.6044     53.7294   5.2342336422e+01   4.1190362610e+01    0.4081517    0.2046887 -26.32  0.001632503    2.380    0.580
       166  -8.5059     87.6275     58.3838   7.0041407897e+01   5.3972001685e+01    0.2949743    0.2387677 -60.26 0.0008279148    1.641    0.391
       167  -8.7347     89.1295     53.0035   6.7585616599e+01   5.4588484378e+01    0.5623753    0.2699088  29.08  0.002123652    2.690    0.628
       168  -8.9175    138.8664     56.7076   5.5155527329e+01   4.2859231007e+01    0.3597703    0.2523275 -62.73 0.0004496521    1.809    0.447
       169  -7.9072    139.2284     52.0387   5.3601288139e+01   4.3477080317e+01     0.260273    0.2217826 -11.72 0.0007989071    1.317    0.241
       170  -8.4739    142.0780     48.6558   5.1923281155e+01   4.3276122780e+01    0.2743585    0.2181242 -29.75 0.0009067353    1.351    0.260
       171  -9.3879    118.2766     54.6051   5.9499429852e+01   4.8044962294e+01    0.5791776    0.3218231 -35.07 0.0007159311    1.878    0.467
       172  -9.0241    121.1582     46.8737   5.6130122694e+01   4.8534995720e+01    0.3494837    0.2243712 -35.12 0.0005495002    1.650    0.394
       173  -8.7121    162.6141     54.0393   4.9509828768e+01   3.7471631036e+01    0.2609524    0.2112153 -67.31 0.0007609864    1.320    0.243
       174  -8.8144    105.7081     51.6159   6.1939335713e+01   5.1334511722e+01    0.5863703     0.313264 -24.93  0.001929578    2.187    0.543
       175  -8.0720    152.6038     52.8705   5.1071539053e+01   4.0095348167e+01     0.266793    0.1438876 -29.37  0.001133952    2.052    0.513
       176  -7.3788    172.3595     50.2287   4.6732899887e+01   3.5642723501e+01     0.193925    0.1219263 -46.20 0.0003018564    1.607    0.378
       177 -10.1849     85.1562     47.9746   6.7042132334e+01   5.6184871447e+01    0.4139947    0.3040954 -57.33  0.001009633    1.942    0.485
       178 -10.2189     90.5308     37.8335   6.1397391979e+01   5.6596887029e+01    0.8506007    0.3467194  35.86  0.002524571    2.749    0.636
       179  -8.5795    157.6897     49.1342   4.8987823281e+01   3.9387543999e+01    0.2234563    0.1641838 -53.54 0.0004404169    1.453    0.312
       180  -8.9484    187.9603    220.4490   8.3536430684e+01   3.0822949680e-01    0.2258767    0.1850352 -26.58 0.0001274409    1.240    0.194
       181  -8.5083    132.8712     35.8039   4.9733425174e+01   4.7226528137e+01    0.2483389    0.1965361 -38.54 0.0004321656    1.374    0.272
       182  -7.4059    108.6435    219.2696   1.0091059614e+02   1.3380921490e+01    0.1789214     0.123411 -47.02 0.0003756926    1.646    0.392
       183  -8.8062    112.1225     47.0673   5.8538004318e+01   5.0588556233e+01    0.3624816    0.2273497 -49.29  0.001665777    1.962    0.490
       184  -9.5002    144.2873     36.6080   4.7708598165e+01   4.4348551744e+01    0.6075971    0.2587076 -52.42  0.001340574    3.464    0.711
       185  -9.1087    149.8364     47.7110   5.0056929458e+01   4.1514395855e+01    0.2996777    0.1971207 -37.55 0.0004654122    1.587    0.370
       186  -7.2253    162.4647     46.0155   4.7220816380e+01   3.8650769340e+01    0.1934278    0.1063472 -56.98 0.0004352325    2.246    0.555
       187  -8.4592    188.4851    215.6310   8.2579182491e+01   1.0523308086e+00     0.226638    0.1945754   2.44 0.0002030041    1.027    0.026
       188  -8.9762     70.4613     26.0541   6.3325804178e+01   6.2110751663e+01    0.3379041    0.1741137  47.76  0.001152635    1.894    0.472
       189  -7.3377     56.0000    216.0914   1.1248625965e+02   2.1568747503e+01    0.2041676    0.0688233 -69.15 0.0003469752    2.967    0.663
       190  -7.5990    215.4837    212.9184   7.6647102101e+01  -2.6738139262e+00    0.1793547    0.1181219 -32.90 0.0003185997    1.456    0.313
       191 -10.2499    155.3219    209.9053   8.8777755047e+01   7.5998831374e+00    0.2542978    0.2359214 -28.89 0.0004142887    1.150    0.130
       192  -9.0870     70.0173     36.2227   6.7782065305e+01   6.0815660583e+01    0.5270033    0.3005674  15.34  0.002356804    2.288    0.563
       193  -9.6239     79.2820     23.8007   5.9328559772e+01   6.0676536260e+01    0.5504422    0.2467886  33.31  0.001633496    2.371    0.578
       194  -8.7843     84.7461     21.5808   5.6671292135e+01   5.9816139912e+01     0.229405    0.2192582 -55.60 0.0007060958    1.361    0.265
       195 -10.0031     37.7672     42.1505   8.3853222195e+01   6.4735797347e+01    0.3794273    0.3212406  67.66  0.001655224    2.098    0.523
       196 -10.3825     35.9203     37.9647   8.3066417570e+01   6.5685052207e+01    0.5479606    0.3077773 -12.03 0.0003641317    2.096    0.523
       197  -7.9083    142.4775     44.3237   5.0480880852e+01   4.3782341765e+01    0.2627021    0.1232141  58.53  0.001077315    1.971    0.493
       198  -7.4369    163.2677     42.3601   4.6030322305e+01   3.8947404079e+01      0.13819    0.1063348  25.34 0.0006009894    1.643    0.391
       199  -9.1627    153.7142     41.2123   4.7364062042e+01   4.1445234626e+01    0.2820101    0.1865943 -40.01 0.0006966467    1.581    0.367
       200  -9.1642    104.7977     40.9176   5.8339358091e+01   5.3104519491e+01     0.316431    0.2466454 -60.27 0.0008980655    1.713    0.416
       201  -8.5284    106.3521     36.1189   5.6152407902e+01   5.3398143004e+01    0.2725183    0.1859201  31.14 0.0007665895    1.482    0.325
       202  -8.7536    139.6119     39.7983   4.9633480524e+01   4.5083083238e+01    0.3648804    0.2223611 -41.77  0.001209849    1.766    0.434
       203  -8.5010    123.4448     39.5662   5.3084599275e+01   4.9000488167e+01    0.4586806    0.2569914  11.65  0.001664404    3.459    0.711
       204  -7.6376    160.0000     38.9793   4.5604201826e+01   4.0190951161e+01    0.2130669   0.07991633 -30.54 0.0005555146    2.870    0.652
       205  -9.5750     69.4949     42.4790   7.0516447055e+01   5.9965427859e+01    0.3707904    0.2826939 -50.16  0.001055562    1.720    0.419
       206  -8.6753    118.9165     34.5838   5.2430928950e+01   5.0703860823e+01    0.2662302    0.1919383 -30.98 0.0005838583    1.505    0.336
       207  -7.3318     50.3272     35.2622   7.5353317599e+01   6.4202186301e+01    0.1317929   0.08734575   2.54 0.0002440394    1.564    0.361
       208  -8.6295    153.1947     34.1737   4.5348478235e+01   4.2464594412e+01    0.2060219    0.1849529  50.01   0.00121516    1.121    0.108
       209  -8.9302    110.3175     33.1159   5.4017926798e+01   5.2878148662e+01    0.3042441    0.2285157 -53.26  0.000859256    1.669    0.401
       210  -8.4714    150.4246     88.4058   6.2027985663e+01   3.4579146836e+01    0.3758842      0.23518 -30.40  0.001254255    1.755    0.430
       211  -8.9701    101.1048     31.8707   5.5995969874e+01   5.5104597166e+01    0.3437013    0.1966059 -39.82 0.0009307684    1.999    0.500
       212  -8.6517     96.8716     32.9477   5.7601223328e+01   5.5896309047e+01    0.2073036     0.166607  18.32 0.0004307769    1.219    0.180
       213  -9.0176     45.3742     15.7569   6.8692704656e+01   6.7678855658e+01    0.2207374    0.1557533  -3.47 0.0008118164    1.272    0.214
       214 -10.0066     10.3104    207.4473   1.2165839663e+02   2.8453120657e+01     0.418642    0.2893425  23.95  0.002643835    1.815    0.449
       215  -8.6990    107.1912    206.1997   9.9403536018e+01   1.6416286030e+01    0.2142984    0.2053033  28.72 0.0003484844    1.094    0.086
       216  -8.1024     42.0491     27.7928   7.5840586943e+01   6.6527032464e+01    0.1819945    0.1400523  -0.75            0    1.079    0.073
       217  -8.3795    229.1119     29.0610   3.4514444140e+01   2.5353060117e+01    0.1806886    0.1506902 -69.59 0.0003623664    1.033    0.032
       218  -9.5657    154.0883     27.5264   4.3217350120e+01   4.3027649252e+01    0.4916579    0.2639637  50.75  0.002314946    1.768    0.434
       219  -9.1508     91.5029     26.2420   5.6541007763e+01   5.7865406142e+01    0.3744456    0.2225296 -41.56  0.001220316    2.042    0.510
       220  -8.2454     92.0519     21.2875   5.4402881701e+01   5.8303629645e+01    0.3191369    0.1443156  38.63 0.0009394114    2.119    0.528
       221  -8.6505    128.3689     25.8159   4.7348255064e+01   4.9482123298e+01     0.277361     0.209544 -54.75 0.0007044093    1.557    0.358
       222  -8.4083    129.7742     21.4386   4.5607595141e+01   4.9611186964e+01    0.2194587    0.1403153  35.28  0.000853886    1.689    0.408
       223  -8.1508    144.5264     25.4145   4.4182053719e+01   4.5605273912e+01    0.2806989     0.140674 -23.08  0.001246655    2.373    0.579
       224  -7.9113    109.8783     25.8593   5.1478144562e+01   5.3830751196e+01    0.1804214    0.1625555 -82.92  0.001078159    1.333    0.250
       225  -8.1066    102.4239     25.6922   5.3298424397e+01   5.5540402875e+01     0.369417    0.1144071  43.94  0.001312327    2.999    0.667
       226  -7.7776    241.3096     24.0607   3.2448044880e+01   2.3427536820e+01    0.1627335    0.1245191 -59.51 0.0002825069    1.079    0.074
       227  -9.2340    118.6347     21.2580   4.7817852201e+01   5.2285101374e+01     0.280685    0.2510872 -22.71  0.001052669    1.253    0.202
       228  -8.9151    193.2682    196.5491   7.8038803031e+01   3.6707762894e+00    0.5617934    0.3170793 -62.51  0.001999537    4.013    0.751
       229  -8.8819    178.0453    195.2986   8.1054930954e+01   6.5206999877e+00    0.2315394    0.1952685 -32.59 0.0002489097    1.196    0.164
       230  -9.2790     39.6781    194.9244   1.1416891020e+02   2.8355766735e+01    0.2200002     0.191575 -87.53 0.0003185477    1.086    0.079
       231  -7.5914    163.2587    192.4145   8.3808227010e+01   9.7086320741e+00    0.1942998    0.1322487  46.03 0.0003056904    1.547    0.353
       232  -7.4706    222.9790    187.7706   7.0400357134e+01   3.5074840576e-01    0.1588056    0.1070277  31.32 0.0008413258    1.518    0.341
       233  -7.4638    105.4283    182.5662   9.6113632436e+01   2.2124189906e+01    0.1446754    0.1399013  60.79 9.703795e-05    1.007    0.007
       234  -8.9756     41.7824    179.1483   1.1202322080e+02   3.1918380313e+01    0.2049666    0.1932865 -89.19 0.0003458242    1.130    0.115
       235  -7.2952    100.9943    175.9918   9.6138735424e+01   2.4440309210e+01    0.1679408    0.1599832  54.37 0.0009223798    1.028    0.028
       236  -8.2531    230.5439    168.7536   6.5151732283e+01   2.4130267800e+00    0.3376213    0.1186178 -41.40  0.001290168    2.590    0.614
       237  -8.0278    111.8271     22.0832   4.9635197550e+01   5.3790161481e+01    0.2241832    0.1845477 -33.12 0.0007364201    1.372    0.271
       238  -7.6768    248.3598    160.3011   6.0377945639e+01   9.9867491015e-01    0.1356556   0.09239487  -4.85 0.0007036789    1.717    0.418
       239  -8.2052    236.5009    151.5358   6.0512052748e+01   4.4232576537e+00     0.137992     0.117085 -25.65 0.0008095985    1.003    0.003
       240  -8.7902    133.7739    146.2515   8.1395433353e+01   2.5594276905e+01    0.8982441    0.1794261 -52.60  0.001774748    7.363    0.864
       241  -7.8737    228.6067    145.7661   6.0621020854e+01   6.8164811619e+00    0.2029796    0.1173145 -45.67  0.000946778    1.663    0.399
       242  -9.5644     66.4799    143.8520   1.0011236797e+02   3.7826753734e+01    0.4393762    0.3140238  64.56  0.001813272    1.639    0.390
       243  -8.7580    103.1007     21.1795   5.1409714468e+01   5.5879245365e+01    0.2794397    0.2206484 -39.81 0.0008678599    1.486    0.327
       244  -9.3931    184.0391    142.0886   6.8382323183e+01   1.6137875869e+01    0.2344794    0.2163194 -24.59 0.0002757058    1.022    0.021
       245  -7.8702    189.1515    139.1375   6.6611922533e+01   1.5688519747e+01    0.2272673    0.1960777  -7.36 0.0003750903    1.220    0.180
       246  -7.6968     96.1577    136.6169   8.9755524597e+01   3.5054748899e+01    0.2171785    0.1960872 -83.55  0.001109065    1.188    0.158
       247  -8.7419    112.3573    133.7927   8.4374604059e+01   3.2791412424e+01     0.437472    0.2806219  66.88  0.001364202    2.390    0.582
       248  -9.0158     40.9533     20.3382   7.2922804333e+01   6.7742148344e+01    0.2166358    0.1751388 -12.69  0.001438836    1.159    0.138
       249  -9.0391     83.5060    131.6266   9.2481673630e+01   3.8425391456e+01    0.6974421    0.4245098  75.34  0.002473684    3.078    0.675
       250  -8.1521    136.0000    131.0955   7.7191495377e+01   2.8676777816e+01    0.5553402    0.1880604 -47.42  0.001697197    2.930    0.659
       251  -9.0040    132.4744    131.9175   7.8333352982e+01   2.9220296078e+01    0.4098528    0.2767682 -75.80  0.001573437    2.307    0.567
       252  -8.8246    155.0165     17.3909   4.0090222711e+01   4.3885419955e+01    0.2966433    0.1740945 -59.63  0.001420867    2.010    0.502
       253  -7.9867    139.6684     17.8233   4.2642872109e+01   4.7582734528e+01    0.1783431    0.1157971 -39.07 0.0003913736    1.696    0.410
       254 -11.0127     70.5450    125.9510   9.5320577445e+01   4.1837457069e+01    0.7578636    0.6355321 -37.76  0.001658287    1.189    0.159
       255 -10.1379     58.3701    124.5373   9.8949778810e+01   4.3850806673e+01    0.8572541    0.4877246  74.62  0.002197646    3.361    0.702
       256  -9.8967     98.3824    128.4563   8.7219800837e+01   3.6692213892e+01    0.6347162    0.4185908  74.32  0.002369232    2.514    0.602
       257  -7.8744    189.9878     14.7773   3.5040277691e+01   3.5757724835e+01    0.2135556    0.1232821  45.99  0.001074683    2.117    0.528
       258 -10.3827    128.4621    100.5809   7.1104669220e+01   3.7132229737e+01    0.9732367    0.5311754 -29.30   0.00206178    2.317    0.568
       259 -10.0622    117.2782    125.4316   8.0926256901e+01   3.3842628500e+01    0.7719426    0.4807991  54.69  0.001440377    1.916    0.478
       260 -10.7297    123.3070     91.2747   6.9821575112e+01   4.0221471253e+01     1.315786    0.7104217 -27.26  0.004237235    2.457    0.593
       261  -9.7072    109.4972     90.1278   7.3487664522e+01   4.3418509309e+01    0.8526634    0.4121514  29.46  0.002896459    2.852    0.649
       262  -9.5968    139.5263    104.5877   6.9291561278e+01   3.3816940714e+01    0.4117604    0.3267225 -85.74  0.000815539    1.682    0.406
       263 -11.3217    121.1102    110.8477   7.6018310066e+01   3.6449894091e+01     1.779495    0.8922409 -40.71   0.00361686    2.021    0.505
       264 -10.3007    108.8536    114.6812   8.0622196107e+01   3.8053190532e+01     0.784982    0.5380275 -84.67  0.001550582    2.505    0.601
       265  -7.8761    164.5973     59.8188   5.0801593041e+01   3.6115075703e+01    0.2613827     0.143887 -30.62  0.001113009    1.979    0.495
       266 -11.0226    108.7486    101.1106   7.6933278408e+01   4.1187211403e+01      1.08356    0.7886328 -68.63  0.004747592    1.808    0.447
       267 -10.6366    131.2350    119.1611   7.5426579897e+01   3.2421701750e+01    0.9474255    0.6142522 -86.68  0.002260907    3.355    0.702
       268 -11.0107    133.6740    109.0287   7.2054510514e+01   3.4158201385e+01    0.9294311    0.4873634 -45.11  0.002554136    1.890    0.471
       269 -10.0275     27.2565    122.8815   1.0874436837e+02   4.7560795860e+01    0.6168135    0.3463065  69.95  0.002115985    2.503    0.600
