#   1 NUMBER                 Running object number                                     
#   2 MAG_AUTO               Kron-like elliptical aperture magnitude                    [mag]
#   3 X_IMAGE                Object position along x                                    [pixel]
#   4 Y_IMAGE                Object position along y                                    [pixel]
#   5 X_WORLD                Barycenter position along world x axis                     [deg]
#   6 Y_WORLD                Barycenter position along world y axis                     [deg]
#   7 A_WORLD                Profile RMS along major axis (world units)                 [deg]
#   8 B_WORLD                Profile RMS along minor axis (world units)                 [deg]
#   9 THETA_WORLD            Position angle (CCW/world-x)                               [deg]
#  10 FWHM_WORLD             FWHM assuming a gaussian core                              [deg]
#  11 ELONGATION             A_IMAGE/B_IMAGE                                           
#  12 ELLIPTICITY            1 - B_IMAGE/A_IMAGE                                       
         1 -12.9046     37.3661     51.0314   1.0271147757e+02   6.3202200779e+01    0.8520597    0.6818846 -29.55  0.005060173    1.288    0.223
         2 -11.8851     19.8798     17.7661   9.9253856153e+01   7.2240358353e+01    0.6659037    0.4891561  69.47  0.003315116    2.280    0.561
         3 -11.2097     17.0665      3.3874   9.3266178099e+01   7.5312154239e+01     0.419969    0.2799138 -21.89  0.001920596    1.447    0.309
         4 -11.7946     11.5492      2.7376   9.6910539792e+01   7.5990909325e+01    0.3622297    0.2175943 -21.90   0.00153298    1.742    0.426
         5 -11.5247     23.5825      7.5070   9.1369839783e+01   7.3822692915e+01    0.4510789    0.4196703 -30.47   0.00189295    1.225    0.183
         6 -13.0695     31.7286      2.1560   8.2802814569e+01   7.3651570516e+01    0.4343323     0.237889  30.31 0.0006937595    2.003    0.501
         7 -12.2220     61.3563     21.6862   7.9509367127e+01   6.5610248479e+01     1.199159     0.610462 -28.11  0.004955056    2.039    0.509
         8 -10.6852     91.9131      6.6794   6.0972545577e+01   6.1154761917e+01    0.4850619    0.3262515  47.55  0.001468919    1.416    0.294
         9 -11.5138     74.0759      7.0895   6.6584976940e+01   6.5171131620e+01    0.3319684    0.2478894 -31.36 0.0003153763    1.338    0.253
        10 -12.1725     81.4854      6.4476   6.3831864973e+01   6.3604138794e+01    0.6769201    0.3969647  24.63 -4.534084e-06    1.964    0.491
        11 -11.5229     70.2278     15.2768   7.2536043991e+01   6.4893936698e+01    0.5096539    0.2530357 -20.95  0.001904385    2.251    0.556
        12 -11.3829     75.2925     16.0612   7.1106191016e+01   6.3734307498e+01    0.4947895    0.3534674   7.00  0.001829743    1.566    0.361
        13 -12.2703     84.7350     20.2265   7.0044578175e+01   6.1113016215e+01    0.7014291    0.4075218 -37.19  0.001115876    1.700    0.412
        14 -11.3575      4.8226     18.6147   1.0937023121e+02   7.3256716709e+01    0.4384722    0.3056389  34.03  0.002553274    1.776    0.437
        15  -9.9699     35.0119     15.4452   8.9038759194e+01   7.0916304001e+01    0.3191207    0.2026179 -12.11 0.0007390337    1.970    0.492
        16 -10.2543     55.0407     13.5502   7.7827829659e+01   6.8064508791e+01    0.2845676    0.1809272 -40.59 0.0008996452    1.563    0.360
        17  -9.9857     58.9730     10.2467   7.4184312977e+01   6.7832257526e+01    0.4722116    0.1947667  48.96  0.001968306    2.562    0.610
        18 -10.7152     26.5583     13.9406   9.3169427603e+01   7.2272989393e+01    0.2127338    0.1566054 -19.73 0.0003475171    1.323    0.244
        19 -10.5280     30.8453     12.9814   9.0063542857e+01   7.1921062559e+01    0.2121837    0.1704712 -21.29 0.0003943954    1.108    0.098
        20 -10.6325    169.1741     13.2149   4.9759086940e+01   4.0560696366e+01    0.2463335    0.1782624  56.41 0.0005614692    1.370    0.270
        21 -10.0940    157.3172     12.0130   5.0857104694e+01   4.3798717821e+01    0.2707443    0.1908438 -67.12 0.0008580089    1.615    0.381
        22 -10.0887    138.0621     11.6573   5.3589179386e+01   4.8931476228e+01    0.2835812    0.1894876 -40.94 0.0008070696    1.545    0.353
        23 -10.3024    133.0108     11.4991   5.4375609542e+01   5.0277467556e+01    0.3192046    0.1746711   7.95 0.0009498557    2.430    0.589
        24 -10.1785     50.4287     11.3857   7.8697271662e+01   6.9214905712e+01    0.2706409    0.1779519  -2.66 0.0008106919    1.845    0.458
        25  -9.9937      5.5107     11.4646   1.0597092347e+02   7.4737469418e+01     0.191911    0.1174677 -29.95 0.0005617767    1.564    0.361
        26  -9.6551      6.4906      8.0065   1.0361926681e+02   7.5381067963e+01    0.2330789    0.1583532 -57.61 0.0004717946    1.332    0.249
        27  -9.5250     39.8866     10.8663   8.3722998030e+01   7.1016924296e+01    0.1640007    0.1501411 -44.70 0.0004533766    1.305    0.234
        28 -11.5429    116.9828      8.8753   5.6228436929e+01   5.4706171291e+01    0.7278315    0.2750557 -34.45  0.002709464    2.559    0.609
        29 -10.9036    127.2018      8.2540   5.4027233329e+01   5.2116238852e+01    0.2858949    0.2197214 -39.26 0.0002557813    1.354    0.261
        30 -11.2805    235.8711      9.8481   4.2695330461e+01   2.4596867068e+01    0.3459433    0.2205021  21.50  0.001347411    2.054    0.513
        31  -9.5062    108.0087      8.9615   5.8171211681e+01   5.6975837576e+01    0.2346484    0.1562859  24.77 0.0008152518    1.622    0.384
        32  -9.4170     43.4607      7.9764   8.0071154948e+01   7.0920438325e+01    0.1769259    0.1056269 -53.82 0.0008082252    2.466    0.595
        33 -10.3800    146.5990      6.3907   5.0213496487e+01   4.7158868030e+01    0.4204974    0.1680076 -44.34  0.001525222    2.741    0.635
        34 -10.0275    228.6813      5.1747   4.1940439795e+01   2.6604232436e+01    0.2129067    0.1642946 -70.94 0.0008717802    1.317    0.241
        35 -10.6331    100.1309     12.8955   6.1951894106e+01   5.8488934894e+01    0.3337466    0.2175831  -4.99  0.001123983    1.683    0.406
        36 -11.2588    167.9186      2.2902   4.6112231748e+01   4.1854415729e+01    0.2488377    0.2137623 -37.07 0.0003036326    1.151    0.131
        37 -10.3175    125.9084      2.2592   5.1662006340e+01   5.2993789269e+01    0.3283078    0.1994649 -58.04  0.001448526    2.025    0.506
        38 -10.5063    236.2348      2.4233   4.0749758199e+01   2.5152905795e+01    0.2342551    0.1134908  69.73  0.001150057    2.191    0.544
        39  -9.1489     41.6883    221.2834   1.2378038545e+02   2.6305019132e+01    0.1080899   0.05479123  56.41  0.000698642    1.572    0.364
        40 -10.8510    250.4186    245.3866   9.0442039329e+01  -2.7342465096e+00    0.2970268    0.1200372 -19.03  0.001861238    2.675    0.626
        41 -12.2402    225.8948    245.9796   9.4124667352e+01   1.1428623936e-01    0.4491147    0.2492263   7.86  0.003124291    1.761    0.432
        42 -10.0119     72.6184    250.0738   1.1995376310e+02   1.8671248937e+01    0.1774615    0.1480128 -74.62  0.001577464    1.547    0.354
        43 -12.1481     74.4644    238.5986   1.1889293535e+02   2.0086854851e+01    0.5031218    0.3207903 -55.85  0.003716684    2.106    0.525
        44 -12.9226     20.2842    248.6355   1.2864326872e+02   2.4148973331e+01    0.9505795    0.2157114  32.75  0.004911982    3.381    0.704
        45 -12.9654      6.8905    244.5245   1.3070741496e+02   2.5921063155e+01    0.9307364    0.4054869  30.69   0.00641851    2.141    0.533
        46 -10.6135     22.0346    220.6101   1.2734842454e+02   2.8312994226e+01    0.1632916    0.1039141  68.00 0.0004733158    1.270    0.212
        47  -9.4460    250.5004    219.4465   8.6711164824e+01  -6.3610416417e-01    0.1070301   0.07252844  13.01 6.972349e-05    1.030    0.030
        48  -9.9701    174.1268    219.5315   9.9035983804e+01   9.6326705693e+00    0.2331183   0.08743171  36.37  0.001181022    2.112    0.526
        49 -10.1283     25.7080    225.5044   1.2688455541e+02   2.7180420086e+01    0.1709757    0.1455814 -48.42  0.001452325    1.798    0.444
        50 -10.8559      9.5566    216.9415   1.2947384636e+02   3.0018549578e+01    0.2702121    0.1284675  51.49  0.001156303    1.488    0.328
        51  -9.6712     37.9840    217.4962   1.2426913809e+02   2.7299588574e+01    0.1515029   0.08276585  36.58 0.0006655838    1.553    0.356
        52 -10.7143     24.1456    216.7462   1.2680381947e+02   2.8756664137e+01    0.2503769   0.07829067  38.92  0.001417416    2.227    0.551
        53 -11.6328    240.9805    211.8942   8.6967215265e+01   1.2490381790e+00    0.3471236    0.2183673   9.64  0.002450682    1.296    0.229
        54  -9.6914    194.5251    215.4775   9.4960183281e+01   7.2216630540e+00    0.1694794   0.08439133  29.30 0.0005575816    1.680    0.405
        55  -9.4572    136.8376    216.1626   1.0535835288e+02   1.5346580309e+01    0.1560805    0.1156426  21.61  0.001066841    1.335    0.251
        56 -10.4275     31.0093    215.7586   1.2548538492e+02   2.8273100187e+01     0.238664    0.1292377  41.63  0.001655031    1.441    0.306
        57  -9.5902    170.2904    213.3382   9.8877321129e+01   1.0940984678e+01    0.1133917   0.07626565   9.98 0.0005162244    1.642    0.391
        58 -10.8802     21.4055    212.2619   1.2712382481e+02   2.9761917546e+01    0.3116828    0.1147456  48.56  0.001873896    1.919    0.479
        59 -10.1967    208.9754    212.0846   9.2048992289e+01   5.5634631368e+00    0.1710781    0.1258487  18.50  0.000459478    1.028    0.027
        60  -9.0404     76.3391    212.3103   1.1657626775e+02   2.3925201630e+01   0.09876751   0.08310357   1.61 0.0007044756    1.689    0.408
        61  -9.7118      2.2901    212.3326   1.3065121343e+02   3.1391031535e+01    0.1401129   0.09594949  50.77 0.0005741705    1.138    0.121
        62 -11.8373      4.7436    207.4773   1.3005812841e+02   3.2018692704e+01    0.4518432    0.1990609  74.06  0.002899597    1.947    0.486
        63 -10.2269     10.6915    208.5010   1.2898305228e+02   3.1347411516e+01    0.1751927    0.1482563 -35.97 0.0007410551    1.896    0.472
        64  -9.7546    124.0358    205.9641   1.0658292832e+02   1.8643209734e+01    0.1646797    0.1330087  37.22            0    1.031    0.030
        65  -9.2789     67.9860    203.9680   1.1754306220e+02   2.6322353137e+01    0.1342186    0.1043039  51.06 0.0004106227    1.033    0.032
        66 -11.5325     18.9300    203.0065   1.2720220371e+02   3.1585214003e+01    0.2985219    0.2226193  70.48  0.001159662    1.103    0.093
        67  -9.5343    201.2484    215.9446   9.3898262566e+01   6.2263960142e+00    0.1817986    0.1052822   6.11  0.001064099    2.038    0.509
        68  -9.4980    223.5950    201.7933   8.8074881430e+01   4.6012140353e+00    0.1337673   0.09890237 -31.36 0.0005550552    1.686    0.407
        69 -10.3847    175.2860    202.6985   9.6466507099e+01   1.1560619066e+01    0.1886226    0.1530401  39.15 0.0005587576    1.242    0.195
        70  -9.2112    238.6587    201.2797   8.5632138449e+01   2.5696180352e+00   0.09300781   0.08277123  30.77 0.0007007986    1.626    0.385
        71  -9.4820     34.5533    201.2179   1.2404821973e+02   3.0432785054e+01    0.1232031   0.09168825 -71.42 0.0004570137    1.523    0.343
        72  -9.2491    227.1727    197.0376   8.6730607101e+01   4.5942120037e+00    0.1683974   0.09620065  18.89 0.0007260462    1.575    0.365
        73  -9.4559      7.0000    195.9830   1.2924741518e+02   3.3857940086e+01     0.155056   0.04984375 -82.81 0.0007846296    2.932    0.659
        74 -10.1490    215.6418    194.4536   8.8172759415e+01   6.5384526028e+00    0.1889969    0.1171141  -1.32 0.0007274598    1.685    0.407
        75  -9.5200    211.4005    188.7801   8.7931239388e+01   7.8173577274e+00    0.1628009   0.09807694 -13.51 0.0009488488    1.767    0.434
        76  -9.5793      1.5941    188.2004   1.3004962711e+02   3.5708003355e+01     0.129949   0.08202668 -78.08 0.0005700766    1.581    0.367
        77  -9.4394     61.6552    184.8587   1.1723107625e+02   3.0503378251e+01    0.1587725   0.09714982  89.72 0.0009432401    1.779    0.438
        78 -11.4130     16.0244    182.7236   1.2686625182e+02   3.5556703128e+01    0.3782926    0.1767423  71.86  0.002224778    1.931    0.482
        79  -9.7988    167.0191    183.4982   9.5035682096e+01   1.5464897426e+01    0.1916406    0.1052102  38.35 0.0009129515    1.563    0.360
        80  -9.7275      2.0121    180.3009   1.2969176011e+02   3.7156196692e+01     0.146747    0.1079254  57.61   0.00051802    1.097    0.088
        81  -9.9702    244.2693    178.3555   8.0855182132e+01   4.1001331610e+00    0.2077127    0.1156622 -10.83  0.001094809    1.725    0.420
        82 -10.8787    224.1392    178.4718   8.4030345646e+01   7.0732861967e+00     0.210679     0.172394   1.99 0.0004052906    1.115    0.104
        83  -9.6272     70.1789    177.7338   1.1467150898e+02   3.0822717044e+01    0.1443981     0.133951  12.13  0.000524511    1.356    0.262
        84  -9.3324     36.4501    178.4699   1.2222461392e+02   3.4474655520e+01    0.1122189   0.09054293  65.42 0.0002261625    1.011    0.011
        85  -9.8838     46.4913    177.1812   1.1990803794e+02   3.3682030996e+01    0.2153637    0.1420004  39.44  0.001160123    1.382    0.277
        86  -9.8456    200.2076    176.5904   8.7742307504e+01   1.1052583245e+01    0.1728318   0.09738618  29.42 0.0005524959    1.605    0.377
        87 -11.1295     18.4245    173.1548   1.2585904771e+02   3.7203505362e+01    0.3890117    0.1444584  57.16  0.002004006    2.335    0.572
        88 -10.8248     12.9216    170.9308   1.2695570198e+02   3.8109178946e+01    0.3166351    0.1239007  83.18  0.001606619    2.526    0.604
        89  -9.5169     75.0896    170.9180   1.1282237047e+02   3.1517183245e+01    0.1778149    0.1459636 -20.61   0.00111648    1.732    0.423
        90 -10.4664     40.3403    169.5522   1.2068599449e+02   3.5841472382e+01    0.1924258   0.09780793 -75.19 0.0008995424    1.919    0.479
        91  -9.7901      4.6715    168.4804   1.2866082948e+02   3.9249727704e+01    0.1867775   0.08407082 -83.50  0.001080323    1.968    0.492
        92  -9.3728    209.9931    166.2077   8.4136929880e+01   1.0787019089e+01    0.1634067   0.08842106  39.55  0.000728728    1.702    0.412
        93 -11.4865     50.4425    164.0951   1.1785726715e+02   3.5862842966e+01    0.5812361    0.3205814 -80.15  0.003247152    1.843    0.457
        94 -11.2108     44.4272    162.7133   1.1915517776e+02   3.6802872593e+01    0.3157165    0.1981675 -69.21  0.001730345    1.581    0.367
        95 -10.9940     36.5289    166.0198   1.2128723695e+02   3.6943504521e+01    0.2378629    0.1630309  85.48  0.001024422    1.333    0.250
        96 -12.1283     36.9815    158.2554   1.2054954686e+02   3.8498942523e+01    0.4008827    0.2281836 -88.41 0.0004444767    1.704    0.413
        97  -9.6521     67.1950    165.1630   1.1401012717e+02   3.3664118335e+01    0.1775398    0.1227694  61.96 0.0009767222    1.364    0.267
        98  -9.5124    200.2758    162.6136   8.5151845051e+01   1.2875182973e+01    0.1677726    0.1046258  31.29 0.0004698866    1.447    0.309
        99  -9.9923    247.4631    158.4712   7.6667179366e+01   5.7447057991e+00    0.1186759   0.09475603   1.23 0.0001067591    1.072    0.067
       100 -11.3776     22.4497    156.3947   1.2390528706e+02   4.0258638479e+01    0.3937233    0.3175447  48.02  0.002835424    1.209    0.173
       101  -9.1185    235.7165    154.6510   7.7696251469e+01   8.0097229014e+00    0.1285736    0.0792697   6.51 0.0003885812    1.651    0.394
       102 -10.4283     12.1908    153.4419   1.2618039833e+02   4.1735348109e+01    0.2381622    0.1956782  23.28  0.001285785    1.497    0.332
       103 -10.4032    178.1531    151.4756   8.7091119466e+01   1.8344185623e+01    0.2375078    0.2221025  44.05  0.001012496    1.245    0.197
       104  -9.1063    147.6793    156.3460   9.4255705021e+01   2.2992826818e+01    0.1300467    0.1040683  76.41 0.0007049511    1.732    0.423
       105 -10.3978     17.8559    146.7966   1.2436863089e+02   4.2687007713e+01    0.2506444     0.173354 -24.24  0.001009432    2.300    0.565
       106  -9.9572    207.1088    146.1814   8.0673245644e+01   1.3908692555e+01    0.2010801    0.1554506  13.13 0.0007523181    1.176    0.149
       107 -10.5305      8.4836    145.0000   1.2659533786e+02   4.3809439451e+01    0.3850196    0.1507332  15.02  0.001744293    3.837    0.739
       108  -9.4442     30.6240    144.7732   1.2097058126e+02   4.1994652964e+01    0.1669772   0.09740394  88.51 0.0005431737    1.617    0.381
       109 -10.5824      2.8713    143.9214   1.2793122753e+02   4.4443677159e+01    0.1666692    0.1360851 -67.82  0.001220468    1.346    0.257
       110  -9.6385     49.7895    141.5047   1.1564651742e+02   4.0728983219e+01    0.2204582     0.141197 -37.42 0.0008947931    2.212    0.548
       111 -10.7463     19.9273    141.2153   1.2343522869e+02   4.3723668376e+01    0.2874277     0.153786  86.12 0.0005175754    1.729    0.422
       112 -10.6353     15.7500    139.8611   1.2441620847e+02   4.4361735780e+01    0.2407552    0.1604764  -5.76  0.001404585    2.393    0.582
       113  -9.0547    239.9988    140.7781   7.4228850537e+01   8.9337771519e+00    0.1506998   0.09446998  39.96 0.0005305958    1.612    0.380
       114 -10.5374     55.4632    136.0116   1.1345369153e+02   4.1285653353e+01    0.2073368    0.1541094  68.58 0.0003217279    1.304    0.233
       115  -9.9582     53.3867    132.8346   1.1360223792e+02   4.2239992763e+01    0.1969239    0.1172125 -69.12  0.001044344    1.591    0.371
       116 -11.4555      3.7176    135.3517   1.2724935388e+02   4.6237377043e+01    0.5380211    0.1940407 -58.32  0.002469808    2.868    0.651
       117 -11.3243      9.0939    136.7584   1.2593492913e+02   4.5550150667e+01    0.1949303    0.1523079  88.04 0.0002404349    1.076    0.071
       118  -8.9654    143.6895    137.3278   9.1408513280e+01   2.7071439447e+01    0.1351479    0.1102951  82.62 0.0007040848    1.663    0.399
       119 -10.4440     21.0180    135.7985   1.2271951460e+02   4.4824944793e+01    0.2098566    0.1498296 -85.22 0.0006693343    1.214    0.176
       120  -9.4207    138.0383    135.4843   9.2308338869e+01   2.8461717538e+01     0.199743    0.1169156  20.61  0.000809753    2.533    0.605
       121  -9.1879    250.3164    134.3107   7.1376669585e+01   7.9853754867e+00    0.1286131   0.07993325   9.40 0.0007032746    1.638    0.389
       122 -10.1321    106.9665    133.2046   9.9368662324e+01   3.4439867580e+01    0.2269954     0.203544 -50.40  0.001076972    1.162    0.140
       123  -9.5438     79.6504    133.2866   1.0652360001e+02   3.8704128094e+01    0.1390348   0.09421805  66.07 0.0007022034    1.659    0.397
       124 -11.5150     37.6725    130.5181   1.1766644109e+02   4.4473683447e+01    0.3016164    0.2462511  83.72 0.0001572063    1.075    0.069
       125 -11.0861     33.1866    125.8611   1.1840777682e+02   4.5972824522e+01    0.2565151     0.176141  67.56   0.00102077    1.390    0.281
       126  -9.1596    227.3081    131.7192   7.4247710768e+01   1.2214273963e+01    0.1132363    0.1015336 -51.62  0.000250326    1.560    0.359
       127 -10.5575     74.1766    129.4937   1.0738417835e+02   4.0315258031e+01     0.244573    0.2272223  84.89 0.0007723418    1.016    0.016
       128 -11.6204     10.5986    122.5835   1.2452340944e+02   4.8604183662e+01     0.493361    0.2172211  60.65  0.002459004    2.252    0.556
       129 -11.2249      2.3120    123.7589   1.2692842860e+02   4.8897625008e+01     0.480715    0.1459306 -70.70  0.002033603    2.639    0.621
       130  -9.8227     82.0393    125.0481   1.0445016251e+02   4.0162261106e+01    0.1960384    0.1860287 -87.43  0.000407061    1.029    0.028
       131  -9.8548    226.0044    124.2236   7.2796601628e+01   1.3404799069e+01    0.1648582    0.1029339  44.13 0.0008723057    1.655    0.396
       132  -9.7185    219.7638    124.4269   7.3831283617e+01   1.4527320314e+01    0.1745576    0.1141533  32.05 0.0005173074    1.506    0.336
       133 -10.1664     20.9671    121.3161   1.2144378187e+02   4.8099309041e+01    0.1589655     0.150772  79.65  0.001139207    1.178    0.151
       134  -9.7504     32.7993    118.9529   1.1772466171e+02   4.7599502224e+01    0.1832316     0.148782 -62.81 0.0004857466    1.230    0.187
       135 -11.9318     17.2160    116.2122   1.2205364918e+02   4.9573329724e+01    0.4681132    0.2051733 -57.76  0.002323722    2.164    0.538
       136 -12.5956     15.2832    109.1426   1.2194853527e+02   5.1362504965e+01    0.5233385    0.4313284  66.18  0.000713932    1.161    0.139
       137 -11.4616     23.5692    106.9216   1.1911160510e+02   5.1235350194e+01    0.3141757    0.2165271  58.91   0.00108434    1.444    0.307
       138  -9.9212    249.7948    118.5862   6.8067511444e+01   9.8779285294e+00    0.1504809    0.1236666  57.65 0.0009460077    1.655    0.396
       139  -9.6163    220.4335    116.9781   7.2021492894e+01   1.5388011209e+01    0.1982574     0.118256 -27.76 0.0004534906    1.540    0.351
       140  -9.8471     86.3618    116.7337   1.0165337088e+02   4.1340440059e+01     0.191256    0.1222708 -49.09  0.000594289    1.582    0.368
       141 -10.6817     51.0895    116.5085   1.1193807762e+02   4.6236143495e+01    0.2942478    0.1612679 -62.15  0.001476541    1.674    0.403
       142  -9.5072    166.1823    115.6654   8.1608775477e+01   2.6471089889e+01    0.1917328    0.1737624 -36.96 0.0004216459    1.163    0.140
       143  -9.1700    214.1676    115.5945   7.2705741056e+01   1.6776918300e+01    0.1833362    0.1154499  33.55 0.0005630998    1.609    0.378
       144 -12.0817     35.3715    108.3189   1.1556463325e+02   4.9839472508e+01    0.4869256    0.2693157  76.37  0.001899431    2.139    0.532
       145 -10.7663    249.0370    112.0085   6.6707819198e+01   1.0775325150e+01     0.200047    0.1624256 -11.99 0.0006476484    1.044    0.043
       146 -10.0613     35.1895    114.2112   1.1641608934e+02   4.8473395883e+01    0.2044602    0.1536807  68.63 0.0006498614    1.288    0.223
       147 -10.7681     55.0421    110.2939   1.0973079238e+02   4.7211030022e+01     0.263943    0.2396798  11.79 0.0007720717    1.318    0.241
       148  -9.3709     29.4630    109.4596   1.1757098513e+02   5.0126283510e+01    0.1255062    0.1078529 -85.69  0.000154648    1.012    0.012
       149 -10.8503      6.1705    105.8327   1.2447204124e+02   5.2755594795e+01    0.3493396    0.1812954 -70.45   0.00163025    1.607    0.378
       150 -11.1727      2.5097    105.8827   1.2561363415e+02   5.2965919171e+01     0.386831     0.167518 -71.13  0.001764571    1.877    0.467
       151 -12.0447      2.7797    100.4777   1.2508860476e+02   5.4208840580e+01    0.2556004    0.2217318  76.98 0.0004012133    1.116    0.104
       152 -11.2186      1.4791     96.0105   1.2512967247e+02   5.5328253613e+01    0.3684886    0.1390723 -76.53  0.001059242    2.114    0.527
       153 -11.1632     62.8081    106.7437   1.0668540146e+02   4.7047110204e+01    0.2749465    0.2618165  38.46 0.0008092014    1.153    0.133
       154 -10.7585    243.3391    104.5722   6.5780879055e+01   1.2676208269e+01    0.2239891    0.1373894  -4.20  0.000705305    1.712    0.416
       155  -9.8328    223.1972    104.0717   6.8542487984e+01   1.6557482836e+01    0.2059882    0.1613231  -0.94 0.0004575948    1.200    0.167
       156 -11.7200     92.8854     96.1499   9.5101685259e+01   4.4818538156e+01    0.9401807    0.3334142 -38.27  0.002706555    4.543    0.780
       157 -11.0145    247.5158    102.1803   6.4672156909e+01   1.2200726603e+01    0.2196662    0.1795901  39.92 0.0008974392    1.356    0.263
       158 -10.3268     36.5706    101.7372   1.1421422813e+02   5.1280215313e+01    0.3833141      0.19816  41.22  0.001600489    1.985    0.496
       159  -9.7229    119.7539    101.4255   8.8911219066e+01   3.8659945000e+01    0.2049991    0.1378976  31.53 0.0009003341    1.649    0.394
       160  -9.7470    145.4976    100.0035   8.2164006325e+01   3.3607743519e+01    0.2315224    0.1436723 -39.06  0.001037955    1.606    0.377
       161 -10.8777     62.2692     98.6032   1.0524093322e+02   4.9017855329e+01    0.3077143    0.2865509   1.59 0.0007861526    1.253    0.202
       162 -11.5561     20.0660     96.8355   1.1901038817e+02   5.3907706568e+01    0.4020745     0.220921 -80.17  0.002121995    1.615    0.381
       163  -9.2660     85.4447     98.4914   9.7920982845e+01   4.5564446750e+01    0.1400488    0.1335034 -68.42 8.027032e-06    1.007    0.007
       164 -10.0596     40.8226     97.1120   1.1205104995e+02   5.1946299348e+01     0.246718    0.1546194 -51.28  0.000725717    1.558    0.358
       165 -10.8939     14.3222     96.1548   1.2086077580e+02   5.4493840596e+01    0.3621714    0.1362079 -66.62  0.001675132    2.120    0.528
       166 -10.6978     66.6553     97.9102   1.0367824111e+02   4.8574999214e+01    0.6206999    0.1284765 -53.57  0.001883682    4.020    0.751
       167  -9.7876    249.7632     95.4243   6.2815524645e+01   1.2583992185e+01    0.1613787    0.1127274  33.68 0.0004123359    1.514    0.339
       168  -9.8985     31.5012     93.4872   1.1462801018e+02   5.3735948065e+01    0.2688738    0.1133154 -70.32 0.0009595451    2.098    0.523
       169 -11.4840    103.8480     91.9306   9.0777045906e+01   4.3727835173e+01    0.2780825    0.2291511 -42.62 0.0002516735    1.195    0.163
       170 -10.9361     25.5578     91.4832   1.1638379003e+02   5.4742580632e+01    0.2539115    0.2478862  84.63  0.001023712    1.166    0.143
       171 -10.6598     23.0614     86.8098   1.1656208598e+02   5.6070268484e+01    0.2777596    0.1875676 -53.38 0.0009609213    1.403    0.287
       172 -11.6321     10.3233     90.9386   1.2162667944e+02   5.6003173054e+01     0.250765    0.2222458  53.54 0.0005073226    1.239    0.193
       173 -11.3722      4.5315     86.2881   1.2314657344e+02   5.7457231310e+01    0.7698036     0.183769 -71.37  0.003009788    3.018    0.669
       174 -11.6378     13.1571     77.8257   1.1889674034e+02   5.8956419036e+01    0.3106092    0.2493302 -75.02 0.0009677971    1.032    0.031
       175 -10.5396     16.2678     74.6900   1.1720712657e+02   5.9497440260e+01    0.3128381    0.1443205 -68.55 0.0006277116    1.761    0.432
       176 -11.0790      3.7754     77.2059   1.2239698798e+02   5.9662201527e+01    0.4883591    0.1497242 -62.95  0.001856324    2.413    0.586
       177 -11.1732      7.9615     73.5383   1.2030158550e+02   6.0307260625e+01    0.3606965    0.2568135   6.73  0.001948504    1.784    0.439
       178 -10.7682    158.1104     90.3508   7.6696214321e+01   3.2562870129e+01     0.276381    0.2013988 -22.42  0.001326279    1.432    0.302
       179  -9.2276     21.2776     91.3534   1.1786170593e+02   5.5122683555e+01    0.1305973   0.08036005 -48.99  0.000384644    1.648    0.393
       180 -11.1289     46.6272     84.9480   1.0770474442e+02   5.4205361170e+01    0.6733307    0.4751314  72.96  0.003564512    1.680    0.405
       181 -10.0525     39.6614     79.6934   1.0914457613e+02   5.6231464349e+01    0.2603775    0.1648914 -56.53  0.001377896    1.388    0.280
       182  -9.0752    139.2942     87.6993   8.0209570816e+01   3.7232482790e+01    0.1461062    0.1197163 -76.66 0.0006990069    1.571    0.364
       183 -10.2964    112.4528     86.2241   8.6736182497e+01   4.3227121288e+01    0.2132394    0.1392604 -55.20 0.0009497072    1.675    0.403
       184 -11.2647     67.3267     85.0309   1.0046152068e+02   5.1464324174e+01     0.333124     0.273853 -32.97   0.00107747    1.324    0.245
       185 -10.3614     88.0006     83.2933   9.3182799164e+01   4.8504067020e+01    0.2360151    0.1923869 -53.22  0.000419898    1.183    0.155
       186 -10.6327     29.8720     82.4247   1.1333606395e+02   5.6540296495e+01    0.3594824    0.1456148 -62.10  0.001606061    2.018    0.505
       187 -10.8826     14.8126     83.3781   1.1906644555e+02   5.7512081073e+01    0.4692076     0.185141 -50.17  0.002120035    2.439    0.590
       188 -11.0231     20.9866     81.2671   1.1645657265e+02   5.7566786522e+01    0.3280621    0.2221798  -2.03  0.001609722    1.998    0.500
       189 -12.0674     21.2694     76.9683   1.1563726450e+02   5.8578542726e+01    0.3149916     0.264818 -60.90 0.0002193221    1.097    0.089
       190 -10.3851    117.9311     82.8752   8.4244982943e+01   4.2771873618e+01    0.2746048    0.2108463 -36.94  0.001357483    1.288    0.224
       191 -10.5430    167.4225     84.2971   7.3044372397e+01   3.1464861429e+01    0.3529111    0.2752693  85.95  0.001691534    1.766    0.434
       192  -9.5466    150.6714     77.5929   7.4590525672e+01   3.6457764322e+01    0.2345139    0.1758848  11.48 0.0006575247    1.624    0.384
       193 -10.6705     92.4453     77.8203   9.0189137643e+01   4.8882914352e+01    0.2823549    0.2232937  28.01 0.0009382577    1.399    0.285
       194  -9.4900     64.4886     68.9736   9.7090412360e+01   5.5556377212e+01    0.2190928    0.1298268 -55.13  0.001022905    1.575    0.365
       195 -12.1055     58.7178     75.2338   1.0098157944e+02   5.4957386031e+01    0.6037138    0.3727244  61.57  0.002053865    2.241    0.554
       196 -10.6755     61.9661     72.1698   9.8947144905e+01   5.5203005198e+01    0.3885307    0.1793582 -50.09 0.0008993309    1.956    0.489
       197  -9.8154    122.0781     76.2958   8.1120149612e+01   4.3168506004e+01    0.2148547    0.1909438  49.92 0.0009795744    1.163    0.140
       198 -12.3929     44.6756     75.2696   1.0625626448e+02   5.6728458179e+01    0.2735511    0.2374031  54.13 0.0003377401    1.265    0.210
       199 -11.7864     37.6667     70.3496   1.0783022321e+02   5.8667326284e+01    0.9650393    0.5696744  26.61  0.004953223    1.947    0.486
       200 -10.2894     28.0223     68.0144   1.1121281158e+02   6.0161798577e+01    0.3119466    0.2059054 -55.43            0    1.308    0.235
       201 -10.4728     31.0173     65.6303   1.0943665161e+02   6.0453187427e+01    0.2911837    0.1723748 -72.28 0.0005373558    1.613    0.380
       202  -9.5941     33.0127     75.7406   1.1085238466e+02   5.7850427379e+01    0.1656666    0.1595601 -69.03  0.001089574    1.116    0.104
       203  -9.9355    138.9777     74.9883   7.6464269642e+01   3.9616955951e+01    0.2267925    0.2199931 -12.94 0.0003793071    1.013    0.013
       204  -9.8432    145.4895     73.9225   7.4620539899e+01   3.8295739357e+01    0.2373585    0.1469259 -32.95  0.001031798    1.591    0.371
       205 -11.2964    102.6425     72.9114   8.5533202595e+01   4.7928953776e+01    0.3386108    0.2756197 -11.96 0.0004062825    1.425    0.298
       206 -10.4040    103.0704     68.1177   8.3843780530e+01   4.8806868581e+01    0.3188044    0.2214199  37.00  0.001147471    1.533    0.348
       207  -9.8789    105.9949     64.3271   8.1693398372e+01   4.8940777468e+01    0.2382042    0.1927402 -38.68 0.0004469954    1.193    0.162
       208  -9.8766    150.4930     72.4229   7.3039497809e+01   3.7377668490e+01     0.148755    0.1451497  -8.15 5.435817e-05    1.028    0.028
       209 -10.5133    128.9122     71.7734   7.7911629739e+01   4.2496189164e+01    0.2538888    0.2086418 -42.92 0.0002787602    1.215    0.177
       210  -9.5019     83.9784     72.3323   9.1258089876e+01   5.1604357604e+01      0.18841    0.1812612  28.38  0.000280942    1.096    0.088
       211 -11.4002     77.0208     71.2073   9.3275745770e+01   5.3056745928e+01    0.5481871    0.3557843  59.47  0.001496522    2.016    0.504
       212 -10.1208    116.6417     71.3554   8.1011877964e+01   4.5299796459e+01    0.2842919    0.1834768  44.64 0.0006559643    1.584    0.369
       213  -9.5540    161.1160     69.8064   6.9999321552e+01   3.5281273596e+01    0.2026285    0.1697163  12.04 0.0003407034    1.282    0.220
       214 -12.3273     94.3117     68.3256   8.6614745265e+01   5.0520402501e+01    0.4335529     0.278651 -38.39  0.001278623    1.529    0.346
       215 -11.1319     50.8143     67.8601   1.0198381708e+02   5.7718219072e+01    0.4850787     0.247363 -40.18  0.001617797    2.134    0.531
       216 -11.0748     51.3271     63.1210   1.0042944558e+02   5.8742912177e+01    0.5606919    0.2578348 -36.67  0.002172594    2.796    0.642
       217 -10.2753    140.2963     69.0227   7.4259513166e+01   4.0357852196e+01    0.2131716    0.1910817 -23.17 0.0003040248    1.092    0.084
       218 -10.2904     68.7465     67.4490   9.5062677688e+01   5.5240232611e+01     0.384268    0.1732236 -46.69  0.001499876    2.055    0.513
       219 -10.1077     16.9530     59.4542   1.1411640604e+02   6.3096853814e+01    0.4738798    0.2049194  53.74  0.001950036    3.388    0.705
       220 -11.7596     16.4928     67.8453   1.1594376138e+02   6.1124704446e+01      0.28185     0.258537  19.62  0.001924652    1.307    0.235
       221 -11.3313     21.3510     65.5028   1.1346343758e+02   6.1322887901e+01    0.4150771    0.3272717  55.18   0.00256793    1.433    0.302
       222  -9.7774    146.1602     68.3936   7.2721357025e+01   3.9080479634e+01     0.211324    0.1854862 -10.46 0.0004650982    1.158    0.136
       223  -9.5258    123.1467     68.2033   7.8231396623e+01   4.4454365750e+01    0.2018253    0.1736507 -60.49 0.0005571978    1.294    0.227
       224 -12.4447      4.2255     65.0568   1.2060731475e+02   6.2540791807e+01    0.4151793    0.2732097  67.75 0.0005470414    1.645    0.392
       225 -11.1387     56.3698     66.0777   9.9310311645e+01   5.7386923598e+01    0.7173445    0.1813806 -44.19  0.002034243    4.662    0.786
       226 -11.6177     63.3106     60.3840   9.4854871631e+01   5.7650012968e+01    0.5467159    0.2553666  29.05  0.002185912    2.706    0.630
       227  -9.6529    128.9545     66.7422   7.6255510992e+01   4.3397726874e+01     0.194198    0.1305584  48.88 0.0003019287    1.511    0.338
       228 -10.0770     99.5965     65.2714   8.3942538010e+01   5.0085159783e+01    0.2707127    0.1823026 -31.90  0.001246863    1.538    0.350
       229 -10.7655     77.2458     63.8459   9.0849527313e+01   5.4614066968e+01    0.3997045    0.3155289 -56.50  0.001127582    1.272    0.214
       230  -9.6024    120.3042     64.9915   7.7906766051e+01   4.5685157561e+01    0.2142118    0.1918973 -29.10 0.0003802153    1.087    0.080
       231  -9.4711     41.4399     64.2031   1.0475640581e+02   5.9703194580e+01    0.1729989    0.1197263 -72.82 0.0003479325    1.475    0.322
       232 -11.4031     87.1338     52.2358   8.3281419717e+01   5.5154422714e+01    0.3284885    0.2698108 -66.21 0.0003869094    1.456    0.313
       233 -10.8701     84.3744     61.3809   8.7536966404e+01   5.3848110808e+01     0.438436    0.3163069  48.64  0.002183714    1.508    0.337
       234 -10.3509     86.5666     57.6457   8.5473624532e+01   5.4194754317e+01    0.4325897    0.2533933 -34.95  0.001903636    1.739    0.425
       235 -10.7866     11.0081     62.6121   1.1732432265e+02   6.2740934816e+01    0.2175018    0.1533658 -73.03 0.0003163417    1.183    0.154
       236 -10.8740      5.7684     58.6865   1.1893800824e+02   6.3979254508e+01    0.3981667    0.2301845  85.63  0.001836702    1.821    0.451
       237 -11.2537      5.5572     51.8926   1.1781890254e+02   6.5603198994e+01    0.3457789    0.2488124 -55.26  0.000952124    1.186    0.157
       238 -10.0641    201.0833     61.9738   6.0783675238e+01   2.6906416171e+01    0.2103485    0.1930869 -12.11 0.0003059926    1.022    0.021
       239  -9.4302    140.6645     61.9072   7.1834000341e+01   4.1476682876e+01    0.2160649    0.1306595 -42.61 0.0003419477    1.672    0.402
       240 -10.7365     45.3642     49.9804   9.8786505290e+01   6.2480557843e+01    0.4775822    0.2201516 -50.71  0.002124047    1.870    0.465
       241 -10.1377     47.6982     58.3451   1.0047985778e+02   6.0301882766e+01    0.2994008    0.2089832 -85.57  0.001403226    1.935    0.483
       242 -10.1165     43.9680     57.0328   1.0165454214e+02   6.1064577656e+01    0.2042935    0.1782367 -48.52 0.0003350807    1.025    0.024
       243 -11.2384     29.4851     60.8867   1.0895161693e+02   6.1720834629e+01    0.6238328    0.2571899  14.87  0.002466965    3.644    0.726
       244  -9.6611    156.6438    245.7236   1.0519590221e+02   8.9406386931e+00    0.1049909   0.06533748  18.71 0.0003279381    1.652    0.395
       245 -11.0382     57.6480     59.1670   9.6678044098e+01   5.8763713962e+01    0.4304354    0.2528115  37.10  0.002072107    1.862    0.463
       246 -10.6192    146.9565     57.1698   6.8849473029e+01   4.0716457687e+01    0.2625822    0.2154296 -22.96            0    1.205    0.170
       247 -10.6105    129.7987     55.9272   7.2335298959e+01   4.5074256206e+01    0.5056313    0.2194473  41.90  0.001792373    2.569    0.611
       248 -10.5607    123.0238     56.3311   7.4175499232e+01   4.6604680646e+01    0.3026971     0.210873 -41.26  0.001045089    1.424    0.298
       249 -12.9855    128.5875     50.5246   7.0686531834e+01   4.6253652813e+01    0.4305051    0.3473329   3.55   0.00212628    1.387    0.279
       250 -11.1165     75.4208     55.9906   8.8791723802e+01   5.6590002779e+01    0.2354532    0.2196831  21.58 0.0002964291    1.133    0.117
       251 -10.1392     61.4306     54.1085   9.3463413323e+01   5.9306816119e+01     0.237839    0.2071077  26.04 0.0009399731    1.252    0.201
       252  -9.1361    143.3541     53.2906   6.8295075032e+01   4.2208561312e+01    0.1602393    0.1135843  23.72 0.0005207291    1.679    0.404
       253 -10.9133     12.5746     51.5866   1.1443512808e+02   6.5261549884e+01    0.2672017    0.1988987 -89.04 0.0007462367    1.378    0.274
       254  -9.1910    109.3052     52.3268   7.6421701691e+01   5.0449411443e+01    0.1543867    0.1162325   7.87  0.000360225    1.649    0.393
       255 -10.8450     69.9483     50.4964   8.8813387963e+01   5.8678149461e+01    0.4111683    0.3216896  78.31  0.001982349    1.835    0.455
       256 -11.2419    103.3373     49.3114   7.7010074628e+01   5.2311895354e+01    0.4102712    0.3268324  79.49  0.002010272    1.651    0.394
       257 -10.3294     76.9932     50.2576   8.6088886095e+01   5.7475122404e+01    0.2733851    0.1820657  30.16  0.001147564    1.708    0.414
       258 -10.1645     78.4777     47.4748   8.4466013689e+01   5.7748785735e+01     0.252265    0.1348984 -44.60 9.680473e-06    1.778    0.438
       259  -9.8605    220.7120     48.9777   5.4588367532e+01   2.4008821280e+01    0.1925002    0.1588188 -25.52            0    1.088    0.081
       260  -9.6127    166.7198     49.0740   6.2311619733e+01   3.6991277368e+01    0.1997276    0.1872323  -5.31 0.0003183187    1.046    0.044
       261 -11.5408    152.1260     47.9610   6.4638869956e+01   4.0820601833e+01    0.7787827    0.3098502  51.01  0.002434766    2.439    0.590
       262 -10.6880     95.1035     48.5689   7.9251918458e+01   5.4220823301e+01    0.3509014    0.2054352 -26.00  0.001477584    1.932    0.482
       263 -10.2614    120.1530     47.3554   7.1607127135e+01   4.8788959225e+01    0.2327012    0.1981965 -15.31 0.0004774012    1.183    0.155
       264  -9.4301    115.2204     48.4286   7.3310709446e+01   4.9771256722e+01    0.2052212     0.148974  65.46 0.0009500168    1.609    0.378
       265 -10.7721     82.3124     46.9359   8.2883712609e+01   5.7119936861e+01    0.2060206    0.1760774 -31.38 0.0004398898    1.100    0.091
       266 -11.0821     11.7265     44.0754   1.1309249634e+02   6.7077556790e+01    0.4909556    0.2068645 -45.15  0.001680401    2.131    0.531
       267 -10.1573      4.5521     47.1437   1.1737453348e+02   6.6775609252e+01    0.2957177    0.1448805 -48.53  0.001552703    1.764    0.433
       268 -10.3621      6.9714     41.3967   1.1488586792e+02   6.7989673254e+01    0.3395616    0.1268117 -63.49  0.001104323    2.011    0.503
       269 -10.0542    142.9158     45.9950   6.5813621518e+01   4.3421475369e+01    0.2264234    0.2194049 -26.53 0.0004802653    1.038    0.036
       270 -10.1280     86.0932     45.6504   8.1058491186e+01   5.6615648674e+01    0.1991809    0.1880619   7.93 0.0005809865    1.065    0.061
       271  -9.0413     54.3288     46.2447   9.3540852400e+01   6.2060603764e+01    0.1332617    0.1013428 -13.40 0.0003084288    1.540    0.350
       272  -9.4162     51.2418     44.9954   9.4409149289e+01   6.2772972734e+01    0.2030922    0.1901497  72.73 0.0003031906    1.276    0.217
       273 -10.7743     52.0866     40.9116   9.2447258537e+01   6.3509702092e+01    0.3177029    0.2325941 -83.78  0.001004101    2.166    0.538
       274 -10.5763    103.5098     57.5187   8.0030521719e+01   5.0770259158e+01    0.5091636    0.2453025 -27.67  0.001822036    2.662    0.624
       275  -8.7900     18.2972     46.2909   1.1037526391e+02   6.6095675266e+01    0.1302804   0.08036917 -40.26 0.0002596985    1.558    0.358
       276  -8.8182    233.2878     45.3830   5.2255152640e+01   2.1640551843e+01    0.1386053   0.09533628  14.92 0.0007013544    1.743    0.426
       277  -9.5539    185.7660     44.9722   5.7952883908e+01   3.2772806115e+01    0.1897214    0.1172366 -24.44  0.000856435    1.549    0.355
       278  -9.8080    110.5879     41.6880   7.1930554934e+01   5.1962940388e+01    0.2356469    0.1829455  82.89 0.0003016244    1.704    0.413
       279 -11.0769     96.7991     40.9632   7.5650873269e+01   5.5204283383e+01    0.3794056    0.2701065  29.85  0.001460008    1.555    0.357
       280 -10.7856    101.7939     36.8583   7.2426143771e+01   5.4768529775e+01    0.2949899    0.2222147  30.56 0.0006623993    1.411    0.291
       281 -10.3328    104.9865     34.0213   7.0305966471e+01   5.4477577135e+01    0.3179052    0.2360263 -67.45 0.0007265199    1.838    0.456
       282 -11.3506     89.3491     39.0851   7.7241001375e+01   5.7128128868e+01    0.5642247    0.3587526 -56.09  0.002081064    2.039    0.510
       283  -9.7949     80.3295     26.1646   7.4447215717e+01   6.1166296723e+01    0.4716839    0.1566269 -46.29  0.001413958    4.205    0.762
       284 -12.0729     81.4675     36.6051   7.8857449669e+01   5.9186658811e+01    0.5867846     0.468408 -53.80  0.001499524    1.417    0.294
       285 -10.3637     78.7110     31.0302   7.7323652085e+01   6.0704043882e+01    0.3799633    0.2529772  -4.53  0.001614024    1.986    0.497
       286 -10.4322     34.3230     34.0936   9.8191512986e+01   6.7287561717e+01    0.6035933    0.3015468  33.17  0.002912885    2.247    0.555
       287 -10.7776     23.2557     41.1993   1.0640637030e+02   6.6854412062e+01    0.3559439    0.2198297  33.61 0.0008855651    1.875    0.467
       288 -11.1371     19.9760     38.0124   1.0709828873e+02   6.7858953686e+01    0.3329107    0.2033935 -37.45  0.001399091    1.581    0.368
       289 -11.9051     27.6762     38.2705   1.0317114071e+02   6.7095738388e+01    0.3408178    0.2700971 -79.84  0.001422834    1.462    0.316
       290 -12.4170     24.1361     35.1966   1.0394194312e+02   6.8119475130e+01    0.3476046    0.2463059   8.75 0.0003283686    1.675    0.403
       291  -9.3884    172.5846     41.4925   5.8842860095e+01   3.6516170444e+01    0.1468664    0.1390811 -28.63 5.384044e-05    1.028    0.028
       292 -11.2804     68.6551     38.7189   8.4570540452e+01   6.1240413043e+01    0.5817277    0.3418694 -10.48  0.002157004    3.197    0.687
       293  -9.8497     42.9122     37.4165   9.5272159571e+01   6.5518575385e+01    0.3984995    0.2451581 -81.46  0.001542824    3.639    0.725
       294  -9.4341    226.4590     40.4365   5.1636109349e+01   2.3678538362e+01    0.1340383    0.1204323 -25.77 0.0001651897    1.010    0.010
       295  -9.4995    215.5310     40.5126   5.2827690589e+01   2.6151950420e+01    0.1380944    0.1253633 -27.67 8.477137e-05    1.005    0.005
       296 -10.0327     61.9494     37.8868   8.6935015754e+01   6.2564809620e+01    0.2033039    0.1816033 -29.85 0.0003293601    1.012    0.012
       297  -9.1136    199.6755     37.7145   5.3873323292e+01   3.0228339637e+01    0.1444168    0.1033959  28.40 0.0005325747    1.602    0.376
       298 -10.3944     96.0175     36.2961   7.3918733602e+01   5.6157251521e+01      0.38878     0.211836 -51.68  0.001189574    2.363    0.577
       299 -11.1772     98.0343     31.6873   7.1296017035e+01   5.6437478141e+01    0.3653454    0.2548907  31.98 0.0008040133    1.542    0.352
       300 -11.0643    101.0913     28.6459   6.9055200762e+01   5.6191013676e+01    0.2880476    0.2566077 -46.72 0.0003624581    1.215    0.177
       301  -9.8385     24.9149     26.7709   1.0026578882e+02   6.9867780350e+01     0.219818    0.1447044 -45.75  0.000644199    1.264    0.209
       302 -11.1103     16.7412     29.9445   1.0615932387e+02   6.9927816118e+01    0.5603818     0.483596  83.95  0.003665521    1.421    0.296
       303 -10.3265     21.0779     27.5320   1.0276594586e+02   7.0077773412e+01    0.4726501    0.1147237 -52.96  0.001417455    2.981    0.664
       304  -9.4392    115.5343    244.5245   1.1212901272e+02   1.4344457143e+01    0.1045348    0.0773835  39.01  0.000238433    1.026    0.025
       305 -10.4822      9.8251     34.8247   1.1162899874e+02   6.9332257408e+01    0.3095679    0.2216898 -21.15  0.001262051    1.541    0.351
       306 -11.5838      7.0025     30.2578   1.1189584081e+02   7.0543282611e+01    0.8211414    0.1755589 -48.26  0.003085764    3.307    0.698
       307 -10.7355     10.3059     25.2696   1.0829914747e+02   7.1443476795e+01    0.2860654    0.2224133 -13.69 0.0005494963    1.402    0.287
       308 -10.4632    109.5928    242.9220   1.1302605851e+02   1.5293598386e+01    0.2167607    0.1419593  56.73 0.0009226478    1.508    0.337
       309  -9.3323     63.1707    243.6281   1.2118945044e+02   2.0614684072e+01     0.133014   0.07787258  30.06 0.0004173026    1.665    0.400
       310 -11.1535     37.3403    242.6869   1.2557931421e+02   2.3418283010e+01    0.2479124    0.1028084  41.52  0.001657022    1.666    0.400
       311 -10.9102     35.5099    239.4941   1.2575455004e+02   2.4072792766e+01    0.2740504    0.1801005 -48.09   0.00202441    2.522    0.603
       312 -10.1506    166.2656     36.6470   5.8232113040e+01   3.8738536366e+01    0.2110232    0.1301334  53.41 0.0007149887    1.612    0.380
       313 -10.0946    155.3476     35.9979   5.9843402350e+01   4.1630390870e+01    0.2748703    0.1914963  33.90 0.0008704055    1.571    0.363
       314  -9.4233    127.4410     36.4643   6.5624424310e+01   4.8680025578e+01    0.1489312    0.1432258  -0.46  8.27684e-05    1.005    0.005
       315 -10.0827     60.2829     33.4016   8.5659621250e+01   6.3707752822e+01    0.1832672    0.1725156  24.54  0.000260973    1.160    0.138
       316 -10.2787     56.0630     30.9090   8.6353887243e+01   6.4880743513e+01    0.2699265     0.177377 -33.57 0.0009522228    1.419    0.295
       317  -9.8028    206.1348     33.8548   5.1971826571e+01   2.9101790279e+01    0.1843407    0.1560873  16.35 -0.000430966    1.279    0.218
       318  -9.7040    150.7024     34.4297   6.0110909428e+01   4.3029730609e+01    0.2067072    0.1352797  50.14 0.0009368613    1.516    0.340
       319  -9.7866    110.4617     33.7006   6.8678245296e+01   5.3234152814e+01    0.4104445    0.1274525 -34.31  0.001337988    2.975    0.664
       320 -10.7492    111.9992     25.0102   6.4549799355e+01   5.4086020367e+01    0.2945141    0.2124691  -9.87 0.0004076419    1.472    0.321
       321 -10.5489    109.2490     28.8592   6.6927400231e+01   5.4227537781e+01    0.2560735    0.2317035 -28.58 0.0003494823    1.101    0.092
       322 -10.7283    108.0882     24.8388   6.5461965055e+01   5.5062684935e+01     0.265262    0.2239698 -49.31  0.000510728    1.304    0.233
       323  -9.8046    129.6319     32.5045   6.3573598297e+01   4.8680776296e+01    0.2390484    0.1395771 -27.31 0.0005711996    1.682    0.406
       324  -9.4699    125.5950     32.7966   6.4588925903e+01   4.9656748655e+01    0.2018795    0.1349054 -37.62  0.000200945    1.492    0.330
       325 -11.2647    177.4922     30.4962   5.4501138690e+01   3.6592414448e+01    0.4776687    0.2349757 -38.03  0.001983437    1.929    0.481
       326 -10.8139     49.0867     30.7627   8.9477616638e+01   6.6001776712e+01    0.4813979    0.2623579 -31.26  0.001676355    1.960    0.490
       327 -10.4200     42.9067     31.8836   9.2952510285e+01   6.6662756926e+01    0.1991844    0.1725656 -28.07 0.0004921404    1.048    0.046
       328  -9.7528    225.2766     31.3458   4.9284109946e+01   2.4907890185e+01    0.1347445   0.09765939  18.17 0.0003743515    1.630    0.386
       329 -10.6677    100.0144     55.5438   8.0368366515e+01   5.1886234663e+01    0.4290931    0.2334228  50.70  0.001255904    1.963    0.491
       330  -9.2319    168.5571     30.4247   5.5759493050e+01   3.8898283763e+01    0.1431953    0.1405109 -13.44 6.177497e-05    1.006    0.006
       331  -9.8663    139.5736     30.2427   6.0640740651e+01   4.6437347964e+01    0.2110503    0.1429937  -6.99 0.0009439408    1.664    0.399
       332 -10.8387    156.4973    241.0654   1.0471165482e+02   9.4933016877e+00    0.1270394    0.1055141 -36.01   0.00103245    1.589    0.371
       333  -9.9455     88.9686    240.9896   1.1649764739e+02   1.8060158967e+01    0.1428279    0.1168789   6.06  0.001120703    1.710    0.415
       334  -9.3914     50.3251    240.3076   1.2323433338e+02   2.2462602597e+01   0.08343079    0.0737132  10.64 0.0004605257    1.650    0.394
       335 -10.3560    195.6796    238.3854   9.7867575596e+01   4.6271923754e+00    0.2104561     0.136322  21.35  0.001349585    1.216    0.178
       336  -9.2525    243.3262    237.6459   9.0406503511e+01  -1.2907712060e+00   0.08453935   0.07352567  27.86 0.0007046621    1.769    0.435
       337  -9.6760    174.6193    237.7087   1.0125691560e+02   7.4743634151e+00    0.1110428   0.06589379  17.05   0.00070181    1.746    0.427
       338 -11.2273    214.3901     26.8902   4.9093402097e+01   2.7877601151e+01    0.3743176    0.2212815 -35.72   0.00059911    1.510    0.338
       339 -11.5293     70.5177     25.6876   7.7824597597e+01   6.3220818965e+01     0.342484    0.3068469  15.94  0.001224708    1.109    0.098
       340 -11.2330    237.4755     25.4796   4.6649218899e+01   2.2794104670e+01    0.2492039    0.2160981 -36.82 0.0006208719    1.030    0.029
       341 -10.4651    134.9461     22.9872   5.8694254038e+01   4.8523850136e+01    0.3007371    0.2238996  32.34 0.0008923073    1.409    0.290
       342 -11.1123    129.2739     23.6360   6.0078855605e+01   4.9911304841e+01    0.5940735    0.4070984 -87.59  0.002656817    1.938    0.484
       343 -11.0994    130.6121     20.3427   5.8462296440e+01   4.9955402998e+01    0.4409217     0.312581 -74.07   0.00108694    1.817    0.450
       344 -10.7081    197.2399     24.8117   5.0263194035e+01   3.2233280072e+01     0.237572    0.2110355 -21.96 0.0002784006    1.083    0.077
       345  -9.8623    173.2556     24.5588   5.3105019731e+01   3.8342258749e+01    0.2125435    0.1259397  53.28 0.0009518048    1.680    0.405
       346 -10.6501     94.9586     23.8624   6.8639113466e+01   5.8298587328e+01    0.4303206    0.2471439  57.34  0.001912932    1.848    0.459
       347  -9.9087     54.1654     23.9368   8.3831571889e+01   6.6476424534e+01    0.2189146    0.1920191  16.81  0.000735998    1.174    0.148
       348  -9.4436     34.9315     22.9808   9.2974256935e+01   6.9494069892e+01    0.2280607    0.1359501   1.93 0.0003480988    2.565    0.610
       349 -10.7566    120.2648     21.3850   6.1046933130e+01   5.2483985350e+01    0.2672729    0.2347559  -3.33 0.0003297463    1.133    0.117
       350 -10.2659    191.1426     21.1652   4.9811697039e+01   3.4127687493e+01    0.1980219    0.1552594 -55.17 0.0003766804    1.297    0.229
       351  -9.9377    185.4885     21.4978   5.0561431893e+01   3.5524023418e+01    0.1407116    0.1349501 -38.43 1.858048e-05    1.006    0.006
       352 -10.1072    177.8138    234.8678   1.0037366517e+02   7.3609211327e+00    0.2140935    0.1173702  25.66 0.0008746492    1.566    0.361
       353 -10.3823     45.3922     20.7300   8.6374343876e+01   6.8454056111e+01    0.2678109    0.1932358  40.57  0.001358158    1.572    0.364
       354 -11.6052     29.6474    233.8139   1.2652957131e+02   2.5501710428e+01    0.3735879    0.1666384  68.09  0.002439433    2.063    0.515
       355 -10.8062     10.1691     15.5183   1.0453485426e+02   7.3552522745e+01    0.2281542    0.1636564 -33.56 0.0006004716    1.243    0.196
       356 -10.0837    161.9495     19.9943   5.3092989630e+01   4.1777691577e+01    0.2136013    0.2076516  15.55  0.001220439    1.033    0.032
       357 -10.2127    216.0030     16.8043   4.6086287613e+01   2.8489386195e+01    0.4935789   0.09528648  60.75  0.001596439    4.206    0.762
       358  -9.8414    108.2708     17.3868   6.2044934487e+01   5.5968242224e+01    0.1997672    0.1794589   9.69  0.001099781    1.078    0.073
       359  -9.8626     24.1083    232.3288   1.2743473440e+02   2.6250783030e+01    0.1624582    0.1155668  56.41 0.0007690311    1.015    0.015
       360 -10.2489    159.9060    235.8663   1.0353940051e+02   9.6473765950e+00    0.1681164     0.117634  22.10 0.0007057439    1.267    0.211
       361 -10.2658      5.5807    235.3241   1.3069176688e+02   2.7417651934e+01    0.2336935    0.1750114  54.45  0.001418601    1.135    0.119
       362 -11.2574    153.5641    233.9192   1.0441325746e+02   1.0730734633e+01    0.2052345    0.1661949 -11.46 0.0009198012    1.489    0.328
       363 -10.0820     85.8831    233.0828   1.1644594990e+02   1.9558948977e+01     0.166819    0.1092926  53.34 0.0006286873    1.270    0.213
       364 -12.2518    232.6138    246.8460   9.3232693158e+01  -7.6635319366e-01    0.4117312    0.2637327   3.26  0.003265156    1.355    0.262
       365 -10.1795     90.0362     13.0453   6.4782944958e+01   6.0865340864e+01    0.2067531    0.1886036   9.06 0.0003192756    1.013    0.013
       366  -9.7286    142.4518    232.3055   1.0618427574e+02   1.2424250810e+01    0.1957588   0.07638747  37.34 0.0006192529    1.942    0.485
       367  -9.9556     79.9264    231.6483   1.1741869194e+02   2.0476632418e+01    0.1532172    0.1015485  44.87 0.0005027986    1.130    0.115
       368  -9.4624     58.0008    230.2248   1.2130564583e+02   2.3172768490e+01    0.1340701   0.06588669  37.49  0.000327448    1.600    0.375
       369 -11.0020      5.1852    226.8098   1.3053553640e+02   2.8781990533e+01    0.3698241    0.1083495  61.00  0.002104594    2.599    0.615
       370  -9.6247    248.8762    227.3773   8.8129166897e+01  -1.1097221447e+00      0.14835   0.06781131  26.55 0.0008451079    1.708    0.414
       371 -10.1076    129.4829    226.4439   1.0787717845e+02   1.4938928425e+01     0.279935    0.1549563  62.72  0.001486183    2.907    0.656
       372 -11.0465    120.1785    226.6457   1.0960001246e+02   1.6153157037e+01    0.1729848    0.1053292  45.87 0.0005713758    1.350    0.259
       373 -10.4361     66.6953    226.5764   1.1948087432e+02   2.2774504975e+01    0.2692468    0.1230571  45.00 0.0009830495    1.619    0.382
       374  -9.8954    181.0000    224.9232   9.8563286171e+01   8.0415415796e+00    0.1461755   0.06191967 -38.97 0.0007991191    2.919    0.657
       375 -10.8190    181.1499    248.6727   1.0147420008e+02   5.4638868924e+00    0.2491809    0.1264304 -38.50  0.001668009    2.592    0.614
       376 -10.0640    167.0348    233.7443   1.0206553215e+02   8.9365494021e+00     0.153989    0.1114495  30.35 0.0008137322    1.028    0.027
       377  -9.2132     37.6796    224.7077   1.2469072662e+02   2.6155051090e+01     0.082932    0.0772048   2.91 0.0004658788    1.607    0.378
       378 -10.4243    123.4752    222.3309   1.0854120705e+02   1.6318742924e+01    0.1802307    0.1477746 -32.10 0.0007628836    1.589    0.371
       379 -11.9535     17.2175    238.2830   1.2882213703e+02   2.5960333463e+01    0.8798372    0.1632636  31.29  0.003963366    4.390    0.772
       380 -10.1992     13.4501    221.9211   1.2893881513e+02   2.8865391285e+01    0.1458538     0.101944  51.68 0.0007678478    1.093    0.085
       381 -10.2147    190.5074    227.4319   9.7290447493e+01   6.4592187074e+00    0.2785955    0.1046917 -37.32   0.00149115    3.254    0.693
       382 -10.1967    141.4565    221.0752   1.0508596242e+02   1.4028134167e+01    0.2192845    0.1303854  25.92  0.001348734    1.616    0.381
