#   1 NUMBER                 Running object number                                     
#   2 MAG_AUTO               Kron-like elliptical aperture magnitude                    [mag]
#   3 X_IMAGE                Object position along x                                    [pixel]
#   4 Y_IMAGE                Object position along y                                    [pixel]
#   5 X_WORLD                Barycenter position along world x axis                     [deg]
#   6 Y_WORLD                Barycenter position along world y axis                     [deg]
#   7 A_WORLD                Profile RMS along major axis (world units)                 [deg]
#   8 B_WORLD                Profile RMS along minor axis (world units)                 [deg]
#   9 THETA_WORLD            Position angle (CCW/world-x)                               [deg]
#  10 FWHM_WORLD             FWHM assuming a gaussian core                              [deg]
#  11 ELONGATION             A_IMAGE/B_IMAGE                                           
#  12 ELLIPTICITY            1 - B_IMAGE/A_IMAGE                                       
         1 -14.7800      7.7418    148.0143   1.5083987699e+02   4.2907403186e+01     5.344993     1.461108  87.07   0.02068077    3.700    0.730
         2 -11.9739      2.1052     36.9679   1.4425921092e+02   6.9728060472e+01     1.573224    0.1317389 -77.01  0.003368093   10.045    0.900
         3 -12.3770      2.2865     10.5774   1.3821638609e+02   7.5847028138e+01    0.8791825    0.4633105  82.58  0.004236623    2.756    0.637
         4 -11.9514      3.0575      3.6270   1.3509166142e+02   7.7352027392e+01    0.5437773    0.4248517  26.27  0.003640494    1.562    0.360
         5 -13.5123    205.6210      9.6071   6.4298986921e+01   3.1589361810e+01     1.539863     1.061478  36.29  0.007912962    1.751    0.429
         6 -13.1465    191.8946     28.1941   7.1242144536e+01   3.3187301742e+01     1.288179      1.22262  75.18  0.006113036    1.055    0.052
         7  -9.9658    198.3924    244.8145   1.1785290698e+02   1.8790045928e+00    0.1374886   0.08870049  -9.43 0.0009536258    1.704    0.413
         8 -10.7785    139.1810    250.0860   1.2924510206e+02   9.1249569685e+00    0.2385686    0.1402609  41.80  0.001593495    1.343    0.255
         9 -10.9596    125.2178    249.8806   1.3185410747e+02   1.0979961880e+01    0.3792389    0.1030505  36.83  0.001766458    2.458    0.593
        10 -10.6552    102.0416    247.8005   1.3608699061e+02   1.4224725226e+01    0.2188344    0.1912789  39.57 0.0008321658    1.243    0.196
        11  -9.3870     28.9613    249.5330   1.4982075798e+02   2.2089368399e+01    0.1772356    0.1169273  45.65 0.0007863663    1.071    0.066
        12 -10.1081     33.4631    248.5008   1.4897851542e+02   2.1813620168e+01    0.3896253     0.106133  42.97   0.00221214    2.083    0.520
        13 -10.5124     35.1132    244.5079   1.4853951943e+02   2.2264718150e+01     0.241378    0.1897599   0.81  0.001674371    2.057    0.514
        14  -9.9548      2.0747    248.5138   1.5450297511e+02   2.4626028697e+01     0.267935    0.1397818  84.27  0.002048785    1.879    0.468
        15  -9.7862     81.9936    242.7784   1.3957714551e+02   1.7410174275e+01    0.2597504    0.1278559  60.81  0.001522189    2.200    0.545
        16 -10.5782      3.8131    240.7464   1.5408211710e+02   2.5680390339e+01    0.3930394    0.1569569  35.16  0.002025286    1.802    0.445
        17  -9.4019     72.2768    240.1284   1.4128827044e+02   1.8957213904e+01    0.1951424    0.0955632 -78.15  0.001179477    2.698    0.629
        18  -9.5291     12.5774    240.8051   1.5252558052e+02   2.4928729508e+01    0.1832525    0.1087934  38.35  0.001401922    1.310    0.237
        19  -9.2579    183.4461    238.5044   1.1971801924e+02   4.5442763063e+00    0.1161415   0.08012942  22.50  2.12401e-05    1.065    0.061
        20 -14.0032      9.0767    206.3467   1.5238607130e+02   3.1052237895e+01     9.692163          nan  33.66   0.02002941    4.550    0.780
        21  -8.6639     94.1204    216.1918   1.3501508454e+02   2.0082813326e+01    0.1639784    0.1071192  51.08 0.0002627221    1.314    0.239
        22  -8.7706    152.5002    212.9286   1.2237246639e+02   1.2242717578e+01    0.1425329    0.1231215 -33.83 0.0003484013    1.466    0.318
        23 -10.0869    249.1458    249.0134   1.1003856265e+02  -4.7045805722e+00     0.232736     0.115307   9.54  0.001538264    1.761    0.432
        24 -11.1982     21.1227    200.3464   1.4969765739e+02   3.1130352803e+01    0.3674994    0.1349137  47.38  0.001185898    1.909    0.476
        25 -11.1398     65.0503    199.1551   1.3995272547e+02   2.6781797916e+01     0.298227     0.224751 -41.39  0.001281892    1.885    0.470
        26  -9.6286    192.1423    193.3493   1.1152029934e+02   8.8219231227e+00     0.376535    0.2402067 -61.96  0.001627319    4.379    0.772
        27 -10.8131     13.2247    197.0470   1.5126569174e+02   3.2428796230e+01    0.3162286    0.1429924  38.21  0.001153457    1.689    0.408
        28  -8.4354     51.2377    197.2113   1.4292941491e+02   2.8733668259e+01    0.1624479    0.1012694  53.12 0.0004335637    1.287    0.223
        29 -11.5510     70.7662    191.1505   1.3797490949e+02   2.7606784628e+01     0.237421    0.2310181 -57.20 0.0004831429    1.315    0.239
        30 -13.0185     67.3106    176.3112   1.3744051362e+02   3.0996630943e+01     0.448942    0.2794082 -42.09  0.001544982    2.270    0.559
        31 -10.7012     80.1767    178.3448   1.3445831533e+02   2.8915161217e+01    0.2346094    0.1976873  38.46 0.0003631775    1.115    0.104
        32  -8.5152    171.2136    173.1577   1.1229886571e+02   1.5228423168e+01    0.1656775     0.144622  41.21 0.0002885605    1.257    0.204
        33 -11.6217     87.6612    168.5918   1.3144015654e+02   2.9869392177e+01    0.6983759    0.5563669  31.78  0.004161197    1.206    0.171
        34 -12.4371     39.6848    233.8141   1.4726764231e+02   2.3504212613e+01    0.2442316    0.2341881  85.76 0.0007817589    1.454    0.312
        35 -10.3641    189.6538    153.1755   1.0463733105e+02   1.5034644622e+01    0.3759683    0.2957861 -88.66  0.001406964    2.552    0.608
        36  -9.5011    183.5921    146.7738   1.0456159909e+02   1.7181571171e+01    0.2797956    0.2296931 -85.89  0.001188269    2.087    0.521
        37  -8.5514    180.0061    142.9827   1.0451376449e+02   1.8490256471e+01    0.1938377    0.1739144  75.87 0.0004051838    1.545    0.353
        38  -9.7324     99.4678    152.5524   1.2608186080e+02   3.1468245977e+01      0.27988    0.2473436  44.91  0.000769101    1.011    0.011
        39 -11.8179     88.1659    151.9759   1.2906572645e+02   3.3336658291e+01    0.2707417     0.249377 -12.18 0.0005720296    1.302    0.232
        40 -12.3038     67.2007    144.1217   1.3388302138e+02   3.8030316726e+01    0.8100157    0.5075833  68.66  0.004030082    1.764    0.433
        41 -14.1887     45.7056    226.4027   1.4575565728e+02   2.4107389943e+01     2.336958     1.358864  24.25  0.004984549    1.837    0.456
        42  -8.5592    102.5566    148.2047   1.2454539347e+02   3.1902846177e+01    0.1872471    0.1308123 -42.31 0.0009340409    1.676    0.403
        43  -8.3409    192.2125    143.9865   1.0220804322e+02   1.5976802139e+01    0.1713616    0.1089409 -31.95  0.000449398    1.622    0.384
        44 -10.7522      4.5105    228.4938   1.5374533556e+02   2.7594412554e+01    0.2533535     0.159716  67.85   0.00199453    1.274    0.215
        45  -9.4846      8.0476    226.2980   1.5304504329e+02   2.7666519372e+01    0.1940808    0.1289319  19.48  0.001425484    1.849    0.459
        46 -10.1224     86.0923    136.2222   1.2721671971e+02   3.7181907307e+01    0.2872673    0.1996364  52.40 0.0005410989    1.401    0.286
        47 -10.5681     97.3962    134.8716   1.2368899304e+02   3.5689941168e+01    0.3225164    0.2403873  25.84 0.0006333552    1.406    0.289
        48 -10.9939     57.3215    132.0794   1.3525958054e+02   4.2077092569e+01     0.493654    0.1884475 -80.48  0.001705433    3.655    0.726
        49  -9.3543    101.8279    224.7867   1.3418297004e+02   1.7670209312e+01    0.1687349    0.1079426  50.53 0.0007985928    1.361    0.265
        50  -9.4880    162.9623    127.6074   1.0487562347e+02   2.4594466709e+01    0.3596112    0.2481111  69.39  0.001536703    2.285    0.562
        51  -9.3219    107.2623    124.1049   1.1872187979e+02   3.6400314452e+01    0.2012143    0.1912047   3.67 0.0003686656    1.128    0.113
        52  -9.4974    110.4058    137.4028   1.2047005721e+02   3.2905421054e+01    0.3661586    0.2308812 -27.73  0.001346351    2.335    0.572
        53 -10.4183    173.7684    222.4034   1.1942546546e+02   7.8228874402e+00    0.3224424     0.246406  56.08  0.002097531    1.898    0.473
        54 -10.2068    167.9878    113.1351   1.0023915459e+02   2.6138180581e+01    0.3297098    0.2925133  84.59 0.0009337893    1.449    0.310
        55  -9.1933    203.4819    111.5183   9.2602798899e+01   1.8741773576e+01    0.1449762    0.1279578   5.76 5.473653e-05    1.033    0.032
        56  -9.3122    151.6678    229.3202   1.2459509759e+02   1.0097178978e+01    0.1152239   0.07638263  50.77 0.0006262055    1.696    0.410
        57  -7.9921     34.9776     93.0000   1.3748417434e+02   5.4029117533e+01     0.202971   0.07661645  21.63 0.0005976788    2.900    0.655
        58  -9.1712     73.9053     86.8280   1.2122738995e+02   5.0860647134e+01    0.3861714    0.1938105  57.25  0.001359994    3.027    0.670
        59  -8.4434    184.5005     77.5029   8.7165546076e+01   2.8334346761e+01     0.151428    0.1428674  10.18 0.0008104607    1.033    0.032
        60  -8.8630    156.3298     76.3114   9.2690102120e+01   3.5480553163e+01    0.1648114    0.1202694  18.80 0.0007042612    1.670    0.401
        61 -11.7300     10.7041     64.2579   1.4368314207e+02   6.2803984073e+01    0.5724071    0.2118648  30.52  0.002535174    2.850    0.649
        62 -11.1538      1.9579     61.5218   1.4743882060e+02   6.3777191252e+01    0.5587966    0.1436742 -83.84  0.001974305    3.628    0.724
        63  -8.5793     36.8006     63.6605   1.3122813614e+02   6.1213918457e+01    0.1780934    0.1191949  35.09 0.0004016284    1.611    0.379
        64 -10.0465     29.9617     61.1558   1.3394605910e+02   6.2419797580e+01    0.2887661    0.1995404  30.09 0.0004636003    1.580    0.367
        65  -9.8086     81.5406    248.5417   1.4004608982e+02   1.6615754076e+01    0.2519175    0.1008733  54.27  0.001372674    2.377    0.579
        66  -9.0606     47.0380    249.5052   1.4654492046e+02   2.0300732798e+01    0.1540971   0.07495698  35.01 0.0003919763    1.532    0.347
        67  -9.2577    152.3338    248.3318   1.2660856575e+02   7.5960988048e+00    0.1121969    0.0703906  13.70 0.0004434257    1.729    0.422
        68 -10.1987    238.2360    247.3680   1.1152687194e+02  -3.3099667691e+00    0.2007989     0.110558  45.03  0.001170484    3.067    0.674
