#   1 NUMBER                 Running object number                                     
#   2 MAG_AUTO               Kron-like elliptical aperture magnitude                    [mag]
#   3 X_IMAGE                Object position along x                                    [pixel]
#   4 Y_IMAGE                Object position along y                                    [pixel]
#   5 X_WORLD                Barycenter position along world x axis                     [deg]
#   6 Y_WORLD                Barycenter position along world y axis                     [deg]
#   7 A_WORLD                Profile RMS along major axis (world units)                 [deg]
#   8 B_WORLD                Profile RMS along minor axis (world units)                 [deg]
#   9 THETA_WORLD            Position angle (CCW/world-x)                               [deg]
#  10 FWHM_WORLD             FWHM assuming a gaussian core                              [deg]
#  11 ELONGATION             A_IMAGE/B_IMAGE                                           
#  12 ELLIPTICITY            1 - B_IMAGE/A_IMAGE                                       
         1 -14.2557    153.1251     92.7770   7.2702936132e+01   3.2928598180e+01     2.297585    0.9232581 -52.97  0.004032453    3.704    0.730
         2 -16.1768    134.4735     16.5020   5.0106180552e+01   4.9713701327e+01     6.285685     3.934715 -32.28   0.02943828    1.538    0.350
         3 -15.7199    214.2669    121.8788   6.8694125406e+01   1.5237218470e+01     2.929389     1.638376 -47.09  0.009787351    2.082    0.520
         4 -17.4332    232.6771     67.6025   5.2867607087e+01   1.9340809187e+01     9.718385     5.844925 -26.77   0.04863685    1.437    0.304
         5 -14.1065    203.9353     35.8080   4.7453137485e+01   2.9758414389e+01    0.9447907    0.3416198 -24.53  0.003479964    2.653    0.623
         6 -10.8390     79.2093     11.6425   6.0416283001e+01   6.4044408469e+01    0.2322357    0.1788651 -31.87  0.000606379    1.280    0.219
         7 -10.7631    224.0243     11.0400   3.8806781503e+01   2.7846417405e+01    0.1938328    0.1505911  18.57  0.001112478    1.666    0.400
         8 -12.4134     58.6120      2.6687   6.2185051210e+01   6.9595321353e+01    0.4287178     0.144883  48.27  0.001678685    2.784    0.641
         9 -12.3316    189.5053    148.4816   7.8830649188e+01   1.5646299030e+01    0.2876344    0.2490075 -45.33  0.001023868    1.325    0.245
        10 -14.2701    162.7919     76.9238   6.6065314663e+01   3.3583438789e+01     1.259819    0.9434308  34.49  0.002082086    1.521    0.343
        11 -10.9670    202.1405    248.1956   9.2839005376e+01   7.2678379588e-01    0.1547461    0.1049292  15.64 0.0003966337    1.170    0.145
        12 -14.0711    196.0726     73.4399   5.9270346238e+01   2.6413501166e+01    0.9091956    0.7985902   0.65  0.003073924    1.222    0.182
        13 -14.9027    180.5455     82.1775   6.4284879060e+01   2.8565056721e+01     2.544879     1.169322  32.29  0.007878881    4.132    0.758
        14 -11.1406     95.0701    220.6877   1.0882908655e+02   1.8330610655e+01    0.2383557    0.1485532  53.26 0.0005300193    1.429    0.300
        15 -13.3566    192.6750    194.6002   8.6753362785e+01   8.3040777784e+00    0.8706064    0.5064307 -61.60   0.00342533    5.383    0.814
        16 -11.3927    133.8450    146.3265   8.9960930742e+01   2.6191997588e+01    0.7642559    0.2206759 -54.36   0.00221611    4.803    0.792
        17 -10.5643    132.4559    138.9739   8.8804642196e+01   2.7931065877e+01    0.2964112     0.209318 -69.12  0.001423643    1.788    0.441
        18 -11.2724    144.1790    146.4989   8.7655604391e+01   2.4277920242e+01    0.4212442    0.3091099 -77.27  0.002061176    1.969    0.492
        19 -11.9853    187.6919    168.4550   8.3094461315e+01   1.2841481766e+01    0.2147755    0.1812768  51.92 0.0008529737    1.442    0.307
        20 -11.5721    136.0000    129.4926   8.5937548468e+01   2.9199758463e+01     1.082091    0.1820394 -48.41  0.002505704    6.538    0.847
        21 -11.3434    135.1404    121.3262   8.4274462044e+01   3.1049203730e+01    0.6470493    0.2262376 -50.02  0.001736221    3.056    0.673
        22 -12.4480    134.7090    108.0095   8.1097124617e+01   3.3898561294e+01     1.796916    0.2601635 -45.57  0.003831535    6.898    0.855
        23 -11.3229    132.2245     98.4215   7.9153010494e+01   3.6412148392e+01    0.3901947    0.2662695 -58.49  0.000609167    1.630    0.387
        24 -10.7198    166.0383    134.4991   8.0417287332e+01   2.2400303287e+01    0.2037238     0.136248  43.01 0.0003287032    1.501    0.334
        25 -13.2514    161.4713    128.0502   7.9912849269e+01   2.4478549305e+01    0.8011653    0.5454467  25.99  0.003208685    1.716    0.417
        26 -12.9287    171.3603    123.1158   7.6720474339e+01   2.3403833692e+01    0.7608389    0.5004528 -65.35   0.00328873    2.381    0.580
        27 -12.4461    157.7026    113.8021   7.7299270100e+01   2.7930454468e+01    0.5551972    0.3815068 -55.73  0.001030802    1.661    0.398
        28 -14.0901    167.1206    114.3366   7.5452573429e+01   2.5863914181e+01     1.240791    0.8089178 -25.35  0.002110968    1.683    0.406
        29 -11.9408    174.7034    114.4811   7.3965364216e+01   2.4262203695e+01    0.2842591    0.2563155 -58.22  0.000819797    1.234    0.190
        30 -12.6803    199.7582    163.3992   7.9953573795e+01   1.1598813552e+01    0.6128657    0.3636432 -63.84  0.002085306    5.880    0.830
        31 -11.2090    120.0111    111.2218   8.5618274632e+01   3.6205803985e+01     1.019632    0.5511501 -74.28  0.002860423    5.048    0.802
        32 -12.0855    127.2306    105.0995   8.2200123027e+01   3.6062731171e+01    0.4653809    0.2899777 -51.17  0.001708721    1.608    0.378
        33 -12.3582    122.8654    102.8094   8.2718582421e+01   3.7453680433e+01    0.6992583    0.3277562  39.78  0.002501278    2.342    0.573
        34 -11.8452    112.6886    107.7230   8.6694082958e+01   3.8418810885e+01     0.773689    0.3924011 -35.96  0.002892143    2.483    0.597
        35 -11.4785    111.8094    102.8638   8.5691686178e+01   3.9675857244e+01    0.4741572    0.2758802 -42.99  0.001962812    1.722    0.419
        36 -10.4168    115.1479    113.1997   8.7381479072e+01   3.6722685696e+01    0.2247397    0.2108005  -3.28 0.0009730495    1.195    0.163
        37 -10.8998    178.1608    110.1401   7.2210051371e+01   2.4306195439e+01    0.2222403    0.1909515  -0.51  0.000578341    1.223    0.182
        38 -10.4867    140.1810    106.0486   7.9272794625e+01   3.3150841996e+01     0.292964     0.227106  -6.35 0.0006918331    1.677    0.404
        39 -11.6266    145.0619    103.0539   7.7339484549e+01   3.2708971227e+01    0.3336969    0.3206489 -32.01 0.0007946219    1.016    0.016
        40 -10.4053    113.4842     95.0002   8.3110730298e+01   4.1080226911e+01     0.216622    0.2089893  54.25 0.0003381624    1.077    0.071
        41 -11.8963    138.1567     92.9863   7.6183402809e+01   3.6228590155e+01    0.3513728    0.3041516  75.66  0.001173476    1.303    0.233
        42 -10.7142    131.8671     91.1390   7.7187227733e+01   3.7989142420e+01    0.3224786    0.2020755 -56.96 0.0007090069    1.811    0.448
        43 -10.6871    197.3850     84.1550   6.2007755401e+01   2.4473188744e+01    0.4423128    0.2376661 -44.07 0.0001417865    1.811    0.448
        44 -11.8261    204.6699     89.2729   6.2223617107e+01   2.2110567246e+01      0.39682    0.2353626  46.52 0.0002276563    1.847    0.459
        45 -12.1461    202.3240     86.6330   6.1893655695e+01   2.3016550796e+01    0.4434367    0.3077497 -46.04  0.001529388    1.430    0.301
        46 -11.0278     90.1856     82.0235   8.6289549275e+01   4.8603991298e+01    0.3426348    0.2116721 -65.79  0.001428371    1.944    0.486
        47 -13.2054     52.0245    158.5755   1.1219662626e+02   3.6045283748e+01    0.3399259    0.2820921  19.47 0.0009286643    1.508    0.337
        48 -12.2972    204.7500    199.2826   8.5425129158e+01   5.9353646616e+00    0.2678047    0.1618105 -13.26  0.001566804    1.836    0.455
        49 -10.9163    138.9650     78.0384   7.1528917323e+01   3.8979001345e+01    0.2369936    0.2234088 -37.51 0.0004471484    1.023    0.023
        50 -10.8811     86.2872     73.4033   8.4885805245e+01   5.1298905457e+01    0.2673618    0.1783911 -66.73  0.001102952    1.783    0.439
        51 -15.5594     62.9607    151.0083   1.0848579044e+02   3.6415295283e+01     1.778373      1.35224 -12.17   0.00584136    2.056    0.514
        52 -10.9318    175.4068     67.9986   6.1047301705e+01   3.2074400976e+01    0.2572838    0.2227577  86.28 0.0005123693    1.300    0.231
        53 -12.5996    103.4529     62.1675   7.5579721202e+01   5.0180835795e+01    0.5488942    0.3850977 -42.56  0.001778207    1.353    0.261
        54 -11.3828    196.6740     63.5352   5.6382124046e+01   2.7747805649e+01    0.2731829    0.2001512 -43.58 0.0006526161    1.266    0.210
        55  -9.4537    247.3336    174.2407   7.4322076063e+01   2.9491024641e+00    0.1146881   0.07173455   9.56 0.0001823813    1.543    0.352
        56 -10.5454     71.0917     53.3528   8.3252092254e+01   5.8525301440e+01    0.2637906    0.1910631 -50.88  0.000281993    1.309    0.236
        57 -10.4760    100.0000     47.9140   7.1173186088e+01   5.3687686554e+01    0.2525638   0.08284195 -37.60 0.0007975812    2.909    0.656
        58 -13.2656     39.8407    165.1643   1.1587627076e+02   3.5945467664e+01     1.658859    0.6403261  70.67  0.006312286    3.578    0.721
        59 -11.2483    200.7688     25.4153   4.4739569479e+01   3.1734460507e+01     0.395838    0.2154723 -32.71  0.001856616    1.594    0.373
        60 -11.4346    191.0778     40.0393   5.0203165585e+01   3.2315569883e+01    0.2267873    0.1890363 -42.14 0.0006402234    1.086    0.079
        61 -10.2736    189.9861     35.9659   4.9095083728e+01   3.3099892806e+01     0.180378    0.1262434 -29.58  0.000894409    1.318    0.242
        62 -10.7363    211.8951     26.6650   4.4047256824e+01   2.8963627522e+01    0.3779864    0.3573043 -28.79  0.002366194    1.122    0.109
        63 -10.0283    190.2034     27.2749   4.6398808566e+01   3.4096725160e+01    0.1251891    0.1043745   7.32 0.0002686033    1.403    0.287
        64 -11.0010    217.5911     21.3942   4.2088163668e+01   2.8231962183e+01    0.1932684    0.1220594 -11.03 0.0009545469    1.788    0.441
        65 -13.0050    188.1784    154.1757   8.0238940830e+01   1.4975763904e+01    0.4437808     0.319965 -65.34  0.002237982    2.302    0.566
        66 -14.9462      9.5687    177.1897   1.2378992616e+02   3.6234283750e+01     2.145435    0.9195014  82.20    0.0112786    2.097    0.523
        67 -14.7521     25.9833    173.1809   1.1980305624e+02   3.5604024907e+01    0.8784837    0.7036234  67.78  0.003523094    1.028    0.027
        68 -13.0163    192.4009    153.6385   7.9352228661e+01   1.4322765004e+01     0.465417     0.248069 -46.66  0.002182696    2.210    0.547
        69 -12.1737    203.3539    191.1083   8.4316027201e+01   7.1872475911e+00    0.2678254    0.1786896  21.01  0.001659865    1.360    0.265
