#   1 NUMBER                 Running object number                                     
#   2 MAG_AUTO               Kron-like elliptical aperture magnitude                    [mag]
#   3 X_IMAGE                Object position along x                                    [pixel]
#   4 Y_IMAGE                Object position along y                                    [pixel]
#   5 X_WORLD                Barycenter position along world x axis                     [deg]
#   6 Y_WORLD                Barycenter position along world y axis                     [deg]
#   7 A_WORLD                Profile RMS along major axis (world units)                 [deg]
#   8 B_WORLD                Profile RMS along minor axis (world units)                 [deg]
#   9 THETA_WORLD            Position angle (CCW/world-x)                               [deg]
#  10 FWHM_WORLD             FWHM assuming a gaussian core                              [deg]
#  11 ELONGATION             A_IMAGE/B_IMAGE                                           
#  12 ELLIPTICITY            1 - B_IMAGE/A_IMAGE                                       
         1 -15.5949    153.3442     92.6509   7.1287239748e+01   3.3110761476e+01      4.64694     1.724687 -54.40   0.01121816    5.395    0.815
         2 -14.3279    203.6227     34.4076   4.5508337177e+01   3.0110476257e+01     1.334964     0.344949 -35.79  0.004570084    3.302    0.697
         3 -18.5140    235.3050     58.5563   4.7673434215e+01   1.9283136645e+01     11.45887     9.472834 -71.26    0.0626839    1.163    0.140
         4 -10.5303    224.6615     10.5904   3.7386611778e+01   2.7909609530e+01    0.2624416    0.2192296  55.32  0.001655865    1.409    0.290
         5 -10.6673     79.3452     11.9032   6.2625376645e+01   6.2467244503e+01     0.181272    0.1470015   3.11 0.0005230578    1.140    0.123
         6 -11.2044     90.3227      6.3115   5.6863530589e+01   6.0774449816e+01    0.1322715    0.1187983  31.64 0.0002896801    1.092    0.084
         7 -12.4365     58.9819      2.5738   6.5190131856e+01   6.7201775917e+01    0.4227205    0.1395495  40.98  0.001837248    2.657    0.624
         8 -12.0633     69.9322      2.4871   6.1261281263e+01   6.5222326594e+01    0.4183365   0.09268733  50.43  0.001513733    3.659    0.727
         9 -13.4466    192.9935    194.9905   8.6418331846e+01   4.3215377402e+00     1.068493    0.6037261 -65.24  0.003560981    4.976    0.799
        10 -13.1526     39.6025    165.3317   1.1704650862e+02   3.5851940087e+01     1.730057    0.7184801  75.63  0.006008482    4.138    0.758
        11 -14.8533     25.2898    172.9801   1.2112488912e+02   3.5544257575e+01    0.9681519    0.8108183 -83.30  0.003614072    1.137    0.121
        12 -14.7770     12.9976    184.6447   1.2469179864e+02   3.4079128173e+01     1.464619    0.8573351  67.38  0.008992085    1.471    0.320
        13 -13.8386      8.0531    167.1406   1.2449966931e+02   3.8403927077e+01     1.012352      0.69561  82.65  0.006658901    1.167    0.143
        14 -12.2610    203.5303    190.9765   8.3551184532e+01   3.1156246935e+00    0.3510138    0.2203463 -33.71  0.001245078    1.626    0.385
        15 -10.7461    202.1334    248.3261   9.3580412770e+01  -5.1893531615e+00    0.1675899    0.1236633  29.48 0.0004154856    1.102    0.093
        16 -14.4256    163.4104     77.0536   6.4450154973e+01   3.3632716865e+01     1.499564     1.093112  35.02   0.00283184    1.540    0.351
        17 -14.9109    181.7816     81.0983   6.1865981601e+01   2.8371931472e+01     2.721757     1.296264  33.79  0.008448868    3.685    0.729
        18 -11.1403    110.0180    224.0181   1.0826044949e+02   1.3361281010e+01    0.2132278    0.1368632  66.12  0.001143357    1.688    0.408
        19 -14.2372    196.6595     73.6206   5.7097694384e+01   2.6010815678e+01     1.024666    0.9063563 -13.69  0.003679821    1.267    0.211
        20  -9.6654    205.2961    223.6911   8.9096107448e+01  -2.3015246271e+00    0.1121906   0.09911005  59.62 0.0002817609    1.591    0.372
        21 -11.2398    134.0000    147.0969   8.9993130964e+01   2.5474966213e+01    0.6724141    0.2073017 -52.96  0.001968138    3.623    0.724
        22 -11.0707    132.6093    140.1750   8.8809212554e+01   2.7335562259e+01    0.6339666    0.2313492 -54.51  0.001970194    3.172    0.685
        23 -10.6818    143.5256    146.8927   8.7592468083e+01   2.3588193794e+01    0.4215874    0.1979296 -54.36  0.001524401    2.385    0.581
        24 -11.5794    203.1897    171.8970   7.9795748646e+01   6.4829858743e+00    0.2870788    0.1777524  16.67   0.00124496    2.127    0.530
        25 -12.2416    135.3104    124.1593   8.4312335934e+01   3.0426805159e+01      1.76152    0.2886963 -49.95  0.003282809    8.327    0.880
        26 -12.4315    134.7438    108.0744   8.0275909141e+01   3.4138927551e+01     1.323722    0.2670176 -45.58  0.003165243    4.928    0.797
        27 -11.3310    132.4284     98.6024   7.8254642056e+01   3.6702583713e+01    0.3750462    0.2667141 -54.07 0.0007328053    1.491    0.330
        28 -11.4582    187.9555    168.4959   8.2200257749e+01   1.0056457907e+01     0.222957    0.1396058  43.51  0.001023567    1.578    0.366
        29 -10.4241    166.0213    134.5218   7.9372851958e+01   2.1485927874e+01    0.2277023    0.1535819  44.59 0.0003749481    1.491    0.329
        30 -13.2855    171.5192    123.8341   7.5490717771e+01   2.2495418197e+01     0.997693    0.6569524 -74.45  0.003748002    2.585    0.613
        31 -11.5723    174.7183    114.5307   7.2401938606e+01   2.3666554024e+01    0.3213921    0.2757116 -78.60 0.0008468247    1.367    0.268
        32 -12.8554    160.8819    128.1803   7.9013815174e+01   2.3965974860e+01     0.686681    0.5738139  -8.09  0.002208844    1.398    0.285
        33 -12.6777    159.2278    115.8002   7.6249582066e+01   2.6968300808e+01      1.68462    0.9345618 -73.83  0.003794462    7.203    0.861
        34 -13.2884    167.9199    113.9348   7.3756554028e+01   2.5359295559e+01    0.6156885    0.5858476 -10.86 0.0009715593    1.078    0.072
        35 -12.1836    177.3126    169.6970   8.4716687705e+01   1.1927518682e+01    0.2519446    0.2357916 -89.98  0.000764954    1.267    0.211
        36  -9.6990     98.0112    130.7629   9.5972524276e+01   3.6124126725e+01    0.1825627    0.1266502  39.73 0.0003546074    1.501    0.334
        37 -10.7959    115.5391    113.6654   8.6974790157e+01   3.6908089241e+01    0.2995405    0.1929042  44.76 0.0007746534    1.601    0.375
        38 -13.0060    124.5840    104.6815   8.2072944577e+01   3.7081635938e+01     1.277017    0.8988034  59.91  0.004823963    1.661    0.398
        39 -11.6251    112.5792    108.7007   8.6516999845e+01   3.8638907914e+01    0.6327323    0.3992097 -27.60  0.002556188    2.068    0.516
        40 -11.5760    112.1581    103.0977   8.5131384136e+01   3.9998411269e+01    0.5632294    0.3323199 -51.28   0.00183671    1.689    0.408
        41 -12.4633    199.8465    163.4425   7.8678873079e+01   8.6612190942e+00    0.7162952    0.4112094 -67.69  0.002099692    5.443    0.816
        42 -10.5182    140.4884    105.9908   7.8219449486e+01   3.3316600854e+01    0.3034015    0.2490371   2.91 0.0008795978    1.497    0.332
        43 -11.5435    145.4189    103.0309   7.6155894832e+01   3.2829694088e+01     0.356206    0.3244268  16.41 0.0006871666    1.181    0.154
        44 -10.5070    113.5210     95.0240   8.2471066292e+01   4.1519129658e+01    0.2236716    0.2111815  35.15 0.0003456753    1.089    0.081
        45 -11.8609    138.3258     93.0577   7.5115776170e+01   3.6537693218e+01    0.3669138     0.311868  67.75 0.0009178472    1.306    0.234
        46 -10.7412    131.9193     91.2358   7.6255664705e+01   3.8368404933e+01    0.3198294    0.2125461 -57.55 0.0005357149    1.756    0.431
        47 -13.7791     51.5600    158.4195   1.1328274559e+02   3.6135842734e+01     0.559383    0.4442433 -75.00 0.0009610991    1.114    0.103
        48 -12.5889    202.7504     87.3454   5.9711026703e+01   2.2197900686e+01     0.626875    0.4616122 -77.18  0.001408139    1.708    0.414
        49 -10.7933     78.4911     86.3334   9.0886324333e+01   4.9866885061e+01    0.2492779    0.1359347  36.33  0.001085744    1.971    0.493
        50 -11.2365     87.2499     75.6176   8.4737597557e+01   5.0712447239e+01    0.7932004    0.2869111 -57.58  0.001868673    6.761    0.852
        51 -10.8611    197.4844     84.0463   5.9762036533e+01   2.4030511882e+01    0.2196558    0.1443222 -37.22 -3.793741e-05    1.463    0.316
        52 -14.5943     58.9071    154.2393   1.1083900766e+02   3.6240509756e+01     1.361014     1.078208 -18.45  0.002821519    1.813    0.449
        53 -15.2919     65.3715    149.5885   1.0845273161e+02   3.6529844557e+01     1.610896     1.253062 -41.49   0.00375077    1.493    0.330
        54 -14.3742    213.6588     65.5869   5.2291020082e+01   2.3210223007e+01     1.094093    0.8171393 -48.24  0.005682972    1.252    0.201
        55 -12.2765    102.9299     62.6070   7.5387543629e+01   5.0275292334e+01    0.4798503    0.3166493 -53.42  0.002183077    1.812    0.448
        56 -12.3113    111.3962     58.1090   7.1301334485e+01   4.9292812261e+01    0.5181764    0.1587077  41.01  0.001553425    3.715    0.731
        57 -10.7808     71.1134     53.4606   8.2849636185e+01   5.7818682448e+01    0.2409799    0.1803272 -41.79 0.0003311793    1.307    0.235
        58 -10.5228    193.3222    177.6881   8.2980845487e+01   7.3144625538e+00    0.1356308     0.116065  84.07  0.000663548    1.653    0.395
        59 -12.8523    187.3631    153.5162   7.9082649260e+01   1.3060483641e+01     0.497684    0.3757756 -85.92  0.002225753    2.121    0.528
        60 -11.6732    191.1353     40.2995   4.8786626946e+01   3.2437866427e+01    0.2445353    0.2214983  87.02 0.0003888104    1.038    0.037
        61 -10.1433    190.1625     35.9345   4.7709641504e+01   3.3261141377e+01    0.1877024    0.1579971 -42.86  0.001038889    1.197    0.165
        62 -10.0887    190.2530     27.2939   4.5298648697e+01   3.4322512034e+01    0.1288373    0.1044327  33.83 0.0002791753    1.488    0.328
        63 -12.8027    192.5370    153.7219   7.8046107017e+01   1.1956918162e+01    0.5135644    0.2660991 -45.57  0.001774614    1.997    0.499
        64 -12.3581    189.9631    148.9419   7.7505889255e+01   1.3413965000e+01    0.3886592    0.2892177 -59.93  0.001509008    1.656    0.396
        65 -10.3912    211.7050     13.8142   3.9340002383e+01   3.0604341999e+01    0.1184099   0.08692624  58.78 0.0006567793    1.431    0.301
        66 -11.2103     95.2386    220.9796   1.1093301151e+02   1.6220893196e+01    0.2692744    0.1506133  51.38 0.0005807546    1.557    0.358
        67  -9.5048    219.4191     12.3805   3.8269039002e+01   2.8933793429e+01    0.1277381    0.1083731 -79.23 0.0007925542    1.021    0.021
        68 -11.4650    183.9942    206.0082   9.0239919268e+01   4.0455170793e+00    0.4240495     0.230374 -10.98  0.001413316    4.596    0.782
        69 -12.3821    172.2102    149.6524   8.1504237655e+01   1.6997833448e+01    0.3700835    0.3127012  65.55  0.001861519    1.362    0.266
        70 -10.4029    223.7350    205.4120   8.2412429449e+01  -2.5893688414e+00    0.2444977    0.1145963  42.25  0.001140173    2.139    0.533
        71 -12.6437    205.1300    199.6158   8.4873334267e+01   1.4138538217e+00     0.360101    0.2544422   6.57  0.001926588    1.543    0.352
