#   1 NUMBER                 Running object number                                     
#   2 MAG_AUTO               Kron-like elliptical aperture magnitude                    [mag]
#   3 X_IMAGE                Object position along x                                    [pixel]
#   4 Y_IMAGE                Object position along y                                    [pixel]
#   5 X_WORLD                Barycenter position along world x axis                     [deg]
#   6 Y_WORLD                Barycenter position along world y axis                     [deg]
#   7 A_WORLD                Profile RMS along major axis (world units)                 [deg]
#   8 B_WORLD                Profile RMS along minor axis (world units)                 [deg]
#   9 THETA_WORLD            Position angle (CCW/world-x)                               [deg]
#  10 FWHM_WORLD             FWHM assuming a gaussian core                              [deg]
#  11 ELONGATION             A_IMAGE/B_IMAGE                                           
#  12 ELLIPTICITY            1 - B_IMAGE/A_IMAGE                                       
         1 -14.1629    202.8051     19.7494   6.3177017917e+01   3.1832422244e+01     2.321511     1.448453  28.60   0.01112388    2.748    0.636
         2 -12.2799      2.5726     15.0966   1.1516891518e+02   6.9881942955e+01    0.5831146    0.2294692 -44.65  0.003374297    2.192    0.544
         3 -11.5462      1.7892      4.9789   1.1148365978e+02   7.1311931514e+01    0.4700225    0.1910032 -44.79  0.002710192    2.557    0.609
         4 -14.1549     45.9051    217.1164   1.4044271354e+02   2.4305986177e+01     1.265468    0.7137567  67.75  0.006292151    1.698    0.411
         5  -9.4418    245.6622    250.3066   1.0559463195e+02  -1.3436229448e+01    0.1019269    0.0920155  45.73 0.0007041615    1.677    0.404
         6 -10.7598    163.2896    250.0204   1.2109911009e+02  -3.5465792389e-01    0.3456937    0.1301577  47.75  0.001427269    2.523    0.604
         7 -11.8517    139.5087    248.7666   1.2558770020e+02   3.8834657799e+00    0.3838862    0.2928138 -82.20  0.002291702    1.676    0.403
         8 -13.5680    108.2635    247.0089   1.3146238884e+02   9.3526819556e+00     1.832789    0.3471303  46.75  0.005759531    4.470    0.776
         9 -11.8251     90.6047    246.7770   1.3481812898e+02   1.2155151978e+01    0.4341143    0.2825088  69.93  0.002046675    1.504    0.335
        10 -12.8491     87.8580    243.0697   1.3494682033e+02   1.3268742656e+01    0.6527581    0.5265907  25.60  0.000418974    1.652    0.395
        11 -14.5721     31.6743    245.3446   1.4533229796e+02   2.0392959031e+01     5.715615      1.66866  32.22   0.02123775    5.602    0.821
        12 -13.1037      4.7991    246.9027   1.4983597467e+02   2.3029032632e+01     1.312303    0.7743875 -85.96  0.009420295    1.377    0.274
        13 -10.0589    228.5345    205.4774   1.0069999474e+02  -4.4115955178e+00    0.2359689    0.2192004 -53.93 0.0007135695    1.412    0.292
        14 -10.5108    248.6667    244.0050   1.0399243347e+02  -1.3063797493e+01    0.2580752    0.1062867  27.79  0.001209032    2.444    0.591
        15  -9.9357    192.5005    194.0001   1.0560005157e+02   4.1082718615e+00    0.4467084    0.2324521 -64.66   0.00129429    5.531    0.819
        16 -11.6165     64.7124    193.6588   1.3397960638e+02   2.6937472212e+01     0.387614    0.2610976 -47.33  0.001505101    1.784    0.439
        17  -8.4847    181.5240    192.4483   1.0759987439e+02   6.5265684210e+00    0.1443992    0.1341712  26.00 6.675848e-05    1.005    0.005
        18 -11.7516     69.9975    186.3677   1.3184023266e+02   2.7845486118e+01     0.286955    0.2508652 -49.84 0.0005831581    1.330    0.248
        19 -11.1032     79.5419    174.4745   1.2786672325e+02   2.9184828502e+01    0.2511515    0.2296196 -83.04 0.0001976955    1.043    0.041
        20 -13.2886     66.7750    171.8449   1.3053188483e+02   3.1639561097e+01    0.5211401    0.2846852 -43.95  0.001653466    2.231    0.552
        21 -10.3829    105.1138    173.2014   1.2146993159e+02   2.5314432813e+01    0.4557357    0.1577478  50.81  0.001435989    3.565    0.720
        22 -12.1650     86.2653    165.6213   1.2477385590e+02   3.0212072027e+01    0.9662293     0.581163  58.35  0.004270133    1.892    0.471
        23 -13.1921     65.8086    141.7566   1.2584439047e+02   3.8832237074e+01     2.248219     1.135727 -86.89  0.004761924    4.923    0.797
        24  -9.8114     99.2976    149.9701   1.1854841652e+02   3.1727103696e+01    0.2892124    0.2549784 -14.86 0.0007218888    1.358    0.264
        25  -9.3439    101.9919    146.0636   1.1704998326e+02   3.2168558581e+01    0.2311589    0.1764545 -22.51 0.0005807152    1.696    0.411
        26 -12.2030     87.9730    149.0674   1.2132819582e+02   3.3828474010e+01    0.2979398     0.253078 -38.41 0.0005083584    1.274    0.215
        27 -10.8871     38.7097    146.6696   1.3377387722e+02   4.0929831664e+01    0.2770322    0.1796905  49.79  0.001075356    1.698    0.411
        28 -11.2158     99.9551    238.5882   1.3209824641e+02   1.2248651988e+01    0.2311163    0.1750839 -84.76 0.0006736192    1.385    0.278
        29 -10.3966     71.4725    236.4384   1.3739005318e+02   1.6958396805e+01    0.2148688    0.1730262  70.68 0.0006596942    1.013    0.012
        30  -9.6369    110.5065    135.5204   1.1252159303e+02   3.3058279973e+01    0.3295818    0.2243849 -14.26  0.001342011    2.374    0.579
        31 -10.5935     97.6971    132.7812   1.1535614469e+02   3.6002011877e+01    0.2712126    0.2350282 -14.96 0.0007210005    1.335    0.251
        32 -11.7832     62.8763    217.9550   1.3716950193e+02   2.1916531643e+01    0.5044541    0.2137335  51.97  0.002364307    2.191    0.544
        33  -9.5908    249.6628    230.3195   1.0142190060e+02  -1.1406105304e+01    0.1045104   0.09999411  68.87   0.00070496    1.707    0.414
        34 -12.7109     38.6570    226.4769   1.4264902243e+02   2.3263466836e+01    0.3295904    0.2697709 -74.54 0.0007634107    1.321    0.243
        35  -9.3643    107.2747    122.9794   1.1047628294e+02   3.6506969279e+01    0.1986405    0.1828039 -45.16 0.0002837546    1.062    0.058
        36 -10.8423    167.9421    113.0419   9.2773177976e+01   2.5628995080e+01    0.3791416    0.3059867 -84.89  0.001146541    1.523    0.343
        37 -11.0998     75.3420    228.8249   1.3585074823e+02   1.7918131591e+01    0.2948896    0.2086554  73.02   0.00174685    1.292    0.226
        38 -10.6946     53.0808    111.1614   1.2344885197e+02   4.7487412118e+01    0.3114256    0.1801444 -60.75  0.001546476    1.626    0.385
        39  -9.4388    204.4710    110.8836   8.4814122240e+01   1.7574740556e+01    0.3229833    0.1920842  36.26  0.001340796    2.087    0.521
        40 -10.6928     69.5495    228.4754   1.3695037753e+02   1.8819538019e+01    0.3246063    0.1782759  60.28  0.001118359    1.705    0.413
        41 -10.6640    241.8283     93.1606   7.4656012437e+01   1.2448448762e+01    0.1840979    0.1690126   2.48   0.00109384    1.353    0.261
        42  -9.4820    157.4943     77.4875   8.5630386284e+01   3.4741694634e+01    0.1488853    0.1424084  65.32 -1.742968e-05    1.023    0.022
        43 -11.3484    151.7644    228.8729   1.2025907679e+02   5.2636989407e+00    0.5598188     0.172717  43.28  0.002037649    2.809    0.644
        44 -15.0750     54.2541    208.6691   1.3793331043e+02   2.5038089214e+01     7.914332      1.14813  48.04   0.02179115    6.632    0.849
        45  -8.6288    109.2904     42.6890   8.6619481183e+01   5.0976394124e+01    0.1248043    0.1079059 -77.99 0.0002422028    1.584    0.369
        46 -15.7231      7.9290    196.0510   1.4600170531e+02   3.2850035060e+01     8.304287     1.210977 -71.71   0.01961183    4.953    0.798
        47 -12.4193    101.1037    249.3425   1.3310169712e+02   1.0061398785e+01    0.7298371    0.3232394  45.18  0.003601272    1.858    0.462
