#   1 NUMBER                 Running object number                                     
#   2 MAG_AUTO               Kron-like elliptical aperture magnitude                    [mag]
#   3 X_IMAGE                Object position along x                                    [pixel]
#   4 Y_IMAGE                Object position along y                                    [pixel]
#   5 X_WORLD                Barycenter position along world x axis                     [deg]
#   6 Y_WORLD                Barycenter position along world y axis                     [deg]
#   7 A_WORLD                Profile RMS along major axis (world units)                 [deg]
#   8 B_WORLD                Profile RMS along minor axis (world units)                 [deg]
#   9 THETA_WORLD            Position angle (CCW/world-x)                               [deg]
#  10 FWHM_WORLD             FWHM assuming a gaussian core                              [deg]
#  11 ELONGATION             A_IMAGE/B_IMAGE                                           
#  12 ELLIPTICITY            1 - B_IMAGE/A_IMAGE                                       
         1 -13.2532    223.4793      2.2234   4.2005350993e+01   2.7726941721e+01      2.25533    0.5524353  65.87  0.007223937    3.652    0.726
         2 -13.7918    181.7763     43.9164   5.9074772179e+01   3.3710575793e+01     1.179909     0.886685 -13.81 0.0009270668    1.426    0.299
         3 -14.0633    192.0973     35.3376   5.4875082020e+01   3.2134287249e+01     1.399183     1.097328 -21.23  0.003799831    1.275    0.216
         4 -14.8501    201.0200     24.7253   5.0518272631e+01   3.1075149888e+01     2.160425      1.50878  25.43  0.001644665    1.764    0.433
         5 -12.0052     66.1056      3.6380   7.0361850786e+01   6.8436062545e+01    0.5684702    0.2458998  32.98  0.002085775    3.131    0.681
         6 -11.8670     58.3168      2.7969   7.3289903584e+01   7.0114912374e+01    0.3858088    0.1896328  47.07  0.001759545    2.060    0.514
         7 -11.1425     96.0032    200.1310   1.1221040390e+02   2.2951877797e+01     0.331738    0.2322844  26.24  0.001783649    1.552    0.355
         8 -16.4980     73.4635    151.6951   1.1206293863e+02   3.5348635612e+01     15.44489     6.519611  69.12   0.01278859    5.150    0.806
         9 -11.5051     59.5143    177.2805   1.1805356257e+02   3.1896438188e+01    0.2086596    0.1880782 -69.67   0.00090114    1.357    0.263
        10 -10.8042     68.8747    176.8762   1.1587666896e+02   3.0815162064e+01    0.2318089    0.1442307  50.99 0.0008493452    1.323    0.244
        11  -9.1784    168.3071    176.6708   9.4163513620e+01   1.5432265403e+01    0.1198246   0.09681084  66.08 0.0004547142    1.658    0.397
        12 -10.9208    141.0204    175.7105   9.9610961200e+01   2.0192607330e+01    0.1913233    0.1478336  40.06 0.0007159906    1.089    0.082
        13 -10.1687    209.8702    199.8523   9.0257280144e+01   5.7727134317e+00    0.1437572    0.1224415  30.02 0.0003826566    1.308    0.235
        14 -11.1829    108.0025    203.6213   1.1009861376e+02   2.0692606418e+01      0.20791    0.1732712  41.60 0.0002528166    1.100    0.091
        15  -9.7749    165.1827    171.9243   9.3998560755e+01   1.6684475694e+01    0.1812387    0.1614237  55.02 0.0005941926    1.287    0.223
        16 -11.3723    194.6936    167.9338   8.7594761758e+01   1.2162565878e+01    0.3128118    0.2612241  27.77 0.0009030199    1.082    0.076
        17  -9.4211    163.3026    203.9138   9.9226653245e+01   1.2370108497e+01    0.1546209    0.1318882  24.20  0.000385241    1.113    0.101
        18  -9.7406    152.1546    193.8411   9.9982692702e+01   1.5535034645e+01    0.1798118    0.1435829  49.16  0.000402249    1.245    0.197
        19 -13.1104    195.0173    194.8301   9.2058279854e+01   8.6222772333e+00    0.9006237    0.7499837 -76.80  0.004835226    2.307    0.567
        20 -12.6979     93.6748    155.8139   1.0753213384e+02   3.1564579905e+01    0.6085309    0.4425231 -25.16  0.003199595    2.150    0.535
        21 -10.4856    190.1471    160.9230   8.7156010832e+01   1.3935182641e+01    0.2186734    0.2126538  28.15 0.0009573281    1.276    0.216
        22  -9.4870    140.6899    157.5482   9.6734150299e+01   2.3376172709e+01    0.2047506    0.1613813 -82.83 0.0006208803    1.726    0.421
        23 -10.9575    189.2335    154.9702   8.6199242488e+01   1.4959165281e+01    0.3753069    0.3287434  49.58  0.002337686    1.317    0.241
        24 -10.9512    134.0000    147.9977   9.6565237134e+01   2.6326286009e+01    0.4443707    0.2434822 -62.87  0.001918229    2.589    0.614
        25 -11.6836    133.7749    143.7819   9.5841812481e+01   2.7164165876e+01    0.7553332    0.3003748 -58.16  0.002625435    3.798    0.737
        26 -10.5894    174.5605    148.9151   8.7903433227e+01   1.8598106714e+01    0.2689969    0.2208619  42.52 0.0008631748    1.172    0.146
        27 -11.4734    143.4957    144.9780   9.3819256173e+01   2.5134018546e+01    0.2991089    0.2488094  12.77  0.001682459    1.340    0.254
        28  -9.6245    107.6920    145.7186   1.0251849246e+02   3.1385527896e+01     0.177692    0.1291507 -74.01  0.000285873    1.587    0.370
        29 -11.4888    105.9989    140.5217   1.0207352306e+02   3.2742431831e+01    0.5196082    0.3515376 -29.01  0.002480411    2.203    0.546
        30 -12.5714     93.8268    140.8640   1.0527366586e+02   3.4663390547e+01    0.3326322    0.2774149  16.20 0.0005300594    1.474    0.321
        31 -10.8351    105.9611    130.9004   1.0037000809e+02   3.4777509130e+01     0.341382    0.3053571 -79.69  0.001987291    1.158    0.136
        32 -10.7027    113.9251    130.7809   9.8266461057e+01   3.3392003899e+01    0.3219937    0.2726318  11.95 0.0009177707    1.430    0.301
        33 -12.2392    118.4519    126.9733   9.6345561714e+01   3.3355996563e+01    0.8610036    0.4358767 -39.19  0.003496817    2.492    0.599
        34 -11.0586    136.0000    128.0259   9.2175345303e+01   2.9783931004e+01    0.4087541    0.1729807 -51.89  0.001543238    2.730    0.634
        35 -10.6650    135.0000    119.9790   9.0668184222e+01   3.1569703589e+01    0.3396918   0.08403253 -46.25 0.0009765577    4.280    0.766
        36 -10.4108    160.7389    127.4578   8.6342466390e+01   2.4923868884e+01     0.270802    0.2027283 -40.23  0.001404277    1.422    0.297
        37  -9.9381    125.5298    127.4679   9.4643480165e+01   3.1920965631e+01    0.2417219     0.138943 -62.89 0.0007055234    2.250    0.556
        38 -11.0641    101.3060    127.0406   1.0089469800e+02   3.6413025001e+01    0.2815077    0.2297952 -33.81 0.0008329386    1.490    0.329
        39 -10.4791    156.0355    200.2392   1.0011109759e+02   1.4001189471e+01    0.2838291    0.2150555 -73.97  0.001763897    2.125    0.529
        40 -10.1029    109.4935    119.6518   9.7212909342e+01   3.6562110939e+01    0.2383641    0.2049202  39.04 0.0002693889    1.154    0.133
        41  -9.2112    152.4943    119.5112   8.6395370466e+01   2.8067466599e+01    0.1450306    0.1375076  42.62 0.0008102001    1.042    0.040
        42 -10.2457    150.8152    182.2305   9.8561063025e+01   1.7515144755e+01    0.1846512    0.1500854  49.65 0.0005714778    1.219    0.180
        43 -16.4719     54.6970    206.2421   1.2119981847e+02   2.7107730032e+01     6.086164     1.492108  51.82   0.02595688    3.323    0.699
        44  -9.9529    167.9562    112.7930   8.1377055313e+01   2.5993718164e+01    0.3393447    0.2458592 -73.41  0.001522068    2.168    0.539
        45 -11.3246    118.5944    110.5725   9.2753845259e+01   3.6776668029e+01    0.6262423    0.2802972  47.38  0.002412044    2.197    0.545
        46 -10.0670    205.6406    110.0849   7.3434921500e+01   1.8389447547e+01    0.2557202    0.1910391  35.93 0.0005912342    1.309    0.236
        47 -10.1005    134.5806    106.2836   8.7544486587e+01   3.4396005887e+01    0.2874354    0.1449408 -49.11  0.001140085    2.120    0.528
        48  -9.9578    141.1211    197.7216   1.0270266429e+02   1.6684876068e+01    0.1820235    0.1589377  69.28 0.0007182193    1.368    0.269
        49  -9.5335     65.0089     99.5532   1.0650249595e+02   4.8443141839e+01    0.2091116    0.1331125  36.98  0.001032053    1.609    0.379
        50  -9.0155    130.5087     96.5017   8.6083836669e+01   3.7244419622e+01    0.1512544    0.1449042  74.74 0.0008097578    1.066    0.062
        51  -9.0701    166.4283     93.5093   7.6760911455e+01   2.9710313301e+01    0.1470834    0.1450875  -0.06  0.000596426    1.040    0.038
        52 -11.3013     52.9836     90.8788   1.0895596352e+02   5.2113410675e+01    0.3339165    0.2229379 -71.95  0.001733717    1.407    0.289
        53 -11.6080     42.3520     91.4515   1.1284648325e+02   5.3187895634e+01    0.2990913    0.2806453 -68.47 0.0008040584    1.124    0.110
        54 -19.3274     10.5266    160.5423   1.2838147953e+02   4.0226369566e+01     16.25963     3.051852 -85.96   0.05471867    5.609    0.822
        55  -9.7897    186.1932     86.1949   7.0831999219e+01   2.6329876771e+01    0.2041588    0.1770483 -61.11 0.0008835166    1.329    0.248
        56  -9.1149    155.6435     79.7295   7.5226629300e+01   3.4687900668e+01    0.1588083    0.1171468  22.52 0.0006997113    1.641    0.390
        57  -9.8550     65.5352     70.3885   9.9558882019e+01   5.5348582744e+01    0.2695793    0.1646212  41.68   0.00127099    1.718    0.418
        58 -11.0409    160.1419     61.6269   6.8682155536e+01   3.6668939868e+01    0.3494448    0.2770575 -81.04 0.0005941406    1.552    0.356
        59 -10.8419    162.1303     55.0172   6.6140505295e+01   3.7212498312e+01    0.2679075    0.2229732  58.90 0.0006192395    1.208    0.172
        60  -8.7649    243.5964     54.2905   5.4045581035e+01   1.7682173217e+01    0.1401613   0.09053331 -57.28 0.0006991607    1.805    0.446
        61 -11.6885    171.9459    239.9599   1.0217669093e+02   6.7239450336e+00    0.3895228    0.2328684 -57.05  0.002465631    3.105    0.678
        62  -9.0658    185.5420    236.4994   9.9463466797e+01   5.2485048875e+00    0.1087841   0.07775474  29.79  0.000362435    1.039    0.038
        63 -11.0683    165.0182    236.3240   1.0295715574e+02   8.0781397427e+00    0.1587853    0.1060894  34.50 0.0005016002    1.076    0.070
        64 -10.1014    176.8493    235.1613   1.0077911137e+02   6.5809044454e+00    0.1562055     0.116847  37.51 0.0003662601    1.205    0.170
        65 -11.0546     80.4719    194.6142   1.1495360395e+02   2.6003344696e+01    0.4199918    0.1827226  42.55  0.001461341    1.768    0.435
        66 -10.2589    189.6698     15.0137   4.8752680642e+01   3.5074291668e+01    0.2072951    0.1834004 -31.50  0.000578363    1.113    0.101
        67 -10.5808     76.9957     13.9698   7.2020041087e+01   6.4669832557e+01    0.3396181    0.2026577  67.62  0.001444891    2.396    0.583
        68 -10.6677    144.0084    178.7165   9.9437298401e+01   1.9201434535e+01    0.1917099    0.1462068  39.03   0.00116849    1.095    0.087
