#   1 NUMBER                 Running object number                                     
#   2 MAG_AUTO               Kron-like elliptical aperture magnitude                    [mag]
#   3 X_IMAGE                Object position along x                                    [pixel]
#   4 Y_IMAGE                Object position along y                                    [pixel]
#   5 X_WORLD                Barycenter position along world x axis                     [deg]
#   6 Y_WORLD                Barycenter position along world y axis                     [deg]
#   7 A_WORLD                Profile RMS along major axis (world units)                 [deg]
#   8 B_WORLD                Profile RMS along minor axis (world units)                 [deg]
#   9 THETA_WORLD            Position angle (CCW/world-x)                               [deg]
#  10 FWHM_WORLD             FWHM assuming a gaussian core                              [deg]
#  11 ELONGATION             A_IMAGE/B_IMAGE                                           
#  12 ELLIPTICITY            1 - B_IMAGE/A_IMAGE                                       
         1 -11.9699    126.8373     26.0581   1.4004015355e+01   4.8886730942e+01     1.005291    0.7304784  63.85  0.005888035    1.169    0.144
         2 -15.2601     88.0500     11.9396   1.7916032828e+01   5.8952110951e+01     4.057122     1.556236  52.55   0.01893253    2.001    0.500
         3 -14.8198     51.7071     44.9577   4.2685908583e+01   6.1787688379e+01     2.914645      1.49279  30.36  0.009862072    1.837    0.456
         4 -12.7168     31.8614     31.9807   4.6488657169e+01   6.6563675572e+01     1.008602    0.7287881  40.45  0.005191985    1.708    0.414
         5 -12.4973     33.9825     15.7756   3.8573334200e+01   6.8441492413e+01     0.583967    0.4725244  38.46  0.002946877    1.491    0.329
         6 -12.4872    229.3471     22.5159   4.7058319614e-01   2.6468800101e+01    0.8915853    0.3495285 -55.63  0.004562747    2.230    0.552
         7 -11.7323     50.3730     20.7114   3.3614137741e+01   6.5313561522e+01    0.5477014    0.3802392  27.51  0.003427284    1.195    0.163
         8 -13.7942      7.5376     24.4067   5.6080412840e+01   7.0305816578e+01     1.398257     1.123209  -2.01  0.007828627    1.154    0.134
         9 -10.9308    210.6045     11.9573   3.5996791811e+02   3.1469672901e+01    0.6113302    0.2390169 -87.17  0.002632726    3.165    0.684
        10 -12.2022    206.9754     18.1002   1.4949515946e+00   3.1551447548e+01    0.5642911    0.3908895 -79.78  0.003218672    1.187    0.157
        11 -11.6192    200.1731     16.4666   1.7799700264e+00   3.3181149398e+01    0.4686674    0.3291197 -53.23  0.003071926    1.356    0.263
        12 -11.0498    202.1663     11.8301   6.5374851195e-01   3.3257900227e+01    0.3481706    0.1811792  66.55  0.001516122    1.739    0.425
        13 -11.8171    186.0374     11.1898   2.0103294851e+00   3.6821228627e+01    0.3528767    0.2718583 -74.27  0.002389594    1.130    0.115
        14 -11.3087    177.7986     10.3298   2.6538288227e+00   3.8739628502e+01    0.4142301     0.271482  39.95  0.002371057    2.193    0.544
        15  99.0000     20.3719     13.4446   4.4284346493e+01   7.0526619116e+01     1.291158    0.5340506  25.27  0.006598739    2.260    0.558
        16  -9.7392    242.3823     10.1932   3.5734845326e+02   2.5376557794e+01     0.156786   0.07288107 -52.25 0.0008223879    1.714    0.416
        17 -13.1635    241.6491     22.5616   3.5954894940e+02   2.4088136926e+01    0.8181935    0.5838842  39.51  0.004752435    2.736    0.635
        18 -10.4204    155.7147      9.9021   5.0824798680e+00   4.3800741251e+01    0.2251263    0.1588244 -76.03  0.001117632    1.393    0.282
        19 -11.5978    149.3311      8.5124   5.5508055540e+00   4.5399941542e+01    0.5564044    0.1972609  72.51   0.00236921    2.509    0.601
        20 -11.0437    196.0072      3.3806   3.5946102281e+02   3.5439288590e+01    0.2497839     0.219679  82.19 0.0009785075    1.277    0.217
        21 -12.2022    138.2036      4.3958   5.9734691637e+00   4.8325502077e+01    0.5482236     0.258607  63.00  0.001698373    1.661    0.398
        22 -11.4327    130.2852      2.1059   6.4812407691e+00   5.0331940272e+01    0.3324676    0.1877012  70.92  0.001202052    1.441    0.306
        23 -15.5220     10.1068     78.6746   7.1170081818e+01   5.9853297931e+01     4.488343     1.863827 -59.93   0.02086909    2.088    0.521
        24 -11.1044    209.7311      2.0011   3.5810829607e+02   3.2690013230e+01    0.4635807    0.1281283  63.26  0.002088913    3.171    0.685
        25 -10.2796     57.8677      6.9987   2.4956813961e+01   6.5405394363e+01    0.1614555    0.1274238  33.12 0.0002541628    1.025    0.024
        26 -11.6683     96.0555     71.6076   3.5921225408e+01   4.9287441460e+01    0.5401755    0.3932162  43.65  0.001436043    1.293    0.227
        27 -10.2168    171.3458     71.6923   1.8191164178e+01   3.2221136836e+01    0.3099156    0.2096379 -74.67  0.001495093    1.746    0.427
        28  -9.2711    182.7066     71.6920   1.6289714467e+01   2.9633049099e+01    0.1276063    0.1097545  24.31 0.0005877028    1.584    0.369
        29 -10.4879    224.8130     66.9783   9.5184335024e+00   2.1385902594e+01    0.2212715    0.1751201  84.04  0.001406938    1.221    0.181
        30  -9.5423    148.9754     64.9827   2.0649509976e+01   3.8504772365e+01    0.1588332    0.1483606  82.75 0.0009205029    1.032    0.031
        31 -10.7395    225.5144    195.4893   3.5062784293e+01  -1.3419059261e+00    0.1317363    0.1104223 -19.96 -5.382664e-06    1.001    0.001
        32 -11.5972    214.7394     61.8551   9.6540448107e+00   2.4199768146e+01      0.45624    0.3262457 -60.04  0.002727217    1.226    0.185
        33  -9.7526    170.4930     62.0733   1.5961348777e+01   3.3930389564e+01    0.1948584    0.1340566 -40.55  0.001010006    1.526    0.345
        34 -11.6614    246.5644    183.3866   2.9213357728e+01  -2.1933480204e+00    0.2412455    0.1817517 -23.20  0.000626696    1.163    0.140
        35 -10.6694     86.2429     59.0778   3.5002455999e+01   5.3407278170e+01    0.3578212    0.1979205  42.31  0.001476183    1.658    0.397
        36  -9.7971    174.6555     55.9695   1.3796379552e+01   3.3878188610e+01    0.1808256    0.1633796 -74.24 0.0004626254    1.083    0.077
        37 -11.5790    146.3906     51.0250   1.7375433528e+01   4.1193424779e+01    0.5594391    0.3291076 -67.11  0.001297336    2.361    0.576
        38 -11.4369    133.9546     48.1039   1.9022493150e+01   4.4521712561e+01    0.2243683    0.1846623  61.57 0.0002889479    1.082    0.076
        39 -11.9881    194.2005     42.0447   7.8821002929e+00   3.1392097639e+01    0.5311036    0.4672075 -84.01  0.003524057    1.100    0.091
        40 -12.1307    183.7064     42.7452   9.3651030212e+00   3.3645745932e+01    0.6223807    0.4198528  72.41  0.003533716    1.335    0.251
        41 -10.9676    157.3967     43.3194   1.3381219744e+01   3.9650170494e+01    0.3293544    0.2080798  60.61 0.0007596229    1.414    0.293
        42 -10.2836    204.1734     43.0623   6.9374347621e+00   2.9083447616e+01    0.2386181    0.1478179  66.62 0.0007087748    1.534    0.348
        43 -11.0980    175.3509     42.2922   1.0396070950e+01   3.5610448490e+01    0.3210626    0.1829054 -47.84  0.001098185    1.758    0.431
        44 -11.6222    174.8790     36.8216   9.1543708596e+00   3.6421077283e+01    0.3618844    0.3006846  31.02 0.0007076848    1.663    0.399
        45 -11.1427    175.9722     33.1595   8.1403763587e+00   3.6623735093e+01    0.3648509    0.2037787  84.18  0.001219401    1.837    0.456
        46 -11.8054    149.7614     41.0850   1.4078225924e+01   4.1735291409e+01    0.4323596    0.3398046  78.29  0.001396409    1.167    0.143
        47 -10.4898    225.7992     39.4831   3.9865845336e+00   2.5060672411e+01    0.2280186      0.15455 -75.47 0.0007472116    1.268    0.211
        48 -11.0336    216.5206     38.2209   4.6327122107e+00   2.7114891487e+01    0.2799661      0.16847  71.18 0.0009071383    1.562    0.360
        49 -12.2618    241.5758     35.0470   1.7827124948e+00   2.2560208387e+01    0.5435569    0.2435076  67.91  0.002712434    2.200    0.545
        50 -11.0221    249.0649     31.5059   5.7190587859e-01   2.1611819326e+01    0.2265823    0.2138005  71.02  0.001462669    1.586    0.369
        51 -10.7213    135.9735     36.2226   1.5222795640e+01   4.5585795488e+01    0.2712141    0.2035447 -60.26  0.001464221    1.497    0.332
        52  -9.9985    159.4003     36.1872   1.1227582856e+01   4.0088948030e+01    0.2103883    0.1541159  59.02 0.0005773632    1.274    0.215
        53 -11.0344    190.5570     31.1750   5.9101677253e+00   3.3577975038e+01    0.3350207    0.2618359  36.51   0.00202771    1.865    0.464
        54 -11.8575    248.8784    153.1137   2.3216203552e+01   2.6684944583e+00    0.3914528    0.1987448 -29.10  0.001827793    2.236    0.553
        55 -11.7984    235.2495     21.4018   3.5981349465e+02   2.5448313731e+01    0.3228107    0.2107531  80.84  0.001427567    1.379    0.275
        56  -9.9857     46.7776     30.0739   3.8980478807e+01   6.4717745841e+01    0.1609486    0.1297032  -5.61 0.0003226233    1.151    0.131
        57  -9.2781    167.9613     28.0000   7.9601337641e+00   3.9076777661e+01    0.2048802   0.06340197  66.69 0.0007827356    2.808    0.644
        58 -10.3298    157.8947     26.3853   8.9519340752e+00   4.1594944140e+01    0.1960913    0.1593198 -82.99 0.0007827344    1.152    0.132
        59 -11.9769    245.9506    144.9284   2.2096513870e+01   4.5349404989e+00    0.3318295     0.257079   5.99   0.00197368    1.739    0.425
        60 -11.3120    148.5581     22.5951   9.3434209512e+00   4.4187642178e+01    0.5682757    0.2850401  47.64   0.00274552    2.101    0.524
        61 -10.8408    189.8481     23.3685   4.2734873551e+00   3.4656634676e+01    0.2120848    0.1817592 -44.94  0.001110716    1.366    0.268
        62 -10.6543    179.1379     20.8839   4.9017249591e+00   3.7328772652e+01    0.2866816    0.2131215 -60.32  0.001817256    1.297    0.229
        63 -11.2751    122.1995    127.0049   4.3539718838e+01   3.2302869745e+01    0.2974168    0.2369844  40.06  0.001411567    1.252    0.201
        64 -11.2217    170.3272    115.8461   2.9129716564e+01   2.4357672462e+01     0.311494    0.2325739  -0.37  0.001382466    2.072    0.517
        65 -14.4017    120.8613    108.2035   3.9138434380e+01   3.6797282116e+01     1.513127    0.9635504  65.69  0.006043758    2.168    0.539
        66 -10.3661    231.9958    208.7075   3.6303666186e+01  -4.4970423527e+00    0.1806243    0.1508628  -6.01  0.001177772    1.080    0.074
        67 -11.2698    248.3064    207.8785   3.3333636115e+01  -6.4412166304e+00    0.3057244    0.1331819  36.75  0.001524163    2.626    0.619
        68  -9.8332    139.9167     20.5289   1.0131909190e+01   4.6421528509e+01    0.1806467    0.1659335  88.83 0.0008350968    1.128    0.113
        69 -10.2511    134.5621     20.5839   1.1030410283e+01   4.7664400166e+01    0.2215742    0.1862381  87.59 0.0007575616    1.152    0.132
        70 -11.8590    247.1193     95.4598   1.2483277752e+01   1.2728121887e+01    0.3127488    0.2980556 -26.22  0.002209599    1.362    0.266
        71 -13.1056     90.4854     94.4953   4.4495147040e+01   4.5907990167e+01    0.9690189    0.2665802 -48.57  0.002857539    3.831    0.739
        72 -11.9386    146.7954     95.9828   2.9349414400e+01   3.3552244561e+01    0.4486581    0.3282331  69.34  0.002113987    1.532    0.347
        73 -12.3541    142.2154     97.9894   3.0945631394e+01   3.4198249347e+01    0.4457217    0.3736275  82.91  0.002253423    1.333    0.250
        74 -12.0149    137.6651     94.8795   3.1220103596e+01   3.5837646145e+01    0.7492079    0.5795806  20.94  0.003562271    1.634    0.388
        75 -11.6974    249.9600    196.3803   3.1017653311e+01  -4.7957180497e+00    0.3459574      0.17541 -37.87  0.001846691    1.629    0.386
        76  -9.8602    152.0756     87.5323   2.5972375859e+01   3.3936119208e+01    0.2272866    0.1413541  55.12  0.001021557    1.567    0.362
        77 -10.3361    249.8694     85.8728   1.0363450552e+01   1.3770727816e+01    0.1792612     0.149855 -48.00 0.0009789334    1.198    0.165
        78 -12.5757     85.5326     85.7377   4.3599171237e+01   4.8658378540e+01    0.6080561    0.2497677  40.27  0.002274747    2.361    0.576
        79 -12.9894     91.8256     76.4693   3.8751381057e+01   4.9251716202e+01     1.280211    0.7297508  55.70   0.00538193    2.146    0.534
        80 -11.0134    144.6015     76.1975   2.4589571067e+01   3.7679389159e+01    0.3931707    0.3486174  45.24   0.00215886    1.154    0.134
        81 -11.9350    238.2255     70.0287   8.6255978872e+00   1.8326352287e+01    0.5259931    0.2599461 -62.33  0.002596033    2.111    0.526
