#   1 NUMBER                 Running object number                                     
#   2 MAG_AUTO               Kron-like elliptical aperture magnitude                    [mag]
#   3 X_IMAGE                Object position along x                                    [pixel]
#   4 Y_IMAGE                Object position along y                                    [pixel]
#   5 X_WORLD                Barycenter position along world x axis                     [deg]
#   6 Y_WORLD                Barycenter position along world y axis                     [deg]
#   7 A_WORLD                Profile RMS along major axis (world units)                 [deg]
#   8 B_WORLD                Profile RMS along minor axis (world units)                 [deg]
#   9 THETA_WORLD            Position angle (CCW/world-x)                               [deg]
#  10 FWHM_WORLD             FWHM assuming a gaussian core                              [deg]
#  11 ELONGATION             A_IMAGE/B_IMAGE                                           
#  12 ELLIPTICITY            1 - B_IMAGE/A_IMAGE                                       
         1 -12.2524    200.8153     42.9756   3.9999761857e+01   3.0079041097e+01    0.8807875    0.8145861 -67.76  0.003450449    1.103    0.094
         2 -12.2965    210.8786     33.4292   3.6603842152e+01   2.9054643572e+01    0.6694838    0.6528662   0.65  0.001514312    1.352    0.260
         3 -11.2036    232.9880      7.4830   2.9159469774e+01   2.7347645150e+01    0.7261878    0.3347793 -44.94  0.004089237    1.835    0.455
         4 -11.1818    239.8534      5.7478   2.8361874255e+01   2.6152353593e+01    0.7636396    0.3843711 -42.63  0.004560794    1.729    0.421
         5  -8.7788     21.9966      1.8518   7.2246846856e+01   7.2496762300e+01    0.1620555    0.1312376  44.51  0.001096583    2.020    0.505
         6 -10.0818    114.7613    243.6130   1.0168738941e+02   7.4732617932e+00    0.2260949     0.151356 -44.26  0.001128481    1.786    0.440
         7  -9.1762    139.9162    250.1102   9.7157593365e+01   2.5665834363e+00    0.2504071    0.1569737  29.04  0.001376129    1.395    0.283
         8  -8.8185    106.8250    250.3810   1.0417180626e+02   7.3736320131e+00    0.1817922    0.1077718  26.64  0.000760867    1.704    0.413
         9 -13.3170     42.4854    196.5957   1.1282828963e+02   2.7483756009e+01     5.340707     2.071593  72.50  0.001455882    5.797    0.828
        10 -12.6607     19.4495    219.7065   1.1981247394e+02   2.4660747400e+01    0.8040861    0.6445057 -44.23  0.005339835    1.711    0.415
        11 -16.4742     11.7471    243.0131   1.2265357685e+02   2.0576025555e+01     12.71036      4.63391 -79.37   0.06479735    2.547    0.607
        12 -10.3057     93.6935    235.3257   1.0528222543e+02   1.2165741883e+01    0.3474699    0.2668582 -58.30  0.001572955    1.463    0.316
        13 -10.1297     78.8559    239.1768   1.0890553224e+02   1.3465840395e+01    0.4436209    0.2537898 -48.20  0.002297031    2.203    0.546
        14  -9.7372    110.5127    203.8017   9.7211657722e+01   1.6322198534e+01    0.4108351    0.1739345  34.14  0.001394942    2.257    0.557
        15  -9.6312    122.6298    199.3623   9.3562120494e+01   1.5321077315e+01    0.3458047    0.2510848 -87.22  0.001630242    1.907    0.476
        16  -9.0480    193.9856    197.1665   7.6857963956e+01   3.5732870573e+00    0.1934206    0.1615952 -59.19  0.001057948    1.601    0.375
        17  -8.6712     58.9558    196.3306   1.0882943725e+02   2.5569440627e+01    0.2070412    0.1737279 -48.72 0.0002744084    1.357    0.263
        18  -9.6056     94.5006    238.5082   1.0546679137e+02   1.1413860378e+01    0.2435444    0.1984075  67.67 0.0009461736    1.229    0.187
        19  -8.7422    191.5355    192.0440   7.6377767344e+01   4.9378590575e+00    0.1902001    0.1264698 -64.89 0.0008095485    2.602    0.616
        20 -11.7179     54.1842    185.5547   1.0874764711e+02   2.8772236383e+01    0.7106357    0.6483001 -89.93  0.002445013    1.043    0.041
        21  -8.2990     85.1868    185.9486   1.0084667337e+02   2.4447880201e+01    0.3683439    0.2005311  73.76  0.001025382    3.208    0.688
        22  -8.8244     81.2826    181.8972   1.0125311475e+02   2.6017180008e+01    0.4610289    0.1722368  36.89  0.001452886    2.528    0.604
        23  -8.7113     99.2887    180.9580   9.6386261736e+01   2.3463298659e+01    0.2098293    0.1887987 -62.63 0.0005718748    1.119    0.106
        24  -9.2374     40.8285    176.8682   1.1114444674e+02   3.2466778281e+01    0.2812203    0.2286958  -7.60  0.001138075    1.649    0.394
        25  -9.2304    186.2774    174.0325   7.3854282900e+01   9.3654467317e+00    0.3341789     0.308284  80.71  0.001843143    1.418    0.295
        26  -9.1606    103.3153    173.3509   9.4004040346e+01   2.4653597787e+01    0.2448676    0.1841272 -16.34  0.001125642    1.756    0.430
        27 -10.3971     68.0694    171.7743   1.0325831469e+02   3.0413749320e+01    0.4340838     0.280404 -33.62  0.001966612    2.033    0.508
        28 -10.4901     72.6809    166.9028   1.0124687604e+02   3.1008633573e+01    0.4430646    0.2951746 -41.77  0.001184617    1.673    0.402
        29  -8.3104    115.2935    172.6465   9.0701532836e+01   2.2771899219e+01    0.1563292    0.1191613  77.44 0.0006087743    1.684    0.406
        30  -9.1283    109.1760    172.0024   9.2198063573e+01   2.3989531262e+01    0.2580734    0.1806858  86.13  0.001097727    2.026    0.506
        31 -10.7092    143.6422    226.6431   9.3006156634e+01   6.2473932516e+00    0.4794936    0.3062996 -17.04  0.002228386    2.267    0.559
        32  -8.6979    240.3327    169.6654   6.2537277166e+01   1.0206089830e+00    0.1249509    0.1027242 -62.71  0.000705222    1.734    0.423
        33  -8.3705    110.5977    167.7714   9.1021846589e+01   2.4774064575e+01    0.2149493    0.1471253 -69.10 0.0005134764    1.685    0.407
        34  -9.5406     97.5048    168.4975   9.4695650615e+01   2.6812090843e+01    0.2743753    0.1279798  45.05  0.001031572    2.218    0.549
        35 -11.2431     80.9207    158.6196   9.7539915217e+01   3.1916829730e+01    0.8387137    0.5183513  62.79 0.0009208278    2.091    0.522
        36 -11.8320     69.3913    153.5483   9.9969187517e+01   3.4886213508e+01    0.4975446    0.4225482 -34.43 0.0009432762    1.285    0.222
        37 -12.6604     68.9193    144.4763   9.8491662564e+01   3.7291241547e+01     1.999291     1.071542  77.49  0.005875478    4.226    0.763
        38  -9.0812     57.7845    151.6212   1.0303487936e+02   3.6914762577e+01    0.2628363    0.1849542  41.14  0.001317163    1.489    0.328
        39  -9.5622    133.9653    146.0930   8.0193730905e+01   2.5637199672e+01     1.136024    0.2370424 -53.24  0.002200246    7.731    0.871
        40  -9.7336     58.8127    145.7156   1.0175094178e+02   3.8312130450e+01    0.2242687    0.1865992 -15.32  0.001187225    1.430    0.301
        41 -10.5203    134.4426    223.9664   9.4663608519e+01   8.2300640174e+00    0.4081423     0.178449 -52.95  0.001719228    2.560    0.609
        42  -9.4359     33.0027    143.9860   1.0918582821e+02   4.1611427108e+01    0.2177807     0.185355 -71.47  0.001076601    1.021    0.020
        43  -9.8942     48.9053    217.2559   1.1331713577e+02   2.1981154748e+01     0.496293    0.3707386  -7.70  0.002748549    2.148    0.535
        44  -9.1024    102.0780    138.4456   8.7336439982e+01   3.3549038323e+01    0.4537053    0.2928573 -18.98  0.001746074    2.355    0.575
        45 -10.5548     89.5853    137.6340   9.0873582738e+01   3.5899929862e+01    0.3043588    0.2569063 -36.89  0.001035154    1.202    0.168
        46  -9.5798     32.8175    156.9701   1.1093322832e+02   3.8308395126e+01    0.3760029    0.1587565 -68.55  0.001598417    2.040    0.510
        47  -9.1523    106.1588    131.3839   8.4508790951e+01   3.4553684213e+01    0.4253571    0.2771576 -52.79  0.001838561    1.510    0.338
        48  -8.5458    105.3377    218.6727   1.0057968711e+02   1.3889653207e+01    0.1454552   0.09759524  63.35 0.0003697782    1.728    0.421
        49  -9.8752    135.0918    128.6531   7.5719685525e+01   2.9481334489e+01    0.4468632    0.2233551 -53.13  0.001618716    2.172    0.540
        50 -10.3909     87.8118    152.3345   9.4398169926e+01   3.2451331359e+01    0.6215498    0.4031181 -24.76  0.001311992    2.177    0.541
        51  -9.2868     98.5757    124.8035   8.5202431481e+01   3.7552129572e+01    0.3087252    0.2459503  -5.30 0.0009090416    1.510    0.338
        52  -8.6695    117.3179    124.3204   7.9536651391e+01   3.4116724931e+01    0.1641544    0.1250708 -10.63 0.0005314767    1.663    0.399
        53  -7.8205    163.5084    121.5069   6.6855656671e+01   2.4966627156e+01    0.1559273    0.1507565 -44.33 -2.139891e-05    1.033    0.032
        54 -10.8158     32.8465    117.4218   1.0508739478e+02   4.8415055573e+01    0.6469086    0.1577928 -64.60  0.002070995    3.458    0.711
        55  -9.1546    111.4653    129.1647   8.2424228393e+01   3.4096093653e+01    0.3139153    0.2497104  -6.37  0.001393429    1.532    0.347
        56 -14.1864     10.4298    206.5453   1.2084925527e+02   2.8421859273e+01     1.581802     1.093069  78.79  0.007846978    1.195    0.163
        57  -8.2436    107.8171    118.1786   8.0752315101e+01   3.7432296352e+01    0.2211651    0.2115138  82.49 0.0003386416    1.147    0.128
        58  -8.6993    231.3343    114.0070   5.2207539796e+01   1.2315309260e+01    0.2328464    0.2058152  74.42 0.0007844737    1.328    0.247
        59  -8.1508    205.7036    110.3440   5.5559260278e+01   1.8077539942e+01    0.1495391     0.108375 -66.86 0.0007033124    1.668    0.401
        60  -9.8215    115.3039    108.9017   7.6075727442e+01   3.8104440993e+01    0.3952226    0.1824718 -41.38  0.001418201    2.189    0.543
        61  -8.6793    134.4918    105.0431   6.9668628769e+01   3.4882671432e+01    0.2525565    0.1541963 -42.54   0.00104267    1.620    0.383
        62  -9.4921    109.5678    215.7804   9.9194252162e+01   1.3852438950e+01    0.1847708     0.134603 -77.50 0.0005135118    1.649    0.394
        63 -10.5186     32.4656     99.6593   1.0181162596e+02   5.2865298999e+01    0.3664553    0.2286712  23.83  0.001881493    1.796    0.443
        64  -9.6503     40.8801    207.6589   1.1424675541e+02   2.5083779487e+01     0.411201    0.2269296 -89.47  0.001167269    1.854    0.461
        65  -8.1162     74.5212     85.0155   8.2436621589e+01   5.0999454206e+01    0.2148549    0.1390997 -47.83 0.0004826391    1.499    0.333
        66  -7.8335    159.0000     83.0311   5.7594173306e+01   3.3638939479e+01    0.2452973   0.08526632 -38.22 0.0004896579    2.873    0.652
        67  -8.1898    150.9044     83.0859   5.9403028847e+01   3.5531382164e+01    0.2289347    0.2022346 -75.04 0.0004914886    1.244    0.196
        68  -8.1751     69.9113     81.5732   8.3072324819e+01   5.2481618674e+01    0.2078001    0.1394207  32.58 0.0004670245    1.537    0.349
        69  -8.5889    110.7160     80.7538   6.9198319690e+01   4.5055124343e+01    0.2376771    0.1242469  55.46  0.000884333    2.363    0.577
        70  -9.5097    127.6268    212.2421   9.4437240080e+01   1.1714413807e+01    0.1934341    0.1291916 -42.66 0.0007821094    1.645    0.392
        71 -11.6473    189.8134     50.8181   4.3410148810e+01   3.1537202037e+01    0.6698029     0.446331  39.88  0.001809683    1.906    0.475
        72  -9.2355    124.6007    249.1871   1.0027533639e+02   4.9972994349e+00    0.1682253    0.1175443 -39.90 0.0008478387    1.729    0.422
        73 -10.2690    101.5012    244.5575   1.0464248504e+02   9.2311384069e+00    0.5629548    0.1806575 -59.38  0.002226867    3.536    0.717
        74  -8.4888     76.1633    210.2384   1.0633554851e+02   2.0034843270e+01    0.2675127    0.1589472  78.56  0.001216526    2.162    0.538
        75  -9.9951    119.3189    212.3027   9.6397251016e+01   1.3049149123e+01    0.2459365    0.2139553   5.90 0.0009363188    1.263    0.208
        76  -9.0736     73.0453    245.5972   1.1074763468e+02   1.2968845299e+01    0.4290057    0.1783484  58.22  0.001818479    2.849    0.649
        77  -9.2366    119.5997    246.2047   1.0096899937e+02   6.2767447107e+00    0.1640978    0.1189249 -40.84 0.0005946201    1.658    0.397
        78  -9.2273     21.5257     11.5186   7.7611411589e+01   7.1333092294e+01    0.1178385   0.09012989  -3.43 -1.693699e-06    1.046    0.044
