#   1 NUMBER                 Running object number                                     
#   2 MAG_AUTO               Kron-like elliptical aperture magnitude                    [mag]
#   3 X_IMAGE                Object position along x                                    [pixel]
#   4 Y_IMAGE                Object position along y                                    [pixel]
#   5 X_WORLD                Barycenter position along world x axis                     [deg]
#   6 Y_WORLD                Barycenter position along world y axis                     [deg]
#   7 A_WORLD                Profile RMS along major axis (world units)                 [deg]
#   8 B_WORLD                Profile RMS along minor axis (world units)                 [deg]
#   9 THETA_WORLD            Position angle (CCW/world-x)                               [deg]
#  10 FWHM_WORLD             FWHM assuming a gaussian core                              [deg]
#  11 ELONGATION             A_IMAGE/B_IMAGE                                           
#  12 ELLIPTICITY            1 - B_IMAGE/A_IMAGE                                       
         1  -9.0454     80.2070     12.4961   7.0513135374e+01   6.4171233783e+01    0.2931293    0.2236543 -36.91 0.0009378241    1.332    0.249
         2  -8.8681    142.0388     12.0274   5.4673445605e+01   4.8376007877e+01    0.2257006    0.2219763  53.45 0.0004098154    1.020    0.020
         3  -8.4086    114.2222      9.9523   5.9283568332e+01   5.6156681138e+01    0.1934159    0.1209273 -23.84 0.0004577099    1.626    0.385
         4  -7.7322    172.5247      2.2915   4.6835069126e+01   4.0853679678e+01    0.1869117    0.1419058   3.81 0.0005392398    1.508    0.337
         5  -8.9851    139.1079      2.0315   5.1041149824e+01   5.0180359212e+01    0.2613266    0.2147263 -82.25 0.0007208359    1.273    0.214
         6  -8.2905    106.4266      1.7287   5.7069877083e+01   5.9078387542e+01    0.2873811    0.1502167  45.15  0.001211532    1.840    0.457
         7  -9.2392    198.8853    248.0251   9.9166308463e+01   2.4563818395e+00    0.2863277    0.2440365  34.27  0.002242839    1.469    0.319
         8 -11.1285    241.7164    248.1371   9.2591058939e+01  -2.8909193728e+00    0.5932398    0.3430108  13.32  0.003722101    1.370    0.270
         9  -9.8399    189.5038    249.7714   1.0088130790e+02   3.5106809955e+00    0.6254151    0.1575458  39.11  0.002997102    2.815    0.645
        10 -10.2206    167.4693    234.3880   1.0281164436e+02   8.0916204814e+00     1.124655    0.5064363  18.41  0.004331842    5.187    0.807
        11 -12.2744    167.8048    204.1492   9.8925877793e+01   1.1746804154e+01     2.424631     1.445566  47.48   0.01437729    1.610    0.379
        12 -12.4821    178.7517    239.8794   1.0151882749e+02   5.9383561293e+00     1.934891     1.233778  -7.59   0.01311615    2.145    0.534
        13  -9.3492    155.8846    249.6566   1.0644836138e+02   7.9538501056e+00    0.2697484     0.152702  36.81  0.001894518    1.220    0.180
        14  -8.3447    143.8923    249.5923   1.0848493101e+02   9.5465377120e+00    0.1548898    0.1379397  51.33 0.0007232623    1.365    0.267
        15  -8.7349    141.6254    244.3092   1.0836796595e+02   1.0466426335e+01    0.1790845    0.1348002 -86.63   0.00132147    2.199    0.545
        16  -8.6687    158.8817    240.5496   1.0498683727e+02   8.5721548180e+00    0.2542916     0.156954  57.84  0.001615941    2.230    0.551
        17  -9.1013    140.9662    227.3860   1.0675359392e+02   1.2665014950e+01    0.3055042    0.2933204 -45.70   0.00255657    1.419    0.295
        18 -10.3440    144.0595    237.7381   1.0728455406e+02   1.0930062799e+01    0.7974765    0.3702689  41.62  0.003959278    1.567    0.362
        19  -9.3366    162.8701    216.7688   1.0150452347e+02   1.0864162651e+01    0.3792648    0.3448506  54.09  0.002614898    1.382    0.277
        20  -9.4166    159.7821    232.6403   1.0395620960e+02   9.3666594612e+00    0.4107947    0.3143531   9.11  0.003083054    1.454    0.312
        21  -9.6392    154.6202    229.2845   1.0449289593e+02   1.0496773402e+01    0.4052154    0.2385972  32.92  0.002661622    1.300    0.231
        22  -9.9373    147.8683    227.5648   1.0551637003e+02   1.1666634334e+01    0.3593946    0.3129171 -21.44  0.001203633    1.496    0.332
        23 -10.4896    154.5259    220.9412   1.0354130684e+02   1.1555467169e+01    0.6274612     0.521944  52.51  0.004728897    1.350    0.259
        24  -8.8232     89.9259    238.1912   1.1706300193e+02   1.7993021290e+01    0.1704081     0.134135 -19.44  0.001244325    2.218    0.549
        25  -7.5359    216.4421    239.4955   9.5323095055e+01   9.6013513007e-01    0.1042397   0.07289864  24.68 2.553739e-05    1.064    0.060
        26 -10.0790    246.9015    233.3502   8.9848357606e+01  -2.3613464788e+00    0.1881569    0.1185554  -0.01 0.0009704473    1.394    0.282
        27  -7.6326    138.6550    233.3087   1.0779558523e+02   1.2225294099e+01    0.1109877   0.06751139  53.86 0.0007044277    1.699    0.412
        28  -8.2850    114.9237    231.4625   1.1194477515e+02   1.5705841637e+01    0.2143893    0.1148363  31.58  0.001311979    1.642    0.391
        29  -7.0510     72.4653    231.5746   1.1980701690e+02   2.1082241400e+01    0.1078121    0.0752412  49.08 -2.865074e-05    1.011    0.011
        30  -7.9710     83.7197    229.2066   1.1755690102e+02   2.0071100558e+01    0.1898608    0.1504381  20.71  0.001133515    1.594    0.373
        31  -8.9540    220.8792    239.4315   9.4619901740e+01   3.9460965589e-01    0.1906739    0.1096415  -4.28  0.001304972    1.958    0.489
        32  -9.6241    248.6506    223.6616   8.8215649058e+01  -1.7892876420e+00    0.1999264    0.1376442  34.34  0.001529546    1.499    0.333
        33  -9.9379    105.7222    222.9948   1.1290263058e+02   1.8149842997e+01    0.2987878    0.1796531  48.29  0.001723306    1.295    0.228
        34 -10.8557    190.9707    233.4908   9.8695323993e+01   4.9374455316e+00    0.9828643    0.3964906  25.84  0.004891757    2.699    0.630
        35  -8.2465    122.1665    220.7265   1.0955875313e+02   1.6220238629e+01    0.4131715    0.1314296  36.60  0.001911217    2.459    0.593
        36  -7.6339     85.2896    220.9890   1.1664382246e+02   2.1126843843e+01    0.1568151    0.1213983  52.74  0.001180662    1.072    0.067
        37  -7.9554     32.0313    219.4647   1.2670011664e+02   2.7441172016e+01    0.1523266   0.07692362  38.70 0.0005447193    1.536    0.349
        38  -8.4331    127.3702    218.0182   1.0828683885e+02   1.5870532696e+01     0.199723    0.1226705  51.80 0.0005926061    1.494    0.331
        39  -8.0711    168.2834    217.0015   1.0055087484e+02   1.0036727456e+01    0.2022366    0.1273317  35.00  0.000559083    1.196    0.164
        40  -8.3689     62.1553    215.8696   1.2075887799e+02   2.4769724412e+01     0.177377    0.1081632  56.17 0.0006173215    1.280    0.219
        41  -7.9311     10.6929    213.7199   1.3048340849e+02   3.0401771193e+01    0.1727551     0.109797 -69.14  0.001292086    1.973    0.493
        42  -8.6031    152.5043    212.7092   1.0291402213e+02   1.2931308407e+01    0.2649597    0.1369664  45.27 0.0007764679    1.635    0.388
        43 -11.9842    115.9734    189.4935   1.0731760355e+02   2.1975325815e+01     1.012038    0.4134055  31.36  0.004404571    2.610    0.617
        44  -9.8194    127.4762    196.6506   1.0581158058e+02   1.9058908304e+01    0.4323324    0.2658698  68.53  0.002279192    2.391    0.582
        45 -10.4660    111.1330    211.1002   1.1071587022e+02   1.9199308857e+01    0.4674584    0.2221851  33.01  0.001030899    1.874    0.466
        46 -12.4131    111.8865    203.5819   1.0977943895e+02   2.0270697623e+01     1.154675    0.8263636 -26.40  0.007065017    2.238    0.553
        47  -9.8528    123.9143    210.5401   1.0814365608e+02   1.7457736618e+01    0.7864066    0.2398189  47.26  0.003312697    2.981    0.665
        48 -11.0493    127.8480    203.4104   1.0655344932e+02   1.7954645659e+01    0.5309819    0.3646535  20.55  0.003248506    1.672    0.402
        49  -9.6028     65.8652    211.3508   1.1973077616e+02   2.5079980491e+01    0.1793484    0.1257677  68.25 0.0006896165    1.292    0.226
        50  -8.6495     20.3507    211.9785   1.2862082346e+02   2.9821337624e+01    0.1889616   0.09764192  47.16 0.0006482005    1.358    0.264
        51  -8.2091    139.5148    210.9079   1.0516034228e+02   1.5113603563e+01    0.3032463    0.1340773  45.90  0.001580887    1.900    0.474
        52  -9.0600    242.6838    207.3286   8.6666129463e+01   4.1155246768e-01    0.2126054    0.1087648  32.73  0.001001657    1.544    0.352
        53 -10.2029     68.2971    198.7627   1.1831527868e+02   2.6946365893e+01    0.3429264    0.1588915  49.36  0.001928569    1.685    0.407
        54 -10.6798    101.8125    197.5237   1.1120220945e+02   2.2703711177e+01    0.4189588    0.3401604 -33.52  0.002826191    1.745    0.427
        55  -7.2889     52.3305    204.6778   1.2200545881e+02   2.7791391077e+01    0.1212625   0.05899587  57.72 0.0006327633    1.697    0.411
        56  -8.0136     17.3059    201.3354   1.2884654483e+02   3.1947296232e+01   0.08688162   0.07837257 -54.51 0.0007040199    1.670    0.401
        57  -9.3247     97.6729    202.6114   1.1257431744e+02   2.2435298346e+01     0.266782    0.1376903  35.05  0.001488311    1.662    0.398
        58  -8.8527     57.5530    198.0268   1.2050007210e+02   2.8366045354e+01    0.3227954    0.1523388  49.69  0.001467393    1.623    0.384
        59  -9.4942     20.7094    197.8044   1.2804230031e+02   3.2264999853e+01    0.2253853     0.082288 -86.93  0.001209464    2.728    0.633
        60  -9.1871     32.8282    197.7316   1.2558553841e+02   3.1106268613e+01    0.2503314     0.121763  27.64  0.001445571    2.194    0.544
        61  -9.0704     13.4568    195.1272   1.2940356780e+02   3.3403492165e+01    0.2549759    0.1193124  33.26  0.001593359    1.893    0.472
        62  -8.0791     42.4914    196.4923   1.2353281759e+02   3.0327202510e+01    0.1117612   0.08427925  57.59 0.0008104895    1.021    0.021
        63  -7.9482     89.6742    195.6529   1.1355619744e+02   2.4714088592e+01    0.1082493   0.09066634  -1.53 0.0007049831    1.748    0.428
        64  -8.6396    249.7047    191.8262   8.3110403937e+01   8.9976779476e-01     0.229186    0.1167715 -41.39  0.001200624    3.385    0.705
        65 -12.0889    142.2699    176.9342   1.0003893973e+02   1.9866379553e+01    0.6074722    0.5934262  75.63  0.004224764    1.210    0.173
        66 -11.8816    137.3241    200.9234   1.0436605828e+02   1.6898252556e+01    0.9047477    0.6203184  -1.27  0.005072674    2.350    0.575
        67  -9.2821    104.2944    187.8327   1.0961082865e+02   2.4004599563e+01    0.2286848    0.1530185  36.84 0.0006486005    1.301    0.231
        68  -7.3354    210.2271    187.3622   8.8722763122e+01   7.2037519179e+00    0.1565401   0.09589101  42.92  0.000330845    1.579    0.367
        69 -10.0555     50.8468    185.3200   1.2104315071e+02   3.1476479707e+01    0.3241155    0.1981322 -40.01  0.001767957    2.926    0.658
        70  -9.3733    100.7697    185.2737   1.1007972223e+02   2.4971809957e+01    0.2252354    0.1720426 -50.64  0.001438604    1.634    0.388
        71  -8.5710    229.5750    184.2170   8.4967073875e+01   4.5803615416e+00    0.2038771    0.1486429  22.12 0.0003182768    1.086    0.080
        72  -9.4641    112.3667    184.3444   1.0745338780e+02   2.3404057198e+01    0.2331325    0.1781339  56.49   0.00060011    1.208    0.172
        73  -7.2564     36.2786    184.3302   1.2415414679e+02   3.3240153633e+01   0.09544024   0.08451641 -51.04 0.0003749335    1.601    0.375
        74 -10.2365    117.0896    180.2593   1.0590659798e+02   2.3386506559e+01    0.4398168    0.2162967 -50.11  0.002209164    2.441    0.590
        75 -10.1535    121.7946    177.2611   1.0447674357e+02   2.3165580759e+01    0.3153721     0.177482  49.29  0.001650118    1.599    0.375
        76  -7.6772     94.1413    183.6304   1.1134582243e+02   2.6225034657e+01    0.1712576    0.1033281  30.67 0.0009392565    1.667    0.400
        77  -7.7955    111.3138    180.3316   1.0717756169e+02   2.4269292612e+01     0.118197    0.0958361   3.13 0.0007045136    1.679    0.405
        78  -8.9313    104.3787    178.4204   1.0846902980e+02   2.5668127770e+01    0.2753833    0.1243036 -66.65   0.00125809    2.918    0.657
        79 -11.6441     56.0252    164.6219   1.1820350752e+02   3.4955244657e+01     0.649874    0.4051211  54.79   0.00387279    1.353    0.261
        80 -10.0427     61.4865    145.3315   1.1486297585e+02   3.8370197090e+01    0.5347683    0.2717249  71.25  0.002425818    2.404    0.584
        81  -8.3031     48.9833    142.1895   1.1783675979e+02   4.0562548726e+01    0.2360959    0.1531991  46.68 0.0003331878    1.374    0.272
        82 -10.8350     42.0629    175.9044   1.2234773436e+02   3.4265145244e+01    0.4675283    0.2640778  71.98  0.002791091    1.629    0.386
        83 -10.6908     44.6872    169.2864   1.2127507938e+02   3.5300919611e+01    0.4556018    0.2266625  41.17  0.002560637    1.661    0.398
        84 -10.6780     47.6408    164.3934   1.2019603812e+02   3.5971051346e+01    0.3630507    0.2850192  83.49  0.001719465    1.170    0.145
        85 -10.2951     44.5911    149.7717   1.1971017876e+02   3.9393293418e+01    0.7811328    0.4874651  88.03   0.00454039    1.525    0.344
        86 -10.9961     55.9014    149.2485   1.1674698353e+02   3.8207715408e+01     1.113619    0.6479484  87.15  0.005922622    1.808    0.447
        87  -8.9606     24.9379    177.3295   1.2626223404e+02   3.5708333529e+01    0.1766272    0.1423669 -87.79  0.001317812    1.287    0.223
        88 -11.0040     32.1443    164.7821   1.2391229937e+02   3.7523708672e+01    0.4885256    0.2390767 -73.71    0.0027498    1.991    0.498
        89  -9.6597     20.5574    168.8097   1.2682747106e+02   3.7797924218e+01    0.4673384    0.2413801 -50.30  0.002527016    2.892    0.654
        90 -10.3222     25.2059    164.6819   1.2553793226e+02   3.8209361253e+01     0.736886    0.2985421 -88.60  0.003734127    2.404    0.584
        91  -9.8802     30.0046    158.4519   1.2401918620e+02   3.9043478311e+01     0.395224    0.1949001  40.55  0.002240658    1.716    0.417
        92 -11.5156    142.1985    188.5933   1.0174990008e+02   1.8017619600e+01    0.6282911    0.3039992  42.31  0.003213705    1.686    0.407
        93 -10.3051    101.0051    175.9990   1.0892486357e+02   2.6618995069e+01    0.1800611    0.1492358  50.54            0    1.002    0.002
        94  -9.9082     89.7970    174.4995   1.1129003855e+02   2.8543431327e+01     0.322217    0.2451969 -16.13  0.001834307    2.165    0.538
        95  -8.3408    231.0423    174.8420   8.3094451230e+01   5.3788687938e+00    0.1673536    0.1438289  22.50 0.0006765222    1.267    0.211
        96 -10.0480     51.9830    174.4870   1.1998287110e+02   3.3442667307e+01    0.2403218    0.1825437  31.00  0.001591416    1.434    0.303
        97  -9.0534    158.0762    173.0962   9.6154242032e+01   1.7797114032e+01      0.25332    0.1931681 -40.66 0.0006551651    1.538    0.350
        98 -10.1401    151.2511    173.5194   9.7629535022e+01   1.8900981062e+01    0.2479844    0.2085818 -48.68  0.001570981    1.431    0.301
        99  -9.6455    157.0953    203.6411   1.0087500860e+02   1.3466946086e+01    0.2462762    0.1751622  32.01 0.0002856477    1.135    0.119
       100  -7.4072     84.4741    173.4898   1.1239741075e+02   2.9490178439e+01    0.1260709    0.1029575  55.77 0.0002933361    1.014    0.013
       101 -10.5454     78.4588    170.2120   1.1343407404e+02   3.0959233671e+01    0.3856904    0.2975758  68.38  0.001941814    1.191    0.160
       102  -9.7333     73.3900    168.1570   1.1440711452e+02   3.2048984548e+01    0.2747858    0.1791075 -87.88  0.001586599    1.657    0.396
       103 -10.2385     35.1862    174.2113   1.2379669749e+02   3.5318245872e+01    0.2995404    0.2360682  30.40  0.002109709    1.443    0.307
       104  -8.4225    198.5736    171.7302   8.8097705471e+01   1.1034907311e+01    0.2121082    0.1833393  18.29 0.0006243883    1.094    0.086
       105  -9.8510     95.5200    171.5041   1.0961977328e+02   2.8279705832e+01    0.2852733    0.2011377  63.44  0.001678888    1.392    0.281
       106  -8.6209    121.6752    170.6389   1.0356598570e+02   2.4356247441e+01    0.1920013    0.1497056   7.49 0.0009221775    1.696    0.410
       107 -11.4229     49.7668    157.1491   1.1906163322e+02   3.7239222242e+01    0.6996027    0.3876135  46.29  0.003938894    1.525    0.344
       108 -10.3079     99.6592    167.5139   1.0815460056e+02   2.8420494584e+01    0.3143607    0.1984303  44.40  0.001743129    1.343    0.255
       109  -8.8573    241.8533    189.8482   8.3978054062e+01   2.1952968363e+00    0.1766646    0.1188355  13.71 0.0005345888    1.184    0.156
       110 -11.0759    112.6005    158.7495   1.0388186310e+02   2.8054140462e+01     0.512291    0.3881038 -19.26  0.002774328    1.953    0.488
       111  -9.1557    120.0195    164.5151   1.0303407865e+02   2.5742359755e+01    0.2090033    0.1135025  40.79 0.0006627557    1.583    0.368
       112 -10.6979     36.3333    157.2774   1.2239203842e+02   3.8662719426e+01    0.9756082    0.4080841 -77.28  0.004899567    2.297    0.565
       113 -10.1861     81.2615    151.6271   1.1053535934e+02   3.4346501169e+01    0.3957583    0.2085027 -49.26  0.001895766    2.311    0.567
       114 -10.9288     71.8433    156.3597   1.1348225803e+02   3.4663999744e+01    0.3894444    0.3475954  -0.85  0.002510309    1.526    0.345
       115  -9.3671    126.8631    160.7801   1.0089420564e+02   2.5276243866e+01    0.2457349    0.1721105  84.63  0.001239664    2.103    0.525
       116  -8.0238    250.3209    173.6534   7.9882228815e+01   2.5932576809e+00   0.09726117   0.09096485 -32.71 0.0007049412    1.734    0.423
       117  -9.0217     85.3477    158.0544   1.1034917818e+02   3.2426462569e+01     0.239528    0.1068149 -55.28  0.001095291    2.470    0.595
       118  -9.1500    137.8700    157.8299   9.7922556365e+01   2.3891086259e+01    0.2047303    0.1744689  20.73 0.0006605254    1.227    0.185
       119 -11.1634     78.5138    157.2168   1.1192774463e+02   3.3572293143e+01    0.5265648    0.2558459  55.98  0.002465185    2.087    0.521
       120 -10.0546     96.6169    153.6241   1.0697569695e+02   3.1632217653e+01    0.2876728    0.2201472  76.34  0.001656253    1.386    0.278
       121  -8.8364     89.3180    157.1420   1.0925689088e+02   3.2028707587e+01    0.1935789    0.1650258 -41.54  0.001189642    1.479    0.324
       122  -9.1668     32.7856    149.9749   1.2274238524e+02   4.0573376820e+01    0.3249147    0.1902657 -52.14  0.001449808    2.153    0.536
       123 -10.8798     75.9916    144.8546   1.1099641759e+02   3.6537407247e+01    0.9994375    0.5576044 -44.93  0.004756413    2.382    0.580
       124 -10.7051     68.5889    144.7469   1.1292460132e+02   3.7575344832e+01    0.4402547    0.2542748 -77.06  0.002091264    1.824    0.452
       125 -10.3736     71.9929    141.4894   1.1160485301e+02   3.7825313321e+01    0.3507333     0.256258   4.36  0.001161598    2.128    0.530
       126  -9.2388     91.6979    142.0203   1.0648999356e+02   3.4812347609e+01     0.188231    0.1714394  81.75  0.000884496    1.082    0.075
       127  -7.1655    236.3262    146.6565   7.6912918454e+01   7.7507171544e+00    0.1115189   0.09902496 -54.59 0.0007050856    1.740    0.425
       128  -6.9331    245.6852    142.6868   7.4682932947e+01   6.6489768836e+00    0.1290747   0.08000106  11.26 0.0005049048    1.640    0.390
       129  -7.2504    161.9680    105.9155   8.1504046271e+01   2.8515358424e+01    0.1696681    0.1626241  -1.01 0.0003931523    1.044    0.042
       130  -7.1315    125.2489    103.2952   8.9739733854e+01   3.6972757512e+01    0.1402742    0.1174095  -5.01            0    1.485    0.326
       131  -8.7565    218.3263    100.1335   6.9449508236e+01   1.7113367588e+01    0.2421185    0.2206585   3.02  0.000326177    1.028    0.028
       132  -7.5858    105.9968     84.7735   9.0287362480e+01   4.4868688936e+01    0.1991063    0.1875704  60.26  0.001078172    1.055    0.052
       133  -7.2259    184.5446     78.4257   6.9505778272e+01   2.7895479386e+01     0.148191    0.1411093   9.33 0.0001180404    1.026    0.025
       134  -8.5904    120.2638     63.1446   7.9368875046e+01   4.6220308900e+01    0.2745584    0.2173507  54.52 0.0002683714    1.280    0.219
       135  -8.2731     94.7736     52.7366   8.3545872587e+01   5.3956909182e+01    0.2480706    0.2160962  67.17 0.0007412735    1.271    0.213
       136  -8.1362    216.3875     51.7929   5.7034813899e+01   2.3967736443e+01    0.2787935    0.2012431  12.83  0.001377311    1.657    0.396
       137  -7.6604     96.4269     45.1994   8.0085808603e+01   5.5078888031e+01    0.2169528    0.1378323 -50.51 0.0009447287    1.684    0.406
       138  -7.5193    163.4860     32.6109   5.8778249008e+01   4.0019649775e+01    0.1503957    0.1451516  59.05 8.615601e-05    1.034    0.033
       139  -8.6501     77.4661     29.4989   8.0210796909e+01   6.1988739829e+01    0.3049091    0.1364222 -39.31 0.0009431767    2.148    0.534
       140  -8.4475     79.6092     23.2213   7.6341631508e+01   6.2638618824e+01    0.2048616    0.1326198 -22.92 0.0005646579    1.660    0.397
       141  -8.7623     84.8730     21.5344   7.3547674132e+01   6.1775145942e+01    0.2698454    0.2252449 -26.36 0.0004717174    1.166    0.142
       142  -7.5071     30.1460     22.1649   1.0044795225e+02   7.0840456056e+01    0.1600274    0.1466724 -81.68   0.00027144    1.287    0.223
       143  -7.3584     49.8072     21.0993   8.8727730096e+01   6.8500083040e+01    0.1825828   0.09734316 -46.17 0.0007353699    1.742    0.426
       144  -9.4130     75.2411     17.9045   7.5317393337e+01   6.4423212179e+01     0.294803    0.2550544 -41.68 0.0005381375    1.212    0.175
       145  -7.6583    129.0504    241.5002   1.1031087893e+02   1.2490928905e+01    0.1548628    0.1204072  52.25 0.0004312397    1.267    0.210
       146  -8.5878    134.2379    248.2001   1.1001786105e+02   1.0981345180e+01    0.2222831    0.1001362  43.94 0.0008612019    1.632    0.387
       147  -7.6071    104.2821     11.6614   6.2566898228e+01   5.8528562049e+01    0.1498314    0.1107398 -57.51 0.0003401405    1.625    0.385
       148  -7.8866    131.6029    244.7798   1.1016348323e+02   1.1743842047e+01    0.1785709    0.1398813  67.97   0.00106655    1.596    0.373
       149  -7.6322    104.4844    247.4626   1.1515137624e+02   1.4910146594e+01    0.1470942   0.09395365  88.42  0.001030792    2.272    0.560
       150  -7.4546    109.5962    247.2507   1.1423745647e+02   1.4291283887e+01    0.1104303   0.09902663 -36.91 0.0009446881    1.646    0.393
