#   1 NUMBER                 Running object number                                     
#   2 MAG_AUTO               Kron-like elliptical aperture magnitude                    [mag]
#   3 X_IMAGE                Object position along x                                    [pixel]
#   4 Y_IMAGE                Object position along y                                    [pixel]
#   5 X_WORLD                Barycenter position along world x axis                     [deg]
#   6 Y_WORLD                Barycenter position along world y axis                     [deg]
#   7 A_WORLD                Profile RMS along major axis (world units)                 [deg]
#   8 B_WORLD                Profile RMS along minor axis (world units)                 [deg]
#   9 THETA_WORLD            Position angle (CCW/world-x)                               [deg]
#  10 FWHM_WORLD             FWHM assuming a gaussian core                              [deg]
#  11 ELONGATION             A_IMAGE/B_IMAGE                                           
#  12 ELLIPTICITY            1 - B_IMAGE/A_IMAGE                                       
         1 -14.8052      3.3023    135.9497   1.4507084738e+02   4.6252083255e+01     5.990117    0.7382738 -74.78   0.01730003    6.362    0.843
         2 -13.6254    197.7961     26.0460   6.8580346429e+01   3.2377953609e+01      1.71389     1.441158  13.44  0.007675524    1.454    0.312
         3 -13.4257    212.7380      7.6196   6.1957545790e+01   3.0652364775e+01    0.9763658    0.8318785  68.23  0.003435352    1.179    0.152
         4 -11.1984      3.3422      4.4455   1.1707548984e+02   7.3471535263e+01    0.4215871     0.171969 -38.83  0.002425753    1.829    0.453
         5 -11.1881     45.8186    248.4944   1.4497411738e+02   1.9606659960e+01    0.2973993    0.1671782  66.43  0.001320051    1.386    0.278
         6 -11.4212    138.5095    248.7674   1.2917388440e+02   6.6586213175e+00    0.3321433    0.2487714 -38.94  0.002263843    1.838    0.456
         7 -11.0165    125.6364    249.7200   1.3153972567e+02   8.4939738399e+00    0.3644805   0.09776558  46.73  0.001529581    2.923    0.658
         8 -12.8845     47.8003    216.7961   1.4248867817e+02   2.4996252457e+01    0.8360952    0.6258671 -75.02  0.004971116    1.394    0.282
         9 -12.9740     32.9341    234.8810   1.4627183002e+02   2.3415726269e+01     0.267787     0.238262 -86.40 0.0007984677    1.482    0.325
        10 -14.0051     37.5945    228.4662   1.4509896570e+02   2.4034049387e+01    0.7290476    0.4852195  59.92  0.002424232    1.156    0.135
        11 -12.0735      9.1095    237.1889   1.5021834384e+02   2.5502136726e+01    0.4882919    0.2787827 -55.13  0.003239049    2.825    0.646
        12 -11.2297      9.3600    249.8181   1.5070729934e+02   2.3347647166e+01    0.4312691    0.1840542  37.15  0.002772635    2.428    0.588
        13 -11.0770      2.9178    248.2535   1.5160465236e+02   2.4234095680e+01    0.3719352    0.2650694 -86.23  0.003216094    1.410    0.291
        14 -11.5097     14.8388    244.1754   1.4963713777e+02   2.3738086280e+01    0.2486048     0.220085  53.75  0.002217044    1.586    0.369
        15 -11.8207     12.8101    240.7104   1.4979686232e+02   2.4530938611e+01    0.2786717    0.2630003  39.46  0.002465663    1.783    0.439
        16 -10.6007    171.4423    247.4875   1.2321196673e+02   1.6636493046e+00    0.2043154    0.1421887  60.50 0.0009383795    1.710    0.415
        17 -10.7446     50.8062    245.1279   1.4395164039e+02   1.9574165471e+01    0.1831212    0.1404215  51.49  0.001052232    1.299    0.230
        18 -11.5630     20.4546    243.5001   1.4873411848e+02   2.3273166223e+01    0.2960419    0.1675319  76.32  0.001707069    1.357    0.263
        19 -11.6544     21.8309    237.9018   1.4824154720e+02   2.4088135617e+01    0.3060831    0.1829978 -71.03  0.002232134    1.788    0.441
        20  -9.3382    249.3287    243.6576   1.0942811907e+02  -9.6511040462e+00   0.09412163   0.08562175  44.11 0.0006664268    1.744    0.426
        21 -12.8145    117.4950    231.6964   1.3104469375e+02   1.2587698550e+01     1.620455    0.1347139  42.21  0.004072965    7.664    0.870
        22 -11.9792     91.6710    227.4479   1.3536846391e+02   1.7204437558e+01    0.4591942    0.2169942  49.85  0.002491921    1.724    0.420
        23 -11.9456    147.0120    248.4512   1.2763797187e+02   5.3797458597e+00    0.4765489      0.25287  48.20  0.002765066    1.529    0.346
        24  -9.5652     54.5839    229.1956   1.4220774864e+02   2.1885240326e+01    0.2092692    0.1023872  60.02 0.0008272296    1.708    0.415
        25 -10.5509      4.3103    228.6259   1.5060429566e+02   2.7460844193e+01    0.1658013    0.1540016 -38.54  0.001436777    1.974    0.494
        26  -8.5778    177.4782    227.4489   1.1936387424e+02   3.4477857304e+00    0.1240807    0.1013416  37.36 0.0004331348    1.022    0.022
        27 -10.0240     56.0025    223.9334   1.4155690232e+02   2.2664315884e+01    0.3146527    0.2288214  16.91  0.001942845    2.490    0.598
        28 -10.8076     74.5724    221.1559   1.3793258738e+02   2.0748223026e+01    0.4439124   0.08906298  51.17  0.001461731    4.949    0.798
        29 -11.0754     38.7862    197.5068   1.4267364812e+02   2.9806555441e+01    0.6809917    0.2253834  67.79  0.002273863    5.509    0.818
        30 -11.5149     55.1245    210.6839   1.4064380786e+02   2.5267570172e+01    0.9164908    0.2245809  56.57   0.00288531    5.883    0.830
        31  -8.2577    221.5419    213.5561   1.0918049316e+02  -1.9881562924e+00    0.1229066    0.1022802  21.40 0.0001381298    1.052    0.049
        32  -8.9674    152.5091    213.0319   1.2196301204e+02   9.9351772057e+00    0.1600937    0.1288688 -51.66 0.0003478996    1.458    0.314
        33 -12.2808      9.9847    207.0034   1.4861217542e+02   3.0907854117e+01    0.5699739    0.3689245  33.39  0.002934559    1.916    0.478
        34  -9.5716     55.0524    205.3204   1.4019521917e+02   2.6321466927e+01    0.1677155    0.1230463  61.55 0.0005044477    1.130    0.115
        35 -11.7127     59.8035    200.4410   1.3882503344e+02   2.6689294914e+01     0.244483    0.2063128 -81.84  0.000456611    1.230    0.187
        36 -10.3959     14.3323    196.9262   1.4725058384e+02   3.2456516622e+01    0.3349781    0.1393345  54.67  0.001928663    2.007    0.502
        37 -11.9992     66.3011    191.8490   1.3665370980e+02   2.7584404903e+01    0.2495938    0.2145323 -87.30 0.0004647838    1.154    0.133
        38  -8.8875    191.5122    192.0384   1.1090891036e+02   6.3656160561e+00    0.1778055    0.1184074 -66.47 0.0008099308    2.656    0.624
        39 -13.2251     10.7325    157.7509   1.4522070527e+02   4.0914492875e+01     3.168231     1.019899  79.54  0.009802059    6.361    0.843
        40 -11.3933    237.4825    247.5278   1.1194630290e+02  -8.3834086087e+00     0.330485    0.1995404  -1.37  0.002080189    1.826    0.452
        41 -13.1815     63.3379    176.8784   1.3561727173e+02   3.1128567056e+01    0.4691329    0.2638606 -47.85  0.001692243    2.299    0.565
        42 -10.4499     97.0117    153.4346   1.2447509445e+02   3.1349267720e+01    0.3203061    0.2982008 -66.03 0.0009097209    1.128    0.114
        43  -9.4907     99.9865    148.9971   1.2296669262e+02   3.1849597116e+01    0.2444227    0.2170576 -32.10 0.0003471515    1.360    0.265
        44 -12.0165     85.7185    152.3475   1.2703074371e+02   3.3387201734e+01    0.2952663     0.241204 -49.48  0.000664242    1.342    0.255
        45 -12.1039     67.5690    143.5816   1.3011685368e+02   3.8010103198e+01    0.6559713    0.4113291  66.38  0.002553317    1.801    0.445
        46 -10.8634     30.7537    131.3158   1.3776127090e+02   4.5060889534e+01    0.2806275    0.1950677  54.54 0.0005402735    1.513    0.339
        47 -10.4884     96.2426    135.2783   1.2131229836e+02   3.5587621097e+01    0.2471699    0.2292738 -46.19 0.0003285595    1.168    0.144
        48 -11.7124     21.7272    126.3488   1.3947694720e+02   4.7000087825e+01    0.4060963    0.2254348  53.84  0.001093486    1.964    0.491
        49 -10.1494    109.1195    138.0147   1.1858505488e+02   3.2730715814e+01    0.4337671    0.2909594 -26.24   0.00164463    2.256    0.557
        50  -9.1571    106.3690    124.1165   1.1632466585e+02   3.6362937525e+01     0.196673    0.1706496 -60.96 0.0004060556    1.108    0.098
        51 -10.3263    158.1448     76.4706   9.0505723605e+01   3.5034484206e+01    0.2803335    0.2229015 -36.44 0.0006667961    1.253    0.202
        52 -10.8666     76.7812    178.6031   1.3288973321e+02   2.8920712794e+01    0.2249952    0.1961578 -85.60 0.0003225928    1.108    0.097
        53  -9.6340     98.3064    175.1056   1.2764305045e+02   2.6405381452e+01    0.2427461    0.1708992  56.66 0.0006677923    1.335    0.251
        54 -12.7567     33.7228    246.5829   1.4680038977e+02   2.1317076451e+01     1.397858      1.04927 -27.48  0.008825697    3.641    0.725
        55 -10.4164     99.8543    248.6304   1.3592381224e+02   1.2478883894e+01    0.1832746    0.1555287 -34.16  0.001323043    1.885    0.470
        56 -11.9717     84.7902    169.0513   1.2981125329e+02   2.9813225830e+01     0.693733    0.6234445 -17.09  0.002424384    1.550    0.355
