#   1 NUMBER                 Running object number                                     
#   2 MAG_AUTO               Kron-like elliptical aperture magnitude                    [mag]
#   3 X_IMAGE                Object position along x                                    [pixel]
#   4 Y_IMAGE                Object position along y                                    [pixel]
#   5 X_WORLD                Barycenter position along world x axis                     [deg]
#   6 Y_WORLD                Barycenter position along world y axis                     [deg]
#   7 A_WORLD                Profile RMS along major axis (world units)                 [deg]
#   8 B_WORLD                Profile RMS along minor axis (world units)                 [deg]
#   9 THETA_WORLD            Position angle (CCW/world-x)                               [deg]
#  10 FWHM_WORLD             FWHM assuming a gaussian core                              [deg]
#  11 ELONGATION             A_IMAGE/B_IMAGE                                           
#  12 ELLIPTICITY            1 - B_IMAGE/A_IMAGE                                       
         1 -16.5214     31.0660    132.0342   1.2301469315e+02   4.4591023131e+01     4.422428     3.130174  44.23   0.02944955    1.516    0.341
         2 -12.5032    182.1396     35.4930   6.0844920280e+01   3.5303971745e+01     1.532048     1.051634   0.53  0.006809136    1.814    0.449
         3 -10.4127    186.5224     28.5754   5.7931145067e+01   3.5020512026e+01    0.4929992    0.4045727  35.34  0.001213385    1.309    0.236
         4 -12.1168     26.9329      4.1194   9.2887291070e+01   7.2255714430e+01     1.542781     0.838258 -33.72  0.008973488    1.515    0.340
         5 -10.1005     17.5694      2.6679   9.7218615892e+01   7.3437440395e+01    0.4861006    0.3424077   9.70  0.002045327    1.585    0.369
         6  -8.0238    211.9979      7.5278   4.8353330494e+01   3.0630981892e+01    0.2058223    0.1351795  75.12 0.0004740591    1.516    0.340
         7 -10.3470    202.8596      4.1772   4.8249984740e+01   3.3341356479e+01    0.5466494    0.3834619  72.30  0.002793248    1.392    0.282
         8 -12.0024      5.8712      3.4896   1.0441943702e+02   7.4233179733e+01     1.375173    0.9643734 -62.27  0.009419959    1.563    0.360
         9  99.0000     53.9044    197.5440   1.2404742524e+02   2.8854725488e+01    0.2508885    0.1956843  40.92 0.0004754253    1.502    0.334
        10 -14.1167    242.5901    227.1561   9.4863059114e+01  -3.8260196596e+00     3.158802     1.218003 -26.75   0.01718249    3.023    0.669
        11 -13.9081     91.9562    224.5195   1.1950779432e+02   1.9371859260e+01     1.000564    0.5624136 -64.23  0.006591338    2.070    0.517
        12  99.0000    118.3772    234.8710   1.1599155229e+02   1.4108094516e+01      9.19212     2.966862  40.24   0.04084164    2.632    0.620
        13 -13.8214     90.3345    247.6538   1.2159808865e+02   1.6151069277e+01    0.5045162    0.1800484  55.72  0.002761744    2.389    0.581
        14  99.0000     51.0349    215.6293   1.2582005785e+02   2.6024485695e+01     1.316532    0.4093625  63.13  0.005780789    3.763    0.734
        15  99.0000     42.7619    228.2047   1.2793183713e+02   2.4893626233e+01     1.675182     1.020392  83.22   0.01282218    1.405    0.288
        16 -15.0679     79.2274    235.4732   1.2249166144e+02   1.9371155087e+01    0.8371088    0.3397697  36.77  0.004562996    2.580    0.612
        17 -15.5728     73.9027    245.7934   1.2404694868e+02   1.8511925545e+01    0.6563608     0.388895  71.89   0.00487817    1.494    0.331
        18 -16.0497     63.1725    238.3139   1.2526205471e+02   2.0939681536e+01     1.189559    0.4517775 -81.26  0.006586283    3.261    0.693
        19 -10.1579     44.6032    197.5443   1.2574131560e+02   2.9934134828e+01    0.2591675   0.09402368  47.99  0.000845837    2.136    0.532
        20 -11.2261     59.3175    210.4997   1.2403970726e+02   2.5913065473e+01    0.2521712    0.1638978 -49.97  0.001639175    2.446    0.591
        21 -12.6709     62.1456    204.4337   1.2308227680e+02   2.6621484902e+01    0.4658584    0.2275013 -86.37  0.002692963    2.185    0.542
        22 -10.9288     40.8458    205.0884   1.2690611905e+02   2.9003791865e+01    0.2579433    0.1307674  88.29  0.001639905    1.814    0.449
        23  99.0000     40.4578    198.8296   1.2657438141e+02   3.0164345048e+01    0.3465409    0.1723965  69.02  0.002152165    1.723    0.420
        24  -9.4402     76.9698    211.1724   1.2098137486e+02   2.3561460965e+01    0.1039187   0.07830147  84.19 0.0007510958    1.223    0.182
        25 -12.0815     69.7468    208.5651   1.2205012649e+02   2.4944683560e+01    0.1704452    0.1291175  72.41 0.0004283648    1.070    0.066
        26 -11.0375     53.9822    208.2946   1.2481748298e+02   2.6935349586e+01   0.09604141   0.06916559  74.02 0.0002535797    1.085    0.078
        27  -8.6545     87.9556    206.6766   1.1860986294e+02   2.2840373614e+01    0.1403804    0.1035507  59.12  0.000245805    1.062    0.058
        28 -12.7593     78.0074    204.1472   1.2018724494e+02   2.4630569115e+01    0.4520229    0.3097681  26.84   0.00282942    2.127    0.530
        29 -10.3717     16.6177    206.4447   1.3112820931e+02   3.1270617212e+01   0.09810223   0.07093087  75.07 0.0007943286    1.095    0.087
        30  -7.2979     91.2578    205.1693   1.1786406085e+02   2.2636132184e+01   0.09357367   0.07299771  41.76 0.0002234114    1.369    0.269
        31 -11.6373     48.8165    204.6016   1.2547207456e+02   2.8187830581e+01    0.1417272   0.09777427  52.95  0.000608568    1.242    0.195
        32  99.0000     21.8692    213.3182   1.3057441023e+02   2.9571140005e+01     1.006947    0.5150802 -70.37   0.00618425    2.041    0.510
        33 -11.2952     13.7255    201.7781   1.3140336631e+02   3.2365369287e+01    0.0785616   0.06820986  82.05 0.0006702609    1.417    0.294
        34 -10.6204      4.3116    200.2210   1.3292562200e+02   3.3498902219e+01   0.08099427   0.06605962  70.98 0.0004691236    1.304    0.233
        35 -10.4285     70.2895    199.0292   1.2115303804e+02   2.6549889425e+01    0.1404655    0.1097345  73.22 0.0002493033    1.055    0.052
        36  -8.7823     83.0128    197.9824   1.1869048490e+02   2.5037876323e+01    0.1149538   0.09152807  76.97 0.0008101694    1.098    0.090
        37  -9.3288     20.2267    197.5424   1.3007971366e+02   3.2499377173e+01    0.1392067   0.06401049 -71.45 0.0008763893    2.074    0.518
        38  -9.7174     90.0922    196.7383   1.1723685301e+02   2.4269042793e+01     0.174345    0.1417893  72.98 0.0004700394    1.069    0.065
        39 -10.7644     23.6364    197.9607   1.2950515936e+02   3.2087743303e+01   0.08526766    0.0359795  35.19 0.0003573062    2.518    0.603
        40 -12.3775     62.5469    194.5066   1.2220531579e+02   2.8354175313e+01    0.1969309    0.1463605  72.23  0.001261613    1.053    0.050
        41 -10.5163     27.0760    194.3475   1.2869495755e+02   3.2398077912e+01     0.178911    0.1176061 -67.06  0.001293028    1.726    0.421
        42 -11.3659     57.7687    193.7269   1.2303357199e+02   2.9086744466e+01    0.1555206    0.1050444  66.98 0.0006095833    1.169    0.144
        43 -10.8830     20.4059    193.8199   1.2985391258e+02   3.3157474780e+01    0.1007678   0.07071388  67.84 0.0003607007    1.063    0.059
        44  -9.0004     76.8676    192.4762   1.1931885078e+02   2.6867792094e+01    0.1307865   0.09446172  55.24 0.0001601424    1.163    0.140
        45 -10.0248     46.4455    190.7156   1.2491382102e+02   3.0980995991e+01    0.4515585    0.2693909  32.33  0.002842794    2.079    0.519
        46 -10.8065     40.2285    191.6493   1.2613425446e+02   3.1504472430e+01    0.1089469   0.08113982  76.41 0.0003386993    1.047    0.045
        47 -10.5194      1.3467    192.7130   1.3313184073e+02   3.5097477991e+01    0.1244884   0.05723295  53.20 0.0008405732    1.646    0.392
        48  99.0000     35.0276    189.5384   1.2695197732e+02   3.2460330402e+01    0.1754979   0.09043672  41.40 0.0006926148    1.825    0.452
        49  -8.3166     92.9973    187.2580   1.1566004712e+02   2.5561927974e+01    0.1880724    0.1031433  63.50 0.0007229257    1.825    0.452
        50  -8.4868     82.7822    185.4109   1.1745997946e+02   2.7364159420e+01    0.1201514    0.0744052  79.11 0.0004754997    1.660    0.398
        51 -10.9893     32.5057    183.4953   1.2702051266e+02   3.3865687607e+01    0.3398687    0.1340276  48.93  0.001937706    2.043    0.511
        52 -10.7525     43.2245    183.1791   1.2495706005e+02   3.2768152008e+01     0.143346    0.1113083  78.00 0.0003486545    1.066    0.062
        53 -10.6496     16.3885    182.4923   1.2997061179e+02   3.5646390763e+01     0.105174   0.07544687  78.50 0.0001474268    1.042    0.041
        54 -11.0045     50.5366    180.1956   1.2329995324e+02   3.2505589568e+01    0.1464868    0.1138157  76.88 0.0003228739    1.035    0.034
        55 -10.4606     19.2574    179.7957   1.2928384690e+02   3.5889862981e+01    0.1118761   0.08664726  73.07 0.0002775548    1.122    0.109
        56  -8.0717     86.4634    177.4629   1.1584308171e+02   2.8349513237e+01    0.3260162    0.1713969 -50.16  0.001687566    2.427    0.588
        57  -8.7321     89.4573    171.7662   1.1454660316e+02   2.9018097735e+01    0.2162073    0.1956982 -59.82 0.0004764553    1.365    0.268
        58  -7.7955    154.6641    177.3010   1.0216091144e+02   1.7162994773e+01    0.1298095   0.09473894  71.52 0.0003325145    1.660    0.398
        59 -10.7667    237.4301    175.0330   8.6933631483e+01   2.4931240860e+00    0.5096185    0.2386142  50.57 0.0009160752    2.368    0.578
        60 -10.3528     39.7527    172.1014   1.2477232390e+02   3.5309544118e+01    0.1518656     0.114395  75.26 0.0002449825    1.016    0.016
        61  -7.8467    196.5395    170.9407   9.3172170138e+01   1.0416218868e+01    0.1709454    0.1275733 -35.26 0.0004363861    1.480    0.324
        62  -9.6119    175.3843    172.3846   9.7352620928e+01   1.4154499633e+01    0.2692267    0.2524189  20.95 0.0006870618    1.093    0.085
        63  -7.5693    155.4854    168.4754   1.0052811978e+02   1.8502729368e+01     0.131825    0.1177676  45.69  0.000809854    1.026    0.025
        64  -7.7444    159.6109    166.9016   9.9438431587e+01   1.8003324154e+01    0.1662141    0.1243051 -64.60 0.0004063802    1.644    0.392
        65 -12.2524     73.9554    220.2605   1.2223675558e+02   2.2442920433e+01    0.4513836    0.2974334  21.23  0.002664215    2.901    0.655
        66  -9.7343     97.1214    164.6345   1.1200423570e+02   2.9267772193e+01    0.2346572    0.1718578 -79.61 0.0005897551    1.366    0.268
        67 -11.3127     81.7773    223.2377   1.2113585605e+02   2.0942544548e+01    0.1652558    0.1109174  58.35  0.001103151    1.115    0.103
        68  99.0000     30.8471    209.4423   1.2888065799e+02   2.9319209249e+01    0.7982334    0.3986704 -65.13   0.00525896    2.254    0.556
        69  -7.8421    133.7337    145.0389   1.0084383267e+02   2.6885536632e+01    0.1881275    0.1690769 -66.20 0.0005336507    1.148    0.129
        70  -8.0228    191.3216    139.6422   8.7871917451e+01   1.6292162865e+01    0.1398594    0.1123936 -81.01 0.0007044769    1.766    0.434
        71  -8.8925    182.8111    138.1489   8.9190676725e+01   1.8311101947e+01     0.193317    0.1602436  17.77 0.0004623141    1.293    0.226
        72  -7.9254    207.1783    163.2023   8.9795418936e+01   9.5292005069e+00    0.1615689    0.1549825 -60.95 0.0005298069    1.317    0.241
        73  -8.5993    161.2163    128.2485   9.1405309103e+01   2.4616696758e+01     0.424093    0.2927612  89.09  0.001817562    2.372    0.578
        74  -7.7262    165.6451    116.2844   8.7670171330e+01   2.5892120435e+01    0.1491507    0.1171953  89.36 0.0003898589    1.666    0.400
        75  -8.3893    167.7583    113.4477   8.6529946638e+01   2.5950166602e+01    0.3554518    0.2520064 -81.56   0.00146224    2.183    0.542
        76  -8.1911    170.1234    158.1213   9.5758196036e+01   1.7484171835e+01     0.176863    0.1565007  76.10 0.0003094861    1.281    0.220
        77  -9.3641    196.6589    107.1976   7.9225412846e+01   2.0503556084e+01    0.2987789    0.2427678  44.92 0.0005815923    1.227    0.185
        78  -9.4214    100.6326    156.3668   1.1005914085e+02   3.0375270116e+01    0.2501807    0.1988241  29.59  0.001418682    1.557    0.358
        79  -7.9943    180.9534    104.9078   8.1663869306e+01   2.4500412725e+01    0.2197251    0.1927946  13.24 0.0003468181    1.223    0.182
        80  -8.0988    122.8904     96.1054   9.2487911460e+01   3.9061916273e+01    0.2328652    0.1954814  89.78 0.0009322211    1.347    0.258
        81  -8.1563    224.4585     91.0646   7.0299303234e+01   1.6666871283e+01     0.227591    0.1359737 -28.66  0.001027429    1.586    0.369
        82  -8.2800    112.8947     88.4598   9.3043457232e+01   4.2667313446e+01    0.2172944    0.1888242 -48.60 0.0004669352    1.102    0.092
        83  -7.6583    150.6416     82.0292   8.1815967849e+01   3.5769302408e+01    0.2569894    0.1323136 -16.80 0.0007043055    4.556    0.780
        84  -7.7475    104.5378     82.5085   9.3675784603e+01   4.5538068787e+01    0.1451455    0.1354343 -57.72 8.003812e-05    1.008    0.008
        85  -8.0212    111.6271     78.9667   9.0690799107e+01   4.4903971135e+01     0.204646    0.1738836 -44.98 0.0003698455    1.120    0.107
        86  -8.1032     81.3300     77.3251   9.9034862759e+01   5.0709681983e+01    0.2712308     0.156881 -40.27  0.001248347    1.790    0.441
        87  -9.2083    160.3518     76.8265   7.8116529524e+01   3.4409297247e+01    0.3735822    0.2156627  44.72    0.0015413    1.799    0.444
        88  -7.6555     95.6514     77.3133   9.4735372678e+01   4.8281611749e+01    0.1462347    0.1113228 -89.65 0.0007046543    1.720    0.419
        89  -8.8856    168.7480     72.1226   7.4937473138e+01   3.3174003677e+01    0.3110384    0.1872334  32.57  0.001227492    2.112    0.526
        90  -7.8081     71.4614    163.5349   1.1735089768e+02   3.3195706358e+01    0.1248217   0.09821005  75.37  0.000117489    1.064    0.060
        91  -8.2398    125.9255     66.8524   8.3117056728e+01   4.4300958429e+01    0.2255468    0.1995829   6.65 0.0004177817    1.264    0.209
        92  -7.4750    119.4953     66.4275   8.4667427322e+01   4.5786822212e+01    0.1472838    0.1422597 -35.01 0.0001612083    1.013    0.013
        93  -9.6892    164.4400     64.4147   7.3432488847e+01   3.5554531023e+01    0.3252828    0.2179078  11.80  0.001301269    2.210    0.548
        94  -9.5218    109.8703     57.5024   8.4314853453e+01   4.9530809060e+01    0.2614639     0.226834 -38.05  0.000309688    1.088    0.081
        95  -7.9811    124.4949     56.9210   8.0159428079e+01   4.6464544261e+01    0.2182826     0.143556 -37.18 0.0002918137    1.461    0.316
        96  -9.3125    156.0937     54.3538   7.1898121702e+01   3.9313080916e+01    0.3548143    0.1689739  45.95  0.001323899    2.190    0.543
        97 -10.1795      7.8291    220.8550   1.3313441878e+02   2.9658916000e+01    0.1019415   0.05134959  44.49 0.0007369038    1.686    0.407
        98 -11.2264     68.2595    213.5535   1.2270512761e+02   2.4283136408e+01    0.1414123    0.1077274  83.85 0.0002400134    1.202    0.168
        99 -10.0588    172.4886     48.4563   6.6731563648e+01   3.6023685520e+01    0.3897329    0.3163703  42.49 0.0007058958    1.270    0.213
       100  -7.8476    191.4594     46.9864   6.3026763736e+01   3.1287504793e+01    0.2244716    0.1478591 -25.42 0.0005242105    1.516    0.340
       101  -7.6392    221.3037     42.3171   5.7410277545e+01   2.4261383505e+01    0.1476615    0.1097138  24.11 0.0007025481    1.624    0.384
       102  -8.0779    105.0246    154.0163   1.0873239687e+02   3.0142513106e+01    0.2120547    0.1408181  70.80 0.0005879122    1.647    0.393
       103 -11.0672     62.7489    212.8113   1.2360973258e+02   2.5097369094e+01    0.1418251    0.1079754  79.01 0.0004401771    1.143    0.125
       104 -10.7576     44.5553    206.6646   1.2635814039e+02   2.8311669648e+01    0.1078378   0.08080301  75.22 0.0002773255    1.084    0.078
       105 -11.1294    168.5312     49.6098   6.7845651308e+01   3.6877148817e+01    0.4955033    0.4580647 -79.31  0.001327125    1.151    0.131
       106 -12.2307     58.0709    199.4358   1.2343117111e+02   2.8011332168e+01    0.1921207   0.09824746  36.55  0.001123168    2.080    0.519
       107 -12.0253     50.0746    197.4503   1.2474029068e+02   2.9323014858e+01    0.2463675    0.1893567  78.39   0.00187769    1.095    0.087
