#   1 NUMBER                 Running object number                                     
#   2 MAG_AUTO               Kron-like elliptical aperture magnitude                    [mag]
#   3 X_IMAGE                Object position along x                                    [pixel]
#   4 Y_IMAGE                Object position along y                                    [pixel]
#   5 X_WORLD                Barycenter position along world x axis                     [deg]
#   6 Y_WORLD                Barycenter position along world y axis                     [deg]
#   7 A_WORLD                Profile RMS along major axis (world units)                 [deg]
#   8 B_WORLD                Profile RMS along minor axis (world units)                 [deg]
#   9 THETA_WORLD            Position angle (CCW/world-x)                               [deg]
#  10 FWHM_WORLD             FWHM assuming a gaussian core                              [deg]
#  11 ELONGATION             A_IMAGE/B_IMAGE                                           
#  12 ELLIPTICITY            1 - B_IMAGE/A_IMAGE                                       
         1 -13.6766    247.8726    140.2879   5.8897581545e+01   4.3920058977e+00     1.717688    0.5137185 -36.37  0.006236204    2.963    0.662
         2 -13.4628     75.4756     33.0321   6.6425295177e+01   6.0178548377e+01     1.475241    0.9259928  21.81  0.007500036    1.747    0.428
         3 -15.4156     35.6897     48.3468   8.8379601347e+01   6.3718903519e+01     3.855754     2.087406  -4.25   0.01147701    2.715    0.632
         4 -15.0370     11.2579     20.3814   8.9417248369e+01   7.0988805137e+01     2.653432     1.260486 -16.07   0.01326078    2.549    0.608
         5 -14.4450     97.2938     71.5732   7.3417306394e+01   4.9586841610e+01     1.422343    0.9606993  32.68  0.003485525    1.549    0.354
         6 -15.5029     63.7674     71.6981   8.4895458873e+01   5.5452561218e+01     3.474258     2.196798   6.28   0.01585372    2.167    0.538
         7 -12.4169     82.8434     22.2906   5.9591856119e+01   6.0099362187e+01    0.6179907    0.4155509  51.15  0.003436972    1.435    0.303
         8 -12.6522    123.6264     10.7608   4.5352312332e+01   5.2199386514e+01     1.395695    0.3717722  59.76  0.003581177    2.873    0.652
         9 -13.5968    104.5442      5.1456   4.7103377445e+01   5.7095112045e+01     1.189813    0.6709955  64.66   0.00619793    1.640    0.390
        10 -13.2009     75.7261     13.4068   5.7998266179e+01   6.2484480094e+01    0.6603135    0.4242386  43.91   0.00288166    1.360    0.265
        11 -14.2772     85.2345      7.7123   5.2777140314e+01   6.1090497792e+01      2.15783    0.8939566  48.10   0.01014293    1.978    0.495
        12 -12.3654     95.6745      3.2765   4.8341534812e+01   5.9220289269e+01    0.4677221    0.3121773  54.62  0.002218052    1.278    0.217
        13 -11.1649    175.2514     14.2252   3.8746065620e+01   3.9390596930e+01    0.2887802    0.2191696 -13.31   0.00166971    1.679    0.404
        14 -11.4894    155.4053     14.6990   4.1460589118e+01   4.4163251275e+01    0.3499946     0.232111  41.74  0.001863742    1.655    0.396
        15 -10.6549    156.3027     10.0719   3.9977083835e+01   4.4390200196e+01    0.2283319    0.2002568  71.95   0.00104375    1.038    0.037
        16 -12.2963    185.8471     11.5888   3.6865817518e+01   3.7122966134e+01    0.4389816    0.2800044  66.57  0.002451845    1.424    0.298
        17 -11.1167    150.7248      8.7493   4.0349120395e+01   4.5866241367e+01    0.2981787    0.2601936 -24.41  0.001479593    1.327    0.246
        18 -11.8806    193.5803      7.4241   3.5049749929e+01   3.5720869041e+01    0.4928338    0.2275489 -45.24  0.001981263    2.047    0.512
        19 -11.8156    188.3954      5.3528   3.5035838198e+01   3.7137489888e+01     0.280636    0.2477673 -13.48 0.0002515678    1.452    0.311
        20 -12.1466    161.6813      3.9137   3.7528324628e+01   4.3645678455e+01    0.4142545    0.3722145  44.82   0.00273034    1.249    0.199
        21 -12.1757    138.5794      4.6563   4.0841756334e+01   4.9156965066e+01    0.6765607    0.2863309  59.07  0.002651595    1.926    0.481
        22 -10.8432      5.1336      4.5276   8.5438784025e+01   7.3912580167e+01    0.4186041    0.2107057 -23.82  0.002511161    1.756    0.431
        23 -10.4333    128.7496      5.6019   4.2701088805e+01   5.1429869008e+01    0.2248848    0.1690971  47.44 0.0007284816    1.232    0.189
        24 -11.5147     73.3893      1.5445   5.3411884341e+01   6.4035921169e+01    0.2181368    0.1320577  52.77 0.0004941418    1.476    0.322
        25  -9.8490    211.9398      1.4877   3.2093349568e+01   3.2115661384e+01    0.1785705    0.1033834  79.38 0.0007180707    1.525    0.344
        26  -9.5648    162.8144     90.3678   6.2180605798e+01   3.1315569224e+01      0.22127    0.1386589  42.95 0.0009441171    1.703    0.413
        27 -13.3363     32.3396     88.2884   1.0127728436e+02   5.5613074638e+01    0.6594554    0.4006284  24.56  0.003483236    1.866    0.464
        28 -13.8203     40.8188     81.6859   9.6468847704e+01   5.6261222613e+01    0.7725805    0.6127606 -77.27  0.004405026    1.510    0.338
        29 -11.4352     18.8645    153.8728   1.1590877405e+02   4.0827715812e+01    0.2010388    0.1580217 -61.01  0.001106114    1.240    0.193
        30 -14.1590     20.1496     78.9774   1.0379129623e+02   5.8777274105e+01    0.7865332    0.5659679  30.81  0.004739576    1.641    0.391
        31 -10.8751    246.5396    183.4006   6.7862774034e+01  -2.3816314654e+00    0.2505021    0.1929107 -35.21  0.001543852    1.271    0.213
        32 -13.2814    128.7979     64.4457   6.2296171815e+01   4.4014103173e+01    0.7958698    0.5296902  60.64  0.003680541    1.596    0.373
        33 -12.0338    118.5050     73.4437   6.7843210596e+01   4.4759311577e+01    0.4574421     0.318028  13.37  0.001760917    2.019    0.505
        34 -13.2345    117.9536     65.9813   6.5590416988e+01   4.6224720458e+01    0.6834269    0.4445771 -28.05  0.002102817    1.675    0.403
        35 -10.3006    170.4533     72.2389   5.5604326498e+01   3.2724139676e+01    0.3218084    0.1272858  69.01 0.0008896787    4.547    0.780
        36 -10.7122    160.1653     72.1286   5.7590017287e+01   3.5228090093e+01    0.2146328    0.1992426  25.80 0.0002849511    1.182    0.154
        37 -10.3910    133.4509     80.4668   6.6111535141e+01   4.0067505081e+01    0.1495409    0.1481129 -81.94 1.668637e-05    1.029    0.028
        38 -10.3202    164.5136     68.0143   5.5548577027e+01   3.4864782407e+01    0.2174008    0.1452831 -35.64 0.0004721191    1.523    0.344
        39 -10.7421    214.5670     60.9896   4.5720045419e+01   2.4133932847e+01    0.3489814    0.2010888 -32.95  0.001173113    1.761    0.432
        40 -10.1369    166.1680     62.9884   5.3800142067e+01   3.5275448178e+01    0.2111936    0.1904318  26.81 0.0003137093    1.261    0.207
        41 -12.3037     48.9816    141.9829   1.0605043106e+02   4.0731106844e+01    0.7108075    0.4351196  22.01  0.003452035    2.001    0.500
        42 -12.6281    124.8976     56.7929   6.0779167965e+01   4.6176152698e+01    0.3213088     0.286722  38.94  0.000528717    1.087    0.080
        43 -12.7512    143.5439     75.1927   6.2095227340e+01   3.8677485199e+01    0.5574999    0.4471124  85.43  0.002220896    1.490    0.329
        44 -11.4074    174.3916     56.5044   5.0512966668e+01   3.4272620802e+01    0.2622818    0.2307256 -79.84 0.0002870461    1.117    0.105
        45 -10.1749    137.0340     55.7116   5.7565877712e+01   4.3484518052e+01    0.2075698    0.1845198  56.05 0.0004756592    1.082    0.076
        46 -10.6977    164.6456     53.6589   5.1400282484e+01   3.7077979787e+01    0.3384249    0.2238159 -51.17  0.001621543    1.581    0.367
        47 -11.2108    132.0707     53.8419   5.8096535719e+01   4.4954252858e+01    0.2826397    0.2186187  55.26 0.0004486969    1.242    0.195
        48 -10.4816    155.3267     52.0609   5.2650899951e+01   3.9597059814e+01    0.2019679    0.1829534 -51.41 0.0005495999    1.127    0.113
        49 -10.8618    145.4026     50.4599   5.4121012034e+01   4.2254497763e+01     0.265552    0.2436873 -65.17 0.0007728861    1.134    0.118
        50  -9.4621    213.4355     50.5112   4.3347801312e+01   2.5911205504e+01     0.134459    0.1183359 -67.29 0.0001626991    1.015    0.015
        51 -11.6132    150.8876     73.6557   5.9989460122e+01   3.7198381083e+01    0.2885565    0.2166967 -46.81 0.0006140541    1.351    0.260
        52  -9.9151    194.6436     47.9717   4.5142087280e+01   3.0629787432e+01    0.1870922    0.1612228 -53.76 0.0003713158    1.112    0.101
        53 -13.6044     69.2319     54.5509   7.7019042245e+01   5.7881488971e+01    0.8058209    0.6484625  46.22  0.002821749    1.432    0.302
        54 -10.8379    116.0280     45.5484   5.9197579920e+01   4.9923586927e+01     0.238289    0.2046566 -27.14 0.0002494107    1.218    0.179
        55 -10.4505    204.5056     43.3278   4.2693509957e+01   2.8951810077e+01    0.2260974    0.1911623  69.40 0.0002386069    1.201    0.167
        56 -10.8862    196.8196     41.7798   4.3271854522e+01   3.0960121791e+01    0.3761837     0.214256 -22.68  0.001723854    2.234    0.552
        57 -10.7588    181.7976     43.2060   4.5701669724e+01   3.4366345935e+01    0.2388506    0.2075711  71.77 0.0002609894    1.105    0.095
        58 -11.2192    157.2062     43.7204   4.9813169904e+01   4.0315623250e+01    0.3681219    0.2396641  68.84  0.001003091    1.515    0.340
        59 -10.7174    140.8604     43.9504   5.3002259486e+01   4.4280649513e+01    0.2319079    0.1958141  58.32 0.0003768338    1.112    0.101
        60 -10.3924    122.2302     43.4728   5.6956771812e+01   4.8787264851e+01    0.2520634     0.200521  18.74 0.0006934563    1.405    0.288
        61 -10.3232    128.6699     42.9035   5.5273635289e+01   4.7351230919e+01    0.2463253    0.1809661  46.36 0.0005448779    1.290    0.225
        62  -9.0904    236.3038     42.3224   3.8983822062e+01   2.2027156702e+01    0.1136135    0.1001172  24.38 0.0003110644    1.636    0.389
        63 -11.8931    217.1856     38.9896   4.0191025154e+01   2.6632353051e+01     0.421946    0.3323068  28.64  0.001943689    1.856    0.461
        64  -9.9526    226.2845     39.5995   3.9376574709e+01   2.4537850119e+01    0.2073689    0.1213844 -65.11 0.0006167006    1.706    0.414
        65  -9.3887    159.5882     36.4683   4.7252649383e+01   4.0682416540e+01    0.1365475    0.1275455  74.57 8.093522e-05    1.030    0.029
        66 -11.2042    140.9213     34.9160   5.0108950408e+01   4.5450241599e+01    0.4338738    0.1706887  57.10  0.001719375    2.238    0.553
        67 -10.3054    176.4003     33.5823   4.3858698601e+01   3.6924235545e+01    0.2496478    0.1494739  66.00  0.000612182    1.549    0.355
        68  -9.7986    240.4854     34.4514   3.6902951718e+01   2.2178086208e+01     0.125748    0.1012795 -65.72 0.0001571306    1.011    0.010
        69  -9.4353    216.3536     28.3152   3.7799253568e+01   2.8170021507e+01    0.1231689   0.09558547  40.36 0.0007045924    1.738    0.425
        70 -11.7419    241.8018     22.6633   3.4322256191e+01   2.3359989830e+01    0.3258355    0.2080467 -67.08 0.0006400409    1.362    0.266
        71 -10.9826      3.4180    140.2570   1.1861176741e+02   4.5312050938e+01     0.347221    0.1951633 -69.66  0.001940523    1.413    0.292
        72 -12.7540    198.7082    138.0542   6.6881447828e+01   1.4048714905e+01    0.7935297    0.4959704  64.38  0.003367436    2.276    0.561
        73 -10.7637     33.7188    135.9768   1.0956558989e+02   4.3881838040e+01    0.1975444    0.1605687 -77.41  0.001166836    1.078    0.073
        74 -13.0320    201.3668    128.9215   6.4253113281e+01   1.5253930699e+01    0.5855882    0.4485648  30.16  0.002948659    1.485    0.327
        75 -12.5779    219.2950    121.9974   5.9455568757e+01   1.2872722166e+01    0.8912042    0.4681576 -42.94  0.003952191    1.726    0.421
        76 -10.6901    141.3076     21.5601   4.5775748969e+01   4.6897082394e+01     0.415347    0.1854869  73.54  0.001665695    2.505    0.601
        77 -10.3268    234.9483     21.4965   3.4623561421e+01   2.4931393493e+01    0.1809548    0.1086579  77.95  0.001035312    1.597    0.374
        78  -9.7385     28.3084    126.3384   1.0974837621e+02   4.6788083071e+01    0.1400114    0.0861526 -43.31 0.0007043181    1.683    0.406
        79 -10.7435    153.9713     20.0828   4.3272386809e+01   4.3963248541e+01    0.2016519     0.180963  81.42 0.0003640665    1.030    0.029
        80 -10.2847    208.7716     19.0644   3.6386245767e+01   3.0974213877e+01    0.2068435    0.1485312 -64.38   0.00122942    1.248    0.199
        81 -10.0859    202.0300     17.3246   3.6629269227e+01   3.2717538862e+01    0.1799197    0.1425386  88.82 0.0004205491    1.109    0.098
        82 -10.8070    195.1922    112.8132   6.1551786641e+01   1.9636207345e+01    0.2709196    0.2524813 -51.95  0.001494298    1.039    0.038
        83 -11.2801    111.9921    109.9948   8.0393298485e+01   3.8536318085e+01    0.2469898    0.1951681  86.05 0.0009439781    1.667    0.400
        84 -11.3578    199.0288    108.5023   5.9789613579e+01   1.9603338223e+01    0.2932023    0.2124563 -38.56 0.0005349679    1.299    0.230
        85 -11.3616     89.8185     98.4437   8.3921761878e+01   4.5373005185e+01    0.5201644    0.2565698 -47.12  0.002011797    1.928    0.481
        86 -12.5818    140.5134     96.6605   6.9074184117e+01   3.5270784942e+01    0.5656783    0.3887943 -47.17  0.002196118    1.459    0.315
        87 -10.9898      2.1211     95.5998   1.1355583475e+02   5.6082442455e+01    0.2702617    0.1079207 -55.52  0.001313894    1.869    0.465
        88 -12.4120     31.9028     30.0538   8.2999798852e+01   6.7339102958e+01    0.7702994    0.3546839  37.58  0.003855133    2.473    0.596
        89 -10.5904    144.5307    181.4897   8.8018545542e+01   1.5807435606e+01    0.1452163    0.1401103  32.52 0.0001621033    1.004    0.004
        90 -13.6050      9.1953     64.0870   1.0476563027e+02   6.2804857370e+01    0.6798994    0.5045683 -40.48  0.003198731    1.107    0.097
        91 -11.0932     34.3559    177.1638   1.1445539069e+02   3.3697485107e+01    0.2730315    0.1863338   1.35  0.001417152    2.376    0.579
        92 -13.1846      3.2227     46.7707   1.0292867950e+02   6.6739982301e+01    0.5618382    0.4646803 -48.93  0.002291992    1.159    0.137
        93 -11.1338    149.3616     21.6053   4.4451842534e+01   4.4928716453e+01    0.2983068    0.1993321  68.43  0.001511999    1.359    0.264
        94 -11.9792    203.3938    171.8600   7.3357788364e+01   6.7347517639e+00    0.3551483    0.2447424 -49.55  0.001772415    1.602    0.376
