#   1 NUMBER                 Running object number                                     
#   2 MAG_AUTO               Kron-like elliptical aperture magnitude                    [mag]
#   3 X_IMAGE                Object position along x                                    [pixel]
#   4 Y_IMAGE                Object position along y                                    [pixel]
#   5 X_WORLD                Barycenter position along world x axis                     [deg]
#   6 Y_WORLD                Barycenter position along world y axis                     [deg]
#   7 A_WORLD                Profile RMS along major axis (world units)                 [deg]
#   8 B_WORLD                Profile RMS along minor axis (world units)                 [deg]
#   9 THETA_WORLD            Position angle (CCW/world-x)                               [deg]
#  10 FWHM_WORLD             FWHM assuming a gaussian core                              [deg]
#  11 ELONGATION             A_IMAGE/B_IMAGE                                           
#  12 ELLIPTICITY            1 - B_IMAGE/A_IMAGE                                       
         1 -12.5795    213.5639     29.1971   3.8283932668e+01   2.8691159080e+01    0.9259897    0.7524529  34.30  0.003042452    1.700    0.412
         2 -12.7500    201.9038     40.3854   4.2284491399e+01   2.9950847206e+01       1.1813    0.9708822  46.80  0.006930048    1.437    0.304
         3 -11.5920    239.1047      4.4681   3.0799809986e+01   2.5967518256e+01    0.7678134     0.449672  82.68  0.004687016    1.557    0.358
         4  -9.4610     15.5181      4.2445   7.9191202593e+01   7.2933158937e+01    0.2348695   0.07650749  22.19 0.0009019522    4.473    0.776
         5 -10.3371    141.7844    221.0809   9.5338361296e+01   8.2899214475e+00    0.4134291    0.1564878  42.00  0.001663653    2.355    0.575
         6 -13.9385     82.7976    219.8211   1.0800015622e+02   1.7810952615e+01      6.27413     1.695764  43.44   0.01355734    3.062    0.673
         7  -9.0071    107.8240    204.2135   1.0038646013e+02   1.7298807921e+01    0.2326836     0.182628 -81.26 0.0006284119    1.402    0.287
         8  -9.3773     59.3934    197.7914   1.1076002498e+02   2.5880337170e+01    0.2773639    0.2548748  70.24 0.0005716565    1.121    0.108
         9  -8.7097    193.2920    195.6481   8.0099945515e+01   4.2012159173e+00    0.1282543    0.1121795 -87.70 0.0007029339    1.677    0.404
        10 -13.0725     56.2122    239.7269   1.1541452752e+02   1.7365844895e+01    0.9664907    0.8737845   2.99  0.002852372    1.640    0.390
        11  -8.0224     99.6778    180.6906   9.8724876746e+01   2.3922087496e+01    0.1412107    0.1142277 -18.39 0.0002850447    1.648    0.393
        12  -9.7325     40.3836    176.9550   1.1296772174e+02   3.3087643827e+01    0.3051417    0.2042444 -61.28 0.0009102643    1.442    0.307
        13 -10.4476     66.3334    174.3246   1.0615790485e+02   3.0491878813e+01    0.4641146    0.2771244 -41.92   0.00213364    2.119    0.528
        14 -10.4606     70.9990    169.4261   1.0425316095e+02   3.1034803527e+01    0.3810566    0.2564802 -44.48 0.0008218135    1.695    0.410
        15  -9.9438    104.1924    171.9257   9.6109211736e+01   2.5228883607e+01    0.4327233    0.2114542  32.30  0.001706229    2.242    0.554
        16 -12.3760     51.3050    189.3834   1.1171441527e+02   2.8852607793e+01     1.066012    0.8530288 -79.72  0.005689888    1.146    0.128
        17 -11.6993     59.9403    135.7986   1.0179545529e+02   4.0924290509e+01     1.431285    0.5275225 -73.45  0.004033853    4.718    0.788
        18 -11.1974     79.9708    160.4018   1.0044896080e+02   3.1936951177e+01    0.8122872    0.4132769  57.84  0.000426215    2.538    0.606
        19 -11.9401     68.4177    155.7469   1.0280696170e+02   3.4776939137e+01    0.6752945    0.5126172  12.92  0.001632496    1.709    0.415
        20 -10.8113     86.8742    153.8761   9.7427125255e+01   3.2473343484e+01    0.5800773    0.4251842 -19.94  0.001753886    1.933    0.483
        21  -9.0887    133.9017    147.5015   8.3628140813e+01   2.5459203198e+01    0.4565816    0.1768584 -53.58  0.001488637    2.828    0.646
        22  -9.1074     33.2887    156.4261   1.1240447274e+02   3.8847193811e+01    0.2628666    0.1913783  86.31  0.001494106    1.284    0.221
        23  -8.6145    132.7478    139.7015   8.2151292540e+01   2.7487990436e+01    0.4306933    0.1335914 -53.36   0.00119205    3.821    0.738
        24  -9.9067    101.1517    139.6485   9.0626867163e+01   3.3558939406e+01    0.5483463    0.3374681 -24.27  0.002066422    2.651    0.623
        25  -8.1271    198.1614    139.8791   6.7406574772e+01   1.3807449223e+01    0.2224533    0.1922742 -65.27 0.0009249368    1.327    0.246
        26 -10.5904     88.6091    139.0393   9.4047464122e+01   3.5862580177e+01    0.2992394    0.2555509 -45.72 0.0004126426    1.176    0.149
        27  -8.8819     25.3499    137.5771   1.1220784387e+02   4.4268020511e+01      0.24208    0.1136518  34.17  0.001143712    2.291    0.564
        28  -8.9097    105.9426    131.1051   8.7370808960e+01   3.4755151840e+01    0.3782004    0.2577656 -57.53  0.001704452    1.472    0.321
        29  -8.6696    110.6905    129.9706   8.5774470066e+01   3.4131708444e+01    0.2878311     0.222695  17.43 0.0008752143    1.572    0.364
        30  -8.8692    135.7572    129.5201   7.8954660802e+01   2.9194928940e+01    0.3483563    0.1236203 -56.50 0.0008933792    4.489    0.777
        31  -9.3661     97.9019    126.0176   8.8489922036e+01   3.7449612084e+01    0.3192077    0.2545581 -23.38 0.0008855217    1.475    0.322
        32 -11.9445     68.3670    144.3041   1.0086935728e+02   3.7645272208e+01    0.8819751    0.6030915  76.15  0.003126652    1.795    0.443
        33  -8.6112     86.0215    119.9605   9.0605405044e+01   4.0973422458e+01    0.2404018    0.1828066  79.70 0.0006007725    1.705    0.413
        34  -8.2616    107.2982    118.9622   8.4057646462e+01   3.7385739944e+01    0.2111108     0.193082 -43.06 0.0003980319    1.068    0.064
        35  -8.6481     32.2987    118.8509   1.0731243042e+02   4.8271939084e+01    0.2174317    0.1557294 -84.37 0.0008499844    1.419    0.296
        36  -9.3230     52.8128    110.9020   9.9124453833e+01   4.8008729345e+01    0.2273206    0.1752677 -41.75  0.001225708    1.251    0.201
        37  -8.0876    205.5135    110.4532   5.9109433145e+01   1.7836320612e+01    0.1456915    0.1359206 -36.89 9.883632e-05    1.039    0.038
        38  -9.1697     33.3499    109.0081   1.0521941088e+02   5.0586691937e+01    0.3368445    0.1101696 -63.64  0.001268456    2.605    0.616
        39  -8.5274    114.9978    108.5826   7.9161567378e+01   3.8247703680e+01    0.2406836    0.1866239 -46.41 0.0009111098    1.260    0.206
        40 -14.1550     40.1320    197.7081   1.1512969794e+02   2.8259198902e+01     5.507603     2.426246  82.04   0.02083618    3.039    0.671
        41 -13.8189     20.7413    221.7103   1.2106245032e+02   2.5129634445e+01     1.560511     1.188232 -79.75   0.00669293    1.284    0.221
        42  -8.5187     36.3156    100.6633   1.0255526389e+02   5.2314791486e+01    0.1341341    0.1003079  75.93 5.419182e-05    1.696    0.410
        43 -13.8563      9.3056    207.3347   1.2243335296e+02   2.9308606696e+01     1.250807     1.161229 -61.78  0.003982548    1.450    0.310
        44 -10.4458     80.4628    245.8398   1.1117116721e+02   1.2974654649e+01    0.5727604    0.3138622  58.31  0.003125954    1.721    0.419
        45 -12.1700    192.3058     47.1672   4.5256274175e+01   3.1297572911e+01    0.8614169    0.6419089  35.16  0.003178275    1.740    0.425
        46 -14.9456      5.2530    168.7029   1.2064140308e+02   3.8394523361e+01     16.12365    0.8471552 -75.23    0.0298873   13.780    0.927
        47 -14.2714     20.7586    250.1151   1.2270824600e+02   1.9497987277e+01     3.074628    0.9113578  27.65   0.00971158    6.033    0.834
        48  -9.2930    138.5355     44.5017   5.3658451834e+01   4.4767360624e+01    0.2749217    0.2317526 -77.35 0.0005330145    1.332    0.249
        49 -14.5691      3.6048    247.5396   1.2556119469e+02   2.1727628284e+01     1.497033     1.360858 -29.17   0.01205179    1.900    0.474
        50  -9.9478    148.4942    226.7706   9.4767670212e+01   6.1422175539e+00    0.3130663    0.1777455  62.91  0.001280245    3.062    0.673
        51  -9.6005     59.0967    220.6706   1.1316422792e+02   2.0879828199e+01    0.2992694    0.2566277 -65.82   0.00125382    1.336    0.252
        52  -9.2626     95.2505    241.6518   1.0778368698e+02   1.1664860014e+01    0.3249026    0.2028317 -82.46  0.001782566    1.984    0.496
