#   1 NUMBER                 Running object number                                     
#   2 MAG_AUTO               Kron-like elliptical aperture magnitude                    [mag]
#   3 X_IMAGE                Object position along x                                    [pixel]
#   4 Y_IMAGE                Object position along y                                    [pixel]
#   5 X_WORLD                Barycenter position along world x axis                     [deg]
#   6 Y_WORLD                Barycenter position along world y axis                     [deg]
#   7 A_WORLD                Profile RMS along major axis (world units)                 [deg]
#   8 B_WORLD                Profile RMS along minor axis (world units)                 [deg]
#   9 THETA_WORLD            Position angle (CCW/world-x)                               [deg]
#  10 FWHM_WORLD             FWHM assuming a gaussian core                              [deg]
#  11 ELONGATION             A_IMAGE/B_IMAGE                                           
#  12 ELLIPTICITY            1 - B_IMAGE/A_IMAGE                                       
         1 -12.4068    119.8083     37.6745   3.8916823325e+01   4.9261073699e+01    0.8384162    0.4845827 -57.33  0.003086563    2.246    0.555
         2 -12.4351    160.0540     29.7266   3.0008044416e+01   4.1044721673e+01    0.3889426    0.3320789 -53.49 0.0004675712    1.213    0.176
         3 -12.0539    105.9884     20.8973   3.6474884265e+01   5.4333292684e+01    0.4174125     0.311638 -86.99 0.0007870431    1.541    0.351
         4 -11.9951    113.0188     25.6653   3.6562796355e+01   5.2217796794e+01    0.7084327    0.2844523  48.65  0.003067972    2.282    0.562
         5 -12.1906     20.1670     21.8750   6.9699799407e+01   7.0735533202e+01    0.5084063    0.2976557 -28.20   0.00151996    1.691    0.409
         6 -11.7438     26.8038     27.8393   6.8492785822e+01   6.8960729565e+01    0.5221357    0.3659188 -28.14  0.002376837    1.413    0.292
         7 -11.8019     35.5917     18.1268   5.9203174604e+01   6.9046970743e+01    0.6702639    0.2873877 -25.02  0.002957425    3.005    0.667
         8 -10.5738    121.5076     11.7497   3.0673679179e+01   5.1639824231e+01    0.3463697    0.1822662  72.45  0.001789435    1.680    0.405
         9 -11.8893    136.0697     22.2299   3.1426893652e+01   4.7274486252e+01    0.8250352    0.3238153  55.62  0.003513517    2.210    0.547
        10 -10.8388    127.1383     11.8288   2.9812715943e+01   5.0338241038e+01    0.3163577    0.2286973 -86.82  0.001491761    1.366    0.268
        11 -11.4789    134.3217     14.9197   2.9631004977e+01   4.8403562753e+01    0.5757939    0.2161411  61.44  0.002641042    2.145    0.534
        12 -10.3700    127.4476     16.2483   3.1060294271e+01   4.9853254221e+01    0.2652054    0.1914112  47.57  0.000915466    1.415    0.293
        13 -10.5981     90.8527     22.1143   4.0448285318e+01   5.7635093060e+01    0.3216706    0.2666773  -7.46  0.001560667    1.429    0.300
        14 -11.0908     85.8221     14.1198   3.8783371147e+01   5.9556390735e+01    0.3880972    0.3003908 -22.55  0.001544678    1.541    0.351
        15 -11.2964    179.6287     20.3570   2.5549734226e+01   3.7841001813e+01    0.4717201    0.2346983  45.50  0.002023136    2.949    0.661
        16 -11.6725     68.0368     18.3068   4.5683309281e+01   6.2967616556e+01    0.4173293    0.3666868  37.34  0.001605221    1.080    0.074
        17 -12.4971    164.5910     18.3036   2.6655103822e+01   4.1280789627e+01    0.4845378    0.2561502  47.39  0.002019615    2.334    0.571
        18 -10.9093      5.0392     10.9469   7.4506848444e+01   7.4076452173e+01    0.5146479     0.297887  17.74  0.003112847    1.457    0.314
        19 -10.7213     12.7559      8.8426   6.7981396835e+01   7.3526190376e+01    0.3395817     0.265933 -51.64  0.002191994    2.091    0.522
        20 -12.1945     15.8302     14.5182   6.8877244570e+01   7.2357430114e+01    0.6217179    0.3739615  -6.92  0.003022049    1.717    0.418
        21 -11.8128     22.7479     11.2205   6.2870748070e+01   7.1889842964e+01    0.4482658    0.2643368  14.99  0.001555012    1.617    0.382
        22 -12.2822    227.4241     15.2667   2.0713673266e+01   2.9063307540e+01    0.4015273    0.2151598 -79.48  0.002378242    1.713    0.416
        23 -10.6629    148.6815     15.9521   2.7958211998e+01   4.5044686650e+01    0.3357595    0.2075185  41.84  0.001192784    2.030    0.507
        24 -12.0884    192.3248      8.7947   2.1929390451e+01   3.6403444980e+01    0.5269306    0.3665189   6.27  0.003093846    2.924    0.658
        25 -12.2689    104.9042     12.8557   3.4012214028e+01   5.5357752550e+01    0.4689302    0.3381254 -31.24  0.002412483    1.642    0.391
        26 -11.4462    206.4704      3.9184   1.9942703428e+01   3.4095134008e+01    0.3988719    0.1720009  58.79  0.002217849    2.622    0.619
        27 -10.6240    204.3259      1.6866   1.9649111007e+01   3.4720202644e+01    0.2283915    0.1071582  75.73 0.0009456925    1.881    0.468
        28 -11.7819    212.0653      9.4070   2.0627094144e+01   3.2490203402e+01    0.4662178    0.2989611 -13.99  0.002811196    2.812    0.644
        29 -10.2311    211.5558      3.4543   1.9530128639e+01   3.3172987375e+01    0.1819714    0.1309534  52.26 0.0006942082    1.924    0.480
        30 -11.8858     48.3704     12.8886   5.0701803915e+01   6.7435576633e+01    0.5594833    0.2731173  49.38  0.002821863    1.828    0.453
        31 -11.0944    163.3424      7.2589   2.4137431909e+01   4.2627073838e+01    0.4303968    0.2213687 -18.69   0.00223029    2.898    0.655
        32 -11.3100    169.4235      9.2479   2.4011353856e+01   4.1127938226e+01    0.4091256     0.169758  58.30  0.001575307    2.312    0.567
        33 -10.6239    145.2646      9.7397   2.6754948692e+01   4.6402123645e+01    0.2078644    0.1730133  60.75 0.0003296724    1.228    0.186
        34  -9.8734      1.2488      8.1552   7.5915689013e+01   7.4856086521e+01    0.2211883   0.07727859 -40.38  0.001062149    2.659    0.624
        35 -11.6831    183.9999      5.7106   2.1937589619e+01   3.8395874006e+01    0.3660744    0.2692343 -52.01  0.002341443    1.302    0.232
        36 -11.6914    176.9805      5.8609   2.2554824665e+01   3.9841810807e+01    0.3644516    0.1778993  83.63 0.0007288687    1.842    0.457
        37 -11.4163    157.4753      3.4990   2.3815270624e+01   4.4244956863e+01    0.2954237    0.2587913  30.22  0.002122304    1.554    0.357
        38 -11.2172    122.1250      6.1052   2.8876909495e+01   5.1988829335e+01    0.2971272    0.1459897 -36.77  0.001203299    2.259    0.557
        39 -10.2502     87.9003      7.5064   3.5791740425e+01   5.9683431630e+01    0.4277587    0.1813855  51.13  0.001521168    1.867    0.464
        40 -10.6660    232.6379      7.2090   1.8972635131e+01   2.8972650096e+01    0.1840452    0.1293801  85.22 0.0008963076    1.333    0.250
        41 -12.0264    233.9809      2.9911   1.8169322639e+01   2.9158529133e+01    0.4000299    0.1852449 -74.69  0.001272637    1.938    0.484
        42  -9.8221     62.7965      6.9670   4.2564238587e+01   6.5167463126e+01    0.2055832    0.1386672  31.28   0.00122478    1.382    0.277
        43 -10.7267    246.8559      5.8490   1.7997804876e+01   2.6693257396e+01    0.1460681   0.08310042 -64.86 0.0006231978    1.321    0.243
        44 -11.9271    133.2164      2.6043   2.6324977348e+01   4.9744449166e+01    0.5197868    0.2384153  75.77   0.00262793    1.887    0.470
        45 -10.4645     41.4000      4.1622   4.9455664164e+01   6.9621145701e+01    0.2727479    0.1636571  19.34  0.001002018    1.739    0.425
        46 -10.9139    218.5164      3.7634   1.9165472550e+01   3.1847092050e+01    0.2162325    0.1615027 -86.49 0.0006662817    1.156    0.135
        47 -11.1407    223.8349      2.6463   1.8656787480e+01   3.0987400961e+01    0.2065002    0.1529704 -83.66 0.0003496061    1.142    0.124
        48 -11.0074    105.8172      3.0146   3.0563341609e+01   5.5979309148e+01    0.3271118    0.2496962 -79.22 0.0009020814    1.427    0.299
        49 -11.4927    114.7880      2.5878   2.8931149036e+01   5.3956949275e+01    0.6684517    0.2290858  76.02  0.002603216    3.161    0.684
        50 -11.6232    142.5921      3.6525   2.5465737798e+01   4.7538271545e+01    0.5797122    0.2163023  79.41   0.00252674    2.655    0.623
        51 -10.9925      2.6105      1.9328   7.1514013928e+01   7.5614407108e+01    0.3057305    0.1609147  10.19  0.001323909    1.739    0.425
        52  -9.9030     13.5987      1.8265   6.3522395290e+01   7.4322960884e+01    0.2132308    0.1264343  22.68 0.0008967824    1.361    0.265
        53 -10.4668    152.2721      1.3995   2.3824256674e+01   4.5570312182e+01    0.2500976   0.09620596  75.38 0.0004323367    2.214    0.548
        54 -10.6304     74.7000      3.4784   3.7528087461e+01   6.2930750032e+01    0.4991963    0.1798259  58.51  0.002248259    2.160    0.537
        55  -9.7432     21.8412      3.2507   5.9108134500e+01   7.2990780536e+01    0.1757146    0.1480528 -11.20 0.0006280694    1.328    0.247
        56  -9.9301     32.0910    137.5108   9.5343824050e+01   4.3593196960e+01    0.2842172    0.1987757  30.65 0.0009860119    1.477    0.323
        57 -11.3155     49.7450    248.2450   1.0225934216e+02   1.4332027681e+01    0.4263039    0.2626455  66.05  0.002289971    1.826    0.452
        58  -9.4342     47.4607    134.9871   8.9398275937e+01   4.2669936293e+01    0.2294194    0.1445792 -63.24  0.001019429    1.561    0.360
        59 -10.0009     73.2561    133.2370   7.9947172088e+01   3.9693556634e+01    0.2895157    0.1904513 -51.55   0.00127873    1.488    0.328
        60  -9.6609     39.5093    133.3959   9.2003061961e+01   4.3963047218e+01    0.2235647    0.1429492  19.30 0.0002925894    1.619    0.382
        61  -9.0746     59.6686    132.6856   8.4588834346e+01   4.1761911780e+01    0.1642475    0.1113073 -25.16 0.0007045474    1.680    0.405
        62  -9.6743     93.2527    130.0818   7.2597772831e+01   3.7242161039e+01     0.308997    0.2031126 -56.32  0.001338077    1.602    0.376
        63 -10.9909     10.1741    127.7849   1.0197056978e+02   4.7866354622e+01    0.5309998    0.2495231 -48.93  0.001772267    1.896    0.473
        64  -9.2102     26.5390    127.4662   9.5837295590e+01   4.6763571911e+01    0.1454653    0.1319924 -44.18 3.894642e-05    1.021    0.021
        65  -9.6547     22.9582    126.7965   9.7078323820e+01   4.7235089576e+01    0.1866178    0.1769846 -27.91  0.001083308    1.057    0.054
        66  -9.8849      2.2627    125.9760   1.0465864474e+02   4.8777150081e+01     0.249678    0.1745459  50.73   0.00130998    1.620    0.383
        67 -12.4481    103.7926    122.5488   6.7503827114e+01   3.7149860517e+01     0.380143    0.3471863  25.20 0.0006940883    1.074    0.069
        68  -9.6205     56.3076    121.9668   8.3616367790e+01   4.4984511139e+01    0.2106028     0.192462 -46.74 0.0004835665    1.079    0.074
        69 -10.2349     44.9788    120.0239   8.7498690683e+01   4.6884215703e+01    0.2697327    0.2567734  40.37 0.0007632976    1.143    0.125
        70 -10.4569     43.5612    116.4810   8.7333467564e+01   4.7962103308e+01    0.3446866    0.2659398   5.80  0.001307684    1.338    0.253
        71 -12.6277      2.5193    111.6082   1.0283435286e+02   5.2509859633e+01    0.5544145    0.3835073  70.79 0.0006027281    1.726    0.421
        72 -11.3091      4.4520    104.8599   1.0112794845e+02   5.4150962794e+01    0.4592792    0.3419596  12.19  0.002562367    1.448    0.309
        73  -9.9751     79.0681    114.7098   7.3690217825e+01   4.3393715538e+01    0.2958778     0.226427 -43.73  0.001023671    1.296    0.229
        74  -9.4500     67.4786    114.8388   7.7879568403e+01   4.5203810967e+01     0.282832    0.1647673  51.13  0.001114101    2.196    0.545
        75 -10.6528     35.4293     92.6718   8.5446916584e+01   5.4814163767e+01    0.4655097     0.302115 -77.57   0.00210554    2.080    0.519
        76 -11.6053     27.6277     85.3019   8.7179224828e+01   5.7364955224e+01    0.7732118    0.5123732  16.16  0.003181777    1.502    0.334
        77 -11.9392      9.9111     97.0037   9.7569730425e+01   5.5847692869e+01    0.6796905    0.4636325  -7.40 0.0009196546    1.507    0.336
        78 -11.6867     25.6560    107.1905   9.2712084397e+01   5.2132370105e+01      1.59307    0.7613134  -7.19  0.005999437    2.827    0.646
        79 -11.7084     44.2338     85.0126   7.9625616112e+01   5.5586745656e+01    0.5831904    0.3836752   9.77  0.001881831    1.587    0.370
        80 -10.4954     37.2939     85.9486   8.2949947333e+01   5.6205654581e+01    0.3194055    0.2052276  17.22  0.000786078    1.545    0.353
        81 -11.3122     21.7662    114.3340   9.5563838228e+01   5.0605027635e+01    0.5448183    0.2807482  -1.85  0.001869068    2.328    0.571
        82 -11.1355     28.2737    113.1942   9.2756541032e+01   5.0359362498e+01    0.5447096    0.2665916   6.86  0.002011692    2.390    0.582
        83 -11.4727     22.4756     94.5833   9.1583711208e+01   5.5570242964e+01    0.4323274    0.3496769 -31.72   0.00164056    1.114    0.102
        84 -11.7150     18.2496     90.5029   9.2631657496e+01   5.6905409224e+01    0.6055395    0.3413812 -65.73  0.001934341    1.768    0.434
        85 -10.0524     48.7481    112.4174   8.4447020147e+01   4.8386719678e+01    0.2557188     0.244771 -56.04 0.0008619023    1.115    0.103
        86 -10.5835    249.5995    112.1911   3.6387881325e+01   1.2598441606e+01    0.1702383   0.09029702 -34.74 0.0007647836    1.724    0.420
        87  -9.5992     93.6860    112.3717   6.8158890381e+01   4.1383771731e+01    0.2372245    0.1883683  73.83  0.001091337    1.698    0.411
        88  -9.9733     66.6939    110.7826   7.7196146506e+01   4.6320046928e+01    0.3376548    0.1994226  30.52  0.001317819    1.666    0.400
        89  -9.2117    170.5350    110.4494   4.7914606568e+01   2.6464934587e+01    0.1380007    0.1308769 -42.04 3.777401e-05    1.026    0.025
        90 -10.0322     49.5880    123.0740   8.6358923015e+01   4.5548360890e+01    0.3146664    0.1965134  -3.00  0.001322497    1.976    0.494
        91 -11.2625     80.0223    108.2041   7.1718700987e+01   4.4782853058e+01    0.5218697    0.3175072  24.64 0.0007792982    1.741    0.426
        92 -12.3983     17.4914    100.6433   9.4937330334e+01   5.4437520861e+01    0.4214711    0.3914542  50.19 0.0006873157    1.255    0.203
        93  -9.3359    143.4692    105.9734   5.2613039433e+01   3.2810057913e+01    0.2056067    0.1255078 -65.83 0.0008083918    2.430    0.589
        94  -9.4907     85.7170    103.9377   6.8621571944e+01   4.4769345894e+01    0.2156267    0.1971341 -30.73 0.0006605654    1.092    0.085
        95 -10.8798     51.9631     99.4891   8.0137933246e+01   5.1172620685e+01    0.6273028    0.2485866 -41.38  0.001715195    2.656    0.623
        96  -9.0857     64.7164    101.6896   7.5661394327e+01   4.8810942492e+01    0.1553214    0.1112273 -19.42 0.0001964497    1.570    0.363
        97 -11.7635     68.6712     95.8951   7.2608700241e+01   4.9534189004e+01    0.4656134    0.3275292  10.29 0.0005807988    1.589    0.370
        98 -10.9767     30.3582     97.3915   8.8732325970e+01   5.4174697741e+01    0.6595051    0.3889177 -42.06  0.003086488    1.564    0.361
        99 -10.0701     80.8880     98.1398   6.8735976977e+01   4.6943520789e+01     0.237554    0.2176367  12.82 0.0005630485    1.038    0.037
       100 -10.1809     82.9910     93.2787   6.6637440963e+01   4.7636281115e+01    0.2293764    0.2092095  15.96 0.0003692395    1.039    0.038
       101 -10.9353     78.5491     92.6321   6.8034676186e+01   4.8579853677e+01    0.5909598    0.4330843 -43.44  0.002876475    1.389    0.280
       102 -10.6529    249.4831     97.0140   3.3672437642e+01   1.4878183144e+01    0.1551085   0.08988456 -23.75 0.0008102347    2.545    0.607
       103 -11.9391    125.6530     94.9090   5.4130648645e+01   3.8725040464e+01    0.2564186    0.2476545   9.92 0.0002219699    1.057    0.054
       104 -10.0672    122.0000     93.9349   5.4826318908e+01   3.9689224909e+01    0.4334151    0.2409128 -56.19  0.001739096    2.241    0.554
       105 -10.5908     43.3716     94.5430   8.2476355202e+01   5.3457919893e+01    0.3717446    0.3004722   3.03  0.001427603    1.211    0.174
       106 -10.7975     98.4851     91.0455   6.0838420598e+01   4.5131899296e+01    0.2839649     0.226483  41.40 0.0005627552    1.213    0.175
       107 -11.0710     89.6735     89.8563   6.3363298867e+01   4.7109411954e+01    0.5082253    0.3195937 -32.72  0.002233924    1.778    0.437
       108 -10.3561     49.3508     91.5569   7.9182705991e+01   5.3405300710e+01    0.3269677    0.2656949  33.71  0.001725071    1.285    0.222
       109 -11.7574      6.8211     88.7619   9.7498008943e+01   5.8066687236e+01    0.6171861    0.3840156   1.06  0.002502476    1.663    0.399
       110  -9.8573     66.2142     88.7328   7.1553100855e+01   5.1545025529e+01    0.3878013    0.2232577   1.63  0.001387521    2.957    0.662
       111  -9.3969    104.0436     87.0477   5.7978014652e+01   4.4807611749e+01    0.1833654    0.1688262  33.65 0.0008813465    1.036    0.034
       112 -10.8532    143.1227     84.6951   4.7247507062e+01   3.6866340685e+01    0.2356264    0.2133031 -50.27 0.0002863523    1.113    0.101
       113 -10.0350    133.0747     84.7578   4.9551292893e+01   3.9040533937e+01    0.2074053    0.1832178  84.14 0.0004062339    1.229    0.186
       114 -10.7005     80.3958     84.0830   6.4879195661e+01   5.0064988270e+01    0.3752038    0.3116858 -30.06  0.001803532    1.233    0.189
       115 -11.0489     74.9192     78.4865   6.5174410042e+01   5.2215829850e+01    0.5893111     0.510406  59.78  0.003158516    1.386    0.278
       116 -10.5041    112.9590     82.4450   5.4071331341e+01   4.3818257240e+01    0.2657542    0.2482491 -11.52 0.0005971529    1.129    0.114
       117 -10.0518     66.6002     81.7753   6.9360665469e+01   5.2988802988e+01    0.4700047    0.2803852  30.04  0.002114253    1.624    0.384
       118  -9.5682     60.5206     81.5555   7.1728295979e+01   5.4026712300e+01    0.2305483    0.1969573 -49.38 0.0006245408    1.276    0.216
       119 -11.0442     58.3646     77.7591   7.1470803983e+01   5.5176657952e+01    0.3116114    0.2709379 -22.85  0.001053228    1.113    0.102
       120 -11.3917     53.4250     76.5451   7.3186252220e+01   5.6190017563e+01    0.4912205    0.4139053 -49.62  0.002517881    1.303    0.232
       121 -11.8251     13.5945     74.8033   9.1392042909e+01   6.0985479992e+01     0.600551     0.425312 -54.08  0.002947258    1.315    0.240
       122 -10.0478     14.3781     67.6609   8.9243731630e+01   6.2555563944e+01     0.489244    0.2316053   6.98  0.002179773    2.211    0.548
       123 -10.4908     94.5048     76.6083   5.7830045532e+01   4.8785469531e+01    0.4124558    0.2433186  41.63  0.001389436    1.597    0.374
       124 -11.0206     79.0147     68.0335   6.0347888453e+01   5.3471208602e+01    0.6726772    0.5057098 -83.48  0.003111219    2.268    0.559
       125 -10.2569     92.0727     71.9207   5.7155519754e+01   5.0154642544e+01    0.2416671    0.1981235  39.72 0.0003911186    1.137    0.121
       126 -10.7887     84.4015     73.8079   6.0310468990e+01   5.1341036867e+01    0.4116516    0.2879311  24.61   0.00197923    1.510    0.338
       127 -10.8990     88.1835     73.1666   5.8824455236e+01   5.0712124080e+01    0.5617495    0.2751816 -42.98  0.001998464    2.171    0.539
       128 -11.5883    247.6669     75.4789   2.9987939594e+01   1.8223565436e+01     0.289536    0.1636481 -88.80  0.001643324    2.513    0.602
       129  -9.0148    158.7643     76.6143   4.2024885956e+01   3.4845118754e+01    0.1302236    0.1071147  -3.10 0.0003674099    1.637    0.389
       130  -9.4608      1.4293     80.1099   9.8445364747e+01   6.0429311117e+01    0.1983558     0.114285 -62.12   0.00100402    1.542    0.352
       131 -11.0661      1.9817     71.7972   9.6557686593e+01   6.2364753824e+01    0.3888249    0.1828597 -58.67  0.001552227    1.804    0.446
       132 -11.1314    187.0926     71.1623   3.6122794605e+01   2.9757817433e+01    0.4591875    0.2573467 -46.37  0.001680045    1.644    0.392
       133  -9.6834    103.8464     74.6370   5.4368654226e+01   4.7200282217e+01    0.2149373     0.131103  55.39 0.0009464006    1.738    0.425
       134 -10.2393     24.5433     73.6920   8.5705890977e+01   6.0343464619e+01    0.2799194    0.2069132 -30.81 0.0007132824    1.212    0.175
       135 -10.1693     41.1972     72.8083   7.7502661170e+01   5.8688220308e+01      0.33357    0.2605407 -28.86 0.0009306575    1.204    0.169
       136 -10.9490     39.5039     69.2777   7.7219242350e+01   5.9658369500e+01     0.284044    0.2060028  12.12 0.0008959291    1.312    0.238
       137 -11.3913     34.4104     71.5721   8.0328225710e+01   5.9783044259e+01    0.5148653     0.261466  24.53  0.002319843    1.897    0.473
       138 -11.1725    122.9464     68.9186   4.7551771977e+01   4.4019784163e+01    0.4217956    0.2735764  48.18  0.001209438    1.457    0.313
       139 -10.8035    220.1125     66.9962   3.1156375155e+01   2.4045077219e+01    0.3811865    0.2177231  77.87  0.002147703    2.058    0.514
       140 -11.7844     10.0036     62.5499   9.0223082046e+01   6.4000987418e+01    0.6851807    0.2708462 -46.14  0.001212479    2.074    0.518
       141 -12.2302      4.7357     61.9373   9.2903591352e+01   6.4462215028e+01    0.5193533    0.3821097 -38.59  0.001621644    1.136    0.120
       142  -9.4055     25.6099     65.2411   8.2807981201e+01   6.2103072695e+01    0.1878424    0.1104917 -41.60 0.0009270386    1.550    0.355
       143 -11.0287     92.0246     62.5802   5.4177823762e+01   5.1810713895e+01    0.5048318    0.2626743  53.14  0.002140452    1.984    0.496
       144  -9.5034    156.7476     63.5199   3.9077164364e+01   3.7332290345e+01    0.1815563    0.1184396  48.06 0.0005836323    1.610    0.379
       145  -9.7757     51.0905     56.6434   6.7659260343e+01   6.0511777115e+01    0.2817557    0.2291009   7.52  0.001101639    1.125    0.111
       146 -11.3155     40.9365     57.0323   7.2526346829e+01   6.1946502619e+01    0.4688091     0.259805  40.70  0.001710561    1.980    0.495
       147 -10.2738     50.2582     61.3784   6.9683124517e+01   5.9747897655e+01    0.3701257    0.2084395  34.18  0.001741048    1.671    0.402
       148 -11.1037     43.2711     62.4857   7.3268439453e+01   6.0553251470e+01    0.2543501    0.2314587  -5.89 0.0005632471    1.093    0.085
       149 -10.9906     46.1447     59.1510   7.0795410802e+01   6.0794726417e+01    0.2981691    0.2662529  -6.61  0.001063974    1.070    0.066
       150 -11.5696    235.5024     60.9240   2.8465013303e+01   2.2185869121e+01    0.3496029    0.2297734  74.46  0.002341908    1.655    0.396
       151 -10.2017    121.6694     60.9940   4.5538830671e+01   4.5577447699e+01    0.6201687     0.393235   3.61  0.002441445    3.219    0.689
       152 -10.5555    117.4914     55.3431   4.4841935079e+01   4.7379207059e+01    0.6185781    0.3152188 -58.91  0.002335062    3.242    0.692
       153  -9.9047    108.6603     42.9904   4.3115467776e+01   5.1122694429e+01    0.4222616      0.27401 -35.67  0.002198443    1.719    0.418
       154  -9.7866    110.4664     38.4820   4.1233456465e+01   5.1298749203e+01     0.252403    0.2055674 -32.89 0.0007986538    1.393    0.282
       155 -11.0547    114.2533     49.4315   4.3801176606e+01   4.8969972686e+01    0.6503547    0.2830413  42.05  0.002582789    2.501    0.600
       156 -11.6920    117.6626     44.0601   4.1346541698e+01   4.8931630988e+01    0.6192201    0.3983569  71.43  0.002376181    1.661    0.398
       157 -10.1411    242.6741    247.6495   6.0435052884e+01  -7.2988659488e+00    0.1206499   0.06190763 -14.41 0.0007048507    1.758    0.431
       158 -10.3756     59.1101     63.3014   6.6494136925e+01   5.7959162441e+01     0.311735    0.2717851  75.92  0.001135765    1.638    0.390
       159 -12.6766     74.4694     51.7420   5.6405185351e+01   5.7176117892e+01    0.8664926    0.5190969 -52.45  0.003986666    2.263    0.558
       160 -11.8501     25.2935     57.7096   8.0660842070e+01   6.3717192649e+01     0.815461    0.5704328  33.85   0.00448025    1.571    0.363
       161 -10.4526    106.1516     58.4365   4.8699535938e+01   4.9440839923e+01    0.2680485    0.1836726 -58.64  0.001031169    1.869    0.465
       162 -10.2450     87.7965     56.5327   5.3517202445e+01   5.3695907024e+01    0.4067439    0.1780686 -30.03  0.001355233    2.999    0.667
       163  -9.9202     91.6952     57.1932   5.2503785643e+01   5.2769680858e+01    0.2434789    0.1824994  57.89 0.0008174976    1.391    0.281
       164  -9.9235    157.2530     54.5240   3.6695671934e+01   3.8524361151e+01    0.5428616    0.3064746 -79.37  0.002292726    2.784    0.641
       165  -9.2838     66.9976     55.0371   6.0401605326e+01   5.8057839612e+01    0.1671296    0.1513107   5.16 0.0009301535    1.068    0.064
       166 -11.4060     60.7217     47.9844   6.0334076120e+01   6.0384796668e+01    0.7456192     0.330874 -34.60  0.003131832    2.539    0.606
       167  -9.3610     57.5495     42.0000   5.9356012279e+01   6.1909228683e+01    0.3898646   0.08383483  44.54  0.001133411    4.557    0.781
       168  -9.6473      7.4753     53.9822   8.9297062366e+01   6.6018602685e+01    0.1913226    0.1168615 -55.58    0.0010282    1.581    0.368
       169 -10.1775     51.8537     48.2225   6.4227930308e+01   6.1882113002e+01    0.2728182    0.2193028  20.07 0.0007971645    1.088    0.081
       170 -11.4335     45.2488     49.2598   6.7656472389e+01   6.2755202708e+01    0.5321095    0.4112006 -27.77  0.003062901    1.294    0.227
       171 -11.8821     42.4616     43.9623   6.6967634350e+01   6.4098840850e+01    0.6853303    0.2477645  34.30  0.002749458    2.517    0.603
       172 -10.4001    240.1762     50.8055   2.6208317802e+01   2.2711056261e+01    0.1344449    0.1262279 -51.00  0.001080902    1.372    0.271
       173 -10.3761     34.6124     51.8498   7.3838241131e+01   6.3783628749e+01    0.4302515    0.2580673   4.60  0.002072847    1.855    0.461
       174  -9.7029      1.7412     48.9990   9.1216051667e+01   6.7414682272e+01    0.1807824    0.1440545 -28.42 0.0009032098    1.028    0.027
       175 -10.0222    146.1951     47.2838   3.6660767587e+01   4.1989552178e+01    0.2095473    0.1824551 -24.45 0.0009330219    1.365    0.268
       176 -10.0546     13.2088     47.0566   8.3886592544e+01   6.7009917396e+01    0.3362994    0.1403592 -34.90  0.001482773    2.284    0.562
       177  -9.8472     82.8707     46.8684   5.1763679503e+01   5.6224500413e+01    0.2154172    0.1715986  24.48 0.0007847059    1.249    0.199
       178 -11.1345     20.5768     45.8382   7.9239622960e+01   6.6559088510e+01    0.3355626    0.2194734 -22.95 0.0004741427    1.417    0.295
       179 -10.8127     26.6655     42.8860   7.4752267682e+01   6.6434446475e+01    0.3144512    0.2404172  23.19  0.001480876    1.263    0.208
       180 -10.3178     22.7357     37.3969   7.4841659027e+01   6.7877119774e+01    0.4846817     0.257171  43.65  0.002252615    2.650    0.623
       181 -10.2685    200.6630     45.0218   2.8751806811e+01   3.0657853127e+01     0.320462    0.1585416  83.71  0.001586135    2.412    0.585
       182 -10.1672    138.8225     44.1532   3.7108016208e+01   4.4076594764e+01    0.2973359     0.181689  30.53  0.001343413    2.481    0.597
       183  -9.8313    134.0078     45.7941   3.8468731910e+01   4.4960094259e+01    0.3051403    0.1159035  60.33 0.0007537169    2.413    0.586
       184  -9.2680    160.7127     43.6340   3.3400222467e+01   3.9218404919e+01    0.1813856    0.1110326  76.87  0.000945062    1.636    0.389
       185 -10.3459    155.9163     42.2628   3.3767365808e+01   4.0458251185e+01    0.2264277    0.1921714 -29.80 0.0009478502    1.384    0.277
       186 -11.1731      4.5688     36.1517   8.5458337529e+01   6.9803601680e+01    0.5018541    0.3102305 -23.29  0.002903841    1.387    0.279
       187 -10.2431     11.8323     30.4454   7.8666627763e+01   7.0245091732e+01    0.3338203    0.1999911 -12.19  0.001524313    1.597    0.374
       188  -9.8973      6.9810     30.5145   8.1825262407e+01   7.0663178340e+01    0.3378695    0.1534846  -1.37  0.001514252    2.547    0.607
       189 -10.2284     92.6394     41.8192   4.6977804953e+01   5.4853288213e+01    0.3214487     0.183731  52.99  0.001556178    1.562    0.360
       190  -9.8529     17.2893     41.7692   7.9671597896e+01   6.7660983278e+01    0.2722303    0.1443419 -20.33  0.001303337    2.024    0.506
       191 -10.3176     79.9696     39.1274   4.9902599166e+01   5.7937228776e+01    0.4227194    0.2740666  76.74  0.001858833    2.694    0.629
       192 -11.1520     79.7717     33.1411   4.7729739364e+01   5.8770069475e+01    0.5874289    0.2805522  38.94  0.002623418    2.027    0.507
       193  -9.9712     68.0090     32.6067   5.1525979263e+01   6.1265434952e+01    0.4317712    0.3065256  46.56  0.001766137    1.260    0.206
       194 -11.0844     60.9718     36.3427   5.5707151082e+01   6.2121330830e+01     0.393412    0.2999123 -18.87  0.001637087    1.418    0.295
       195 -11.7603     57.5451     30.8867   5.4861668197e+01   6.3524474075e+01    0.4393298    0.3564762 -22.22    0.0012363    1.344    0.256
       196 -11.4544     48.6093     30.4091   5.8503536718e+01   6.5206448689e+01    0.6858453    0.2534932  35.60    0.0027917    2.516    0.603
       197 -10.6751     43.0385     28.0465   6.0071053703e+01   6.6487210144e+01    0.2028037    0.1645472  17.81   0.00126874    1.008    0.008
       198  -9.5359    194.7332     37.9519   2.7872064449e+01   3.2718775446e+01    0.1570868    0.1317225 -66.97 0.0003012712    1.062    0.058
       199  -9.4653    132.9946     37.3553   3.6245049006e+01   4.6269547781e+01    0.3459835    0.1865865 -82.46   0.00134479    3.324    0.699
       200  -8.7683    206.3149     37.3074   2.6593408549e+01   3.0508794708e+01    0.1015425   0.08903553  39.94 0.0004892962    1.627    0.385
       201 -10.3697    176.6443     35.5608   2.9346430778e+01   3.6758001152e+01    0.2577488    0.1665915 -63.02 0.0009007926    1.502    0.334
       202  -9.1491     94.4526     35.9589   4.4425971564e+01   5.5224441542e+01    0.1674774    0.1102905 -61.61 0.0006365541    2.217    0.549
       203  -9.7722    174.3169    246.3668   7.3110904476e+01  -1.7631594968e-01    0.2108004    0.1256649  -7.96  0.001119155    1.714    0.417
       204 -12.3180    164.3717     27.7062   2.8961571657e+01   4.0321159227e+01     0.277952    0.2261571 -89.59 0.0003488364    1.058    0.055
       205 -11.1090     22.7352    136.1858   9.8507454796e+01   4.4752388829e+01    0.6299095    0.3672536  33.35  0.002920553    1.784    0.439
       206 -11.1605    106.7880     32.0715   4.0000970840e+01   5.2921389093e+01    0.3735731    0.2358662  26.23  0.001741436    2.119    0.528
       207 -11.7076    126.4858    241.6806   8.3133443355e+01   6.4951782487e+00    0.3179796    0.2744631  62.20  0.001620802    1.572    0.364
       208 -11.0521     67.8284    240.7781   9.7258173619e+01   1.3899651864e+01    0.3108072    0.2175063  14.94 0.0009869066    1.421    0.296
       209 -10.7585     32.5658     31.0523   6.6715669145e+01   6.7662567880e+01    0.2776646    0.2146793 -44.91 0.0003388118    1.635    0.388
       210 -11.3646    146.7125    237.6898   7.7871140932e+01   4.6832801483e+00    0.4505953    0.3515386  45.88  0.002599841    1.637    0.389
       211 -10.5389     38.8621     22.3730   5.9550501465e+01   6.7956771367e+01    0.2103885    0.1656669  -9.86 0.0005325976    1.259    0.206
       212 -11.1977     29.6395    133.2399   9.5581329168e+01   4.4957357662e+01    0.4513699    0.3054445 -37.05 0.0007534604    1.479    0.324
       213 -10.5751    176.9538     30.6722   2.8180839992e+01   3.7266284326e+01    0.1761242    0.1382941  84.16 0.0008498078    1.123    0.109
       214  -9.9426    230.7418     30.2281   2.3204652025e+01   2.6824233073e+01    0.1282451    0.1202382 -63.09 0.0007484945    1.376    0.273
       215 -12.0384    126.2469     28.6718   3.4937393646e+01   4.8838735430e+01     0.493381     0.337873  73.43  0.002778047    1.353    0.261
       216 -10.1971    239.9357     32.7162   2.2996012965e+01   2.4946168180e+01    0.1960516      0.15076  58.93  0.001236792    1.725    0.420
       217  -9.9524    231.5199     38.5213   2.4665144230e+01   2.5712403344e+01    0.2297669   0.08953461 -39.23  0.001225995    2.224    0.550
       218  -9.8820     89.2852     29.0838   4.3399918029e+01   5.7205629249e+01    0.2320748    0.1874462  85.79  0.001345742    1.516    0.340
       219 -10.6742    198.1622     28.7650   2.5593027300e+01   3.3114198034e+01    0.3246422    0.1427355  57.91  0.001689011    2.408    0.585
       220 -11.3818    183.2204     25.5761   2.6355077036e+01   3.6521975416e+01    0.2953043    0.2400383  74.26  0.001214453    1.207    0.172
       221  -9.4591    187.5186     22.9861   2.5362351096e+01   3.5915764733e+01     0.162777    0.1526089  28.84 0.0006667253    1.510    0.338
       222  -9.6402    150.4833     27.4979   3.0734592899e+01   4.3432388231e+01    0.1966072    0.0985272  57.60 0.0009853403    1.815    0.449
       223 -11.2193    154.7558     24.2411   2.9315261034e+01   4.2829813423e+01    0.3754331    0.2138449  83.36   0.00198802    1.744    0.427
       224 -10.5890    156.4502     20.5035   2.8152664330e+01   4.2847481073e+01    0.3597384    0.1635281  62.99  0.001778717    1.904    0.475
       225 -11.0518    189.0458     27.8560   2.6271753968e+01   3.5061034558e+01    0.2962687    0.2611962 -21.60  0.001528826    1.522    0.343
       226 -10.9670    143.1918     25.1721   3.1164463645e+01   4.5337055371e+01     0.301771    0.1697754  76.82  0.001228422    1.698    0.411
       227 -11.3830    146.3632     23.3217   3.0210876120e+01   4.4815336830e+01    0.4951956     0.138393  56.12  0.001947651    3.034    0.670
       228 -10.8410     73.9892    238.3893   9.5502865754e+01   1.3688446015e+01    0.4292683    0.1755646  39.63  0.001836101    2.146    0.534
       229 -10.0486    167.5185    238.0666   7.3304636260e+01   2.0362635390e+00    0.1850255    0.1186946 -39.72   0.00100605    1.573    0.364
       230 -11.1420     12.2427    136.1041   1.0223558972e+02   4.5529946252e+01    0.6040727    0.2504669 -45.06  0.002419043    2.309    0.567
       231  -9.2715    199.6520    234.7021   6.6169875962e+01  -1.1392223977e+00    0.1316728   0.07751842  -9.52 0.0002848008    1.681    0.405
       232  -9.3315     15.3753    233.8143   1.0935529357e+02   2.0783025710e+01    0.1675766    0.1048391 -65.30 0.0009425064    1.695    0.410
       233  -9.6603    169.2506     23.7139   2.7425296330e+01   3.9697226922e+01    0.2421913    0.1086115  52.30  0.001165985    2.449    0.592
       234 -10.3769    246.6035    230.8114   5.7191910713e+01  -5.3074557744e+00    0.1485841   0.08831704 -40.50 0.0008300116    1.663    0.399
       235  -9.7157     80.7860     19.4260   4.2177708752e+01   6.0137508121e+01    0.4509092    0.1024921  55.77  0.001525921    3.508    0.715
       236  -9.6302     75.4770    224.5126   9.3614819991e+01   1.6547011551e+01    0.1382643     0.124351  30.86 0.0002372251    1.017    0.017
       237  -9.8857     89.5075     16.5112   3.8740826751e+01   5.8505559320e+01    0.2070914    0.1747387  51.46 0.0008216844    1.024    0.023
       238  -9.9696     59.8002     23.6645   5.0915902861e+01   6.4017687714e+01    0.1938538    0.1608229   3.35 0.0005502054    1.239    0.193
       239  -9.3673    120.6335    223.2198   8.1947359097e+01   1.0952103182e+01    0.1914927    0.1219294 -40.15 0.0009422506    1.638    0.390
       240  -9.9260    223.4614     22.0504   2.2221941335e+01   2.9047063266e+01    0.1987945    0.1187689 -79.32 0.0006152561    1.505    0.336
       241  -9.4998      5.7857     21.8814   7.9090746834e+01   7.2267471764e+01    0.1485139    0.1310157   1.82 0.0007035582    1.294    0.227
       242  -9.8359     49.6542    222.6854   1.0009131723e+02   1.9950872254e+01    0.1368708   0.09899123 -24.87 0.0007047484    1.716    0.417
       243 -10.1619    246.0000     19.9070   2.0391910695e+01   2.5365805909e+01    0.1586921   0.04752643 -37.21 0.0007981456    2.913    0.657
       244  -9.4258    216.5196     20.5126   2.2432180797e+01   3.0492351594e+01    0.1098675   0.08512496 -70.91 -5.617117e-06    1.010    0.010
       245 -10.0684    164.7246    212.0012   6.9719834511e+01   7.1716192128e+00    0.2284461     0.181082  14.64 0.0005928508    1.162    0.139
       246  -9.8273     74.5750     19.5769   4.4090807996e+01   6.1458648385e+01    0.2252393    0.1598133  44.40 0.0005731818    1.168    0.144
       247  -9.9776     46.9488     19.2613   5.4293322863e+01   6.6963742598e+01    0.2430754    0.1761913  27.41  0.001474489    1.154    0.134
       248  -9.1869      1.5027     20.4845   8.1494808447e+01   7.2858688384e+01    0.1249303   0.09113409 -12.71 -7.22068e-06    1.064    0.060
       249 -10.1892    152.7004    207.0872   7.1624989678e+01   9.8091339064e+00    0.2994158    0.2307232 -72.77  0.001519404    2.012    0.503
       250  -9.0925     61.5132    206.4942   9.5253120007e+01   2.2441215679e+01     0.140242    0.1316214  36.74 -8.899515e-05    1.006    0.006
       251 -10.3564    139.1403    198.5033   7.3394297784e+01   1.3565315028e+01    0.2268997    0.2150636 -88.89  0.001297389    1.367    0.268
       252  -9.6597    233.6847    196.5137   5.3666510935e+01   1.1953354127e+00    0.2149967   0.08990497 -40.55  0.001069197    1.968    0.492
       253 -11.6633      5.0340    185.8068   1.0899216757e+02   3.3002718673e+01    0.4528898    0.3862503  79.37  0.002410937    1.080    0.074
       254  -9.4393     86.2540    185.5907   8.5412488079e+01   2.4392241640e+01    0.2139059    0.1417386  13.73 0.0009497972    1.628    0.386
       255 -10.7179    186.9327     15.1846   2.3728360563e+01   3.6860762415e+01    0.2024442    0.1520678 -68.33   0.00038612    1.132    0.117
       256  -8.6754    175.6757    179.7040   6.1489296272e+01   1.1913316893e+01    0.1444302   0.09970376 -10.58 0.0006259268    1.623    0.384
       257  -9.2973    250.3235    177.3220   4.7802092594e+01   2.3415072645e+00    0.1197407   0.07380912 -17.66 0.0007046612    1.680    0.405
       258  -9.3965    113.5082    175.9467   7.6028038704e+01   2.2645614976e+01    0.2205765    0.1166474 -31.67 0.0008068538    2.407    0.585
       259  -9.2636     28.2462    175.9900   1.0144557275e+02   3.3687754130e+01    0.1838119    0.1148874 -73.18 0.0007361011    1.551    0.355
       260  -9.3530     51.5389    173.5183   9.4027436522e+01   3.1958876177e+01    0.1434621     0.142066  67.87 0.0001401025    1.011    0.011
       261  -8.9869    170.3151    172.3147   6.1217029129e+01   1.4225793766e+01    0.1478106    0.1029375 -12.08 0.0006098124    1.644    0.392
       262  -8.9780     35.6678    169.3230   9.8424564296e+01   3.4747558333e+01    0.1549407    0.1010114  58.32 0.0005570629    1.703    0.413
       263  -9.4202    198.1908    167.8235   5.4684182925e+01   1.0794142206e+01    0.1850834    0.1410324 -14.71 0.0005343623    1.307    0.235
       264 -11.4071      9.3487    167.0924   1.0631176938e+02   3.7515401587e+01    0.3225346    0.2748857   4.73   0.00113785    1.303    0.233
       265  -9.9210     19.0755    164.6515   1.0309256411e+02   3.7444027818e+01     0.273631    0.1756276 -12.06  0.001298468    1.904    0.475
       266  -9.6563     65.6929     10.4396   4.3126738078e+01   6.4246516432e+01    0.2365546     0.108398  58.21 0.0009656065    1.990    0.497
       267 -10.0446    205.0368    163.3380   5.2564510316e+01   1.0601698200e+01    0.2478316    0.1715228 -43.58 0.0007222259    1.320    0.242
       268  -9.6952     28.3629    160.8079   9.9727076479e+01   3.7689981749e+01    0.1997919    0.1815563  42.68  0.001134124    1.132    0.116
       269 -10.3786     13.9879    159.4755   1.0417529511e+02   3.9195043113e+01    0.2248484    0.1753249 -75.33 0.0005810366    1.195    0.163
       270 -10.0171      9.3494    155.5526   1.0527197447e+02   4.0550715306e+01    0.2745871    0.1527835 -71.18  0.001278937    1.620    0.383
       271 -10.2886    104.2696    154.5254   7.4504644379e+01   2.9352386591e+01    0.3147839    0.2957105 -23.99  0.001658344    1.041    0.039
       272  -9.8175    141.8506    152.6051   6.3831085718e+01   2.3235698864e+01    0.2794342    0.1882762  43.13  0.001285022    1.567    0.362
       273 -12.1176     22.9152    149.0744   1.0011240745e+02   4.1287974169e+01    0.6446399    0.3142766 -32.26  0.001346286    2.493    0.599
       274 -10.0595      3.5295    153.1850   1.0691359914e+02   4.1534631270e+01    0.2846411    0.1478819  38.68  0.001317337    1.994    0.498
       275  -9.8751     30.3422    152.0841   9.7995200035e+01   3.9845817206e+01    0.2489506    0.2001529  -5.61  0.001244191    1.356    0.262
       276 -10.8984     46.2544    147.5419   9.1937502564e+01   3.9460165323e+01    0.6657164    0.2629549 -45.72  0.002214573    2.568    0.611
       277 -10.9680     16.0669    147.8837   1.0227781142e+02   4.2128574107e+01    0.3044201    0.2475905  22.38 0.0009019352    1.309    0.236
       278 -10.2723      3.3748    147.5535   1.0645748534e+02   4.3027952694e+01    0.2321607    0.1294089 -54.97 0.0008091721    1.620    0.383
       279  -9.6385     74.0173    146.0380   8.2284646684e+01   3.6277434097e+01    0.2480169    0.1766488 -24.43 0.0005055309    1.601    0.375
       280 -11.1619     33.2014    144.4502   9.5974730381e+01   4.1630044998e+01    0.2937025    0.2790031  68.57 0.0007007666    1.110    0.099
       281 -10.8947      5.8599    142.1303   1.0510620191e+02   4.4320404582e+01    0.2445105    0.2141186 -78.79 0.0002586328    1.071    0.066
       282 -11.1689      2.0802    140.3980   1.0621506212e+02   4.4987098402e+01    0.4032368    0.2294183 -81.64 0.0008732434    1.673    0.402
       283  -9.3256    231.9763    143.0000   4.4332147823e+01   1.0225075733e+01    0.1739877   0.07121275  44.19 0.0008105393    2.999    0.667
       284 -10.3295     15.7231    141.3987   1.0164580035e+02   4.3883912078e+01    0.2840885    0.1637687 -65.87 0.0007252279    1.555    0.357
       285  -9.5646    217.2296    138.7863   4.5756054019e+01   1.3119488676e+01    0.1711196    0.1349104 -20.57 0.0005147018    1.304    0.233
       286 -10.2683     40.4390    137.9643   9.2427041058e+01   4.2648556173e+01    0.2930206    0.2275943  74.53 0.0007981415    1.522    0.343
       287  -9.8567     79.1015    137.7288   7.8918156462e+01   3.7653303912e+01    0.3104578    0.2259675 -46.74  0.001409395    1.352    0.260
