#   1 NUMBER                 Running object number                                     
#   2 MAG_AUTO               Kron-like elliptical aperture magnitude                    [mag]
#   3 X_IMAGE                Object position along x                                    [pixel]
#   4 Y_IMAGE                Object position along y                                    [pixel]
#   5 X_WORLD                Barycenter position along world x axis                     [deg]
#   6 Y_WORLD                Barycenter position along world y axis                     [deg]
#   7 A_WORLD                Profile RMS along major axis (world units)                 [deg]
#   8 B_WORLD                Profile RMS along minor axis (world units)                 [deg]
#   9 THETA_WORLD            Position angle (CCW/world-x)                               [deg]
#  10 FWHM_WORLD             FWHM assuming a gaussian core                              [deg]
#  11 ELONGATION             A_IMAGE/B_IMAGE                                           
#  12 ELLIPTICITY            1 - B_IMAGE/A_IMAGE                                       
         1 -14.5503    238.7563     25.3658   5.4164233902e+01   2.1461720602e+01     2.670793     1.485765  22.08   0.01132195    2.435    0.589
         2 -13.3270    248.8383     58.6126   6.1894885389e+01   1.5525599057e+01     2.454922    0.4440965 -23.96  0.006520063    5.205    0.808
         3 -12.4313    247.0164     35.9314   5.6136338379e+01   1.8412030482e+01    0.8901761     0.486376 -23.09  0.004169796    1.706    0.414
         4 -11.7842    222.5624     19.1653   5.4136219511e+01   2.6098726115e+01    0.4833117    0.3735161 -35.67  0.002588944    1.268    0.211
         5 -10.4410    155.8984     16.2425   6.2341331469e+01   4.3972497514e+01    0.3319601    0.1883046 -29.17  0.001453008    1.767    0.434
         6 -10.5009      2.2957      7.4923   1.1053063241e+02   7.2444269239e+01    0.1969717    0.0755612 -55.44 0.0007524556    1.975    0.494
         7 -14.2196    241.0587     79.3770   6.8313869389e+01   1.4856700073e+01     1.890968     1.005458 -45.29  0.008119081    2.246    0.555
         8 -14.2164    241.6880     49.4294   6.0337190995e+01   1.8213448755e+01     2.231149    0.6453384 -25.97  0.007642762    3.044    0.671
         9  -9.0550    175.6833      4.3532   5.5104438468e+01   3.9820814360e+01     0.154826    0.1038462 -55.83 0.0007046476    1.740    0.425
        10  -9.6010     50.8302      3.8176   8.5401311193e+01   6.8000279901e+01    0.1544906    0.1274668 -29.02 0.0003115643    1.241    0.194
        11 -10.2343    239.5287      1.7349   4.7738878307e+01   2.3444314529e+01    0.1844543    0.1134345 -35.06 0.0005651541    1.518    0.341
        12 -10.1843     14.7998      2.1627   1.0156915039e+02   7.2476251485e+01    0.1570369     0.101879 -26.12 0.0003470512    1.324    0.245
        13  -9.9848    219.9528    240.3638   1.0353119234e+02   6.8131697410e-01     0.158411    0.1359876  51.08 0.0008422891    1.576    0.366
        14 -11.2220    193.6313    248.3492   1.0853396398e+02   3.8743940873e+00    0.2694114    0.2524118  37.04  0.002412541    1.400    0.285
        15 -10.9771    230.5472    237.1301   1.0149606392e+02  -6.1944031128e-01      0.22834    0.2010074 -85.81  0.001722332    2.353    0.575
        16 -11.6519    191.3805    236.0811   1.0738423155e+02   5.4163941112e+00    0.4358456    0.3200717  82.56  0.002770504    2.787    0.641
        17 -11.2757    216.5495    234.1923   1.0322211735e+02   1.7446551950e+00    0.3079038    0.2334621  53.51  0.001911457    1.636    0.389
        18  -9.6070    214.4212    241.2376   1.0448475793e+02   1.4304950843e+00    0.1103536    0.1016789 -30.80 0.0008197914    1.634    0.388
        19 -10.3011    240.6833    232.3036   9.9297602291e+01  -1.7236849775e+00    0.1805508     0.159599  47.58  0.001023171    1.678    0.404
        20  -9.7561    201.5465    232.0000   1.0526045553e+02   4.2586329099e+00    0.1315133    0.1062295 -21.01  0.001022769    1.574    0.365
        21  -9.7134    245.4670    231.5034   9.8469780070e+01  -2.3654392726e+00    0.1078041   0.07689377  28.05  0.000124368    1.069    0.064
        22 -10.9917    235.3513    229.5779   9.9706301465e+01  -6.9951922293e-01    0.2348661    0.1805647 -12.80  0.001146693    1.515    0.340
        23 -10.1701    158.0000    231.0049   1.1210577326e+02   1.1097425465e+01    0.1396238   0.06364426 -46.44 0.0008049076    2.960    0.662
        24 -10.4058    229.3235    228.3235   1.0044236937e+02   3.2325172384e-01    0.1910117    0.1789188 -21.00  0.001028534    1.609    0.379
        25 -10.2370    211.8300    227.6367   1.0305453387e+02   3.0868698856e+00    0.1747261    0.1547323  -9.31  0.001198017    1.417    0.295
        26 -10.7005    198.9221    226.7951   1.0497963659e+02   5.1931097454e+00    0.2049824    0.1872658 -33.50  0.001019056    1.524    0.344
        27 -11.1586    246.4426    226.1431   9.7534810370e+01  -2.0758090347e+00     0.371701    0.2238807  54.65  0.002090864    2.443    0.591
        28 -11.4184    239.7505    221.3914   9.7829898520e+01  -6.6454071570e-01    0.4078319    0.2775172  55.22  0.002650304    2.081    0.519
        29 -10.2147    223.1478    226.7773   1.0117066425e+02   1.4106618144e+00    0.1585501    0.1413648  12.26  0.000952091    1.340    0.254
        30 -10.1611    190.5412    226.2357   1.0624690903e+02   6.5725734907e+00    0.1644808    0.1102289 -41.69  0.001131107    2.036    0.509
        31 -10.7257    206.5183    236.7095   1.0510506342e+02   3.0392935477e+00    0.2185061    0.1808226  57.05  0.001703494    1.588    0.370
        32 -10.5061    205.8855    225.4485   1.0368821142e+02   4.2333329390e+00    0.1965313    0.1568978 -31.97  0.001326871    1.666    0.400
        33 -10.1646    210.1416    200.4406   9.9276039681e+01   6.1680055254e+00    0.2434907    0.1804338 -59.26 0.0008506324    2.427    0.588
        34 -11.4627    217.0531    222.9056   1.0156543614e+02   2.7244579811e+00    0.3279092    0.2382542 -34.73  0.001585005    1.858    0.462
        35 -10.9397    212.6372    210.7240   1.0046814198e+02   4.6518338449e+00    0.6387259    0.2071795 -28.95  0.002808536    4.217    0.763
        36 -10.8156    219.4138    217.2208   1.0036059632e+02   2.9014352426e+00     0.221359    0.1902648 -18.08  0.001355393    1.466    0.318
        37 -11.8678    216.9061    212.1254   9.9993362398e+01   3.8118382764e+00    0.5438614    0.2776361 -34.62   0.00319864    2.449    0.592
        38 -10.8864    228.3900    221.9234   9.9653266240e+01   1.0420700199e+00    0.3018453    0.1736675  46.90  0.001741803    1.631    0.387
        39  -9.1928    224.3376    237.6771   1.0250723331e+02   2.5957440955e-01   0.09624515   0.07515743  54.13 0.0007050808    1.716    0.417
        40  -9.8785    236.9865    235.9428   1.0036653057e+02  -1.4746365649e+00    0.1421571    0.1195734  51.46 0.0009342854    1.720    0.419
        41  -9.8160    201.6050    221.2378   1.0378503699e+02   5.3425833425e+00    0.1367795    0.1000954  -6.40 0.0009533522    1.643    0.391
        42 -12.1401    248.0336    217.1819   9.5929242821e+01  -1.5689795292e+00    0.4443943    0.2949919 -22.67  0.002070525    1.757    0.431
        43 -11.1567    250.0895    201.0121   9.3000632093e+01  -4.7229187203e-01    0.3650673    0.1623383 -25.77  0.001552436    2.463    0.594
        44 -11.1332    247.0189    207.0116   9.4462599735e+01  -5.2651705590e-01    0.3374798    0.1936554 -38.36  0.001767118    2.566    0.610
        45 -11.0585    243.1398    200.9002   9.4052725672e+01   6.5010342266e-01    0.3798629    0.2309292 -27.31  0.002415997    1.897    0.473
        46 -12.0120    246.5412    193.5473   9.2275428920e+01   7.9165001613e-01    0.4797072    0.3665779  57.78  0.002874461    1.948    0.487
        47 -10.8671    243.5259    188.4771   9.1860533806e+01   1.7808815965e+00    0.2492902     0.192633  -4.36  0.001003912    1.271    0.213
        48 -10.8779    193.2752    218.6493   1.0477357572e+02   6.9568353096e+00    0.2542973    0.1827308 -51.99  0.001713749    2.117    0.528
        49  -9.8125    239.4441    214.9559   9.6889798862e+01  -5.0631067771e-02    0.1239054   0.09569154 -51.50 0.0007085816    2.479    0.597
        50 -11.2146    232.9290    213.2771   9.7636792740e+01   1.1270578101e+00    0.2842837     0.235723 -31.71  0.001672138    1.691    0.409
        51 -11.2810    229.2856    207.0118   9.7223303045e+01   2.3088255286e+00    0.3088009    0.1796622 -33.84  0.001415995    2.160    0.537
        52 -11.1053    230.4016    180.2341   9.2488513782e+01   4.8831920325e+00     0.394652    0.2025517  -8.84  0.001884165    2.673    0.626
        53 -10.8869    230.0701    187.2185   9.3787554732e+01   4.1915011140e+00    0.3453334    0.1787956 -40.05   0.00180929    2.631    0.620
        54 -10.1469    236.8632    198.8340   9.4689797730e+01   1.8689731522e+00    0.2177117    0.1443096  27.44 0.0009431214    1.175    0.149
        55 -11.6910    240.4660    208.5269   9.5715716468e+01   3.7090809581e-01     0.427049    0.3547565 -57.54  0.002904573    2.343    0.573
        56 -10.7496    231.1378    194.1565   9.4812504938e+01   3.2877099931e+00    0.2561016    0.1692518 -24.73  0.001314152    1.705    0.414
        57 -10.9434    235.0058    203.0253   9.5676051957e+01   1.7659224168e+00    0.2602985    0.1965566 -31.20  0.001054862    1.719    0.418
        58 -11.4651    231.4868    199.4409   9.5643294660e+01   2.6953624624e+00    0.3347194    0.1985776 -39.79  0.001462602    2.367    0.578
        59 -10.2883    210.8664    218.6991   1.0193760114e+02   4.1211854114e+00    0.1816736    0.1627893 -14.46  0.001310214    1.420    0.296
        60 -10.0419    224.7849    207.9751   9.8090953966e+01   2.9460439487e+00    0.1484286    0.1305277 -56.50   0.00105537    1.909    0.476
        61 -10.3796    206.1986    207.5368   1.0103356725e+02   6.0526739425e+00    0.1919304    0.1602059  -8.29   0.00130516    1.359    0.264
        62  -9.9879    197.5080    203.7372   1.0189777954e+02   7.9322819989e+00    0.1946342    0.1146843 -25.38  0.001141865    2.143    0.533
        63  -9.5379    173.0000    203.9797   1.0611236932e+02   1.2026653792e+01    0.1567901   0.06852695 -41.66 0.0007936969    2.882    0.653
        64  -9.6683    205.3236    217.7831   1.0269496278e+02   5.1056425290e+00     0.158096    0.1153225  39.75  0.000846993    1.131    0.115
        65 -11.1358    222.9807    201.2604   9.7307121947e+01   3.9232836789e+00    0.2645108    0.1994145  55.05  0.001728284    1.680    0.405
        66 -10.1070    215.4745    197.5680   9.7931039342e+01   5.5778936356e+00    0.2061937     0.114976 -30.64  0.001191256    2.113    0.527
        67  -9.6516    176.3826    198.1813   1.0467784254e+02   1.2197591288e+01    0.1443535    0.1140993 -56.34 0.0009494491    1.727    0.421
        68 -11.3020    224.2097    192.2624   9.5612739523e+01   4.6603547062e+00    0.3371305    0.1799521 -32.10  0.001896645    2.186    0.542
        69  -9.8448    219.6541    194.4548   9.6728648316e+01   5.2033165121e+00      0.17645    0.1091062 -25.51  0.001061119    1.851    0.460
        70 -11.3223    235.1252    181.3354   9.1921235329e+01   3.9406936614e+00    0.3488878    0.2240657  -5.36  0.002067854    1.652    0.395
        71 -11.4667    237.0793    187.5106   9.2710736815e+01   2.9633897409e+00    0.3566457     0.203499 -26.58   0.00148553    1.931    0.482
        72 -10.2133    202.1587    197.4871   1.0013942874e+02   7.8622276740e+00    0.1861145    0.1406745 -61.23  0.001129818    2.258    0.557
        73  -9.8882    191.4402    197.9416   1.0203427034e+02   9.6488806282e+00    0.1527449    0.1181479 -32.51 0.0007466545    1.580    0.367
        74 -10.3759    210.4128    188.7371   9.7305657619e+01   7.4422480487e+00    0.2502108    0.1390073 -39.73  0.001371587    2.281    0.562
        75 -11.2357    210.8902    182.2265   9.6101521209e+01   8.1193255616e+00    0.3446904    0.1981685 -29.60  0.001530357    1.987    0.497
        76 -11.9215    236.4181    167.8313   8.9190754459e+01   5.1727053771e+00    0.7063915    0.4273272 -53.84  0.003144939    3.742    0.733
        77 -10.8160    237.7385    158.7105   8.7186120525e+01   5.9522043914e+00    0.2936575    0.2194533 -32.12   0.00117988    1.563    0.360
        78 -10.9789    249.5699    184.3111   9.0173627591e+01   1.1803199292e+00    0.4083573    0.1893197 -26.58  0.001867167    2.291    0.564
        79 -11.8727    247.5501    178.2527   8.9382077432e+01   2.1208080723e+00    0.5027103    0.2351054 -30.67  0.002345373    2.340    0.573
        80  -9.6978    220.3638    187.7850   9.5477985132e+01   5.8104350001e+00    0.1563044    0.1054761  -8.69  0.000692266    1.642    0.391
        81 -10.4330    223.9595    184.0046   9.4222055314e+01   5.6002940668e+00    0.2443482    0.1707022 -34.60 0.0009979975    1.757    0.431
        82 -10.1251    225.5462    179.1019   9.3081556039e+01   5.8651658554e+00    0.2037915    0.1488925 -19.47 0.0008265598    1.472    0.321
        83 -10.7838    183.6356    182.8767   1.0098033590e+02   1.2934020915e+01    0.2563221     0.148313 -44.62   0.00139196    2.164    0.538
        84  -9.8916    203.3579    183.2162   9.7566192721e+01   9.3491004487e+00    0.1557274    0.1147707 -41.15 0.0009516479    1.729    0.421
        85 -10.1480    219.2520    177.5562   9.3851378907e+01   7.1660031540e+00    0.2250589    0.1481867 -20.83  0.001317643    1.663    0.399
        86  -9.9028    205.0000    176.9960   9.6188960038e+01   9.8177666545e+00    0.1810097   0.07139041 -33.70 0.0007979847    2.912    0.657
        87 -10.6855    182.3788    176.2629   1.0008794802e+02   1.4056073813e+01    0.2036884    0.1639275 -47.74  0.001251269    1.558    0.358
        88 -11.7614    241.4398    180.6901   9.0793196133e+01   2.9181742017e+00    0.4393504    0.2653378 -36.45  0.002529995    2.106    0.525
        89 -10.3826    232.8435    174.4105   9.1019087657e+01   5.0878940380e+00    0.2474265    0.1675296 -23.75  0.001250001    1.585    0.369
        90 -10.3296    223.2818    173.3575   9.2403316997e+01   6.9238872651e+00     0.224569    0.1594656 -33.35 0.0009254695    1.663    0.399
        91 -10.6888    227.7694    170.9408   9.1202685056e+01   6.3874432123e+00    0.2971775    0.1688947 -32.19   0.00132203    1.969    0.492
        92 -10.1978    228.8624    166.1660   9.0109557422e+01   6.7352881616e+00     0.218261     0.171149  -7.58 0.0008041936    1.264    0.209
        93 -11.0159    246.1043    169.3615   8.7934863967e+01   3.2848567388e+00    0.3430488     0.206517 -35.39  0.001926217    2.019    0.505
        94 -10.6735    218.5788    168.1414   9.2216860305e+01   8.4005705622e+00     0.279689    0.2279662 -24.79  0.001399088    1.381    0.276
        95  -9.9310    199.3898    164.7084   9.4919517576e+01   1.2442035533e+01    0.2214216    0.1227438 -37.59  0.001038091    2.066    0.516
        96 -10.5648    212.8516    162.9687   9.2209409778e+01   1.0110070264e+01     0.321694    0.1811341 -31.45  0.001534313    1.950    0.487
        97 -11.3801    249.0660    107.4339   7.4113891525e+01   9.7430320179e+00      0.56805    0.2244778 -36.97  0.002280329    2.646    0.622
        98 -10.3878    242.0235     93.4378   7.1742637775e+01   1.2927812437e+01    0.3171297    0.2302024 -32.71  0.001075698    1.388    0.279
        99 -10.8762    247.7497    112.7121   7.5558423774e+01   9.3857242803e+00    0.3389147    0.2613215 -52.67   0.00184037    1.799    0.444
       100 -12.1053    240.8999    123.4392   7.9103300025e+01   9.4919345124e+00     1.038433    0.3736111 -28.65  0.004130647    2.676    0.626
       101 -12.8889    241.1388    105.1466   7.4755191903e+01   1.1679779975e+01     1.328271     0.382309 -31.82  0.004679967    3.161    0.684
       102 -11.3153    250.3694    151.8154   8.3778193260e+01   4.3969709019e+00     1.174455    0.1097214 -29.77  0.002962435    8.151    0.877
       103 -10.4417    247.3156    144.0305   8.2630303955e+01   5.8257894874e+00     0.277084    0.2429206 -17.10  0.000953612    1.279    0.218
       104 -11.1222    248.7178    135.5046   8.0577952592e+01   6.5278249372e+00    0.6459915    0.2239774 -40.55  0.002300415    4.085    0.755
       105 -11.3437    247.9882    129.9192   7.9459710187e+01   7.3127157392e+00    0.4024894    0.2524889 -34.38  0.001388552    1.726    0.421
       106 -11.3064    243.4880    140.0675   8.2387109328e+01   7.0071510048e+00    0.4629759    0.2144848 -27.23  0.001938382    2.137    0.532
       107 -10.9660    242.1870    133.8661   8.1242149921e+01   7.9862964750e+00    0.3650122    0.2194905 -29.00  0.001240153    1.677    0.404
       108 -10.7185    241.8413    153.5614   8.5482828545e+01   5.7742706600e+00    0.3297882    0.2403179 -39.47  0.001099239    1.765    0.434
       109 -11.1432    243.9687    149.0635   8.4215480499e+01   5.8855513553e+00    0.3649758    0.2455379 -27.51  0.001443257    1.554    0.356
       110 -10.9512    249.4767    124.0020   7.7902381397e+01   7.7082706805e+00    0.3139231     0.215768 -12.99 0.0009100604    1.366    0.268
       111 -11.2441    247.8048    118.8964   7.6989737806e+01   8.6408612949e+00    0.4482733    0.2388197 -30.89  0.001410778    1.843    0.457
       112 -10.9911    205.3993    160.9513   9.3126490668e+01   1.1790008840e+01    0.3620229     0.225666 -37.07  0.001723739    1.839    0.456
       113 -10.9662    221.8541    160.5741   9.0194310560e+01   8.7023219186e+00    0.4589439    0.2136765 -24.22  0.002122453    2.427    0.588
       114  -9.8310    226.3137    156.5265   8.8633645505e+01   8.3470773831e+00    0.2134499    0.1145242 -26.55  0.001062661    1.966    0.491
       115  -9.0306    216.2892    156.6651   9.0370989563e+01   1.0247335155e+01    0.1164277    0.1060778 -80.22 0.0003712842    1.632    0.387
       116 -10.3546    233.1511    153.8461   8.6952386851e+01   7.3700938293e+00    0.2469125     0.167244 -35.50  0.001342145    1.721    0.419
       117 -10.4364    205.2925    154.6096   9.1892824204e+01   1.2649303323e+01    0.2526107    0.2074118   3.17  0.001193454    1.210    0.174
       118 -10.2264    228.5135    151.0358   8.7144789342e+01   8.5894363488e+00    0.3844461    0.1293363 -25.35  0.001437756    3.470    0.712
       119 -10.5716    239.9030    164.1023   8.7903782296e+01   4.9549026649e+00    0.2718823    0.1782584 -26.45 0.0009343341    1.621    0.383
       120  -9.4844    187.6018    155.2006   9.5246586981e+01   1.6033970747e+01    0.1772996    0.1245851 -17.60 0.0009490913    1.667    0.400
       121  -9.3235    202.2854    151.6487   9.1835413132e+01   1.3640504944e+01    0.1224623    0.1075308 -80.63  0.000425691    1.660    0.398
       122  -9.9742    196.5816    150.2699   9.2594955932e+01   1.4962935344e+01    0.2349041    0.1281742 -37.52  0.001127074    2.033    0.508
       123 -10.1974    172.4949    149.0455   9.6924112886e+01   1.9926925274e+01     0.188946    0.1343198 -38.69 0.0006830578    1.562    0.360
       124 -10.1564    223.5111    146.6436   8.7072815244e+01   1.0103087566e+01    0.2433601    0.2202509 -31.28  0.001284643    1.345    0.257
       125  -9.5606    208.0000    144.9657   8.9423905035e+01   1.3408778866e+01    0.2073843   0.07594957 -32.29 0.0007999981    2.926    0.658
       126 -10.7801    162.4986    142.5232   9.7609978009e+01   2.2944813443e+01    0.3959621    0.2256998 -68.26  0.001389897    4.309    0.768
       127  -9.5393    214.2756    142.6414   8.7819121176e+01   1.2456282434e+01    0.1238277    0.1080743 -65.86 0.0004620035    1.656    0.396
       128 -10.3594    233.5771    129.2963   8.1609101179e+01   1.0258547305e+01    0.2692331    0.1260642 -28.21  0.001196436    2.122    0.529
       129 -10.3645    238.3530    140.1117   8.3218241247e+01   7.9952144699e+00    0.2424926    0.2136692 -39.04  0.001017008    1.461    0.316
       130 -11.3391    234.7904    135.6926   8.2834390000e+01   9.2277238958e+00    0.4873539    0.2565623 -37.11  0.001677166    2.123    0.529
       131 -10.4908    224.1179    140.2446   8.5604739859e+01   1.0790219650e+01    0.2722956    0.1833508 -29.19  0.001015521    1.552    0.356
       132 -10.4433    219.0853    137.9773   8.5973809995e+01   1.2096566833e+01    0.3094668    0.1960206 -26.75  0.001597434    1.627    0.385
       133  -9.6852    208.4767    137.9968   8.7843925067e+01   1.4261246053e+01    0.1814135    0.1142246 -54.04 0.0008093361    2.502    0.600
       134 -10.5367    230.0410    141.1074   8.4795504593e+01   9.5047011370e+00    0.3000804    0.1789711 -34.22  0.001376528    1.817    0.450
       135 -11.6442    235.2145    147.0852   8.5213349706e+01   7.7745364705e+00    0.4346025     0.295349 -32.83   0.00164471    1.630    0.387
       136  -9.9755    225.2820    133.9493   8.4028054956e+01   1.1357765584e+01    0.1939382    0.1639212  -1.84 0.0007467121    1.114    0.103
       137  -9.9421    220.7922    128.9693   8.3674225869e+01   1.2927900110e+01    0.2155562    0.1552448 -52.68  0.001082414    1.975    0.494
       138 -10.0075    186.2004    129.0412   9.0002892992e+01   2.0222037366e+01    0.2210317    0.1618749 -62.75  0.001071868    1.996    0.499
       139 -10.0913    200.1738    126.7616   8.6840185683e+01   1.7586532373e+01    0.2176185     0.154152 -75.16  0.000937901    2.727    0.633
       140 -10.0468    227.4052    125.2784   8.1713600151e+01   1.2033411000e+01    0.2415458    0.1657694 -32.87  0.001265352    1.537    0.350
       141 -10.4246    180.3133    125.4820   9.0345209452e+01   2.2028580377e+01     0.321106    0.2491316 -62.74   0.00164292    1.742    0.426
       142 -10.3625    235.0035    123.4971   8.0057409091e+01   1.0688224931e+01    0.2508511     0.177094 -37.87 0.0009204615    1.607    0.378
       143 -11.0160    221.0050    122.4965   8.2149788833e+01   1.3739606331e+01    0.4169623     0.220977 -50.45  0.001642001    3.089    0.676
       144 -10.5992    230.4808    114.7743   7.8750233037e+01   1.2736149597e+01    0.3998769    0.1039869 -34.64  0.001309433    3.676    0.728
       145  -9.8730    153.3036    115.6756   9.3673198827e+01   2.9401322230e+01    0.1404992    0.1138353 -86.18 0.0004628692    1.640    0.390
       146 -10.1431    122.2082    114.4257   1.0047984011e+02   3.5812298796e+01    0.1910602      0.12658  55.58  0.000589561    1.599    0.375
       147 -11.1561    234.5936    112.0476   7.7437485831e+01   1.2209527952e+01    0.2821759    0.1891225  76.00  0.001269406    2.526    0.604
       148 -11.9027    229.8383    103.4785   7.6113296886e+01   1.4329797999e+01    0.6135032    0.2495489 -31.35  0.002448673    2.354    0.575
       149  -9.3682    161.0000    108.9969   9.0391384964e+01   2.8920649857e+01    0.2313053    0.0828002 -38.09 0.0007963176    2.900    0.655
       150  -9.7722    133.6687    109.3422   9.6603714501e+01   3.4570665440e+01    0.1447534    0.1118935 -89.37 0.0007051139    1.750    0.429
       151 -11.6196    246.3133    159.4461   8.5960880739e+01   4.3048740205e+00    0.6373322    0.2125404 -33.56  0.002665366    3.196    0.687
       152  -9.8445    222.4766    105.0623   7.7706510175e+01   1.5744799945e+01    0.2156149    0.1340165 -27.25 0.0008729019    1.581    0.368
       153  -9.4865    205.7117    105.3833   8.0679653423e+01   1.9459107047e+01    0.1444844    0.1128955 -60.78 0.0007013703    1.745    0.427
       154 -10.1545    141.2433    104.2781   9.3608230957e+01   3.3968647851e+01    0.2260753    0.1130334 -51.78 0.0008883274    2.377    0.579
       155  -9.9129    150.3237    103.6702   9.1392492818e+01   3.2159747779e+01     0.145897    0.1163748 -83.66 0.0004727591    1.699    0.411
       156 -10.4479    167.0065    101.2878   8.7156862600e+01   2.8899735023e+01    0.2658584    0.2088452 -60.55  0.001177553    1.586    0.369
       157 -10.0425    160.4084    101.2126   8.8544018160e+01   3.0386857153e+01    0.2092474    0.1359624 -47.43 0.0009338077    1.701    0.412
       158 -10.1189    224.2724    248.5449   1.0395306344e+02  -6.4506904864e-01    0.1704206    0.1172528 -32.81  0.001012803    2.057    0.514
       159 -10.5071    224.7868    243.5690   1.0322827333e+02  -3.0818695634e-01    0.1802284    0.1506651  33.18 0.0008941838    1.322    0.244
       160 -10.2569    218.5014    248.4999   1.0480468113e+02   1.9844739964e-01      0.18929    0.1399276  63.43  0.001163692    2.239    0.553
       161 -10.0455    210.8212     92.2194   7.6392719232e+01   2.0146377845e+01    0.2859966    0.1912452 -55.45 0.0009961076    2.065    0.516
       162 -10.3882    216.5077     99.5052   7.7310069697e+01   1.7833841165e+01    0.2422541    0.2337896  61.43 0.0008643987    1.217    0.178
       163 -10.1606    213.0246     97.0246   7.7266847234e+01   1.8970039713e+01    0.3730692    0.2329042 -59.78  0.001513692    2.675    0.626
       164  -9.3526    209.2743    100.6089   7.8836860110e+01   1.9328030876e+01    0.1454113    0.1112699 -57.11 0.0005588282    1.729    0.422
       165  -9.5047    225.2948     99.6711   7.5896146454e+01   1.5832078766e+01    0.1378278     0.111041 -57.13 0.0007023825    1.631    0.387
       166  -9.5098    202.7097     98.3584   7.9422681791e+01   2.1157891626e+01    0.1453518    0.1146793 -61.32 0.0007027172    1.688    0.408
       167  -9.6884    195.4022     98.2428   8.0729855076e+01   2.2866743929e+01    0.2074089    0.1329167 -40.73  0.000911165    1.678    0.404
       168 -11.8710    225.6318     82.2836   7.1353590595e+01   1.8026413895e+01    0.5699153    0.4154793  68.92  0.002831659    1.662    0.398
       169 -11.7136    226.0371     87.6568   7.2700128329e+01   1.7236631344e+01    0.5343955     0.330202 -60.52  0.002185848    2.707    0.631
       170 -11.1885    235.2912     95.4470   7.3257003589e+01   1.4154815858e+01    0.3550125     0.263676 -38.05  0.001009283    1.449    0.310
       171 -11.9144    231.4365     91.1075   7.2750190502e+01   1.5564534452e+01    0.4907979    0.3407971 -45.22   0.00163351    1.680    0.405
       172  -9.5137    153.6896     96.3488   8.8738616046e+01   3.2717961707e+01    0.1485395    0.1176006 -76.80 0.0007045082    1.713    0.416
       173  -9.7745    215.7780     94.8005   7.6224914278e+01   1.8643373953e+01    0.1927904    0.1720202 -53.59 0.0007730658    1.349    0.259
       174 -10.6487    189.1206     93.4889   8.0654429605e+01   2.5049301397e+01    0.3077927     0.264735 -75.15  0.001099599    1.499    0.333
       175  -9.2191    203.3045     90.6701   7.7292073647e+01   2.2126128188e+01    0.1457959    0.1161849 -63.05 0.0004153305    1.654    0.395
       176 -10.8461    175.7739     88.3854   8.1880622229e+01   2.8987936746e+01    0.2805155    0.2303892 -59.58 0.0009198274    1.481    0.325
       177  -9.9047    124.7466     88.7257   9.3516392338e+01   4.0252886648e+01    0.2275681    0.1130105 -53.00 0.0008845655    2.388    0.581
       178 -10.2411    188.1898     87.4507   7.9192008184e+01   2.6186161807e+01    0.2933861    0.1818431 -46.43 0.0008201482    1.865    0.464
       179  -9.7374    151.3044     88.6717   8.7184393152e+01   3.4588975746e+01      0.14753    0.1184749 -75.51 0.0003491968    1.650    0.394
       180  -9.6214    130.3386     88.6592   9.2113607044e+01   3.9122877693e+01    0.1484313    0.1156708 -83.07 0.0007050129    1.766    0.434
       181  -9.4343    197.6923     87.3661   7.7406848202e+01   2.3932921793e+01    0.1517304    0.1157532 -62.19 0.0007037352    1.751    0.429
       182  -9.8541    206.1518     85.1890   7.5319175839e+01   2.2228288341e+01    0.2053264    0.1748517 -51.67 0.0009470163    1.372    0.271
       183  -9.7124    170.6791     84.3192   8.1780506649e+01   3.0842462568e+01    0.1500796    0.1201098 -72.22 0.0007043412    1.667    0.400
       184 -10.6154    159.0155     82.5157   8.3734281100e+01   3.3877508338e+01     0.296293    0.2061487 -49.01  0.001246939    1.617    0.382
       185  -9.8438    214.8558     80.5575   7.2602974428e+01   2.0790366927e+01    0.2486914    0.1663553 -30.80  0.001181522    1.468    0.319
       186 -10.1137    150.8040     79.9872   8.4821087639e+01   3.6200682605e+01    0.2468562    0.1684403 -59.85  0.001077034    1.956    0.489
       187 -10.4947    203.3188     67.0002   7.0717699288e+01   2.5423724823e+01    0.3123413    0.2356211 -51.62  0.001269199    1.546    0.353
       188  -9.7343    206.5047     78.5180   7.3432059827e+01   2.3071581047e+01    0.2864186    0.1768463 -30.80  0.000803798    1.591    0.371
       189 -10.3436    206.0178     74.5033   7.2396620344e+01   2.3741106053e+01    0.2923362    0.1947964 -41.63 0.0008506574    1.607    0.378
       190 -10.3976    201.0399     78.2511   7.4296801905e+01   2.4433195512e+01    0.3638186    0.1744703 -44.29  0.001373915    2.435    0.589
       191 -10.1889    174.5543     78.2932   7.9265317623e+01   3.0869618300e+01    0.2860985    0.1403193 -36.15  0.001123491    2.034    0.508
       192 -10.2344    166.7199     78.3797   8.0892959194e+01   3.2738292982e+01    0.2818114    0.1789435 -42.91   0.00113619    1.674    0.403
       193 -10.2510    130.4748     78.5027   8.9198109196e+01   4.0963930965e+01    0.1439783    0.1406164 -11.70 8.889898e-05    1.020    0.020
       194 -10.1382    236.5025     90.4990   7.1824225272e+01   1.4507312370e+01    0.3157608    0.1905764 -20.75 0.0009195345    1.597    0.374
       195 -10.1090    211.1285     76.7100   7.2161402552e+01   2.2201444762e+01    0.2595035    0.1927352 -34.91 0.0008164899    1.366    0.268
       196 -10.5031    157.8027     76.5019   8.2241258630e+01   3.5159351522e+01    0.3083448    0.1880633 -48.58  0.001248572    1.891    0.471
       197 -11.3508    199.0017     69.7142   7.2227752159e+01   2.6124571091e+01    0.2746477    0.1798288 -41.29 0.0008239132    1.621    0.383
       198 -10.9773    195.2889     72.9909   7.3817729953e+01   2.6583950383e+01    0.2382789    0.2243486  25.31  0.000750843    1.031    0.030
       199 -11.0790    193.8778     68.3074   7.2711001401e+01   2.7593257249e+01    0.3598146    0.1999046 -42.83  0.001421909    1.966    0.491
       200 -11.6733    190.3701     73.1376   7.4743811561e+01   2.7776089169e+01    0.3669693    0.3067787  46.03  0.001587795    1.169    0.145
       201 -11.1108    187.4846     69.0436   7.4074859466e+01   2.9080719012e+01    0.2929162    0.1756796 -40.34 0.0009688888    1.747    0.428
       202 -10.3821    163.3366     72.1885   7.9764418144e+01   3.4539202557e+01    0.3458184    0.1757725 -36.08  0.001384405    1.957    0.489
       203 -11.6874    222.2962     71.0540   6.8846193803e+01   2.0255982025e+01    0.3258999     0.206242 -33.72 0.0008608028    1.550    0.355
       204 -12.5008    223.3156     67.0062   6.7584580592e+01   2.0522973130e+01     0.556421    0.4016154  -2.47  0.002741796    1.463    0.317
       205  -9.6584    170.6139     70.8079   7.7847206080e+01   3.2987911146e+01    0.2202704    0.1353763 -40.73 0.0009472883    1.698    0.411
       206 -10.6861    182.3156     68.4627   7.4861925996e+01   3.0450845647e+01    0.2649623      0.17257 -47.93  0.001026778    1.774    0.436
       207  -9.7825    122.3042     68.6577   8.8285130132e+01   4.4472701309e+01    0.1459728    0.1155259 -72.99 0.0003682011    1.682    0.405
       208 -10.0587    146.0000     66.9356   8.1957766380e+01   3.9507764851e+01    0.2500866   0.08440682 -34.05 0.0008040431    2.954    0.661
       209  -9.8380    138.6782     67.3302   8.3795631476e+01   4.1126040545e+01    0.1503133    0.1186936 -72.08 0.0007049224    1.695    0.410
       210 -10.2184    163.8159     65.3160   7.7559511851e+01   3.5499004431e+01    0.2640813    0.2046694 -40.13  0.000826516    1.343    0.255
       211 -10.5777    197.3102     64.4742   7.0994666562e+01   2.7264837968e+01    0.2645492    0.1685324 -46.57  0.001035885    1.785    0.440
       212 -10.6228    111.8559     64.7266   8.9818042522e+01   4.7324981731e+01    0.2758467    0.1849024 -63.12  0.001235062    2.077    0.518
       213  -9.4793    171.3096     64.6402   7.5829917092e+01   3.3752711484e+01    0.1574063    0.1178468 -62.88  0.000517187    1.739    0.425
       214 -10.6692    187.2977     62.9933   7.2306931889e+01   2.9986428991e+01    0.2203216    0.1918437 -22.44 0.0006525409    1.141    0.124
       215  -9.9946    182.5689     62.7579   7.3097470471e+01   3.1210485325e+01    0.2174109     0.136515 -39.00 0.0009467116    1.644    0.392
       216 -10.7871    157.8979     62.0119   7.7765185840e+01   3.7456009595e+01    0.3553391    0.2405091 -40.14  0.001396921    1.527    0.345
       217 -10.6533    153.1529     59.7430   7.8060558511e+01   3.8961154970e+01     0.272101    0.1980114 -40.43 0.0008684307    1.423    0.297
       218 -13.5006    226.7182     53.9892   6.3499645941e+01   2.1285183357e+01    0.8926424    0.6012095 -42.43    0.0043299    1.550    0.355
       219  -9.5011    182.5229     58.4909   7.1800683391e+01   3.1823102172e+01    0.1513359    0.1449586  13.65 0.0003737146    1.019    0.019
       220  -9.6039    146.5311     58.5085   7.9128804321e+01   4.0745749700e+01     0.150008    0.1434094   6.45 0.0008097604    1.015    0.014
       221 -11.3542    192.6020     55.6709   6.9169196536e+01   2.9639837033e+01    0.3131872    0.2187253 -42.25  0.001082142    1.522    0.343
       222 -10.1973    157.6875     55.9341   7.5851747136e+01   3.8433078034e+01    0.2202687    0.1946273 -22.45 0.0007295992    1.124    0.111
       223 -11.0438    153.1379     52.7640   7.5772224055e+01   4.0027702642e+01    0.2761341    0.1999646 -39.94  0.001307958    1.434    0.303
       224  -9.8150    178.5996     50.8195   7.0113526437e+01   3.3877589185e+01    0.2207747    0.1329721 -38.32 0.0009416327    1.704    0.413
       225 -10.8343    207.8154     46.8538   6.4120936827e+01   2.6865055468e+01    0.5923572     0.181337 -32.30  0.001972217    2.916    0.657
       226 -10.3032     95.4054     47.2114   8.8586204564e+01   5.3649730052e+01    0.2044008    0.1230033 -46.56 0.0009553758    1.711    0.416
       227  -9.5305    206.4950     59.5001   6.8034689633e+01   2.5619894850e+01    0.1497549    0.1401737  12.85 -0.0002144967    1.014    0.014
       228 -10.8924    173.3979     40.2295   6.7614065138e+01   3.6611394264e+01    0.2877556    0.1434923 -31.05 0.0009844424    1.960    0.490
       229 -11.7916    168.5093     36.9980   6.7411776400e+01   3.8291256084e+01    0.3655287     0.194093 -35.23  0.001001742    1.889    0.471
       230  -9.0405    188.2696     44.6359   6.6485946341e+01   3.2182689180e+01    0.1560219    0.1112609 -53.92 0.0004246345    1.655    0.396
       231  -9.5806    200.4731     43.5348   6.4218699708e+01   2.9151964774e+01    0.1480827    0.1420376  15.82 0.0002462297    1.003    0.003
       232 -10.3657    191.9900     41.3726   6.4862184607e+01   3.1617117981e+01    0.3035561    0.1932068 -40.94  0.001174617    1.646    0.392
       233  -9.4515    179.3098     37.6786   6.5749742249e+01   3.5385022064e+01    0.1547251    0.1144033 -59.70 0.0004922787    1.646    0.393
       234  -9.5914    201.5161     35.5072   6.1615635668e+01   2.9820726076e+01    0.1453606    0.1429478 -29.65 2.023805e-05    1.056    0.053
       235 -11.4229    169.0270     44.1038   6.9696117186e+01   3.7239906980e+01    0.4988631    0.1941279 -30.31  0.001774679    2.468    0.595
       236 -10.0848    133.3878     35.1956   7.3974984614e+01   4.7363552223e+01    0.2197477    0.1288315 -37.69 0.0009563804    1.743    0.426
       237  -9.9200    164.0000     33.0205   6.6873095312e+01   3.9957301124e+01     0.243541   0.08513238 -24.45 0.0007946122    2.888    0.654
       238  -9.7101    125.6683     30.5091   7.4011922055e+01   4.9834078051e+01    0.2558349    0.1314132 -27.28  0.001066589    1.908    0.476
       239 -10.6126    166.5317     28.2405   6.4765092611e+01   3.9865168945e+01    0.2864181    0.1340311 -30.18  0.001118242    2.084    0.520
       240  -9.0031    162.3212     25.6879   6.4612596826e+01   4.1262770505e+01    0.1525154    0.1138176 -60.82 0.0004036599    1.652    0.395
       241 -11.4532    206.7199     22.1422   5.6846147824e+01   2.9894187841e+01    0.4858895    0.3019844  89.68   0.00213656    1.991    0.498
       242  -9.4227    242.4927    248.5214   1.0127950105e+02  -3.2538030169e+00    0.1058605   0.06967441  28.60 8.424684e-05    1.022    0.021
       243  -9.2581     83.6950     19.2960   8.0992447763e+01   6.0303376817e+01    0.1244718     0.105319 -57.55 0.0003268541    1.583    0.368
       244  -9.9437    232.7172    247.3774   1.0255479977e+02  -1.7715908334e+00    0.1402517    0.1235966 -18.58 0.0008561807    1.649    0.394
       245  -9.3582     91.8127     15.9346   7.6964795492e+01   5.9182096351e+01    0.1785823   0.09797388 -25.33  0.000442938    1.719    0.418
       246  -9.4977    142.5012     11.5080   6.2972144801e+01   4.7925336248e+01    0.1465904    0.1352496  28.31 0.0001534599    1.010    0.010
       247 -11.8399    248.5274     95.2615   7.1248494831e+01   1.1306857731e+01    0.7650476    0.2380026 -31.48  0.002808114    2.872    0.652
       248 -10.1510    140.5132     17.0168   6.5495340946e+01   4.7856431216e+01    0.2237246    0.1425666 -18.05 0.0008954167    1.587    0.370
       249 -10.4998    210.0486    247.5848   1.0595546529e+02   1.5172914182e+00    0.2122042    0.1419415  50.56  0.001549695    1.566    0.362
       250  -9.4484    171.7552     21.0116   6.1396193504e+01   3.9285557745e+01     0.195067    0.1254135 -20.10 0.0008802502    1.581    0.368
       251 -11.5741    175.9646    246.6045   1.1104081082e+02   6.6670710032e+00    0.2517623    0.2431712  18.48   0.00160303    1.386    0.279
       252  -9.6980    237.8575    245.0572   1.0149075188e+02  -2.3290512722e+00     0.124758    0.1189568  82.14 0.0009667203    1.991    0.498
       253 -10.7073    202.0104    242.3095   1.0651685188e+02   3.1937312601e+00    0.2056743    0.1589715 -47.42  0.001403923    2.019    0.505
       254 -10.4094    241.9831    242.3266   1.0051420935e+02  -2.7103947820e+00     0.205141    0.1793923  63.75  0.001628828    2.073    0.518
       255  -9.7393    248.7578    240.7571   9.9306785294e+01  -3.5610158059e+00    0.1297674     0.098152  34.90 0.0007399141    1.321    0.243
