#   1 NUMBER                 Running object number                                     
#   2 MAG_AUTO               Kron-like elliptical aperture magnitude                    [mag]
#   3 X_IMAGE                Object position along x                                    [pixel]
#   4 Y_IMAGE                Object position along y                                    [pixel]
#   5 X_WORLD                Barycenter position along world x axis                     [deg]
#   6 Y_WORLD                Barycenter position along world y axis                     [deg]
#   7 A_WORLD                Profile RMS along major axis (world units)                 [deg]
#   8 B_WORLD                Profile RMS along minor axis (world units)                 [deg]
#   9 THETA_WORLD            Position angle (CCW/world-x)                               [deg]
#  10 FWHM_WORLD             FWHM assuming a gaussian core                              [deg]
#  11 ELONGATION             A_IMAGE/B_IMAGE                                           
#  12 ELLIPTICITY            1 - B_IMAGE/A_IMAGE                                       
         1 -14.9285    142.7486     65.2147   9.5235989247e+01   4.0379753195e+01      1.46123     1.192761 -30.12  0.003992434    1.231    0.187
         2 -14.8118    151.4143     50.0279   8.8283476854e+01   4.0728551949e+01     1.204434     1.099189 -28.88   0.00342729    1.093    0.085
         3 -14.9756    160.1003     20.3323   7.6300755193e+01   4.2429751971e+01     1.168748     1.110796 -67.61  0.004250532    1.077    0.072
         4 -13.1190    188.2229     12.6425   6.9945351721e+01   3.5806357945e+01    0.8619945    0.3651469 -56.46  0.003049309    3.080    0.675
         5 -13.4997    173.8905      3.7642   6.8678910306e+01   4.0419879172e+01     1.249842    0.4508525  88.09  0.003622805    4.553    0.780
         6 -11.5079    160.9835    236.5822   1.2538225033e+02   8.7171245953e+00     0.229156    0.1553901  54.91 0.0008922176    1.735    0.424
         7 -15.0915    248.6967    246.1744   1.1251087454e+02  -3.7699765375e+00     1.804796     1.056973 -35.59   0.01297709    2.642    0.621
         8 -15.0846    249.1220    231.1360   1.1036422610e+02  -2.6074333306e+00     1.905089    0.4089562 -33.36   0.00833932    5.530    0.819
         9  -9.5865    189.2262    250.2763   1.2222894798e+02   3.4022204528e+00   0.09390901   0.06128487  16.65            0    1.425    0.298
        10 -20.6751     91.0497    187.1251   1.3326259459e+02   2.6049746608e+01     11.79001     6.103514 -64.85   0.06457973    2.207    0.547
        11 -14.1975    193.3973    166.4849   1.0913997360e+02   1.2800116795e+01     1.002727    0.5200222 -44.31  0.001786414    2.397    0.583
        12 -12.0699    200.4969    168.0392   1.0812394421e+02   1.1359709626e+01    0.2820756    0.2113961 -30.75 0.0008523181    1.455    0.313
        13 -13.2956    203.7577    164.3381   1.0684888789e+02   1.1296473677e+01    0.4912589    0.3678357 -48.13  0.001238559    1.825    0.452
        14 -13.8481    230.3591    168.5939   1.0308790235e+02   6.3158980317e+00    0.4456031    0.3151756 -20.70  0.002479249    1.382    0.276
        15 -12.2736    165.2517    171.4904   1.1546515826e+02   1.6960453683e+01    0.2483108    0.1973962  50.10  0.001117207    1.304    0.233
        16 -10.2724      4.7188    235.6818   1.5269142084e+02   2.7298859176e+01   0.07338473   0.06845021 -88.87 0.0006990448    1.581    0.367
        17 -11.2684     15.0679    219.0400   1.5044736062e+02   2.9036541372e+01    0.2320768     0.112771 -83.16  0.001073133    2.036    0.509
        18 -14.2050    174.4034    149.8811   1.0965066003e+02   1.8718545224e+01    0.7271107    0.4715911 -40.14  0.003815518    1.686    0.407
        19 -12.5878     27.8965    145.7676   1.4391044418e+02   4.1770919775e+01    0.3877814    0.2561049 -76.31   0.00156476    1.392    0.282
        20 -13.3016    175.3299    142.0034   1.0787299050e+02   1.9809542753e+01    0.4508696     0.249974  40.72  0.001783253    1.665    0.400
        21 -14.3141    160.9205    128.1611   1.0793600746e+02   2.4988558045e+01     0.720481    0.6088517 -65.08  0.003044659    1.466    0.318
        22 -11.9194      5.5251    130.4758   1.4856358692e+02   4.6871979522e+01    0.2721926    0.1920258  31.59   0.00147682    1.565    0.361
        23 -11.3630     10.9827    126.8783   1.4688733514e+02   4.7280854046e+01    0.2985382    0.1800555 -46.00  0.001752323    2.089    0.521
        24 -11.2732     17.8835    213.8925   1.4975918864e+02   2.9637887357e+01     0.196661    0.1429394  70.79 0.0006672825    1.133    0.117
        25 -12.5961    153.5690    125.7619   1.0902490942e+02   2.6896954872e+01    0.2627763    0.2444355  36.60 0.0009132383    1.032    0.031
        26 -11.3753      9.7097    212.0176   1.5117752906e+02   3.0678175731e+01    0.1530694     0.108962  82.07 0.0003310382    1.274    0.215
        27 -12.5074    142.5947    121.6249   1.1061799191e+02   2.9870042544e+01    0.5247077    0.2943646  64.00  0.001135229    2.840    0.648
        28 -13.5332     12.0482    206.3851   1.5056170520e+02   3.1436740365e+01    0.5618255    0.2897895  36.04  0.003219027    1.705    0.414
        29 -10.1586    185.6380    218.8124   1.1887215022e+02   7.2933321585e+00    0.2355372    0.1420655 -46.38  0.001469068    2.356    0.575
        30 -12.1376    188.4768    213.5276   1.1764375987e+02   7.4974271245e+00    0.3251713    0.2285167  20.15 0.0007529895    1.243    0.196
        31 -11.2749    167.5531    112.5572   1.0288759247e+02   2.6348614185e+01     0.315322    0.2277385 -83.15  0.001371472    2.396    0.583
        32 -10.1509    218.1088    218.1606   1.1330965737e+02   2.7032180734e+00    0.1319143    0.1148326  14.90  0.000571166    1.323    0.244
        33 -11.0392    205.4726    110.1642   9.4968138383e+01   1.8694107459e+01    0.2955795    0.1898547  38.33  0.000907714    1.543    0.352
        34 -12.3560     27.9129    230.9596   1.4862838752e+02   2.5924191279e+01    0.1922296    0.1335054  74.56 0.0007188257    1.263    0.208
        35 -11.5563    175.0732    219.6597   1.2083910408e+02   8.7385954082e+00     0.374826    0.1604462 -43.92  0.001722066    3.049    0.672
        36 -11.6743     16.8171    192.4372   1.4910805824e+02   3.3493725763e+01    0.1672867    0.1423533 -86.74 0.0003252847    1.331    0.249
        37 -10.1346      5.1231    227.1811   1.5241364263e+02   2.8589931185e+01    0.1186005   0.09965263  57.23 0.0004012868    1.310    0.237
        38 -13.5737    204.3197    175.0927   1.0871267111e+02   9.7823423101e+00     0.615347    0.5854343 -25.43  0.002664793    1.387    0.279
        39 -12.3779    112.2251     83.9447   1.0897020857e+02   4.3597149916e+01     0.341664    0.2793596 -56.85 0.0007591026    1.273    0.215
        40 -12.1045    139.4919     83.0215   1.0146576709e+02   3.7913091611e+01    0.4597535     0.279468 -21.10  0.001489717    2.209    0.547
        41 -10.9968    156.8218    247.6712   1.2730549349e+02   7.9982082655e+00    0.1575358    0.1306226 -14.08 0.0006600083    1.555    0.357
        42 -11.6077    150.6136    241.1358   1.2767683282e+02   9.6014311980e+00    0.1904427    0.1752823  -2.83  0.001554044    1.370    0.270
        43 -13.7535    154.8730     41.1151   8.4534085320e+01   4.1158493785e+01    0.6008137    0.5575005 -31.88 0.0007845859    1.081    0.075
        44 -11.5481     13.4352     59.8665   1.3862366813e+02   6.2635075314e+01    0.2103669    0.1934375  86.24 0.0004316122    1.155    0.134
        45 -12.3596    190.6170    158.3670   1.0813737102e+02   1.4449490549e+01     0.575104    0.3576489  15.22  0.002858934    1.953    0.488
        46 -12.5933    154.1564    239.3471   1.2687188537e+02   9.3309576094e+00    0.3002026    0.2010931  52.51  0.001493948    1.580    0.367
        47 -12.6284     12.5051     23.1245   1.3018370269e+02   7.1030521533e+01    0.3451181    0.2215553  -6.74 0.0008854256    1.841    0.457
        48 -12.3707    196.9158    176.4297   1.1027892972e+02   1.0842099455e+01    0.3443704    0.2504434  33.24  0.000858864    1.177    0.151
