#   1 NUMBER                 Running object number                                     
#   2 MAG_AUTO               Kron-like elliptical aperture magnitude                    [mag]
#   3 X_IMAGE                Object position along x                                    [pixel]
#   4 Y_IMAGE                Object position along y                                    [pixel]
#   5 X_WORLD                Barycenter position along world x axis                     [deg]
#   6 Y_WORLD                Barycenter position along world y axis                     [deg]
#   7 A_WORLD                Profile RMS along major axis (world units)                 [deg]
#   8 B_WORLD                Profile RMS along minor axis (world units)                 [deg]
#   9 THETA_WORLD            Position angle (CCW/world-x)                               [deg]
#  10 FWHM_WORLD             FWHM assuming a gaussian core                              [deg]
#  11 ELONGATION             A_IMAGE/B_IMAGE                                           
#  12 ELLIPTICITY            1 - B_IMAGE/A_IMAGE                                       
         1 -14.0828     68.4676    144.5729   9.2386387344e+01   3.7568359708e+01     4.192808     2.064955  79.24   0.01385024    4.371    0.771
         2 -13.3893    222.1427     30.2514   3.0900282923e+01   2.5889363797e+01     1.382099    0.9655867  30.97  0.007284204    1.962    0.490
         3 -13.5876    207.6974     42.9236   3.5751912629e+01   2.7686822465e+01     2.059675     1.426492  30.44  0.008529125    1.921    0.480
         4 -11.2858    249.5224      9.5136   2.3810525880e+01   2.2188917496e+01    0.4378318    0.3898786 -61.77  0.002764291    1.108    0.098
         5 -11.8740    245.7239      3.1360   2.2597804050e+01   2.3618157125e+01    0.5735122    0.5576342 -37.11  0.004218117    1.257    0.205
         6  -9.4277      2.2359      2.9897   8.0203107736e+01   7.5601925475e+01    0.1532228   0.07787094 -46.65 0.0005666261    1.658    0.397
         7 -11.4746    144.4988    228.0889   8.7299865711e+01   9.7694442384e+00    0.3596159    0.2754813  10.63  0.002348773    1.548    0.354
         8 -15.0681      6.0450    186.4153   1.1134248606e+02   3.5236524478e+01     8.826175     1.162921 -77.40   0.01310884    6.171    0.838
         9  -8.6185     65.1656    191.7765   9.9130223328e+01   2.7730207936e+01    0.1893406    0.1357112  66.59 0.0007063367    1.252    0.201
        10  -9.9821     74.4357    207.6146   9.8760985190e+01   2.3402876763e+01     0.305987    0.1888985  85.95  0.001123013    1.820    0.451
        11  -9.3052    111.1652    203.8044   9.0758280609e+01   1.8855257148e+01    0.1889922    0.1461454  58.13 0.0004356292    1.204    0.169
        12  -9.0820     99.3824    180.8689   9.0231719362e+01   2.5072951689e+01    0.2213135    0.1595101  51.17 0.0005718545    1.263    0.208
        13  -9.2155    186.6505    174.2769   7.0789205319e+01   1.1296755565e+01    0.2700704     0.226062  82.28  0.001545949    1.767    0.434
        14 -11.4472     61.0767    172.6558   9.7977793133e+01   3.2270255628e+01     0.403811    0.3042819 -26.37  0.002273071    2.086    0.521
        15 -11.1660     66.0084    167.9034   9.6242611068e+01   3.2657120326e+01    0.2709543    0.2483053 -38.87 0.0005732399    1.388    0.280
        16  -9.7648     86.3379    172.6103   9.2062632571e+01   2.8767008018e+01    0.3478991    0.2305997  22.25  0.001774497    1.987    0.497
        17 -10.0375    111.0162    172.4943   8.6357217279e+01   2.4911032248e+01     0.211051    0.1236621  40.44  0.001035608    1.598    0.374
        18 -11.9042     83.4726    152.6669   8.9798083077e+01   3.3543291809e+01     1.234586    0.5586472 -57.83  0.001510933    2.161    0.537
        19 -12.8431     63.0148    154.7067   9.5261457431e+01   3.5994569371e+01    0.4410224    0.3362629 -39.29  0.001265285    1.682    0.405
        20 -11.9943     75.7802    158.6460   9.2623643357e+01   3.3346268862e+01    0.7493093    0.5444652  63.77 0.0005522036    1.353    0.261
        21  -9.8517    115.0829    249.1571   9.5040424372e+01   1.0862868679e+01     0.170253    0.1349661  28.92  0.001249029    1.298    0.230
        22 -10.6367     32.6511    156.2455   1.0305581990e+02   3.9228172680e+01    0.4180059    0.2360148 -86.34  0.001203308    1.657    0.396
        23 -14.4830      9.6007    207.8000   1.1170595151e+02   3.0686107367e+01     1.200229     1.094868 -82.95  0.009424266    1.415    0.293
        24 -10.0933    133.8587    145.0797   7.6113082382e+01   2.6472187167e+01    0.9256093    0.1998325 -53.15  0.002072189    7.492    0.867
        25  -9.9737     48.1444    169.8545   1.0070785453e+02   3.4478316110e+01    0.2803486    0.2569333  77.86 0.0008751228    1.148    0.129
        26  -9.9537     29.1736    143.2073   1.0258798218e+02   4.2560991675e+01    0.3448246    0.2560494  24.40  0.002119529    1.649    0.393
        27 -10.1234     98.7451    139.0156   8.3509218598e+01   3.4143946942e+01    0.5140573    0.3609359 -15.65  0.002299126    2.404    0.584
        28 -11.6236     85.7366    138.2186   8.6757247498e+01   3.6458963169e+01    0.2807834    0.2584346 -64.45 0.0004300959    1.101    0.092
        29 -10.5183    240.4283    169.6142   6.0601887478e+01   2.9320417208e+00    0.2083913    0.1655021 -38.33 0.0007011703    1.458    0.314
        30 -10.2776    107.2927    130.3672   7.9556541299e+01   3.4569754599e+01    0.5252501    0.3433821  26.20  0.002388351    1.935    0.483
        31  -9.1790    135.8083    129.6174   7.2320439379e+01   2.9271298811e+01    0.2919368    0.1120621 -43.99  0.001030512    2.656    0.624
        32  -9.2460     43.7439    129.6831   9.6905886182e+01   4.4188286511e+01    0.2085217    0.1013364 -81.70  0.000893791    2.314    0.568
        33  -8.0557     82.7151    129.3452   8.5912959836e+01   3.8974357781e+01    0.1449585    0.1043506  80.68 0.0002312398    1.646    0.392
        34  -8.4988    110.4237    167.2301   8.5648761349e+01   2.6087569922e+01    0.1854307    0.1279556 -73.98  0.000941328    1.696    0.410
        35  -8.8683     96.8999    124.8697   8.1137819591e+01   3.7646439419e+01    0.2121649    0.1919146 -21.66 0.0005439543    1.293    0.227
        36  -9.7860    161.1192    118.0583   6.3868932489e+01   2.6299269500e+01    0.4643082    0.3017817 -73.40  0.001828848    2.657    0.624
        37  -9.1472    106.1696    118.4623   7.7222697602e+01   3.7418159417e+01    0.2243517    0.1884771 -42.94 0.0004099252    1.222    0.182
        38 -10.0259    231.2790    113.7679   5.0257946042e+01   1.2438547680e+01    0.2715973    0.2274329 -29.12 0.0008862275    1.071    0.066
        39  -8.4727    156.5220    111.7302   6.3283719953e+01   2.8502784880e+01    0.2014062    0.1396331 -52.68 0.0009248278    1.541    0.351
        40  -8.0609     77.5323    112.5618   8.3956646754e+01   4.3688440183e+01    0.1429045    0.1284315 -90.00 0.0001732627    1.105    0.095
        41  -9.3286    205.1933    110.3411   5.3567423435e+01   1.8218426019e+01    0.2976796    0.2090443  36.88  0.001052772    1.548    0.354
        42 -10.3399    246.9890    107.8324   4.6715045258e+01   1.0334920552e+01     0.215084     0.140426  20.36  0.001097171    2.023    0.506
        43  -9.7870    241.4799    101.5000   4.6018103259e+01   1.2262564899e+01    0.1325714    0.1152109 -25.33 0.0004307154    1.012    0.012
        44 -16.2674     17.0462    242.5387   1.1190732348e+02   2.3725867237e+01     6.437481     2.900759  27.65    0.0372064    2.814    0.645
        45  -8.7306     43.1009    164.5086   1.0135000180e+02   3.6241474427e+01    0.1714652    0.1162411  37.79 0.0005991298    1.514    0.340
        46 -11.0628    138.4208    217.4461   8.7082669137e+01   1.2337050145e+01     0.368196    0.1978469  34.63  0.001976586    1.671    0.401
        47  -8.9005    161.3947     83.7609   5.4708733864e+01   3.2580878882e+01    0.2074227    0.1432711 -25.78 0.0003566166    1.570    0.363
        48  -9.3616    122.7430    200.0528   8.7873604674e+01   1.7735550780e+01     0.231715    0.1542214  59.33 0.0005431287    1.597    0.374
        49 -11.0852     13.0299     59.9045   9.4815999818e+01   6.3442194247e+01    0.3007576    0.2554762  34.08   0.00073881    1.408    0.290
        50 -12.6274     32.9182    197.8468   1.0649174980e+02   3.0316959520e+01    0.5376059    0.4294981 -40.03  0.001448804    1.886    0.470
        51 -11.5083    199.5265     48.3695   3.8252710188e+01   2.8911680575e+01    0.5989888    0.4743429  62.17   0.00164185    1.312    0.238
        52 -10.6546    101.8106    244.2778   9.6971560797e+01   1.3400824092e+01    0.1929758    0.1522303 -52.14  0.001115739    1.649    0.394
        53  -9.6797     42.6125     59.5875   8.2288864409e+01   6.0635862947e+01      0.25635    0.2113934  56.80 0.0009004949    1.491    0.329
        54  -8.6444     24.8932     57.9409   8.9212165389e+01   6.2900863379e+01    0.1882178    0.1447186  69.82 0.0007907263    1.708    0.415
        55 -10.1533    192.0025    192.5095   7.3076058405e+01   7.5785409922e+00    0.3880834    0.2277631 -62.05  0.001623893    3.885    0.743
        56  -9.1707    187.7883     31.1873   3.4888063156e+01   3.3958794523e+01    0.1880914    0.1625448  34.11 0.0007532593    1.329    0.248
        57 -10.2224    119.6973    212.8054   9.0162556144e+01   1.5969772431e+01    0.2439703    0.1336677  57.77  0.001235697    2.062    0.515
        58  -9.6365    198.0033     24.0376   3.1675146069e+01   3.2286478442e+01    0.2930808    0.1936813 -19.64  0.001111481    1.656    0.396
        59  -8.6332    189.5035     15.0225   3.0020549243e+01   3.5344201051e+01    0.1967037    0.1307776 -25.85 0.0006731541    1.543    0.352
        60 -14.2004     43.3429    187.9753   1.0351426295e+02   3.1174949301e+01     2.208587     1.249211  66.84  0.009844044    1.664    0.399
        61  -8.5211    168.9976    236.0193   8.3857146898e+01   5.0232905440e+00    0.1295095    0.1123759  22.69 0.0003604509    1.104    0.094
