#   1 NUMBER                 Running object number                                     
#   2 MAG_AUTO               Kron-like elliptical aperture magnitude                    [mag]
#   3 X_IMAGE                Object position along x                                    [pixel]
#   4 Y_IMAGE                Object position along y                                    [pixel]
#   5 X_WORLD                Barycenter position along world x axis                     [deg]
#   6 Y_WORLD                Barycenter position along world y axis                     [deg]
#   7 A_WORLD                Profile RMS along major axis (world units)                 [deg]
#   8 B_WORLD                Profile RMS along minor axis (world units)                 [deg]
#   9 THETA_WORLD            Position angle (CCW/world-x)                               [deg]
#  10 FWHM_WORLD             FWHM assuming a gaussian core                              [deg]
#  11 ELONGATION             A_IMAGE/B_IMAGE                                           
#  12 ELLIPTICITY            1 - B_IMAGE/A_IMAGE                                       
         1 -13.2554      5.0210     11.1924   1.2066810246e+02   7.1531713461e+01     1.944085    0.5931879 -43.45  0.009780074    2.292    0.564
         2 -13.2893    190.4081     27.1943   7.2792064335e+01   3.3804121998e+01     1.340151     1.151734  54.92  0.005798378    1.144    0.126
         3 -13.6004    204.1885      9.0408   6.5879681527e+01   3.2221094197e+01     1.639959     1.140253  37.59  0.008538197    1.660    0.398
         4 -11.7658      2.0000     41.0210   1.3211666668e+02   6.6257959415e+01     1.007145     0.132368 -62.24  0.002893962    6.742    0.852
         5 -10.2787     81.4579    248.5772   1.4126094791e+02   1.5965751497e+01    0.2339657    0.1546513  63.11  0.001265264    1.185    0.156
         6 -11.4386    140.8919    249.9533   1.3160699967e+02   7.2101975134e+00     0.513761    0.1327787  41.79  0.002161461    3.088    0.676
         7  -9.4270     67.1002    250.5188   1.4368423641e+02   1.7519658560e+01    0.1538925   0.07807981  47.41 0.0008035851    1.541    0.351
         8 -12.5546     31.4791    247.4813   1.4895091341e+02   2.2165334728e+01     1.991973    0.9755931  25.88  0.009380371    5.539    0.819
         9 -13.8250      7.3541    208.4599   1.5067318506e+02   3.1243626237e+01     1.748601    0.6280642 -73.67  0.007918693    2.346    0.574
        10 -13.2600      3.8521    176.1537   1.4941666522e+02   3.7670189996e+01     2.003588    0.5750194 -77.98  0.009724112    2.824    0.646
        11 -14.8495     13.2410    158.3251   1.4627483079e+02   4.0499403102e+01     9.169411     3.672153  69.49   0.04363969    2.969    0.663
        12 -11.0537      2.4159    152.6727   1.4805903731e+02   4.2541268834e+01    0.3810911    0.2142381 -89.60  0.002483382    1.410    0.291
        13 -10.2299     18.9714    241.9826   1.5053697854e+02   2.4360696821e+01     0.173255   0.07504625  65.35  0.001146034    1.796    0.443
        14  -9.1176    120.3147    239.6516   1.3397491779e+02   1.1816440061e+01    0.1173097    0.0731344  67.46 0.0007047167    1.723    0.420
        15 -10.0693     20.0970    229.3165   1.4973095247e+02   2.6349081410e+01     0.166209    0.1088207 -81.69  0.001022976    1.412    0.292
        16  -9.6312     32.8848    228.6336   1.4767217410e+02   2.5123320961e+01     0.158272     0.105327  85.60 0.0005294922    1.230    0.187
        17 -10.1611     12.3237    250.1635   1.5187055785e+02   2.3722179874e+01    0.1490889     0.107991  54.00  0.001315734    1.367    0.269
        18  -9.3002    177.5085    227.0837   1.2239042549e+02   4.4734196359e+00    0.1498686    0.1208938 -43.56 0.0006298861    1.536    0.349
        19 -13.7741     47.6316    227.5876   1.4520626480e+02   2.3639884234e+01    0.9262607    0.5844461  73.89  0.004877532    1.285    0.222
        20 -10.7621    172.9684    221.8237   1.2243605209e+02   5.9653975654e+00    0.2921383    0.2655368  53.38  0.001981543    1.188    0.158
        21 -11.7970      2.2004    247.3688   1.5319130328e+02   2.5135494724e+01    0.8804084     0.237744 -75.87  0.005115352    3.220    0.689
        22  -8.8079    152.4993    213.0524   1.2490403117e+02   1.0756473780e+01    0.1525922    0.1247468 -53.07 0.0003489446    1.449    0.310
        23  -9.6965     31.7218    206.7518   1.4645083328e+02   2.9145395448e+01    0.3129463    0.1121674  54.67  0.001279246    2.371    0.578
        24 -11.9908     23.5650    201.7878   1.4753481110e+02   3.0914678818e+01    0.3985857    0.1755414  58.75  0.002158878    1.933    0.483
        25 -10.8755     16.3732    199.1637   1.4861838545e+02   3.2112799039e+01    0.3573306    0.1429421  60.18  0.001386759    2.179    0.541
        26 -11.2072     66.2198    199.7317   1.3960315634e+02   2.6398084439e+01    0.2987605    0.2166861 -51.43  0.001303094    1.797    0.444
        27 -10.0457    193.3264    195.8070   1.1452272291e+02   6.1739026716e+00     0.754383    0.3875263 -62.12  0.002177078    7.654    0.869
        28 -12.7979     56.2638    214.4388   1.4274064889e+02   2.4924560917e+01     1.912166     0.745018  52.10   0.01030682    2.145    0.534
        29  -9.0013     44.6380    192.0473   1.4296298641e+02   3.0516887675e+01    0.1544351    0.1375584  85.44 0.0005083205    1.255    0.203
        30 -11.5365     71.7866    191.7239   1.3770394169e+02   2.7207838461e+01    0.2449536    0.2048507 -67.91 0.0006723271    1.315    0.239
        31 -10.4790      6.5164    249.4948   1.5266582700e+02   2.4392105216e+01    0.2144666    0.1778217  75.76  0.002047056    1.421    0.296
        32 -13.0429     68.3482    176.7662   1.3669824507e+02   3.0661627875e+01    0.4596583    0.2678885 -45.88  0.001952644    2.317    0.568
        33  -8.8501    104.3097    180.4306   1.2968841296e+02   2.4654741965e+01    0.1624542    0.1100078  54.85 0.0002985893    1.370    0.270
        34 -10.6030     81.0711    178.8372   1.3431146549e+02   2.8490405431e+01    0.2127632    0.1863754 -88.88 0.0003487202    1.090    0.082
        35 -11.3939     88.0441    169.4612   1.3156832191e+02   2.9396737547e+01     0.511803    0.4840068 -83.91   0.00343809    1.167    0.143
        36  -9.9672    192.8676    156.4344   1.0695182292e+02   1.2532686651e+01    0.3926954    0.2828326 -77.59  0.001351121    2.463    0.594
        37 -10.0546     98.8171    249.1359   1.3849434117e+02   1.3513912981e+01    0.1692613    0.1510548  71.45  0.001006397    1.254    0.203
        38  -9.6182     99.8852    152.9974   1.2633992242e+02   3.1018699048e+01    0.2410641     0.207274 -69.21  0.000618245    1.122    0.109
        39 -11.6937     88.7736    152.4533   1.2881047015e+02   3.2887882410e+01    0.2572177    0.2339274 -45.98 0.0005649122    1.275    0.215
        40 -12.2098     67.1775    143.9331   1.3252931003e+02   3.7827309586e+01    0.6847776    0.4464777  73.33  0.003670701    1.734    0.423
        41  -8.2312    192.2533    144.3028   1.0441015551e+02   1.4738459533e+01     0.141569    0.1092066   4.54 0.0002567956    1.504    0.335
        42  -8.6248    181.7181    144.5746   1.0657873058e+02   1.6919265856e+01    0.1952099     0.137673  57.32 0.0005608113    1.567    0.362
        43  -9.3424    110.7722    137.7492   1.2093308950e+02   3.2444040322e+01    0.3200287    0.2113801 -31.78  0.001096583    2.014    0.504
        44 -10.1187     83.0606    244.0287   1.4063376429e+02   1.6459214685e+01    0.3109747    0.1515765  76.32  0.001656758    2.749    0.636
        45  -8.1166    173.6897    137.2762   1.0657592024e+02   1.9965299237e+01    0.1421664    0.1181882  88.65 0.0002108654    1.556    0.357
        46 -10.3397     98.2635    135.1456   1.2345207399e+02   3.5150649036e+01    0.2536151     0.213548 -42.14  0.000477925    1.286    0.222
        47  -8.9078    102.6565    148.8226   1.2496436593e+02   3.1455514155e+01     0.202293    0.1589633 -43.57 0.0004940702    1.410    0.291
        48  -9.0124    166.8486    130.7597   1.0650291159e+02   2.2669862499e+01    0.2669393    0.1915644 -69.53 0.0006695954    1.948    0.487
        49  -9.1330    107.7775    124.2405   1.1882263496e+02   3.5902457441e+01    0.1923859    0.1798619 -86.64 0.0003561049    1.059    0.056
        50  -9.0449     69.7862    124.1435   1.2855127800e+02   4.1893720402e+01     0.189935    0.1605158 -85.75 0.0003128317    1.140    0.123
        51 -10.3608    102.5295    247.5241   1.3774031313e+02   1.3232866733e+01    0.2415108    0.1375138  70.33  0.001478152    1.934    0.483
        52 -11.6534     12.9740    241.5305   1.5140176862e+02   2.5034091732e+01    0.2983516    0.1558789  85.28  0.002051987    1.543    0.352
        53  -8.5033    154.4970    120.0226   1.0661667769e+02   2.7442599749e+01    0.2036434    0.1302197 -65.81 0.0004763053    2.283    0.562
        54 -10.1678    168.0960    113.2834   1.0190554898e+02   2.5718640941e+01    0.3413753     0.289701 -75.09 0.0007674291    1.425    0.298
        55  -9.2326    203.4171    111.7706   9.4434126097e+01   1.7892239094e+01    0.2072781     0.141003 -20.48 0.0004615763    1.590    0.371
        56  -9.9413     34.3280     93.0473   1.3256539529e+02   5.2939789411e+01    0.3743495    0.1920782  49.61  0.001883976    2.512    0.602
        57  -8.3619    184.6681     77.6560   8.8717623897e+01   2.8124049641e+01    0.1631139    0.1176244  17.66 0.0007050525    1.757    0.431
        58  -9.0615    155.5326     75.5089   9.4039056851e+01   3.5618456820e+01    0.1520077    0.1488221 -15.50 1.868172e-05    1.019    0.018
        59 -10.4240     15.2118     65.8264   1.3312949896e+02   6.0386332054e+01    0.2818056     0.191747  36.32  0.001125151    1.864    0.464
        60 -11.4704      4.8619     62.4771   1.3602959467e+02   6.1736704574e+01    0.3935471    0.2881678  32.96  0.002162406    1.770    0.435
        61  -8.8307     32.2030     62.1683   1.2625894923e+02   5.9791278111e+01    0.1535848    0.1371052 -83.44 0.0005102962    1.346    0.257
        62  -8.6375     23.8692     58.6591   1.2833327256e+02   6.1235382629e+01    0.1443131    0.1053297  39.47 0.0006326947    1.755    0.430
        63 -10.5851     12.5411     55.0350   1.3158562340e+02   6.2811149045e+01    0.1873484    0.1559021  48.99 0.0008039185    1.602    0.376
        64 -10.5249    248.6409    248.6680   1.1374381027e+02  -9.0435269659e+00    0.2365212    0.1156309  42.59  0.001420204    1.869    0.465
        65 -12.4788     41.2300    234.6985   1.4671354268e+02   2.3171036472e+01    0.2679503    0.2167727 -87.49  0.000779101    1.332    0.249
        66  -9.5329     46.5922    248.8531   1.4674716250e+02   2.0256079636e+01    0.2547198   0.08356493  61.69  0.001291172    2.977    0.664
