#   1 NUMBER                 Running object number                                     
#   2 MAG_AUTO               Kron-like elliptical aperture magnitude                    [mag]
#   3 X_IMAGE                Object position along x                                    [pixel]
#   4 Y_IMAGE                Object position along y                                    [pixel]
#   5 X_WORLD                Barycenter position along world x axis                     [deg]
#   6 Y_WORLD                Barycenter position along world y axis                     [deg]
#   7 A_WORLD                Profile RMS along major axis (world units)                 [deg]
#   8 B_WORLD                Profile RMS along minor axis (world units)                 [deg]
#   9 THETA_WORLD            Position angle (CCW/world-x)                               [deg]
#  10 FWHM_WORLD             FWHM assuming a gaussian core                              [deg]
#  11 ELONGATION             A_IMAGE/B_IMAGE                                           
#  12 ELLIPTICITY            1 - B_IMAGE/A_IMAGE                                       
         1 -15.2857      6.6757    123.4954   1.2986085049e+02   4.8163140771e+01     6.973011     1.060067 -79.14   0.02031427    7.296    0.863
         2 -13.6517    203.3666     29.3288   5.9112543112e+01   3.0408502583e+01      1.46831     1.343453  21.38   0.00592111    1.130    0.115
         3 -13.5788    219.8561     12.1749   5.2002786113e+01   2.7977926551e+01     1.088755     0.914246  36.69  0.002522462    1.280    0.219
         4 -11.8189      3.7548      4.6461   1.0966467178e+02   7.3166941638e+01    0.5397452    0.2201772 -42.30  0.003045945    1.857    0.462
         5 -10.9672     62.3670    245.4437   1.2766749808e+02   2.1026250418e+01    0.1932009    0.1231631  63.55 0.0007256646    1.124    0.110
         6 -12.6047    246.5822    249.1717   1.0002211293e+02  -4.9133874782e+00    0.5537773    0.2779798  41.72  0.003797998    1.562    0.360
         7 -12.6752    215.6226    248.6942   1.0449413784e+02  -5.0774097112e-01    0.5695372    0.1741111  37.53  0.002908585    2.488    0.598
         8 -13.4433    140.3456    248.2633   1.1595662198e+02   1.0490319268e+01    0.8023684    0.2989735  44.97  0.004638609    1.905    0.475
         9 -13.8541    170.9874    247.9648   1.1118944456e+02   6.0894293620e+00     1.381486    0.3139514  41.43  0.005986447    3.322    0.699
        10 -10.1237     54.9063    240.2136   1.2849385927e+02   2.2619230700e+01    0.1514147   0.08657397  61.43 0.0005148942    1.247    0.198
        11 -14.6111     13.4302    242.5020   1.3463007207e+02   2.6565844147e+01     2.211819     1.292587  52.57   0.01951526    1.276    0.216
        12 -14.1217     30.1378    222.8398   1.3138870794e+02   2.7879159738e+01    0.5927943    0.3966205  65.60  0.002528383    1.015    0.015
        13 -13.0408     41.1534    211.3425   1.2903376754e+02   2.8559288101e+01    0.7878699    0.5563924 -84.55  0.005248754    1.377    0.274
        14 -12.1414    104.9698    230.3607   1.1995198345e+02   1.7776167266e+01     0.564862   0.04875154  44.74  0.001821869    6.052    0.835
        15 -11.3302     86.4728    225.7387   1.2258430915e+02   2.0913402901e+01    0.2697458   0.08930829  51.57  0.001430535    2.347    0.574
        16 -11.3314     58.1442    213.5450   1.2636420302e+02   2.6300371267e+01    0.3745436    0.1766378  63.91   0.00237213    1.838    0.456
        17  -8.7300    152.5927    213.1923   1.1017744828e+02   1.3102295431e+01    0.1214353    0.1093529 -18.65 0.0002690782    1.473    0.321
        18 -12.5409      9.6968    207.1506   1.3390796634e+02   3.2338192505e+01    0.5360656    0.3216802  34.02  0.002789043    2.025    0.506
        19 -13.0192     25.0732    228.7887   1.3242563644e+02   2.7472020084e+01     0.224873    0.1870479  71.68 0.0007679529    1.374    0.272
        20 -11.7767     54.0990    196.1864   1.2583592719e+02   2.9656800803e+01    0.2185969    0.1783058  84.10 0.0005112268    1.198    0.165
        21 -11.9832     61.1396    187.8914   1.2391278887e+02   3.0277155369e+01    0.2083136    0.1765736  74.73 0.0004294809    1.171    0.146
        22 -10.1228     88.5040    249.5034   1.2400099669e+02   1.7314991856e+01   0.09910002   0.06876852  56.61 0.0001188065    1.017    0.017
        23 -11.8678     80.2520    166.6396   1.1810448520e+02   3.1734318990e+01    0.4792482    0.3945808 -68.58   0.00335405    1.309    0.236
        24 -10.4480     89.2792    167.0562   1.1631460925e+02   3.0396874463e+01    0.2882441    0.1808493  66.43 0.0007556258    1.569    0.363
        25 -11.0958      5.9141    185.2070   1.3361401698e+02   3.6390122158e+01    0.3893196    0.1107745  57.57  0.001821093    2.699    0.630
        26 -10.3490     94.3949    151.2064   1.1313701717e+02   3.2692134340e+01     0.259265    0.2220145 -72.51  0.000809915    1.181    0.154
        27 -12.0793     82.6587    150.0437   1.1553026769e+02   3.4627817948e+01    0.2434801    0.2091162 -63.69 0.0008256791    1.275    0.216
        28  -9.2540     97.7253    147.0700   1.1179964276e+02   3.3000693569e+01    0.1681459    0.1485326 -82.07 0.0003082741    1.104    0.094
        29 -11.7382     68.4705    143.4693   1.1780566891e+02   3.7863275650e+01    0.4522531    0.3031979  78.82  0.001732627    1.475    0.322
        30 -10.9987     64.9774    141.7679   1.1837432047e+02   3.8654831842e+01     0.270047    0.2403226 -68.71 0.0009918323    1.252    0.201
        31  -9.7400    107.2894    136.7345   1.0798395863e+02   3.3533129078e+01    0.3285596    0.2327867 -12.61  0.001142882    2.813    0.645
        32 -10.4234     94.2200    133.7114   1.1047820849e+02   3.6233621888e+01    0.2095193    0.1934875 -72.11 0.0003321219    1.137    0.120
        33  -9.0695    105.2654    123.2683   1.0600644920e+02   3.6606680103e+01    0.1685214    0.1400381  82.86 0.0003711662    1.225    0.183
        34  -9.4863    160.4483     78.4577   8.1956456154e+01   3.4125433577e+01    0.1493935    0.1461945   3.60 0.0002256345    1.002    0.002
        35 -10.6934     72.6034    175.2593   1.2056649694e+02   3.1135505048e+01    0.1956088    0.1607903  68.84 0.0003311485    1.059    0.056
        36 -12.2377     99.4471    248.6012   1.2227819604e+02   1.6034148558e+01    0.3355025    0.1889658  42.71   0.00244107    1.454    0.312
        37 -13.1208     58.6017    173.2499   1.2311243350e+02   3.3248230908e+01    0.3980202    0.2384814 -50.91   0.00176974    2.261    0.558
        38 -10.8638     81.4352    249.3581   1.2505396332e+02   1.8213613802e+01    0.2033986   0.08816677  46.83  0.001366011    1.630    0.386
