#   1 NUMBER                 Running object number                                     
#   2 MAG_AUTO               Kron-like elliptical aperture magnitude                    [mag]
#   3 X_IMAGE                Object position along x                                    [pixel]
#   4 Y_IMAGE                Object position along y                                    [pixel]
#   5 X_WORLD                Barycenter position along world x axis                     [deg]
#   6 Y_WORLD                Barycenter position along world y axis                     [deg]
#   7 A_WORLD                Profile RMS along major axis (world units)                 [deg]
#   8 B_WORLD                Profile RMS along minor axis (world units)                 [deg]
#   9 THETA_WORLD            Position angle (CCW/world-x)                               [deg]
#  10 FWHM_WORLD             FWHM assuming a gaussian core                              [deg]
#  11 ELONGATION             A_IMAGE/B_IMAGE                                           
#  12 ELLIPTICITY            1 - B_IMAGE/A_IMAGE                                       
         1 -14.4900    197.1340     16.0198   6.6871716586e+01   3.3435252008e+01     3.193505     1.625722  27.37   0.01209231    2.542    0.607
         2  -8.9780    128.0022     23.6776   8.1764601724e+01   5.0571685247e+01    0.2028999    0.1861533  31.39 0.0004040053    1.085    0.078
         3 -10.5325    249.7730    249.1360   1.1146622978e+02  -3.8506918507e+00    0.1774693    0.1110122 -21.31  0.001398369    1.941    0.485
         4 -12.0268    139.4787    248.2372   1.2789206876e+02   1.1453346038e+01    0.3767003    0.2611369 -82.64  0.002855642    2.227    0.551
         5 -11.6942    108.7318    248.9264   1.3266098960e+02   1.5402960527e+01    0.3678415    0.1501519  54.49   0.00192386    2.135    0.532
         6 -11.6766     98.1221    249.5926   1.3431884229e+02   1.6643533933e+01    0.3433515    0.2015322  51.08  0.002009616    1.208    0.172
         7 -10.0774     88.7079    249.0489   1.3569904957e+02   1.7853962380e+01    0.1495111   0.09519736  58.97 0.0004816297    1.209    0.173
         8 -10.8914     85.4683    246.9749   1.3604887559e+02   1.8507548171e+01    0.2104885    0.1766533 -85.61  0.001072431    1.441    0.306
         9 -10.9317     81.4073    248.2137   1.3673960344e+02   1.8825561357e+01    0.2318307    0.1439066  71.47  0.001442369    1.518    0.341
        10 -12.0851     81.2857    243.5061   1.3645447420e+02   1.9458237909e+01    0.2809998    0.2521926  54.18  0.002668532    1.393    0.282
        11 -11.4959     66.5190    250.1548   1.3906157227e+02   2.0268791103e+01    0.2910892     0.119495  41.98  0.001393999    1.848    0.459
        12 -14.8837      6.7796     15.6756   1.2439320497e+02   7.1076925208e+01      22.2964          nan -61.03   0.03470313   21.339    0.953
        13 -15.6845      6.4478    239.0919   1.4723085179e+02   2.7715203688e+01     6.332856    0.9072295 -72.39   0.03168013    5.798    0.828
        14 -11.8698     34.8502    229.9439   1.4276014734e+02   2.6410734423e+01    0.2571982    0.1764118  70.68  0.001266133    1.110    0.099
        15 -11.3060    124.9397    249.9200   1.3026966807e+02   1.3194070761e+01    0.5207033   0.07383632  40.79   0.00184854    5.588    0.821
        16 -11.3288    172.9564    222.6935   1.1979920294e+02   9.6006426722e+00    0.3493554    0.1019058  37.82  0.001527526    3.016    0.668
        17  -9.8858    229.4807    229.4526   1.1176527613e+02   4.9580831731e-01    0.1463246   0.09655021 -38.68 0.0006653835    2.291    0.563
        18  -9.0146    152.7332    212.9769   1.2198326103e+02   1.3858552192e+01    0.1420173    0.1213168  43.95 0.0003411598    1.095    0.087
        19 -10.8875    124.6955    243.1385   1.2972305060e+02   1.4039646056e+01    0.1495835    0.1086213  68.77  0.001197156    1.458    0.314
        20 -11.0227     94.6693    240.9727   1.3422235004e+02   1.8177086415e+01    0.2011166    0.1083046 -56.07  0.001438948    2.495    0.599
        21 -10.4767    193.2364    195.3953   1.1257941685e+02   9.6224812820e+00    0.5832489    0.3139141 -60.31  0.002128585    6.573    0.848
        22 -11.5737     70.6417    196.3381   1.3473251228e+02   2.7765873921e+01    0.2726831    0.2496979 -52.02  0.001598397    1.555    0.357
        23 -11.6937     75.6410    189.0537   1.3318289983e+02   2.8380304813e+01    0.2118337    0.1978751 -64.43 0.0008358204    1.413    0.292
        24 -11.2056     84.3856    176.5316   1.3026479748e+02   2.9440870625e+01    0.2672166    0.2418152  -0.80 0.0004596965    1.624    0.384
        25 -13.3322     71.7558    174.4618   1.3252711560e+02   3.1427083917e+01    0.3769014    0.2395518 -45.75  0.001625647    2.235    0.553
        26 -14.0354     11.3426    207.1568   1.4544334978e+02   3.2086308089e+01     1.281551    0.8644297  28.95   0.01028106    2.008    0.502
        27 -10.0282    119.0271    174.5100   1.2319501037e+02   2.4820724298e+01    0.1895196    0.1043193  42.56  0.001037134    1.604    0.376
        28 -12.1160     50.3657    130.1670   1.3225944712e+02   4.2615326818e+01    0.3773667    0.2609854  48.45  0.001346089    1.446    0.308
        29 -12.4330     90.6075    167.8997   1.2803312540e+02   3.0155517327e+01      1.27992    0.4248483  50.06  0.002651345    2.939    0.660
        30 -13.1996     67.6613    144.5467   1.3004925605e+02   3.7655768593e+01     1.269238    0.6229421  81.79  0.005471106    3.286    0.696
        31  -9.9674    102.1459    151.3239   1.2337578520e+02   3.1580236162e+01    0.2470601    0.2295597 -54.04 0.0008120537    1.228    0.186
        32  -9.4763    104.8363    147.0576   1.2213638164e+02   3.1984226987e+01    0.2800319    0.1856384 -34.09  0.001471901    2.152    0.535
        33 -12.1257     91.1478    150.8061   1.2569068896e+02   3.3293534693e+01    0.2261234    0.2234754 -26.52 0.0004930347    1.269    0.212
        34 -11.5822     45.9724    148.4518   1.3525724544e+02   3.9345163050e+01    0.3333135    0.1904205 -64.00  0.002023206    1.667    0.400
        35  -8.6963    192.2314    144.0324   1.0348431971e+02   1.6696207864e+01     0.161024     0.110703 -29.50 0.0003622916    1.537    0.349
        36  -9.1820    134.0000    143.9778   1.1525829754e+02   2.7721064309e+01    0.2061845   0.07494289 -48.51 0.0008026792    2.944    0.660
        37  -9.9572    112.0996    136.6406   1.1877536241e+02   3.2843415061e+01    0.2976117    0.2244925 -13.81  0.001156654    2.050    0.512
        38 -13.0974     46.8210    230.3208   1.4095316543e+02   2.5139915497e+01    0.3868328     0.232398  53.03 0.0007902179    1.208    0.172
        39 -12.5447     56.8948    128.0096   1.3042305456e+02   4.2342763523e+01     1.653514    0.5132055 -76.75  0.004641294    6.929    0.856
        40 -10.7265     99.9540    133.8520   1.2108093130e+02   3.5330782030e+01     0.253334     0.213841 -26.96 0.0006472887    1.519    0.342
        41  -9.3711    108.8075    123.7582   1.1715305628e+02   3.5943271829e+01    0.1777252    0.1753749  16.44 0.0004197286    1.126    0.112
        42 -15.2654     55.0358    218.5728   1.3899288625e+02   2.6013077498e+01     5.100619     2.005757  41.93   0.02015894    2.019    0.505
        43 -11.1446    168.3574    113.3666   1.0132579074e+02   2.6464719004e+01    0.3685502    0.3161657 -77.42 0.0009626844    1.515    0.340
        44  -9.2432    155.2843     76.3146   9.4106370796e+01   3.5808096495e+01    0.1543051    0.1161682   9.46 0.0002111015    1.580    0.367
        45 -10.8232    163.0379    249.0976   1.2435827689e+02   8.1277839243e+00    0.2125618    0.1118301  45.65  0.001134327    1.403    0.287
        46  -9.9218    238.3206    247.6850   1.1291732287e+02  -2.2144071171e+00   0.08788128    0.0691528  44.45 0.0003338652    1.656    0.396
