#   1 NUMBER                 Running object number                                     
#   2 MAG_AUTO               Kron-like elliptical aperture magnitude                    [mag]
#   3 X_IMAGE                Object position along x                                    [pixel]
#   4 Y_IMAGE                Object position along y                                    [pixel]
#   5 X_WORLD                Barycenter position along world x axis                     [deg]
#   6 Y_WORLD                Barycenter position along world y axis                     [deg]
#   7 A_WORLD                Profile RMS along major axis (world units)                 [deg]
#   8 B_WORLD                Profile RMS along minor axis (world units)                 [deg]
#   9 THETA_WORLD            Position angle (CCW/world-x)                               [deg]
#  10 FWHM_WORLD             FWHM assuming a gaussian core                              [deg]
#  11 ELONGATION             A_IMAGE/B_IMAGE                                           
#  12 ELLIPTICITY            1 - B_IMAGE/A_IMAGE                                       
         1 -15.2159    113.0227    108.8094   3.9895582969e+01   3.8298062156e+01     6.313813     3.994624  -9.34   0.02056699    3.487    0.713
         2 -14.5525      7.7347     76.6041   7.6335425098e+01   6.1900186408e+01     4.328613     1.453303 -82.63   0.01556578    3.003    0.667
         3 -14.0197     23.6427     58.3225   6.4041086795e+01   6.5624358894e+01     3.203466      1.81024 -16.25    0.0140645    2.205    0.546
         4 -13.5866      7.2629     24.2447   6.5291289521e+01   7.4945062305e+01      1.45628    0.9427966   2.95  0.006481731    1.559    0.358
         5  99.0000     20.0002     13.1020   4.8217752603e+01   7.6174763461e+01     1.384195    0.6803812  19.50  0.006426761    2.175    0.540
         6 -15.3696     93.9128      9.6046   8.5924586479e+00   6.0973903137e+01     6.188365     2.703714  53.58   0.02541693    1.975    0.494
         7 -12.7720    137.8877      4.3176   3.5889826023e+02   4.9512883284e+01    0.6981333    0.3614939  73.92  0.001868663    1.694    0.410
         8 -13.6402     46.5537     39.5183   4.3436934809e+01   6.7150406549e+01     1.459588    0.9895492  17.71  0.007004439    1.650    0.394
         9 -11.7401    245.1395     16.6925   3.5406490891e+02   2.2964668510e+01    0.3604616     0.312959  62.16  0.002657549    1.511    0.338
        10 -12.1159    241.7916     22.6039   3.5552171692e+02   2.2975700388e+01    0.4675267    0.2469112 -56.91  0.001874065    1.600    0.375
        11 -11.5268    235.2368     20.8193   3.5551309877e+02   2.4451160070e+01    0.3406262    0.2795125 -88.09  0.001547568    1.279    0.218
        12 -11.4796    150.4355     21.1256   3.1668243480e+00   4.4441470563e+01    0.6475452    0.4344157  61.14  0.003237278    1.439    0.305
        13 -10.6211    147.1849     16.8158   2.1367425780e+00   4.5784382793e+01    0.4080733    0.2991171  51.72  0.001526571    1.451    0.311
        14 -10.6625    139.4624     19.4379   4.1251813252e+00   4.7582447947e+01    0.4239724    0.2822092 -33.21  0.001561718    1.565    0.361
        15 -10.3253    193.6512      7.5856   3.5493881347e+02   3.4908097041e+01    0.2653094    0.1990773  63.98  0.001285531    1.470    0.320
        16 -10.6517    192.9877      3.0000   3.5376704736e+02   3.5507995569e+01    0.4672057    0.2128805  80.13  0.002222063    2.067    0.516
        17 -11.3459    175.6871     12.5351   3.5771382445e+02   3.8799380852e+01    0.8107833    0.4627889  20.45  0.003301924    3.385    0.705
        18 -12.3527    186.2900     11.7408   3.5660217772e+02   3.6257726676e+01    0.8359995    0.4828176 -51.25  0.003323115    1.514    0.339
        19 -10.5107    187.5675      4.9745   3.5465183510e+02   3.6617165758e+01    0.2818677    0.2067516  71.43 0.0005412882    1.387    0.279
        20 -11.3815    242.2338      9.4005   3.5264694822e+02   2.4270865282e+01    0.3254447    0.1990254 -24.04 0.0007142386    1.732    0.423
        21 -10.6515    244.8441      4.8167   3.5155754390e+02   2.4225292356e+01    0.1902316    0.1798286 -47.82 0.0005524674    1.338    0.253
        22 -10.0846     48.8867     20.9971   3.2338301758e+01   7.0192992629e+01    0.4209074     0.408424 -73.39  0.002571081    1.266    0.210
        23  -9.9053    202.4966     11.4534   3.5534716024e+02   3.2456936330e+01    0.2223477    0.1863724 -75.39 0.0007382443    1.086    0.079
        24 -11.0302    155.8107      9.7723   3.5877964136e+02   4.4205617582e+01    0.2946838    0.2340688 -54.06  0.001035886    1.192    0.161
        25 -11.9230    149.3514      8.2216   3.5895941743e+02   4.6070319909e+01    0.7158626    0.3279263  85.75  0.002587711    2.177    0.541
        26 -10.3648    169.6780      9.4735   3.5734322516e+02   4.0630443700e+01    0.2806241     0.218034 -62.58  0.001015959    1.139    0.122
        27  -9.2798    233.4908      9.4909   3.5308633474e+02   2.5985119486e+01    0.1190692   0.09392697 -55.33 0.0008102648    1.038    0.036
        28  -9.7850    205.0173      3.2138   3.5311055155e+02   3.2699010977e+01    0.1712297    0.1545978 -89.97 0.0004441124    1.226    0.184
        29  -9.8428    168.3457      3.0007   3.5550963552e+02   4.1584351682e+01    0.2916457    0.1844325 -76.17  0.001019669    1.437    0.304
        30  -9.4606    215.5323      2.5118   3.5238077173e+02   3.0432394890e+01    0.1661288   0.09763887 -76.27 6.666587e-05    1.533    0.348
        31 -10.2568    211.9684      1.4015   3.5229461492e+02   3.1318237346e+01    0.2393714    0.1067824  86.89 0.0005471498    2.188    0.543
        32  -9.4330    174.9095      1.6806   3.5461883762e+02   4.0042004533e+01    0.1890679    0.1491957 -78.06 0.0005168113    1.077    0.071
        33  -9.2928    231.7172      1.3544   3.5136300802e+02   2.7145169716e+01    0.1444711   0.09885488  79.36 0.0005652865    1.550    0.355
        34  -9.3708    160.9371      1.4446   3.5563981069e+02   4.3633702619e+01    0.2024684    0.1181676  77.56 0.0006354396    1.534    0.348
        35  -9.8556     12.6606      1.3007   4.7144157981e+01   7.9180856576e+01    0.1139946   0.09682754  52.01 0.0007036538    1.667    0.400
        36 -11.3739     90.5664     74.1237   3.7032226721e+01   5.1100465927e+01    0.6503317    0.5902369  81.07  0.002875894    1.185    0.156
        37 -12.1416     95.8911     71.0639   3.4099305681e+01   5.0576316360e+01    0.4758199    0.3261548  44.82 0.0005276197    1.415    0.293
        38 -10.8602     96.1969     67.3759   3.2700865076e+01   5.1283328719e+01    0.2817174    0.2556827  70.42 0.0002309811    1.134    0.118
        39 -10.1872    200.1176     83.3812   1.4027081477e+01   2.3585887720e+01    0.3085471    0.2547106  48.90  0.001543171    1.342    0.255
        40 -10.1819    176.4808     82.2667   1.7523818609e+01   2.9001431911e+01    0.5011452    0.2758706  81.88  0.001753511    3.405    0.706
        41  -8.7164    216.2796     82.6512   1.1637374389e+01   2.0378935527e+01    0.1376086   0.08919334 -56.23 0.0003929316    1.642    0.391
        42 -10.2855    121.8202     80.0165   2.9012122218e+01   4.2584417006e+01    0.8070381     0.398222  57.46  0.002908708    2.218    0.549
        43 -10.9334    127.7133     65.3989   2.2692958008e+01   4.3944909974e+01    0.7099166    0.4328262  76.76  0.002717527    2.250    0.556
        44 -12.3972    133.4185     75.5474   2.4556848923e+01   4.0620079770e+01     0.906897    0.8363148 -15.86  0.004690136    1.210    0.174
        45 -10.6770    134.6980     67.8469   2.1790873784e+01   4.1727866080e+01    0.5558019    0.3305613 -23.05  0.001894228    2.254    0.556
        46 -10.1110     80.8303     81.0129   4.2939636507e+01   5.1555046792e+01    0.3751049    0.3169219  14.16  0.001455503    1.345    0.256
        47  -9.7730     75.8814     80.1804   4.4638616201e+01   5.2719564329e+01    0.3073432    0.2327819 -76.85  0.001386765    1.616    0.381
        48 -10.0807    197.8114     78.0040   1.3015634631e+01   2.4907419099e+01    0.4034401    0.2586148  38.99  0.001956504    1.950    0.487
        49 -12.0243    162.3182     70.8867   1.6903661327e+01   3.4280224086e+01    0.3812797    0.3000137 -75.49  0.000613865    1.404    0.288
        50 -12.0442    172.0569     71.5311   1.5343334231e+01   3.1813790360e+01    0.7520595    0.5684095 -89.41  0.002795382    1.520    0.342
        51 -11.9645    154.6987     75.8726   1.9855161007e+01   3.5293417640e+01    0.9246249    0.6423091  40.03   0.00423749    1.622    0.383
        52 -11.6187    144.4514     75.6926   2.1999376941e+01   3.7854470147e+01    0.6282746    0.4704941 -59.98  0.002329019    1.448    0.309
        53 -11.7699    165.7492     62.9135   1.3956345585e+01   3.4732715590e+01    0.6081643    0.3692346 -25.00  0.002545894    1.902    0.474
        54 -10.5331    170.0373     62.3176   1.3059990191e+01   3.3769670567e+01    0.2927792    0.2437842 -40.65  0.000778394    1.170    0.145
        55 -11.3188    234.7642     75.2456   7.7758963253e+00   1.7873585828e+01    0.3112582    0.2884217 -61.13 0.0008609878    1.152    0.132
        56 -10.1630    206.5881     75.7199   1.1234145929e+01   2.3376362598e+01    0.4097107    0.2385925 -66.44   0.00141386    2.343    0.573
        57  -9.6659    110.1284     76.2368   3.1208629446e+01   4.6166207782e+01    0.2453821    0.2182419  27.37  0.001060701    1.218    0.179
        58 -10.1925    193.7826     73.3756   1.2414789279e+01   2.6499489868e+01    0.4090466    0.2486192 -88.17  0.001767582    2.447    0.591
        59  -9.6461    218.8756     72.7828   8.9906611624e+00   2.1274574093e+01    0.1848334     0.170815 -21.21 0.0005918198    1.171    0.146
        60 -10.5631     60.1835     71.9456   4.8800490086e+01   5.7533948396e+01    0.4893623    0.2438763  35.43   0.00190106    1.981    0.495
        61  -9.6265    183.0154     71.5086   1.3540577557e+01   2.9234447052e+01    0.2042088    0.1407491  62.23 0.0005409252    1.519    0.342
        62 -12.1382      5.8453    109.9912   8.0383699290e+01   5.3090975485e+01    0.5496284    0.4614225  89.53  0.002065501    1.064    0.060
        63 -11.4065    214.9396     61.5966   6.7661697956e+00   2.3631947646e+01    0.4989057    0.4209606  56.94  0.003099061    1.364    0.267
        64 -10.5594    149.1403     65.1213   1.7741319601e+01   3.8538544509e+01    0.2514105     0.228457 -56.85 0.0002498673    1.081    0.075
        65  -8.8295    229.4987     65.4510   6.1155733525e+00   2.0182973793e+01    0.1252647    0.1080041 -39.74 6.956779e-05    1.068    0.063
        66 -10.3773    200.4164     64.6839   9.2751446300e+00   2.6318155165e+01    0.2290938    0.2188263  86.79  0.000540305    1.129    0.114
        67 -11.0172    184.9108     62.6362   1.0851213380e+01   3.0150084755e+01    0.4210889    0.3357997   8.21  0.001807013    1.691    0.409
        68 -10.1593    190.4603     61.4446   9.7500167586e+00   2.9035245821e+01    0.3289184    0.3103277 -42.10  0.001984399    1.102    0.092
        69  -9.1729     43.6869     63.1453   5.4137625073e+01   6.2192043353e+01    0.2149318    0.1196889 -48.88 0.0006360834    1.727    0.421
        70 -12.6613     16.4138    100.5624   7.5146946826e+01   5.4996317885e+01     2.287133     1.284664 -77.83   0.01071154    1.644    0.392
        71 -10.2148    105.9567     53.4968   2.4414987492e+01   5.1618291629e+01     0.429105    0.2760344  46.22  0.001471964    1.520    0.342
        72 -10.4519    110.9091     49.8585   2.1591080558e+01   5.0996140388e+01     0.401011    0.3522992  39.11  0.002054455    1.183    0.155
        73 -10.7477    123.8752     56.9167   2.0746815490e+01   4.6437877066e+01    0.6673844    0.4258186  38.83  0.002063595    1.798    0.444
        74 -11.0537    117.8394     55.9102   2.1950219328e+01   4.8168376262e+01    0.5204308    0.4549701 -29.31  0.002508443    1.246    0.197
        75 -11.1436    115.1228     52.5651   2.1453729311e+01   4.9448563849e+01    0.6281701    0.3830689  47.22   0.00199113    1.619    0.382
        76 -11.8566    250.0279     57.9541   2.5656943574e+00   1.7335522469e+01    0.3779214    0.1943589 -53.81  0.001217187    1.844    0.458
        77 -10.1666    240.2432     60.4744   3.9593344174e+00   1.8793960421e+01    0.2951103   0.09827211  57.56  0.001294822    3.383    0.704
        78  -9.7361    221.7254     59.3049   5.4882354219e+00   2.2543231934e+01    0.2346898    0.1726485  18.27   0.00127817    2.038    0.509
        79 -10.4903     95.0783     57.0417   2.9262979935e+01   5.3622805991e+01     0.356158    0.3427127  -5.62  0.001288524    1.111    0.100
        80  -9.5132    203.1947     57.3800   7.0691592484e+00   2.6735950109e+01    0.2163302    0.1641552  67.32 0.0006840945    1.414    0.293
        81  -9.8118    208.8488     46.1556   3.6110726645e+00   2.6990108017e+01    0.2356888    0.1843289 -79.35 0.0004671732    1.273    0.214
        82 -11.1129    209.4758     54.5409   5.6383938753e+00   2.5749416726e+01    0.5830979    0.2182638  57.46  0.002432851    2.829    0.647
        83 -10.9015    212.5555     50.0710   4.2052550312e+00   2.5677545186e+01    0.3691209    0.2547502 -63.01  0.001191845    1.407    0.289
        84 -10.1897    174.2493     55.9913   1.0571319073e+01   3.3696962595e+01    0.2292687    0.2012722  79.83 0.0004114134    1.131    0.116
        85 -10.0549    146.4239     55.6922   1.5297968928e+01   4.0785689966e+01     0.453442    0.2259932  70.75  0.001574056    2.329    0.571
        86 -12.5497    135.8922     49.0277   1.5220994263e+01   4.4592385902e+01     1.029026    0.6890058 -80.32 0.0009898114    1.875    0.467
        87 -11.5670    145.3424     49.7075   1.3553674569e+01   4.2002005674e+01    0.5702937      0.43664 -59.81  0.001876394    1.336    0.251
        88  -9.5780    148.5619     47.4559   1.2213605536e+01   4.1497454611e+01    0.2282368    0.2056487 -69.34 8.303911e-05    1.064    0.060
        89 -10.6791     69.7879     55.1268   3.8385946679e+01   5.9607031460e+01    0.3920461    0.3160348  70.48  0.001795558    1.518    0.341
        90 -10.7431    195.5085     52.0002   6.5940763871e+00   2.9209737122e+01    0.2528129    0.2039243 -86.98 0.0003556933    1.255    0.203
        91 -10.5831    155.0895     51.6065   1.2377734810e+01   3.9179265540e+01    0.3015494    0.2512817 -33.25  0.000978715    1.258    0.205
        92 -10.8645    138.1050     41.8365   1.2281269204e+01   4.5085538110e+01    0.4888862    0.2951992 -47.75  0.001125758    1.694    0.410
        93 -10.4362    248.0696     48.8587   7.7715164070e-01   1.8792799032e+01     0.198398    0.1319939 -54.33  0.001251894    1.301    0.232
        94  -9.4552    100.2413     49.3938   2.4571392250e+01   5.3779323569e+01    0.2100394    0.1444755  64.01 0.0004282619    1.510    0.338
        95  -9.2826    229.4808     48.4970   2.2228257733e+00   2.2375260217e+01    0.1284956    0.1016054 -51.02 6.037056e-05    1.049    0.047
        96 -10.1701    121.9669     42.8797   1.6105568522e+01   4.9230230446e+01    0.3395782    0.2901602  12.43  0.001082201    1.430    0.301
        97  -9.4391    222.7128     45.3736   2.0953271697e+00   2.4137803989e+01    0.2093353    0.1193969  77.82 0.0007135484    1.971    0.493
        98 -10.0364    180.1596     41.2882   5.5441706812e+00   3.4304095045e+01    0.4026322    0.2384063 -56.57  0.001896369    1.673    0.402
        99 -10.7505    175.8201     43.5059   6.7418463169e+00   3.5078769627e+01    0.5259547    0.2997007 -65.93 0.0009786709    2.016    0.504
       100 -10.2597    172.6759     39.5796   6.0103155181e+00   3.6389185036e+01    0.4467163    0.1905429  56.25  0.001439628    2.355    0.575
       101 -10.9159    203.6660     43.3440   3.4295324148e+00   2.8502676259e+01    0.3498968     0.211223  58.35  0.001341784    1.815    0.449
       102 -11.2883    196.9383     40.9819   3.5211418751e+00   3.0340221896e+01    0.3955333    0.2724535 -17.69  0.001737235    1.741    0.426
       103 -11.5447    157.1682     43.1896   9.3715773501e+00   3.9866561808e+01    0.4203218    0.2753696  69.37 0.0006216586    1.483    0.326
       104  -9.9275    235.2347     42.7741   4.3889184459e-01   2.1942296213e+01    0.2372921    0.1527504  63.86  0.000943495    1.798    0.444
       105 -10.0376    229.5401     42.3665   8.0564356333e-01   2.3118511544e+01     0.307058    0.1884819  57.05  0.001157985    1.940    0.484
       106 -10.7728    225.6701     39.2607   4.0288744301e-01   2.4279318066e+01    0.2664732     0.211492 -56.34 0.0005441608    1.062    0.058
       107  -9.3133    247.4586     42.4880   3.5945454595e+02   1.9660683325e+01    0.1194336   0.09404385 -46.24 7.610925e-05    1.024    0.023
       108 -10.2048    241.6789     42.0661   3.5978616067e+02   2.0788356959e+01    0.1729533    0.1292599 -43.33  0.000513042    1.075    0.069
       109 -12.3873    215.6079     38.5565   1.0911882436e+00   2.6476610698e+01    0.4878086    0.3019671  61.64  0.001991851    1.794    0.443
       110  -9.9543    148.7710     40.1901   9.7851909008e+00   4.2486312578e+01    0.2112843    0.1839004 -66.27   0.00038297    1.103    0.094
       111 -13.7041      3.7163    115.1782   8.1558146308e+01   5.1823118565e+01     2.033533     1.187296  68.18  0.008434209    1.628    0.386
       112  -9.8011    130.3875     37.6675   1.2329124080e+01   4.7745930130e+01    0.2675835    0.2167613 -48.15  0.001028827    1.259    0.206
       113 -11.5642    239.4141     35.0560   3.5840509034e+02   2.2041157969e+01     0.432052    0.3002066  35.60  0.002083819    2.227    0.551
       114 -10.8592    159.7178     35.9582   6.6968492953e+00   4.0182815148e+01    0.2552528    0.2448772  70.93 0.0004735464    1.139    0.122
       115  -9.3647    197.8818     35.3113   1.9284949824e+00   3.0833280303e+01    0.1833013    0.1563118  88.23 0.0004834438    1.165    0.142
       116 -11.9614    176.3800     32.8069   3.5606618227e+00   3.6327790235e+01    0.5152356    0.3211151 -74.36 0.0009075861    1.695    0.410
       117 -10.8896    140.9795     34.0770   9.0495561282e+00   4.5391367446e+01    0.4628575    0.3481213  47.86  0.001636547    1.417    0.294
       118 -11.3163    150.2934     31.7599   6.7395988200e+00   4.3204117844e+01    0.6571892    0.2933818  68.88  0.002603048    2.127    0.530
       119 -10.4540    249.4153     31.3911   3.5695311478e+02   2.0571908510e+01    0.2580933    0.1761826 -62.76 0.0007993362    1.304    0.233
       120 -10.1750    234.2724     31.0191   3.5786165056e+02   2.3510257751e+01     0.176239    0.1331993 -46.51 0.0006183033    1.068    0.063
       121  -9.6385    224.1625     29.5371   3.5824175619e+02   2.5734888396e+01    0.1821363    0.1654932 -19.67 0.0007068169    1.336    0.251
       122  -9.6498    215.5303     28.1928   3.5857281517e+02   2.7722253004e+01    0.2261671    0.1620255  84.58 0.0009001743    1.420    0.296
       123 -10.5583    168.3450     27.5783   2.9609509805e+00   3.8999766288e+01    0.3932562    0.2056522  56.75  0.001471061    1.950    0.487
       124 -12.5741    114.6765     96.2567   3.5966193293e+01   4.0784454011e+01     1.283548    0.8454633  21.99  0.004966592    2.147    0.534
       125 -12.1003      3.6656    139.7800   8.2900250244e+01   4.5408513674e+01    0.8017334    0.3668813 -88.49  0.003644929    2.002    0.500
       126  -9.0797    188.3530    118.3104   2.4416778149e+01   2.0273884630e+01    0.1452704    0.1067301   7.18 2.997412e-05    1.724    0.420
       127  -9.9659    184.6921     25.4604   5.6171666972e-01   3.5153195713e+01     0.276018    0.1678768 -47.33 0.0003558714    1.466    0.318
       128 -10.1557    179.1484     22.8719   3.8057248490e-01   3.6817012242e+01    0.3348903    0.2091786 -57.66  0.001054672    1.485    0.326
       129  -9.6932    178.5689     18.7058   3.5923769613e+02   3.7424946370e+01    0.2324294    0.1768743 -61.48 0.0005994089    1.164    0.141
       130  -9.2836    161.3732     26.6403   3.5322972803e+00   4.0914697688e+01    0.1876391    0.1222389  64.92 0.0009139059    1.475    0.322
       131 -10.0681     66.9262    112.9654   5.6608710374e+01   4.5934860683e+01    0.2260294    0.2196848  47.99 0.0003613412    1.041    0.039
       132 -10.7741    250.0373    108.4816   1.3156981404e+01   1.0769901799e+01    0.2393156    0.1461579 -20.56  0.001377155    1.597    0.374
       133 -10.1371    201.1797     21.4225   3.5800595434e+02   3.1695634201e+01    0.2937076    0.1892732  78.36  0.001005572    1.541    0.351
       134 -10.6696     58.8469    144.5156   6.4907620469e+01   3.8817988395e+01    0.4100213    0.2195245  49.26  0.001731852    1.821    0.451
       135 -10.7881    208.0800     18.2674   3.5668080889e+02   3.0472625990e+01    0.3841016     0.213185 -69.36  0.001399144    1.733    0.423
       136 -10.8410     65.3844    102.5018   5.4896011569e+01   4.8922981573e+01    0.6754704    0.3808143  27.21  0.002735884    1.888    0.470
       137  -9.4053    170.7728    102.0781   2.3803484243e+01   2.6827598002e+01    0.2296148    0.1955892 -71.89   0.00119863    1.341    0.255
       138 -11.4977    187.4719    248.7253   4.7946798276e+01   4.4866806534e-01    0.2951047    0.1575841  19.58  0.001828331    1.488    0.328
       139 -10.0218    225.7227    214.6137   3.6290576804e+01   9.5542323696e-02    0.1907101    0.1076378   0.69  0.001136633    1.764    0.433
       140  -9.7211    212.5699    198.3476   3.5893897319e+01   3.7948591956e+00    0.2127124    0.1050404 -39.05 0.0009344441    2.142    0.533
       141 -10.2497    213.9485     16.4834   3.5583676489e+02   2.9363635017e+01    0.2081443    0.1868622 -16.24 0.0004533022    1.389    0.280
       142  -9.9767    227.2426    179.3239   3.0124087850e+01   4.4114624308e+00    0.2084263    0.1902582  62.74  0.001375868    1.898    0.473
       143 -12.8375    132.4330    107.6294   3.4097084948e+01   3.4315160786e+01     2.330387     1.186021  48.10  0.008956925    1.947    0.486
       144 -10.4974    189.6766     94.7848   1.8503590917e+01   2.3984059925e+01    0.4882389    0.2253684  53.46  0.002033646    2.307    0.567
       145  -8.7495    132.2537     13.3547   2.9677439750e+00   5.0189383595e+01    0.1410179    0.1045009  35.63 0.0003298605    1.605    0.377
       146 -10.9225    188.0467     89.9557   1.7559449089e+01   2.5132258945e+01    0.4250429    0.2992602  25.14  0.001090127    1.907    0.476
       147 -11.4349    194.1134    248.7446   4.6741411765e+01  -3.1680967679e-01    0.3282098    0.1677747  20.28  0.002018041    1.556    0.357
       148 -10.6430    245.5406     93.1491   1.0486598620e+01   1.3559292259e+01     0.224587    0.1684869 -57.67 0.0009121213    1.461    0.316
       149 -10.3389    250.1148     74.2620   6.0211917519e+00   1.5268488561e+01    0.3021255    0.1824463 -10.13  0.001436638    2.387    0.581
       150 -12.2410    248.3586     84.2164   8.2990466674e+00   1.4273729836e+01    0.6760374     0.336017 -46.74  0.003587571    1.826    0.452
       151 -12.6786     57.5370     35.6001   3.5566306106e+01   6.5944233513e+01    0.9866809    0.6187877  45.21  0.003191006    1.564    0.361
       152 -10.9921    242.8648     86.5146   9.3684344547e+00   1.4906778359e+01    0.3790841    0.1884228 -34.23  0.001992761    1.628    0.386
       153 -11.2598    236.2002     87.4726   1.0318231811e+01   1.5945907044e+01    0.3653153    0.2924733  67.05   0.00187347    1.519    0.342
       154 -10.8048    151.7991     87.7448   2.3904248737e+01   3.3833387987e+01     0.444834    0.3064338  56.64  0.001879607    1.475    0.322
       155  -9.2227     73.1636     89.5765   4.8501997706e+01   5.0919835537e+01    0.2140524    0.1518953  21.99 0.0004933003    1.606    0.377
       156  -9.9666     90.5782     85.1356   4.0573932696e+01   4.8591051670e+01     1.150697    0.9171424  53.43  0.005451398    1.263    0.208
       157  -9.8907    103.7201     75.8225   3.3090093968e+01   4.7759451057e+01    0.4207834    0.2557819 -44.65  0.001331717    1.698    0.411
       158 -11.2339    102.8599     68.6348   3.0922118083e+01   4.9462278574e+01    0.7866505    0.3944867 -36.16  0.001911737    2.259    0.557
