#   1 NUMBER                 Running object number                                     
#   2 MAG_AUTO               Kron-like elliptical aperture magnitude                    [mag]
#   3 X_IMAGE                Object position along x                                    [pixel]
#   4 Y_IMAGE                Object position along y                                    [pixel]
#   5 X_WORLD                Barycenter position along world x axis                     [deg]
#   6 Y_WORLD                Barycenter position along world y axis                     [deg]
#   7 A_WORLD                Profile RMS along major axis (world units)                 [deg]
#   8 B_WORLD                Profile RMS along minor axis (world units)                 [deg]
#   9 THETA_WORLD            Position angle (CCW/world-x)                               [deg]
#  10 FWHM_WORLD             FWHM assuming a gaussian core                              [deg]
#  11 ELONGATION             A_IMAGE/B_IMAGE                                           
#  12 ELLIPTICITY            1 - B_IMAGE/A_IMAGE                                       
         1 -11.6021     34.7687     23.8011   5.4220968462e+01   6.9258972653e+01     1.438978    0.9835974  27.92  0.008266343    1.510    0.338
         2 -13.2778     61.5373      4.2034   3.0498499325e+01   6.7704332853e+01     2.061108    0.7496531  58.35  0.007482159    3.601    0.722
         3 -13.2692     91.5653     64.5626   4.6176874245e+01   5.1929145534e+01     1.591678      1.09513 -60.51  0.007144168    1.849    0.459
         4 -11.7645     50.5472     35.5256   5.1422948818e+01   6.4892619186e+01    0.9932821    0.6680139  47.10  0.002539093    1.831    0.454
         5 -13.4946     55.8519     21.5497   4.2348720717e+01   6.6442232035e+01     2.142589     1.669303 -52.91   0.01193209    1.711    0.416
         6 -10.6993    189.4678     23.1072   1.0760449422e+01   3.4118915420e+01     1.425917     0.629005  89.60  0.005105624    3.310    0.698
         7 -11.7420    210.8106     21.0273   7.9827917532e+00   2.9189259617e+01     1.085406    0.6138929  23.13  0.001620434    3.267    0.694
         8 -14.4654    219.2581     59.2071   1.6872783181e+01   2.2556667725e+01     2.623336     1.845934  70.94   0.01407909    1.573    0.364
         9 -13.8917    244.4929      8.7044   2.4396883235e+00   2.3043015453e+01     1.346777    0.5582995 -76.60  0.005900453    3.051    0.672
        10 -12.8590    198.0930     48.9700   1.6925755480e+01   2.8823557610e+01     1.696952    0.8554383  -7.70   0.00571619    3.904    0.744
        11 -13.3890    193.2529     37.8994   1.4488026468e+01   3.1433637018e+01      1.34944    0.9840054 -39.97  0.007158516    1.306    0.234
        12 -13.0857    233.1960     48.5097   1.2640418967e+01   2.0927444642e+01     1.183015    0.8367161  88.94   0.00412346    1.621    0.383
        13 -13.0740    221.5297     38.9914   1.1509502921e+01   2.4653047158e+01     1.341366    0.8304422 -78.04 0.0009432937    1.923    0.480
        14 -13.9974     10.3220     69.3509   8.0921987266e+01   6.1402872643e+01     1.127833     1.076686  -4.71  0.003915415    1.212    0.175
        15 -11.9211     10.6977     25.1763   6.9241943332e+01   7.1353435260e+01    0.5840026    0.4089615   2.53  0.003643628    1.490    0.329
        16 -12.0701      3.2151     28.1004   7.4922379819e+01   7.1180114376e+01    0.8565275    0.3719389 -62.16  0.002313705    1.945    0.486
        17 -13.4736     48.5046     52.2022   5.8911643280e+01   6.1820490909e+01     1.384046    0.8632254 -36.56  0.005683407    1.533    0.348
        18 -13.6617     13.0041     36.1391   7.1645359645e+01   6.8880780912e+01     1.502841    0.7368721 -29.62  0.004079693    2.092    0.522
        19 -13.7028    203.1151     60.5850   1.9378742534e+01   2.6034164788e+01     2.445843     1.235734 -70.32  0.007850994    4.311    0.768
        20 -13.4012    226.3837     21.3747   6.6958710503e+00   2.5600215439e+01     1.258026    0.8018038  -1.56  0.005032608    2.315    0.568
        21 -11.7930    148.5558     40.5143   2.2386813386e+01   4.2448601459e+01    0.8001171    0.3762611 -36.04  0.003191164    2.109    0.526
        22 -12.2779    221.6201      8.7988   4.0028656162e+00   2.7975792348e+01    0.7602025    0.2591987 -41.73  0.003307201    2.385    0.581
        23 -12.1878    241.6817     21.9751   5.6319934759e+00   2.2242152340e+01     0.468548    0.3495828  87.86  0.002959426    1.379    0.275
        24 -11.0436    134.9502     25.1081   1.9618805633e+01   4.7953464398e+01    0.4673082    0.2515176  65.33  0.001554952    1.797    0.443
        25 -11.5701    201.8715     20.6487   8.7489938300e+00   3.1353103255e+01    0.6171643      0.33191 -77.75  0.002751067    2.239    0.553
        26 -10.2414    202.7721     16.4431   7.5330020584e+00   3.1585541945e+01     0.442898    0.2274116 -86.83  0.001967353    2.262    0.558
        27 -10.6509    150.1942     13.0176   1.2713605749e+01   4.5280705331e+01    0.2498712    0.2072536 -42.12 0.0008994035    1.259    0.206
        28 -13.0141    173.0285      7.3854   7.9824903065e+00   3.9888801480e+01    0.5314432    0.3082721 -13.47  0.001401141    2.074    0.518
        29 -13.0361     73.1055     25.2764   3.6923378599e+01   6.2619959581e+01     1.041116    0.4265714 -42.81  0.001453089    2.825    0.646
        30 -10.3450    131.1893     10.1043   1.4714771832e+01   5.0539479891e+01    0.4802531    0.3543369 -40.01  0.002529763    1.457    0.314
        31 -11.8128    115.9983     10.0525   1.7586735361e+01   5.4463080551e+01     0.481817    0.3140638   1.69  0.001430031    1.852    0.460
        32 -10.6352     93.9959     11.8917   2.3673629204e+01   5.9709107231e+01    0.2077628    0.1762654  35.12 0.0002711029    1.067    0.062
        33 -10.5724     88.3626     11.4622   2.5080265763e+01   6.1077758776e+01    0.2430283    0.1743271 -19.30  0.001287606    1.455    0.313
        34 -11.9642     79.5850     22.4870   3.3208209274e+01   6.1673044845e+01    0.7007455    0.6714746 -53.27  0.003117403    1.270    0.213
        35  -9.5998    124.6884      9.7894   1.5768156066e+01   5.2257277758e+01    0.3230022    0.2236321   9.05  0.001597582    1.730    0.422
        36 -10.5839    109.9258      9.7972   1.8784451104e+01   5.6024190792e+01    0.2652142    0.2444912 -47.51 0.0009623182    1.217    0.178
        37 -11.0445     26.7950      9.7100   5.1599023923e+01   7.2701918884e+01    0.2503003    0.1748873  -9.76 0.0006673271    1.348    0.258
        38  -9.4607    165.4885      9.1216   9.3879499358e+00   4.1667966478e+01    0.1972342     0.138757 -19.78  0.001021502    1.574    0.365
        39 -11.9203    193.4672      7.3656   5.9341176524e+00   3.4756849711e+01    0.2570993    0.2406841  63.32  0.000576291    1.168    0.144
        40  -9.5240    156.5025      7.5523   1.0002978979e+01   4.4152136397e+01    0.1387645    0.1261749  77.07 0.0005280941    1.012    0.012
        41  -9.6801     13.2588      7.0148   5.9206328205e+01   7.4633217861e+01    0.1895949    0.0564931 -34.96 0.0006842391    3.709    0.730
        42 -11.0577      2.8393      6.0663   6.6488105742e+01   7.5629968984e+01    0.2401543    0.1641351  -2.94 0.0008422529    1.418    0.295
        43  -9.6709    210.6849      6.1228   4.1598170664e+00   3.0748490844e+01    0.1622695    0.1163613 -13.97  0.000479644    1.647    0.393
        44 -10.7144    146.3602      5.8137   1.0778211941e+01   4.6963858588e+01    0.2538917    0.1727565  57.12  0.001066397    1.348    0.258
        45 -10.1310    142.4616      3.2031   1.0408433944e+01   4.8212551227e+01    0.3006545    0.2144548  45.70  0.001583779    1.392    0.282
        46  -9.5548     97.4181      5.1329   1.9643222757e+01   5.9563067455e+01    0.1678924    0.1262949 -35.77 0.0005452412    1.485    0.327
        47  99.0000    183.4341      3.7258   5.8404769878e+00   3.7587066546e+01    0.3736422    0.2022918 -52.04  0.001204354    1.830    0.454
        48 -10.7751    187.0323      1.4167   4.8544375408e+00   3.6896176329e+01    0.3877003    0.1300959  74.09  0.000453394    2.747    0.636
        49 -10.6512    112.4962      3.6237   1.5617236981e+01   5.5944060430e+01    0.4217308    0.2017949  55.37  0.001761349    1.773    0.436
        50 -11.3188    216.9173      2.4441   2.7801894165e+00   2.9658380359e+01    0.3586251    0.2006919  69.20   0.00152552    1.759    0.431
        51  -9.6882    207.3985      2.6111   3.5122479633e+00   3.1852266624e+01    0.2047778    0.1223318  -4.54 0.0007538488    2.353    0.575
        52  -9.7233    101.6801      3.5805   1.7918911876e+01   5.8658691481e+01    0.1876108    0.1279683  75.32 0.0009392441    1.578    0.366
        53 -12.2553     86.3681      1.3664   2.0709359060e+01   6.2546507827e+01    0.4741193    0.1176924  60.45  0.001168975    3.512    0.715
        54 -11.6765     48.6753      1.4899   3.4483078257e+01   7.0480662818e+01    0.4651439     0.125258  46.72  0.001183775    3.387    0.705
        55 -10.3962    250.0661      1.4391   5.2760384924e-01   2.2618372165e+01    0.1537836     0.103871 -88.46 0.0003669938    1.457    0.314
        56 -10.7003    243.3373    100.0727   2.3530150418e+01   1.1930857760e+01    0.4211091    0.2215741 -11.29  0.001092085    2.859    0.650
        57 -10.5379     89.1212     93.9409   5.6075100837e+01   4.6001701951e+01    0.2212434    0.2111409 -29.76 0.0002985681    1.037    0.036
        58 -12.8107     86.5423     98.5349   5.8143889269e+01   4.5392755811e+01    0.6772198    0.4041244  24.39  0.002823274    2.050    0.512
        59 -11.2462     33.9170    100.1334   7.6956009672e+01   5.2093064513e+01    0.2969007    0.1994128 -78.92 0.0009601992    1.454    0.312
        60 -10.2700    232.7110     96.4531   2.4157097663e+01   1.4469402181e+01    0.2243718    0.1817337 -21.50 0.0001897495    1.128    0.114
        61 -11.4525    226.5549     97.5911   2.5310618501e+01   1.5518186425e+01    0.4755951    0.3503676  39.43  0.002624611    1.487    0.328
        62 -10.5718    222.3222     95.3226   2.5396056543e+01   1.6710487601e+01    0.2031936    0.1402494  48.37 0.0006285204    1.572    0.364
        63 -10.7164    170.5659     97.8083   3.5247746972e+01   2.7635928581e+01    0.3238249    0.2859506 -40.18  0.001468226    1.134    0.118
        64 -11.5467    199.7516     96.0191   2.9203756174e+01   2.1379425572e+01    0.3385458    0.2658559 -51.09 0.0005502553    1.365    0.268
        65  -9.3945    176.0476     98.2138   3.4225297386e+01   2.6311843656e+01    0.1832532    0.1210127  48.59            0    1.535    0.349
        66 -12.1266     73.1876     96.5293   6.2154845566e+01   4.8077729454e+01     0.407108    0.2989744 -41.40  0.002020571    1.369    0.269
        67 -12.1728     48.7399     95.1909   7.0609280792e+01   5.1753005410e+01      0.42978     0.272777  28.91  0.001435541    1.695    0.410
        68 -12.8165     56.4041     94.7021   6.7696223843e+01   5.0923702974e+01    0.4721881    0.3907452  70.26 0.0007022296    1.376    0.273
        69 -13.4294     61.7127     90.8912   6.4856638884e+01   5.1131934808e+01    0.8025264    0.5037574 -70.28   0.00264223    1.807    0.447
        70 -11.1817     13.5136     93.5604   8.3394266105e+01   5.5320389621e+01    0.2029732    0.1786456 -52.24 8.315289e-05    1.136    0.120
        71 -11.6966     96.5507     90.7962   5.2776401051e+01   4.5331424928e+01    0.6059102    0.4278663  56.16  0.002026407    1.634    0.388
        72 -10.1770    250.1554     94.5060   2.1395407891e+01   1.1451134468e+01    0.2529218    0.1582541 -30.93  0.001390475    1.353    0.261
        73 -10.4996    206.8594     95.0945   2.7768759100e+01   1.9985970671e+01    0.2216211    0.1848658 -52.65  0.001011525    1.287    0.223
        74 -11.5793     11.8878     97.6433   8.4514777487e+01   5.4418014637e+01    0.2942205    0.2116109 -65.46  0.001172736    1.185    0.156
        75 -10.7788    172.4825     91.4492   3.3124060746e+01   2.8328096926e+01    0.2869739    0.2422652  71.24  0.001187068    1.350    0.259
        76 -10.5951    168.3507     89.7365   3.3503755335e+01   2.9595986963e+01    0.3911392    0.2283944  54.78  0.001160474    1.784    0.440
        77 -10.1651     79.5933     90.9455   5.8487831918e+01   4.8359434948e+01    0.2416696     0.202976   4.25 0.0004313905    1.353    0.261
        78 -12.4186    223.5505     87.2790   2.3270511324e+01   1.7652556437e+01    0.5409877    0.3630728  36.71  0.002775981    1.724    0.420
        79 -13.0270    216.1794     83.4465   2.3396848470e+01   1.9772201512e+01     0.467577    0.4217663  69.56  0.002770116    1.241    0.194
        80 -13.9279    193.5378     81.5945   2.6509792328e+01   2.5094731718e+01     2.680578     1.031563 -40.73  0.008888259    2.470    0.595
        81 -10.0784    152.9064    124.1537   4.5988879365e+01   2.6506731639e+01    0.2130559    0.2036545  82.83 0.0002745699    1.187    0.158
        82 -10.2536    220.6989    121.6022   3.1825521602e+01   1.3021527293e+01    0.2991638    0.1786901  58.03   0.00140993    2.171    0.539
        83 -12.7499    210.7786     47.4475   1.4888931551e+01   2.6037538070e+01     1.188841    0.5367657 -56.42  0.004565337    2.848    0.649
        84 -10.2498     57.7759    119.9575   7.2274917413e+01   4.4521320318e+01     0.219836    0.1813473 -40.56 0.0008476309    1.304    0.233
        85 -11.5296    173.0772     55.2481   2.2575513364e+01   3.4088825501e+01     1.181929    0.5476749  36.59   0.00401721    3.225    0.690
        86 -12.3402    242.4389     61.5989   1.4767421136e+01   1.7343304720e+01    0.6814715    0.5864195 -27.33  0.004358484    1.111    0.100
        87 -11.7752    215.2674     42.1645   1.2992512622e+01   2.5679125996e+01    0.3423944    0.2647592 -47.53  0.001515109    1.183    0.155
        88 -10.6942    181.6278    117.2534   3.7963251497e+01   2.1683284352e+01    0.4958213    0.2088403 -44.53  0.001817589    2.518    0.603
        89 -11.7790     89.1504    115.1199   6.1321279077e+01   4.1025637791e+01     0.438924    0.2886239  49.33  0.002010091    1.606    0.377
        90 -10.5347    203.6134    115.9920   3.3453146415e+01   1.7293147194e+01    0.3629755    0.2139139  63.30    0.0015478    2.424    0.587
        91  -9.5573    245.8466    113.8205   2.6254089442e+01   9.5429458323e+00    0.1675389    0.1365816 -42.19 0.0003622153    1.284    0.221
        92  -9.7588    127.2754    114.6587   5.0122732202e+01   3.3865633490e+01    0.1526202    0.1236245 -87.09 0.0002087843    1.617    0.382
        93 -12.0287     48.5217     85.4860   6.8527156570e+01   5.4151291086e+01    0.4576406    0.1949415  27.44  0.001850949    2.558    0.609
        94 -12.2773     52.4820     86.0319   6.7132171718e+01   5.3533160802e+01    0.5680013    0.3065958 -26.14  0.001747565    2.848    0.649
        95 -10.8573     55.0317     81.9757   6.5134660676e+01   5.4178425475e+01    0.2235513    0.2061417  16.35 0.0002983148    1.155    0.134
        96 -10.9931      2.1692     87.8532   8.6888694254e+01   5.7336115805e+01    0.2117071    0.1622767 -42.16  0.001341057    1.337    0.252
        97 -12.3485     85.8551     72.9798   5.0980733411e+01   5.1287665465e+01    0.6734855     0.504851  47.41  0.001439987    1.418    0.295
        98 -13.0930     67.0145     83.1530   6.0885773042e+01   5.2199393900e+01     1.022639     0.695941  79.22   0.00325705    2.394    0.582
        99 -12.6298     71.1808     73.4974   5.6506510100e+01   5.3758459187e+01     1.423582    0.6971446  48.95   0.00553251    2.542    0.607
       100 -13.4937     38.2695     79.7900   7.1268085166e+01   5.6671413001e+01     1.106327    0.5219705 -60.40  0.004132399    1.867    0.464
       101 -12.7378     55.0831     72.2154   6.2450424920e+01   5.6466111085e+01    0.7603703    0.4605995 -54.14  0.001923001    1.543    0.352
       102 -11.0851     50.3561     66.5161   6.2739638838e+01   5.8404381736e+01    0.3844441     0.271652  15.34  0.001982561    1.592    0.372
       103 -13.0459     45.8293     72.6831   6.6391732703e+01   5.7534249579e+01    0.8745626    0.4520258 -59.42  0.001931434    1.818    0.450
       104 -11.4076     41.0946     70.3200   6.7758384633e+01   5.8633297913e+01    0.3917733    0.2712576 -33.66  0.000936883    1.463    0.316
       105 -12.4293     59.8735     66.0916   5.8640591348e+01   5.7179301797e+01    0.6356677     0.426061 -36.73  0.001814993    1.469    0.319
       106 -10.8368     63.8257     61.2100   5.5419555541e+01   5.7645600267e+01     0.249482    0.2128415 -19.05  0.000269431    1.158    0.137
       107 -11.5699     57.1772     59.6446   5.7657058188e+01   5.8997137559e+01    0.2986113    0.2941135 -35.91 0.0006004385    1.131    0.116
       108 -11.9808    236.1534     85.9615   2.1231232558e+01   1.5294129273e+01     0.580815    0.3350239  76.74  0.002036521    2.798    0.643
       109 -11.7230    161.4689     84.6404   3.3523606837e+01   3.2130293532e+01     1.469896    0.7077641  31.57  0.004679799    3.427    0.708
       110 -11.5099    168.7751     80.5680   3.0829299312e+01   3.1097094073e+01    0.3971928    0.2903591  67.49 0.0008954406    1.556    0.357
       111 -11.4516    167.1497     76.8270   3.0078790142e+01   3.2126347121e+01    0.3072237    0.2790928  30.37 0.0003171641    1.135    0.119
       112 -10.9360    175.0095     86.1973   3.1169030174e+01   2.8650715846e+01    0.5775044    0.2359465  40.88  0.001440293    2.932    0.659
       113 -11.3335    181.0334     82.9784   2.9120961025e+01   2.7778607434e+01    0.4129088    0.3711902 -77.82 0.0008152301    1.247    0.198
       114 -12.9040    177.5462     72.3468   2.6784270462e+01   3.0349996084e+01     1.558091    0.5291967 -48.01  0.004577798    3.924    0.745
       115 -11.7188    166.6578     65.5627   2.6848093448e+01   3.4103828427e+01    0.7782486    0.6271501  37.29  0.003920506    1.313    0.239
       116 -10.4253    161.3047     66.9899   2.8337972338e+01   3.5198759375e+01    0.2517346    0.2009965 -26.53 0.0001713136    1.288    0.224
       117  -9.0369    244.3301     85.2924   2.0035457572e+01   1.3800223052e+01    0.1272955   0.09580801  10.12 0.0003331486    1.628    0.386
       118 -12.3066     10.2152     82.9406   8.3156534794e+01   5.8119603282e+01    0.5568143    0.2497563 -73.56 0.0008282725    1.921    0.479
       119 -11.5759    138.4710    112.5512   4.6648664567e+01   3.1947732134e+01    0.3830599    0.2515792  22.73  0.001185833    1.952    0.488
       120 -13.9576     28.9204     67.5019   7.2339210176e+01   6.0511769149e+01     1.868408     1.115796 -69.94  0.009404534    1.673    0.402
       121 -11.4230     62.8075     46.4456   5.0421440021e+01   6.0851427900e+01    0.6734508    0.4333107  51.04  0.002607033    1.948    0.487
       122 -12.9641      5.3222     55.7889   8.0666689198e+01   6.4869392827e+01     1.101025    0.5294679 -16.91  0.002210218    2.546    0.607
       123 -11.3594      3.4102     48.5027   8.0109815214e+01   6.6642629348e+01    0.3309224    0.2862304  76.91  0.001429778    1.368    0.269
       124  -9.2782    242.4681    112.4307   2.6421663314e+01   1.0341117774e+01    0.1302246    0.1117954 -20.91 4.942824e-05    1.018    0.017
       125  99.0000     38.3281     41.4550   5.9860720954e+01   6.5376114675e+01    0.7461498    0.6315088  14.60  0.004572497    1.224    0.183
       126  -9.0858    210.9944    112.0000   3.1210713062e+01   1.6435480997e+01    0.2243674   0.08018629  50.65 0.0008098076    2.994    0.666
       127 -11.4571     62.9795    110.5034   6.8781217325e+01   4.6168501511e+01    0.2624518    0.1886285  67.78 0.0009486265    1.657    0.397
       128 -11.6351     25.5383     43.6816   6.7242802247e+01   6.6250476130e+01    0.8723556    0.5300136 -23.31  0.004542801    1.771    0.435
       129 -11.6183     26.2877     36.2344   6.4228969959e+01   6.7769170483e+01    0.4284436    0.2945371  -1.10  0.001558658    1.567    0.362
       130 -12.3444     14.2392     45.1192   7.3634229654e+01   6.6817703643e+01    0.6009755    0.3377393 -49.43  0.001642334    1.441    0.306
       131 -10.3557    118.3299    110.3188   5.1484933504e+01   3.6650041747e+01    0.1587624    0.1224568  -2.70 0.0005048671    1.687    0.407
       132 -12.6869     34.8819     52.6342   6.5449911790e+01   6.3360382057e+01    0.4775831    0.3095835  22.51  0.002547042    1.670    0.401
       133 -11.8405     83.3446     83.7985   5.5180247331e+01   4.9355238750e+01    0.2745675    0.2522145  36.91 0.0003250687    1.119    0.107
       134 -10.4642    250.6749     81.7004   1.8457024376e+01   1.3089121448e+01    0.1772471   0.09787545 -36.65 0.0007209622    1.517    0.341
       135 -12.2302    222.6418     79.7279   2.1551981201e+01   1.8943629232e+01    0.3543919    0.2672353  87.18  0.001452194    1.712    0.416
       136 -12.3271    200.1976     76.4240   2.4037249100e+01   2.4373854602e+01    0.4315938     0.323644  82.08  0.002166095    1.647    0.393
       137 -10.1012    232.0248     78.3962   1.9974860617e+01   1.7186326773e+01    0.2429318    0.1737219  82.12  0.001290127    1.836    0.455
       138 -12.1785    249.8887     75.2531   1.7088708876e+01   1.4095529649e+01    0.2715336    0.2198449 -25.18 0.0003382617    1.127    0.112
       139 -10.9177    249.8347     67.2600   1.5278652213e+01   1.5153327955e+01    0.5589026    0.2161039 -27.61  0.002365319    2.441    0.590
       140 -10.7258    155.6251     76.6814   3.2461983749e+01   3.4946004465e+01    0.3756467    0.2666826  64.02  0.001140046    1.552    0.356
       141 -12.0941    223.8372     70.1740   1.9033961791e+01   2.0048985276e+01    0.2334685       0.1993  36.53 0.0006176815    1.321    0.243
       142 -13.6009    188.3307     57.7276   2.0790685494e+01   2.9962411613e+01     1.396523     1.065565  65.57  0.005291699    1.351    0.260
       143 -10.4740     50.4751    109.9519   7.2894574926e+01   4.7895372498e+01    0.2010848    0.1855104  40.14 0.0003410245    1.153    0.133
       144 -12.6193    218.4386     75.2276   2.1017653140e+01   2.0491725559e+01    0.3139675    0.2579414  19.20   0.00175706    1.421    0.296
       145 -12.2458    209.3030     58.4202   1.7954069683e+01   2.4906875443e+01    0.3766383    0.2799138  86.00  0.001981528    1.551    0.355
       146 -11.8310    160.9320     55.4000   2.4835848884e+01   3.7123059121e+01    0.7216195    0.5875455 -62.51   0.00365124    1.346    0.257
       147  -9.6191    161.9823     47.4557   2.2139717834e+01   3.8025563724e+01    0.4747308    0.2601377  67.20  0.001970801    1.934    0.483
       148 -10.3637    168.6389     37.0412   1.7739729995e+01   3.7730902447e+01      0.62025    0.2983052  -9.36  0.002062843    3.697    0.729
       149 -10.7765    167.5212     32.7721   1.6577705330e+01   3.8556642265e+01    0.4666958    0.3079464  42.51  0.001886252    1.650    0.394
       150 -12.5644    172.6376     45.2119   1.9616612247e+01   3.5626063124e+01     0.853024     0.600044  28.79  0.002885274    1.764    0.433
       151 -10.5241    164.8651     38.8404   1.8914084067e+01   3.8466409233e+01    0.2878284    0.2189952 -59.32 0.0006952622    1.408    0.290
       152 -11.0983    100.1976     54.5491   3.9715405175e+01   5.2028532645e+01     0.593386    0.5035802  31.42  0.002728279    1.161    0.139
       153 -10.1317    107.8478     54.8353   3.7458020718e+01   5.0261702037e+01    0.5031196    0.2783238 -53.20  0.001948714    2.370    0.578
       154 -11.1176    248.2342     55.8802   1.2846627846e+01   1.6919038708e+01    0.3315015    0.2468937  48.06   0.00200629    1.596    0.373
       155 -10.5140     69.6206     55.0305   5.0884469883e+01   5.7981979538e+01    0.3103155    0.2593105  86.99  0.001606345    1.706    0.414
       156 -11.4282     90.4782     51.0494   4.1608657647e+01   5.4753299147e+01    0.2453711    0.2142587  37.11   0.00131571    1.132    0.117
       157 -12.3350    246.4416     41.8908   9.8108625348e+00   1.8991510048e+01    0.3659489    0.2351016 -61.16 0.0009685901    1.581    0.367
       158 -10.7808    245.8981     50.0066   1.1726032928e+01   1.8115900284e+01    0.4585498    0.1968446  62.74 0.0008515626    2.556    0.609
       159 -10.1331    247.8482     46.6781   1.0779037307e+01   1.8132579843e+01    0.3514834    0.1962492  83.19  0.001373203    2.280    0.561
       160 -11.6480    177.9554     37.6408   1.6509566676e+01   3.5279311065e+01    0.3928651     0.277648  -2.35  0.001119714    1.826    0.452
       161 -10.6327     38.2775    109.9740   7.7052310332e+01   4.9221659011e+01    0.2011656    0.1616765 -69.81 0.0007003398    1.124    0.110
       162 -11.2038     99.6693     47.6791   3.7278667738e+01   5.3359143823e+01    0.4190309    0.2919139  26.52  0.001944723    1.604    0.377
       163 -10.2506    132.3429     39.9556   2.5583144920e+01   4.6684925072e+01    0.8538797     0.598932 -59.36    0.0028757    1.747    0.427
       164 -10.5935    143.5649     45.4894   2.5083587901e+01   4.3024288894e+01    0.5932224    0.3426836  40.59  0.002183321    1.877    0.467
       165 -10.9544    195.7290    107.4069   3.2790332950e+01   2.0370200635e+01    0.4059751      0.28566 -62.54  0.001603334    1.961    0.490
       166  -9.6406    121.2317     45.0642   3.0127573318e+01   4.8705697419e+01    0.2400022    0.1651648 -59.72 0.0007767739    1.885    0.470
       167  -9.9275    105.1644     43.4393   3.3946234037e+01   5.2810375510e+01    0.2178113    0.1988443 -13.03  0.001182829    1.101    0.092
       168 -10.9949     93.7422     42.7736   3.7248722919e+01   5.5501927387e+01     0.440161    0.2630426 -28.12  0.001952207    1.773    0.436
       169 -10.0771    156.2432     41.5810   2.1293853763e+01   4.0319379341e+01    0.3775451    0.1616912 -46.29  0.001362868    2.620    0.618
       170 -10.7183     99.6489     41.3838   3.4803471376e+01   5.4409645786e+01    0.3796139    0.3470392 -28.55  0.002102203    1.128    0.113
       171  -9.5442    238.6316     35.6996   9.0680473267e+00   2.1332960716e+01    0.2334507    0.1582645  42.21  0.001294937    1.892    0.472
       172 -10.7179    240.6149     40.3839   9.9874658076e+00   2.0364755714e+01     0.357656    0.2062728  60.90  0.001281819    1.903    0.474
       173 -11.4284    233.8591     36.7339   9.7458571530e+00   2.2222906091e+01    0.3883282    0.2061507 -58.13  0.001367005    1.985    0.496
       174  -9.7032    250.6456     37.0804   8.3584218536e+00   1.8713969061e+01    0.3025006     0.110842 -25.50 0.0005786562    2.778    0.640
       175 -10.9376    191.4885    102.9730   3.2460071288e+01   2.2035998786e+01    0.4495403    0.1771922 -43.36   0.00161356    2.605    0.616
       176 -10.5820    122.5745     33.4381   2.5421912593e+01   5.0063189242e+01    0.3590901    0.1566733 -35.60 0.0009605559    2.318    0.569
       177 -10.4122    104.2661     28.0281   2.7951968704e+01   5.5301131610e+01    0.4320227    0.2080543 -43.53  0.001016238    2.414    0.586
       178 -10.8750    112.8896     32.5646   2.7489677133e+01   5.2590482264e+01       0.4994    0.3103602  26.23  0.001854131    1.984    0.496
       179 -10.3020    108.6720     32.2953   2.8503284440e+01   5.3655194771e+01    0.2965986    0.2559136  87.14 0.0008478678    1.381    0.276
       180 -11.4491    114.5450     28.0061   2.5244725224e+01   5.2792544657e+01    0.2568361    0.2126848  35.80 0.0001528541    1.169    0.145
       181  -9.8256    152.1720     33.6680   1.9407290823e+01   4.2420268925e+01    0.1905488    0.1708952  59.83  0.000418314    1.070    0.065
       182 -10.5637    131.4658     33.2805   2.3344611003e+01   4.7826077635e+01    0.3578464    0.1993464 -54.98 0.0007518664    2.389    0.581
       183 -11.3560     92.7630     32.9505   3.3481453852e+01   5.7276750533e+01     0.439374    0.3165132   5.37  0.001746087    1.643    0.391
       184 -10.6517     74.8576     33.6662   4.0107294103e+01   6.0956705045e+01    0.2759414    0.2256664  45.19 0.0008021145    1.278    0.218
       185 -11.7578    160.8255     38.1328   1.9366862957e+01   3.9600125310e+01    0.5606597    0.3375944 -25.07  0.002100246    1.771    0.435
       186  -9.3468    239.3147     30.3090   7.7471577801e+00   2.1811746921e+01    0.4459837    0.2013806  60.99  0.002163955    2.360    0.576
       187 -11.5429     85.5551     28.7624   3.4029784953e+01   5.9491418988e+01    0.5683527    0.2478241  43.11  0.002070399    2.202    0.546
       188 -10.1777    168.3918     26.6474   1.4526190938e+01   3.9066709273e+01    0.2663914    0.2420281 -54.94  0.001526433    1.097    0.089
       189 -10.6423    234.1594     24.6300   6.8373633604e+00   2.3544891071e+01      0.38782    0.2690741  68.60  0.002294871    1.533    0.348
       190  -9.7079    217.9376    108.4389   2.9213681518e+01   1.5596412509e+01     0.190174    0.1373345  51.00 0.0003342687    1.527    0.345
       191 -11.1137    246.6811     22.6698   5.4216282541e+00   2.1134471759e+01    0.2165481    0.1693271 -26.71 0.0008877962    1.300    0.231
       192 -10.9117    176.0941     24.2373   1.2728732093e+01   3.7364762748e+01    0.3671345    0.2195375 -21.67 0.0009885982    1.830    0.453
       193  -9.4603    159.5034     26.4925   1.5806131999e+01   4.1389119437e+01    0.1429006    0.1353866  76.41 6.644734e-06    1.009    0.009
       194  -9.5697    148.6815     23.9724   1.6716032288e+01   4.4505560206e+01    0.3961447    0.2384157 -61.56  0.001714348    2.071    0.517
       195 -10.0606    150.9412     20.7489   1.5240546336e+01   4.4276419433e+01     0.270948    0.1959753 -25.72  0.001376166    1.470    0.320
       196 -10.6814    126.3231     44.7127   2.8721512811e+01   4.7499878998e+01    0.5199026    0.2681445 -53.40  0.001900295    2.710    0.631
       197 -11.8608    161.2711    106.5379   3.9595095652e+01   2.8124051508e+01    0.4419229    0.2645709 -59.65  0.001701557    2.426    0.588
       198  -9.7389    162.7697     29.1039   1.6144766163e+01   4.0231488074e+01    0.2194152    0.1797275 -67.33 0.0005587672    1.274    0.215
       199 -10.9596     98.2585     21.9587   2.7031328871e+01   5.7522416671e+01    0.4238293    0.2277587  49.15  0.001318967    1.693    0.409
       200 -10.2899    102.6800     23.3128   2.6387002843e+01   5.6296101457e+01    0.2281141    0.1645595 -29.16 0.0009125227    1.448    0.310
       201  -9.1108    103.3126     19.6782   2.4649276313e+01   5.6588590070e+01    0.3842036    0.2599654  77.34  0.001802918    1.853    0.460
       202 -10.4747    153.0408    108.3054   4.1959138752e+01   2.9618739906e+01    0.2352498    0.2072738   9.42  0.000426799    1.199    0.166
       203 -11.8652    155.9097    104.6901   4.0331114502e+01   2.9681689904e+01      0.37738    0.2681086 -34.54  0.001745489    1.421    0.296
       204 -10.4570    170.3389     19.3170   1.1972003452e+01   3.9383439174e+01    0.3258782    0.2178486  25.00  0.001131539    1.965    0.491
       205 -10.0397    163.2099     21.0093   1.3477533740e+01   4.1045588813e+01    0.1994413    0.1771286  37.31 0.0003779209    1.213    0.176
       206 -10.1338    123.1784     25.2921   2.2144183170e+01   5.0960217707e+01    0.2514171    0.1915978  -6.56  0.001120622    1.480    0.324
       207 -10.9315    129.9940     19.3389   1.8436976233e+01   4.9899640769e+01    0.2943886    0.2362428  70.61 0.0004706937    1.214    0.176
       208  -9.8098    115.6784     20.3361   2.1872020035e+01   5.3449557717e+01    0.1473682    0.1092525 -65.90 0.0007050294    1.709    0.415
       209  -8.9564    158.4594     19.5420   1.3686244873e+01   4.2442335789e+01    0.1432728    0.1292694  51.39 7.606515e-05    1.118    0.106
       210  -9.9981     19.8089     19.1480   6.0929015073e+01   7.1798646051e+01    0.1944976    0.1585463  26.09  0.001262608    1.416    0.294
       211 -12.1535     39.8201     58.3876   6.4924102498e+01   6.1530447484e+01    0.5252899    0.4226768 -87.56  0.002025308    1.607    0.378
       212 -10.1537    192.3244     16.4189   8.5603772621e+00   3.4132159289e+01    0.2995844    0.1461526 -72.31 0.0009124497    2.660    0.624
       213 -10.1776    153.8404     16.6740   1.3414087940e+01   4.3953734341e+01    0.2569077    0.1993519 -27.64  0.001023145    1.367    0.269
       214 -10.9357    158.9405     99.1531   3.8145055237e+01   3.0051416264e+01    0.2639709    0.2176695 -45.44 0.0003000143    1.244    0.196
       215  -9.4139    139.3615     16.7485   1.5756716465e+01   4.7738690205e+01    0.1976255    0.1379476  -6.53 0.0009589245    1.697    0.411
       216  -9.8867    124.9313     16.2665   1.8257496231e+01   5.1540948998e+01    0.2349695    0.1803327 -34.17 0.0005581374    1.391    0.281
       217  -9.9650    121.3074     17.1071   1.9332475126e+01   5.2381423220e+01    0.1869405    0.1824063  75.23 0.0004336722    1.079    0.073
       218 -11.0569     94.0069     16.1263   2.5625006380e+01   5.9232386904e+01    0.3330381    0.1851926  43.76  0.001529327    1.657    0.397
       219  -9.7217    196.0007     14.6714   7.7053858596e+00   3.3410169271e+01    0.1871736    0.1648185 -71.73  0.000842852    1.032    0.031
       220 -12.2264    153.3483     96.8003   3.8782995720e+01   3.1781491518e+01    0.7015969    0.6374967  47.50  0.002428162    1.109    0.099
       221  -9.2752    159.9673     13.7805   1.1588370077e+01   4.2648703603e+01    0.1873574    0.1651518  72.15 0.0002236124    1.057    0.054
       222  -8.8773    103.8732     15.0000   2.2468544935e+01   5.6986747760e+01    0.2485504   0.07553264  60.51  0.000819806    3.064    0.674
       223  -9.4692     89.5992    108.2954   5.9589308682e+01   4.2564570766e+01    0.1589844    0.1146708  69.59 0.0006997004    1.812    0.448
       224  -9.8947    187.0675     13.0518   8.1532338352e+00   3.5783567270e+01    0.2275877    0.1363347 -61.14 0.0005616393    1.734    0.423
       225 -10.0692    210.1406    105.6110   2.9817549013e+01   1.7626846847e+01      0.23998    0.2283723 -74.62 0.0009904675    1.233    0.189
       226 -11.4238    144.5994    103.1563   4.2627031551e+01   3.2521764588e+01    0.4286217     0.327768  21.93   0.00164763    1.499    0.333
       227 -10.4903    183.1120    103.6230   3.4230842205e+01   2.3771410379e+01    0.3942641    0.2517994 -29.69  0.001790479    1.574    0.365
       228 -11.2179    113.3519    246.6266   7.4947843575e+01   1.0619964280e+01    0.3128402    0.2165486 -27.19  0.001477014    2.188    0.543
       229 -13.3213    116.4888     93.8314   4.7551762841e+01   4.0620691785e+01     1.054375    0.6626688 -71.00  0.000987186    2.719    0.632
       230 -13.4665    106.7704     95.3390   5.0861220759e+01   4.2305915768e+01     1.542507    0.4967851 -41.37  0.004637684    3.407    0.707
       231 -11.8489    134.4221     70.9991   3.5692074362e+01   4.1093956980e+01     1.378483    0.8575866  69.54  0.005466518    2.192    0.544
       232 -11.8723    127.1652     58.9256   3.3538720966e+01   4.4986643962e+01    0.6061326    0.3464469  32.21  0.002355041    2.203    0.546
       233 -10.8041     36.4267    248.2830   8.9738991677e+01   1.9684755596e+01    0.1753625   0.09179244 -73.28  0.001148973    2.158    0.537
       234 -14.5523    124.9819     87.1041   4.3186014762e+01   4.0172118975e+01     2.735762     1.719484  62.56   0.01108103    2.039    0.510
       235 -13.2963    136.5382     82.2538   3.8663511304e+01   3.8483440669e+01     1.475654     1.238986  75.53  0.004675739    1.399    0.285
       236 -13.1344    101.2521     77.6916   4.7329662861e+01   4.7245934223e+01     1.257916     0.759347 -35.30  0.004000589    1.751    0.429
       237 -10.1154    180.5089    243.4986   6.1731379788e+01   1.7728756520e+00    0.1172144   0.08781914  23.61 0.0008104879    1.026    0.025
       238 -14.1754    116.5659     63.2066   3.7885173348e+01   4.6741990026e+01     1.234853     1.061592  40.57  0.002600409    1.141    0.123
       239 -12.6561    152.5689     63.0086   2.8921339259e+01   3.8023714556e+01     1.596672     1.023064  32.10   0.00678115    1.895    0.472
       240 -12.5430    140.7916     56.4098   2.9377599523e+01   4.2044101786e+01     1.056975     1.031878   8.15  0.002919671    1.034    0.033
       241 -11.0427     88.1282    239.0990   7.9217621308e+01   1.5148840468e+01     0.169719    0.1406707  30.02 0.0004659314    1.239    0.193
       242  -9.2831    236.6182    146.1850   3.4596186467e+01   6.5362627523e+00    0.1762717    0.1067112 -20.16 0.0003945394    1.555    0.357
       243 -12.9425     79.5148     59.1507   4.8563572498e+01   5.5365839622e+01    0.8033933    0.6042122  23.66  0.004027481    1.416    0.294
       244 -13.3480     80.0091     50.4401   4.5122961433e+01   5.6978348009e+01     1.122324    0.6087562  25.80  0.004424953    2.446    0.591
       245 -12.9282     81.6268     40.9849   4.0718211082e+01   5.8367735118e+01    0.6404203    0.4966388  26.69  0.003041164    1.288    0.223
       246 -12.2228     75.3111     42.0909   4.3557195384e+01   5.9422697552e+01    0.5545925    0.3340247  51.78 0.0008702504    1.918    0.479
       247  -9.5689    227.3165    103.3243   2.6549270426e+01   1.4514940948e+01      0.13877    0.1001941   6.61 0.0005116502    1.669    0.401
       248 -10.7144    165.1297    102.2969   3.7615266949e+01   2.8052162650e+01    0.2701961    0.2090733 -23.54 0.0008378745    1.356    0.262
       249 -10.9362     96.1073    102.3492   5.6050868954e+01   4.2784599133e+01    0.2847976    0.2061923 -40.05  0.001338435    1.416    0.294
