#   1 NUMBER                 Running object number                                     
#   2 MAG_AUTO               Kron-like elliptical aperture magnitude                    [mag]
#   3 X_IMAGE                Object position along x                                    [pixel]
#   4 Y_IMAGE                Object position along y                                    [pixel]
#   5 X_WORLD                Barycenter position along world x axis                     [deg]
#   6 Y_WORLD                Barycenter position along world y axis                     [deg]
#   7 A_WORLD                Profile RMS along major axis (world units)                 [deg]
#   8 B_WORLD                Profile RMS along minor axis (world units)                 [deg]
#   9 THETA_WORLD            Position angle (CCW/world-x)                               [deg]
#  10 FWHM_WORLD             FWHM assuming a gaussian core                              [deg]
#  11 ELONGATION             A_IMAGE/B_IMAGE                                           
#  12 ELLIPTICITY            1 - B_IMAGE/A_IMAGE                                       
         1 -15.6449    169.9082      6.7925   3.7945239822e+01   4.1216237245e+01     3.128203    0.9474049  72.40   0.01154997    3.174    0.685
         2 -14.9915    138.4874      4.1054   4.1419260461e+01   4.8973423467e+01     1.570041    0.6511629  69.06  0.006885123    2.189    0.543
         3 -14.0443    123.0167      6.3509   4.4772869077e+01   5.2444270612e+01    0.7088327    0.4411467 -87.37  0.003476185    2.188    0.543
         4 -13.0464    124.9394     14.1415   4.7100868345e+01   5.1302950328e+01    0.3462054    0.2718587 -79.66  0.001677763    1.553    0.356
         5 -12.0365     50.2297     14.2858   6.8802576198e+01   6.6493042458e+01    0.2683588    0.1854234  28.22 0.0008334874    1.283    0.221
         6 -11.7016     24.8524     12.7304   7.9760189592e+01   7.0170354728e+01    0.2268365    0.1613435  10.34  0.000649009    1.225    0.184
         7 -11.7993     45.0360     11.7836   6.9784111018e+01   6.7596655394e+01    0.2098415    0.1468482 -34.58  0.001294476    1.654    0.395
         8 -11.3021     32.2552     10.9833   7.5218187227e+01   6.9497247197e+01    0.1659885    0.1267781  -6.41 0.0003645261    1.053    0.051
         9 -13.0676    113.8776      2.1712   4.5017701897e+01   5.4894264077e+01    0.5892095     0.207763  64.11 0.0004612099    2.504    0.601
        10 -13.7544     98.4607      7.3026   5.0282415070e+01   5.7938563796e+01    0.5022394    0.4145561 -36.45  0.002363972    1.445    0.308
        11 -12.8425     50.9777      7.4056   6.5172105129e+01   6.7153535479e+01    0.3324566    0.2215721 -23.78  0.002055414    1.503    0.335
        12 -12.8896     85.4952      7.2759   5.3596663393e+01   6.0705037325e+01    0.2830208    0.2372453 -16.83 0.0007638968    1.307    0.235
        13 -12.4957     88.7448      2.0282   5.0538480957e+01   6.0463754362e+01    0.3676939    0.1928031  41.71  0.001139011    1.607    0.378
        14 -10.4096      3.5071      8.5375   8.9500331942e+01   7.2829468018e+01    0.1125007   0.08278811 -18.23 6.023812e-05    1.044    0.042
        15 -12.7010     61.3865      5.7437   6.0446927580e+01   6.5529379592e+01     0.267961    0.1596945  49.12  0.001175296    1.660    0.398
        16 -12.3826    181.0902    244.4421   9.1841386756e+01  -1.7680887131e+00    0.2129644    0.1817207 -39.98 0.0007242395    1.441    0.306
        17 -11.8925    132.8172    247.3811   1.0188241690e+02   5.0340882859e+00    0.3247429    0.2031232  44.43   0.00152962    1.396    0.284
        18 -10.9494    139.6110    250.2041   1.0088105079e+02   3.5497778290e+00    0.2488694    0.1587199  35.42 0.0004110367    1.306    0.234
        19 -10.7082    136.4681    250.5336   1.0154874838e+02   3.9648192899e+00    0.1934284     0.151533  37.98  0.001247548    1.063    0.059
        20 -10.6225    123.6579    250.7136   1.0412008834e+02   5.8332153833e+00    0.2249978    0.1579417 -16.04  0.001246508    2.222    0.550
        21  -9.6862    125.1540    246.9669   1.0337139865e+02   6.2489627272e+00    0.1686888    0.1560863  40.45 0.0004370328    1.103    0.093
        22 -15.1068    111.5118    220.5839   1.0286422753e+02   1.3201302077e+01     2.263375     1.563387  66.95    0.0120957    1.698    0.411
        23 -15.9152     37.4220    182.4385   1.1511884486e+02   3.1595531419e+01      3.34512     1.809706 -75.90   0.01726662    1.676    0.403
        24 -18.4074     77.9028    184.4640   1.0566513342e+02   2.6084045841e+01      10.2325     6.245046  68.90   0.04745918    2.011    0.503
        25 -12.1434    141.3815    223.2711   9.6794455525e+01   7.9593913072e+00    0.2349608    0.1995266  62.05 0.0006433356    1.330    0.248
        26 -10.7131     22.4666    211.3914   1.2082655766e+02   2.6667173364e+01    0.2067288    0.1140846  24.96  0.001142773    2.290    0.563
        27 -11.2474    138.8151    232.8306   9.8719625925e+01   6.6336490578e+00    0.2138346    0.1599359  43.24 0.0002638685    1.208    0.172
        28 -13.7964    146.2328    187.9898   8.9848857702e+01   1.4086321014e+01     0.599309    0.4716598 -54.90  0.002355545    1.388    0.279
        29 -12.3219    149.1621    195.1893   9.0485148973e+01   1.2091659340e+01    0.2978875    0.2813028  44.61 0.0007371982    1.104    0.095
        30 -13.9300    143.8882    205.1554   9.3388792737e+01   1.1009552086e+01    0.7159265    0.4527139  65.03  0.002903428    2.468    0.595
        31 -11.8915    146.3103    202.6791   9.2431466272e+01   1.1086850944e+01    0.2934795     0.245385  83.39  0.001226911    1.562    0.360
        32 -11.6310    135.5130    230.1472   9.9035698077e+01   7.6336501637e+00    0.2793643    0.2383728 -71.59 0.0009304209    1.420    0.296
        33 -11.7732    161.4400    202.3327   8.9026479185e+01   8.5530821226e+00    0.2576781    0.2176525 -23.14 0.0009832626    1.226    0.185
        34 -10.3627     14.1876    196.5347   1.2147224142e+02   3.0677339288e+01     0.119019      0.11642  22.87 0.0008879502    1.402    0.287
        35 -10.1451     11.4047    187.6863   1.2142403622e+02   3.2895191147e+01    0.1916345    0.1104684 -84.27   0.00110945    1.454    0.312
        36 -11.1462     18.2795    184.6324   1.1968437919e+02   3.2977678171e+01    0.3575144    0.1492897 -52.18  0.001649665    2.730    0.634
        37 -10.0062     22.2638    186.1573   1.1892523298e+02   3.2259544604e+01    0.2504151    0.1429727  81.27  0.001359085    1.671    0.401
        38 -10.1762    164.3025    182.6559   8.4721184358e+01   1.1906515053e+01    0.1417294    0.1180747  83.47 0.0003492111    1.683    0.406
        39  -9.7389    201.3527    181.2873   7.6556778691e+01   5.4893795915e+00    0.1467921    0.1020638   2.40 0.0004850926    1.668    0.400
        40  -9.4268     13.5774    181.4592   1.2047430531e+02   3.4120258030e+01    0.1825673    0.1056887  38.24 0.0001618182    1.787    0.440
        41 -11.3426     10.5031    180.5054   1.2108259284e+02   3.4599718735e+01    0.1471241    0.1097947 -81.17  0.000958518    1.121    0.108
        42 -12.3974      3.0408    174.5711   1.2229748003e+02   3.6552389178e+01    0.4094094    0.1975853  64.19  0.002142262    2.064    0.515
        43 -11.0751    155.6143    176.1399   8.5406638183e+01   1.4849683188e+01     0.249977    0.1988395  47.67 0.0005894622    1.315    0.240
        44 -12.1626    148.6244    199.2208   9.1317565626e+01   1.1376058649e+01    0.3118888    0.2414467 -32.57  0.000977561    1.393    0.282
        45 -12.6312    148.0593    232.4113   9.6733173741e+01   5.2563629066e+00     0.323718    0.2586213 -54.35   0.00035002    1.491    0.330
        46 -10.6552    157.4717    154.9600   8.0510863298e+01   1.9000238835e+01    0.2171241    0.2008712  24.94 0.0005997198    1.074    0.069
        47 -10.0083    144.4986    153.5045   8.3304875411e+01   2.1883487650e+01    0.1525427    0.1484665  -8.09 8.108733e-05    1.002    0.002
        48 -13.0134    126.8330    150.1799   8.7025245835e+01   2.6057261082e+01    0.4089957    0.3497318  32.48  0.001596427    1.191    0.160
        49 -12.2228    246.3480    138.5158   5.9349765929e+01   5.0895312985e+00    0.2497609    0.1098391 -36.89 0.0009784544    1.936    0.484
        50 -13.1718    249.1143    128.0857   5.6685232898e+01   6.3419086158e+00    0.4530522    0.2716033 -49.33  0.002276959    1.716    0.417
        51 -12.4163    146.5109    228.0576   9.6418244956e+01   6.2691723102e+00    0.3282132    0.2161731  47.87   0.00109081    1.513    0.339
        52 -15.8659     52.7109    175.9405   1.1071726171e+02   3.1402901980e+01     4.127614    0.5467389 -66.54  0.009864205    7.173    0.861
        53 -11.8019    144.6334    239.5721   9.8454765794e+01   4.5579792630e+00     0.258923     0.183076  64.52  0.001424504    1.904    0.475
        54 -12.6048    248.7526    117.0564   5.4351141912e+01   8.2247643553e+00     0.410206    0.2027218 -56.13  0.001645238    2.917    0.657
        55 -15.9754     92.1339    226.7237   1.0778302783e+02   1.4869372291e+01     1.995353     1.397777  80.28   0.01135445    1.629    0.386
        56 -12.7205    249.7395     99.7221   5.0437480300e+01   1.0857949032e+01    0.3599316    0.1826504 -39.52  0.001732884    1.648    0.393
        57 -12.6710     26.4595    101.0028   1.0689446339e+02   5.2447264784e+01    0.3669153    0.2359424 -28.59  0.001234359    1.712    0.416
        58 -12.3869     19.5074     95.3260   1.0822094403e+02   5.4330980845e+01    0.2725821    0.2085531  69.74 0.0009574236    1.643    0.392
        59 -10.2029     90.7696     94.8192   8.3631150733e+01   4.5605424293e+01    0.1864943    0.1729432 -88.18 0.0002671253    1.287    0.223
        60  -9.9712    132.9341     92.9786   7.0856720351e+01   3.7527695207e+01    0.1773013    0.1663941 -28.00 -0.001877172    1.044    0.042
        61 -15.9761     72.9520    223.7128   1.1149493366e+02   1.8144118063e+01     1.438872    0.7922885 -81.34  0.007330834    2.106    0.525
        62 -12.6071     15.5911     89.4014   1.0848480163e+02   5.5991769728e+01    0.3224329    0.2022408 -77.36  0.001745202    1.659    0.397
        63 -12.7439    160.8093    231.2145   9.3913316233e+01   3.4514870950e+00    0.3687187    0.2280006 -49.23   0.00150072    1.900    0.474
        64 -12.4095      8.8843     88.5254   1.1072240385e+02   5.6609573723e+01    0.3186501    0.1950854 -17.11  0.001784144    1.922    0.480
        65 -17.0869     57.7806    219.7313   1.1427511864e+02   2.0930854977e+01     7.079343     3.214585  88.73   0.02970834    3.182    0.686
        66 -12.8001    157.4735    231.4856   9.4643388816e+01   3.9317785509e+00    0.3089736    0.2401065 -21.09  0.001507074    1.455    0.313
        67 -12.1165     34.9635     77.4817   9.8564400509e+01   5.7155759699e+01    0.2510715     0.172662 -54.08 0.0006194818    1.283    0.221
        68 -12.1047     39.1287     71.9013   9.5429938150e+01   5.7962238044e+01    0.4201412    0.2160489  17.10  0.001630005    2.295    0.564
        69 -11.9349      7.6442     67.8995   1.0706342506e+02   6.1339901400e+01    0.2674316    0.1746994 -62.39 0.0007557614    1.330    0.248
        70 -13.2304    170.8592    227.0067   9.1185401990e+01   2.5697345011e+00    0.4277822    0.2835028  -6.03  0.002187018    1.960    0.490
        71 -10.7104     99.4386     62.2457   7.0639058926e+01   5.0503835684e+01     0.327161    0.2136595 -64.55 0.0009936808    2.656    0.624
        72 -12.0232     43.1319     62.5984   9.1043653315e+01   5.9478089007e+01    0.2357616    0.1874911 -33.31 0.0002892235    1.066    0.062
        73 -11.9721      3.7135     58.9984   1.0663838221e+02   6.3468392110e+01    0.3124909    0.1846313 -79.28  0.001669846    2.179    0.541
        74 -10.3590     22.1327     57.8857   9.8407834679e+01   6.2496702210e+01    0.1740466     0.162375 -36.29 0.0009546219    1.227    0.185
        75 -11.8628    166.0583    218.9546   9.0875760332e+01   4.7275566435e+00    0.2266507    0.2019396  18.60    0.0003578    1.023    0.023
        76 -13.5349    166.6765    212.7790   8.9711496927e+01   5.7272026036e+00    0.5722609    0.3664995 -56.77  0.002383147    2.037    0.509
        77 -10.3784    138.3265     39.4269   5.2866790550e+01   4.5280180420e+01    0.2696566    0.1215799  53.49  0.001109091    2.003    0.501
        78 -12.4231    152.2133    236.1888   9.6422271341e+01   3.9571204670e+00    0.2346854    0.2157619  18.67  0.000889933    1.088    0.081
        79 -11.0788    119.0907     35.1189   5.5700731922e+01   5.0349544894e+01    0.2052572    0.1853807  34.27  0.000345848    1.016    0.016
        80 -10.4081    154.0181     32.2180   4.7617756375e+01   4.2391145494e+01    0.1916987    0.1643152  63.95 0.0003239314    1.082    0.076
        81 -11.2921    110.8236    242.9074   1.0578231810e+02   9.0815372079e+00    0.1675196    0.1502796  23.21 0.0003383795    1.216    0.177
        82 -11.6671     96.9314     23.9069   5.7212939344e+01   5.6614732047e+01    0.4594196     0.186038  35.99  0.001779862    2.772    0.639
        83 -12.7706    145.5635     16.5876   4.4227790594e+01   4.6149500488e+01    0.2615201    0.2234149  85.95  0.001579255    1.179    0.152
        84 -10.0605     59.9752    248.8465   1.1634012281e+02   1.4918856369e+01    0.1833691    0.1309097 -41.02  0.001135654    2.159    0.537
        85 -13.2272    135.6250    223.6172   9.8077708471e+01   8.8186474273e+00     0.454209    0.3502281  37.04  0.002654731    1.149    0.130
        86 -11.2731    135.0859    238.9927   1.0033464577e+02   6.1263490127e+00    0.2576113    0.2061923 -74.17  0.001114841    1.603    0.376
        87 -12.3543    129.7273    234.0908   1.0078952922e+02   7.8213460131e+00    0.6193606    0.4093173 -39.71  0.003432078    1.824    0.452
        88 -11.9116    119.9804    244.5636   1.0412378901e+02   7.4349242903e+00    0.2982304    0.2296405  -1.56  0.001775247    1.773    0.436
        89 -10.3746    124.2300    242.9526   1.0306494763e+02   7.0825055032e+00    0.1914428    0.1478565 -29.49 0.0004363709    1.657    0.397
        90 -11.4652    143.3617    246.6546   9.9669488139e+01   3.5678903672e+00    0.2715099    0.2034773  62.32  0.001380024    1.641    0.391
        91 -12.5074    139.5259    242.1111   9.9842072077e+01   4.9101124142e+00    0.5273025    0.3614482 -17.97   0.00227199    2.083    0.520
        92 -12.7539    148.5256    214.3261   9.3868724145e+01   8.4613540038e+00    0.3123471    0.2222021 -39.22  0.001000655    1.540    0.351
        93 -11.0858    117.5229    237.5205   1.0376605863e+02   9.0609398502e+00    0.2509044    0.2146211 -58.08  0.001632271    1.348    0.258
        94 -11.2336    103.4858    245.6015   1.0756339998e+02   9.6627079023e+00    0.2311806    0.1734448 -37.80  0.001420676    1.771    0.435
        95 -11.4341     98.9977    246.4878   1.0855410039e+02   1.0143779606e+01    0.1615922    0.1358054  48.43 0.0003199952    1.026    0.025
        96 -11.4306    200.0339    246.1343   8.8438816171e+01  -4.7711355742e+00    0.1880358    0.1498298  15.61  0.000541656    1.029    0.028
        97 -12.9123    140.9113    228.5075   9.7663992122e+01   7.0783188076e+00    0.4096634     0.259904 -41.28 0.0008458308    1.810    0.448
