#   1 NUMBER                 Running object number                                     
#   2 MAG_AUTO               Kron-like elliptical aperture magnitude                    [mag]
#   3 X_IMAGE                Object position along x                                    [pixel]
#   4 Y_IMAGE                Object position along y                                    [pixel]
#   5 X_WORLD                Barycenter position along world x axis                     [deg]
#   6 Y_WORLD                Barycenter position along world y axis                     [deg]
#   7 A_WORLD                Profile RMS along major axis (world units)                 [deg]
#   8 B_WORLD                Profile RMS along minor axis (world units)                 [deg]
#   9 THETA_WORLD            Position angle (CCW/world-x)                               [deg]
#  10 FWHM_WORLD             FWHM assuming a gaussian core                              [deg]
#  11 ELONGATION             A_IMAGE/B_IMAGE                                           
#  12 ELLIPTICITY            1 - B_IMAGE/A_IMAGE                                       
         1 -13.7766    202.2015     31.9059   1.5946528533e+01   3.1662225450e+01    0.8398492    0.6863813 -53.04  0.003967123    1.071    0.066
         2 -11.5714    227.2855      9.5060   9.2656156444e+00   2.9206424593e+01    0.2232276    0.1599368 -51.92  0.000710561    1.017    0.017
         3 -12.5247     68.6111      6.7392   2.6236669853e+01   6.7711298758e+01    0.5723781    0.2338423  76.56  0.002051963    2.997    0.666
         4 -10.8696      4.5489      4.8675   7.0009046645e+01   8.0676687945e+01    0.5383321    0.1673675  18.73  0.001972252    3.614    0.723
         5 -12.9553    173.2114    173.5914   5.2072576779e+01   1.4232633764e+01    0.7006407    0.5037112 -21.09  0.002750707    1.366    0.268
         6 -13.5110    246.7271    245.6152   5.0920033701e+01  -3.4014729620e+00    0.6684163    0.3750284 -15.04   0.00528042    1.327    0.246
         7  -9.2468    221.5309    210.4866   4.9697568452e+01   2.8631513263e+00    0.1080434   0.08041515  -9.41 0.0001296915    1.011    0.011
         8 -10.7010      9.2180    166.8460   9.5833258547e+01   3.7784623432e+01    0.1782922    0.1477164 -87.63 0.0006367865    1.214    0.176
         9  99.0000     49.3473    205.7689   8.6586975367e+01   2.4572651604e+01     9.678447     4.484819  39.39   0.03442999    1.712    0.416
        10 -12.3675    133.7937    145.9680   5.5421340145e+01   2.5891794541e+01     1.160924    0.3141437 -55.33  0.002932546    5.789    0.827
        11  -9.8788    129.6275    140.8199   5.5393429572e+01   2.7746785808e+01    0.2056236    0.1789588  74.59 0.0004419232    1.333    0.250
        12 -10.0966    210.9917    198.6752   4.9550917706e+01   5.5473993755e+00    0.1518706    0.1181463   2.93 0.0004480205    1.122    0.108
        13 -11.7731    180.4016    167.9663   4.9687596275e+01   1.4153755635e+01    0.5890337    0.3623029 -59.73  0.002848391    2.557    0.609
        14 -11.9203    155.1153    178.2201   5.6571783451e+01   1.6043844977e+01    0.3163292    0.1762817  29.60  0.001566938    1.761    0.432
        15 -11.9543    100.1414    129.5282   6.1114835766e+01   3.5771222480e+01    0.3014051    0.2881727 -14.01 0.0003763444    1.141    0.123
        16 -12.2633    105.9074    130.4501   5.9603028910e+01   3.4486294656e+01    0.4745483    0.4155754  66.83  0.001138526    1.193    0.162
        17 -11.3447    111.2008    131.1868   5.8243969114e+01   3.3327411013e+01    0.3829796    0.2452282 -28.18  0.001352177    2.163    0.538
        18 -10.7052    136.0000    129.5119   5.1376218117e+01   2.9005655035e+01    0.3235895   0.08201452 -47.54 0.0009270147    3.873    0.742
        19 -19.0148     35.6349     95.3713   7.8365245723e+01   5.5155926014e+01     18.37276    0.9840498 -68.70   0.02429586   17.623    0.943
        20 -11.8549      9.0846    175.7373   9.6235739453e+01   3.5537292315e+01    0.2159439    0.1921854   8.96    0.0011211    1.301    0.231
        21 -10.7458    116.9924    124.9923   5.5249156391e+01   3.3669192937e+01    0.2357337    0.1887601  -9.71 0.0006265381    1.620    0.383
        22 -10.8259    105.2746    119.3532   5.7287570188e+01   3.7271194527e+01    0.2958743    0.2675545  -2.26 0.0006728736    1.288    0.223
        23  -9.6308    111.8041    115.1555   5.4376065651e+01   3.6974389882e+01    0.2015418    0.1830837   6.86  0.000422987    1.271    0.213
        24 -12.3289    118.7702    110.1118   5.1175773642e+01   3.6710615829e+01    0.5955479    0.4346901  88.02   0.00261338    1.858    0.462
        25 -12.0478    119.1764    104.7721   4.9688404072e+01   3.7823339139e+01    0.5190072    0.3266912 -79.38  0.001915432    2.664    0.625
        26 -11.7836    115.6494    102.2890   4.9998933203e+01   3.9129366952e+01    0.4114875     0.276011 -88.32  0.001332839    2.319    0.569
        27 -10.6384    134.5178    105.9903   4.6087622825e+01   3.4307711295e+01    0.2395054    0.1444087 -46.21  0.001037778    1.606    0.378
        28 -10.1235    132.4753     98.0048   4.4481044077e+01   3.6416470808e+01    0.2261815     0.144778 -47.47 0.0004670433    1.512    0.339
        29 -11.4331    124.5317     96.7472   4.6118185455e+01   3.8421060883e+01    0.5030956    0.2645267  64.93  0.001562951    2.789    0.641
        30 -10.5211    109.2425     97.1517   5.0426376541e+01   4.1665863356e+01    0.2938143    0.1988064  73.72 0.0007524646    1.970    0.492
        31 -11.3913     60.6768     90.6850   6.5972510191e+01   5.2853105082e+01    0.2707886    0.2480967 -18.04 0.0007952352    1.244    0.196
        32 -10.2400    152.3058     87.1766   3.7212862122e+01   3.4179753540e+01    0.2256024     0.182626 -25.22 0.0007345594    1.410    0.291
        33 -10.0115     95.7711     86.8016   5.1597903093e+01   4.6957135923e+01    0.2196668     0.181341  82.76 0.0004869245    1.327    0.246
        34 -10.2755    115.1288     85.6275   4.5436510534e+01   4.2901489885e+01    0.2500753    0.2064521 -67.33 0.0004267656    1.235    0.191
        35 -12.8377     72.5282    224.6333   8.2193440576e+01   1.8043568214e+01    0.2456667    0.2084853 -45.37    0.0013669    1.436    0.304
        36 -17.2367     69.1115    142.9214   7.3582985827e+01   3.7515147249e+01     5.835732     3.979397  69.37     0.026124    1.674    0.403
        37  -9.4918    115.2801     74.6681   4.2017934393e+01   4.5142836860e+01    0.1593138    0.1170677 -77.17 0.0003043515    1.607    0.378
        38 -10.9132     58.2836     73.9007   6.2166197248e+01   5.7578791474e+01    0.2750328    0.2029343  48.95 0.0005702456    1.359    0.264
        39  -9.7816      1.6499     73.9229   9.2903976873e+01   6.3833348895e+01    0.1863904    0.1683095 -84.85 0.0006299166    1.041    0.040
        40 -13.1676    166.1386     69.3771   2.9911002329e+01   3.4206312841e+01    0.5262642    0.4809437  -6.13  0.001841422    1.365    0.267
        41 -10.4345     65.1563    233.3311   8.4654575623e+01   1.7184480789e+01    0.1004882   0.08390841 -42.46 0.0006443954    1.505    0.336
        42 -10.8554    136.2728     66.5393   3.4495952410e+01   4.1656191228e+01    0.2663665    0.2349121 -65.59 0.0003924632    1.053    0.050
        43 -10.4394     74.3615     65.8619   5.2446867540e+01   5.6350392719e+01    0.2604739    0.2042289  58.51 0.0004704813    1.289    0.224
        44 -13.7169    180.2331     57.1813   2.4631715847e+01   3.2976251294e+01    0.9809737    0.8573542   6.69  0.003765253    1.566    0.361
        45 -12.2040    186.7037     50.7069   2.2165201673e+01   3.2497855499e+01    0.3688286    0.3378709 -59.54  0.000881361    1.137    0.120
        46 -11.3695     56.1433     63.2431   5.9567430845e+01   6.0560703810e+01    0.4188229    0.2195906  46.11   0.00137446    1.925    0.480
        47  -9.6857     13.5003     59.8854   8.3344080343e+01   6.6991131853e+01    0.2072376    0.1341942 -72.38 0.0004645106    1.492    0.330
        48 -11.3572     69.0470    245.8062   8.4647197220e+01   1.4480320446e+01    0.1768119     0.128971  35.35 0.0005218944    1.067    0.063
        49 -10.6966     79.2278     32.0514   3.6339239667e+01   6.1746486110e+01    0.4357457    0.1837793  68.50  0.001408109    3.296    0.697
        50 -10.7812     60.8318     21.2948   3.7685512528e+01   6.7809434714e+01    0.2256723    0.1704634  72.41 0.0007664906    1.415    0.293
        51 -10.1810    158.9949    189.7534   5.7678460979e+01   1.3436430922e+01    0.1746521    0.1517951   1.88 0.0005528677    1.006    0.006
        52 -10.3952     85.8255    239.5545   8.0333554865e+01   1.3767646551e+01    0.1532381    0.1379587 -13.83 0.0006334698    1.294    0.227
