#   1 NUMBER                 Running object number                                     
#   2 MAG_AUTO               Kron-like elliptical aperture magnitude                    [mag]
#   3 X_IMAGE                Object position along x                                    [pixel]
#   4 Y_IMAGE                Object position along y                                    [pixel]
#   5 X_WORLD                Barycenter position along world x axis                     [deg]
#   6 Y_WORLD                Barycenter position along world y axis                     [deg]
#   7 A_WORLD                Profile RMS along major axis (world units)                 [deg]
#   8 B_WORLD                Profile RMS along minor axis (world units)                 [deg]
#   9 THETA_WORLD            Position angle (CCW/world-x)                               [deg]
#  10 FWHM_WORLD             FWHM assuming a gaussian core                              [deg]
#  11 ELONGATION             A_IMAGE/B_IMAGE                                           
#  12 ELLIPTICITY            1 - B_IMAGE/A_IMAGE                                       
         1 -13.6527     33.6719    102.0296   1.1715455593e+02   5.1027116493e+01     1.345345     1.003597   4.46  0.007892141    1.904    0.475
         2 -13.3546      2.0836     65.0977   1.2165769128e+02   6.1554081789e+01     3.616535     0.210955 -71.85  0.006311795   17.098    0.942
         3 -11.8738      7.0820      6.5498   1.0375423036e+02   7.3299690129e+01    0.3714395    0.1783525 -28.90  0.002079882    2.051    0.512
         4 -12.5403      2.3151     17.9828   1.1080005691e+02   7.1434616083e+01    0.7304677     0.157187 -59.36  0.003022352    3.210    0.688
         5 -11.7108    207.8892     19.8426   5.0459603678e+01   3.0024402442e+01    0.3707231    0.2709537  24.50  0.001029181    1.660    0.397
         6 -12.6620    214.1854     12.2032   4.7593005922e+01   2.9213911743e+01     0.679594    0.6305768 -76.62  0.003149593    1.024    0.024
         7 -11.6040    164.8156    242.1741   1.0726544635e+02   6.0706684134e+00    0.3263836    0.1261282  43.84  0.001735907    1.930    0.482
         8 -14.7153    243.8680    233.5876   9.3285836056e+01  -4.8463326596e+00     2.160727     1.008488 -22.54   0.01299515    2.454    0.593
         9 -10.7778    161.8210    249.1774   1.0855498717e+02   5.6853882200e+00    0.4297817    0.1851965  39.51  0.002470928    1.741    0.425
        10 -13.1895    118.6570    246.1351   1.1539745891e+02   1.2365036170e+01    0.7151158    0.5037007  43.15  0.004288597    1.169    0.145
        11 -13.1218    128.6655    245.0220   1.1362468743e+02   1.1082144670e+01    0.5406603    0.4746528  45.95  0.002915672    1.226    0.185
        12 -11.2857    102.0697    236.8590   1.1735981781e+02   1.6004186192e+01    0.5122409    0.3163036  81.14  0.003365448    1.950    0.487
        13 -11.1028    112.4432    235.9156   1.1550255554e+02   1.4682207173e+01    0.4914609    0.3275169  28.02   0.00321453    1.867    0.464
        14  -9.9493     96.5937    239.2397   1.1848884904e+02   1.6405314332e+01    0.3645556    0.1241977 -65.41  0.001859477    3.774    0.735
        15 -12.4554     94.0952    247.1267   1.1953482887e+02   1.5600896872e+01    0.5861158    0.3213384  62.62  0.003578028    1.657    0.396
        16 -12.0271     84.2548    248.4028   1.2123050111e+02   1.6704990940e+01    0.5916988    0.1804384  43.85  0.003167513    2.302    0.566
        17 -12.6556     70.5760    248.6842   1.2344591017e+02   1.8383709298e+01    0.5793868     0.272454  56.32  0.003153865    1.605    0.377
        18 -12.1281     61.6124    249.9807   1.2494361216e+02   1.9275738470e+01    0.5419947    0.1690618  40.08    0.0027907    2.551    0.608
        19  -9.7423     62.6185    243.5192   1.2439597292e+02   2.0114317550e+01    0.4432681    0.3979138  12.02  0.003711517    1.947    0.486
        20  99.0000     17.7829    209.5270   1.2996535317e+02   3.0542904646e+01     3.649394     1.246876  52.96   0.02166634    2.117    0.528
        21 -15.3867     37.8138    243.9619   1.2834192981e+02   2.2872040897e+01     1.475425    0.8139786  56.72   0.01134185    1.250    0.200
        22 -15.7993     22.1114    247.4217   1.3088316773e+02   2.3981986270e+01     1.527805    0.4046749  40.93  0.008890854    2.679    0.627
        23 -15.1769      9.4169    241.6796   1.3257202032e+02   2.6087204412e+01    0.7548769    0.4404209  63.37  0.006104576    1.128    0.114
        24 -10.4503    170.5460    236.5066   1.0562515326e+02   5.8809300432e+00    0.4032595    0.1391463  48.50  0.001874621    2.626    0.619
        25 -11.4509    148.7735    223.3778   1.0779441516e+02   1.0997719945e+01    0.4900272    0.3957313  38.96  0.002898291    1.103    0.093
        26 -12.6429    157.2158    207.0100   1.0413239674e+02   1.1972418747e+01      1.01848    0.5676231 -53.87  0.005610986    2.339    0.573
        27 -15.1207    126.3525    212.8931   1.1060439440e+02   1.6073017123e+01      2.63813      1.61572  37.53   0.01581489    1.488    0.328
        28  -9.8030     94.0200    209.6834   1.1626633542e+02   2.1423806030e+01     1.958343      1.45512  83.65     0.010867    1.353    0.261
        29  -8.8074    162.7448    223.8149   1.0537924876e+02   8.7199013692e+00    0.7492059    0.4800989  22.13  0.004459589    1.879    0.468
        30 -10.5484      1.7962    212.3254   1.3274761362e+02   3.1526866628e+01    0.1945824   0.09589522  77.95 0.0009341354    1.557    0.358
        31  99.0000     45.9126    188.1367   1.2352523411e+02   3.1494119778e+01    0.3397056    0.2170074 -68.48  0.002279089    1.612    0.380
        32 -10.4827     51.4944    204.1015   1.2367028724e+02   2.7916822022e+01    0.6679441    0.3706833  69.10  0.003869277    1.584    0.369
        33 -11.6798     50.9871    192.7200   1.2290350133e+02   3.0050625948e+01    0.6102694    0.3197178 -63.22  0.003709887    2.039    0.510
        34  -9.5826     60.0881    193.3293   1.2119932925e+02   2.8846338047e+01      0.69412    0.3342003 -70.93  0.003994956    2.073    0.518
        35  -9.9782     58.6431    186.0251   1.2084425338e+02   3.0396935811e+01    0.1769019    0.1302292  55.77  0.001218643    1.163    0.140
        36 -11.3633    181.4595    195.7124   9.7964267539e+01   9.4542680827e+00    0.4094566    0.3196303 -23.21  0.002506964    1.507    0.337
        37  -9.4392     18.0253    190.8099   1.2897880800e+02   3.3877051624e+01    0.2615936    0.2066655  60.34   0.00152737    1.215    0.177
        38  99.0000     25.7130    192.3766   1.2764981680e+02   3.2843542383e+01     0.631595    0.2704849  89.84   0.00360547    2.206    0.547
        39  99.0000     28.5721    185.3914   1.2667722570e+02   3.3867188862e+01    0.5715762    0.2381897  77.29  0.002983806    2.503    0.600
        40  -9.8610      1.4188    195.1399   1.3215773327e+02   3.4565807029e+01    0.1427007   0.07501043 -88.86 0.0007299772    1.536    0.349
        41 -11.5707    148.4874    190.6077   1.0342734117e+02   1.5987773236e+01      0.65239    0.3967083  54.25  0.003530291    1.594    0.373
        42 -12.0351    144.8542    183.0910   1.0300327805e+02   1.7863996466e+01     1.196381      0.35005  42.43  0.004473524    2.966    0.663
        43 -14.4443    198.8732    163.7274   8.9046598678e+01   1.0915564057e+01     2.511999     1.444042 -20.67   0.01180274    2.211    0.548
        44 -15.1186    183.3423    146.1172   8.8462039040e+01   1.6769166185e+01     2.654605     1.965913 -19.50   0.01387487    1.536    0.349
        45 -13.0718     25.7809    152.9701   1.2487736330e+02   4.0599415819e+01     1.312254    0.9221288 -34.48  0.008241681    2.327    0.570
        46 -14.9563     11.7324    138.8458   1.2691715129e+02   4.4777359132e+01     1.824008      1.16146 -86.60  0.009262333    1.243    0.195
        47 -13.2053     28.4528    138.0458   1.2292217672e+02   4.3513254970e+01    0.6965138    0.5026315  75.72   0.00367645    1.200    0.167
        48 -13.5143     37.7233    133.2289   1.2015759165e+02   4.3658937509e+01     1.022907    0.6621106  51.99  0.004647458    1.514    0.340
        49 -12.5534    175.6515    181.7563   9.6750712138e+01   1.2544684256e+01    0.6999591    0.5635727  68.43  0.004164448    1.546    0.353
        50 -10.1072     66.8978    184.8721   1.1908357826e+02   2.9581650357e+01    0.1853633     0.148665  37.97  0.001272654    1.427    0.299
        51 -11.5708    161.5110    179.4944   9.9115771210e+01   1.5479704556e+01    0.5213991    0.4027579  33.81  0.003059877    1.202    0.168
        52 -10.8936     88.4426    160.5611   1.1165900632e+02   3.1409943162e+01    0.5458175     0.318543 -36.65   0.00210927    2.958    0.662
        53 -13.4527     98.3256    172.3761   1.1110039713e+02   2.7560830317e+01     1.381358    0.9140275  47.18  0.005463326    1.350    0.260
        54 -11.5422     82.6804    165.9716   1.1365389545e+02   3.1154315975e+01    0.4309815    0.2884122 -65.42  0.002542173    1.509    0.337
        55 -12.8373     75.0285    122.7071   1.0904672045e+02   4.1484789190e+01     1.416067    0.9011201 -24.42  0.006247332    2.984    0.665
        56 -11.6776     59.2553    177.8241   1.1996137078e+02   3.1907001091e+01     1.112231    0.4298422  39.60  0.005557361    2.345    0.574
        57 -13.5475     70.4428    144.5683   1.1361417423e+02   3.7322142710e+01     1.389854    0.7585249 -80.64   0.00682664    2.051    0.512
        58 -13.5271     83.2765    133.5864   1.0878621940e+02   3.7884798599e+01     1.290647      1.07791 -50.41  0.006239401    1.313    0.239
        59 -14.1246     70.2119    164.9427   1.1626441236e+02   3.3082607590e+01     1.136017    0.7535775  86.29  0.001488829    1.500    0.334
        60 -11.8470    139.3139    169.0250   1.0188227722e+02   2.1306447085e+01    0.5654311    0.4942305  81.80  0.002664482    1.238    0.193
        61 -12.5172    146.2843    166.2902   9.9959845824e+01   2.0525552224e+01    0.8683191    0.6195313  21.32  0.004536943    1.762    0.432
        62 -13.2335    142.2270    159.9005   9.9693184511e+01   2.2436870295e+01     1.058383    0.6979064  18.78  0.004928965    2.258    0.557
        63 -10.2939     26.3295    164.7811   1.2568780476e+02   3.8126011183e+01     0.269863    0.1929488 -87.75  0.001324497    1.163    0.140
        64 -11.6491    100.1236    159.5544   1.0889434915e+02   2.9816871485e+01    0.5115456    0.3930584  82.45  0.003015639    1.339    0.253
        65 -11.5205     52.8772    158.6396   1.1939544184e+02   3.6554075620e+01    0.6513537    0.5535488 -40.66   0.00355521    1.638    0.389
        66 -14.3071    131.2121    139.1493   9.8228578783e+01   2.8501903520e+01     1.715081     1.258787 -49.77  0.009032062    1.430    0.301
        67 -12.7680    203.6149    182.5160   9.1688541022e+01   7.3563926405e+00     1.673164    0.7946705  22.08  0.006271506    3.672    0.728
        68 -13.9603    162.2451    124.0455   8.7955419217e+01   2.5101070976e+01     1.145174     0.855728 -39.55    0.0057652    1.391    0.281
        69 -11.0031     98.8085    129.3357   1.0412766518e+02   3.6358727885e+01    0.2933502    0.2465355  10.28  0.001000287    1.584    0.369
        70 -12.8358     12.4726    177.1505   1.2927307611e+02   3.6961991051e+01     1.152669     0.710079 -64.75  0.007674704    1.763    0.433
        71 -11.4261     74.4156    176.9452   1.1672191770e+02   3.0123400212e+01    0.3680708    0.2933141  19.46  0.001868602    1.797    0.443
        72 -11.4057     89.7666    144.4415   1.0896629791e+02   3.4565641255e+01    0.2604399    0.2325269 -61.22 0.0003171724    1.203    0.169
        73 -13.4117     58.1406    101.6312   1.0990448697e+02   4.8478975374e+01     1.439299    0.9100245 -83.56  0.007384457    1.786    0.440
        74 -11.4123    146.6628    246.9955   1.1082473547e+02   8.1946303010e+00    0.4840921    0.2330742  47.31  0.002029584    1.578    0.366
        75 -10.3837    135.9572    233.0126   1.1115218635e+02   1.1635772891e+01    0.3188236    0.1659238  36.60  0.001863624    1.701    0.412
        76 -12.7504     43.7413    105.4162   1.1476277950e+02   4.9261910101e+01     1.333711    0.6281477 -47.53  0.006343849    2.278    0.561
        77 -10.8480     29.8445     67.8676   1.1221414201e+02   5.9066436125e+01    0.2004251    0.1458532 -46.74   0.00125321    1.259    0.206
        78 -11.3449     77.8355     99.7574   1.0375612118e+02   4.6219853785e+01     0.345733    0.2318643  59.33  0.001751214    1.728    0.421
        79 -12.2142    191.7496     34.9028   5.7076667741e+01   3.2475161898e+01    0.4041881    0.3118721  33.08  0.001451718    1.426    0.299
        80 -12.2615    199.5954     29.1527   5.4234117052e+01   3.1121146043e+01    0.5148571    0.3790107 -48.11  0.002583173    1.369    0.269
        81 -11.5562    148.5275     29.4442   6.2625422280e+01   4.4543554774e+01    0.4314728    0.3059739 -10.69  0.002035077    1.561    0.360
        82 -10.8190    142.5172    230.4207   1.0972394202e+02   1.0994912250e+01    0.2902005    0.2166701  33.79  0.001565263    1.276    0.217
        83 -12.6526    146.8727    238.2915   1.0985392450e+02   9.2761454508e+00     1.222898    0.5972115  56.77  0.006637784    2.271    0.560
        84 -11.2557    139.8621    241.9928   1.1143954791e+02   9.8416231422e+00    0.3917842    0.3216467 -43.68  0.002877566    1.674    0.403
