#   1 NUMBER                 Running object number                                     
#   2 MAG_AUTO               Kron-like elliptical aperture magnitude                    [mag]
#   3 X_IMAGE                Object position along x                                    [pixel]
#   4 Y_IMAGE                Object position along y                                    [pixel]
#   5 X_WORLD                Barycenter position along world x axis                     [deg]
#   6 Y_WORLD                Barycenter position along world y axis                     [deg]
#   7 A_WORLD                Profile RMS along major axis (world units)                 [deg]
#   8 B_WORLD                Profile RMS along minor axis (world units)                 [deg]
#   9 THETA_WORLD            Position angle (CCW/world-x)                               [deg]
#  10 FWHM_WORLD             FWHM assuming a gaussian core                              [deg]
#  11 ELONGATION             A_IMAGE/B_IMAGE                                           
#  12 ELLIPTICITY            1 - B_IMAGE/A_IMAGE                                       
         1 -12.2658      2.2822     43.2766   1.4463469220e+02   6.8899009945e+01     1.678157     0.172163 -75.89  0.004250322    7.266    0.862
         2 -13.3605      5.7062      9.5057   1.3359244669e+02   7.6451855889e+01     1.809975     0.926043 -56.00   0.01008557    1.552    0.356
         3 -13.3295    190.2397     27.7146   7.3490161171e+01   3.3425191298e+01     1.323519     1.269488  51.33  0.006751923    1.115    0.103
         4 -13.6528    203.7812      9.1252   6.6552885016e+01   3.1832669811e+01     1.597929     1.082226  47.19   0.00814971    1.674    0.403
         5  -9.3879     22.8289     58.5250   1.3670404557e+02   6.4123211855e+01    0.2757793   0.09082554  33.04  0.001122561    3.032    0.670
         6 -10.8442    248.8556    248.5226   1.1185899799e+02  -4.4829458414e+00    0.2601805    0.1742873  -5.40  0.002159148    1.390    0.281
         7 -10.7670    138.9216    248.7175   1.3020201021e+02   9.8261321040e+00    0.2518771    0.1756987 -31.41  0.001808851    2.102    0.524
         8 -10.9545    124.1275    249.8514   1.3300069938e+02   1.1680678283e+01     0.597519   0.04429506  40.36  0.001819255    5.948    0.832
         9 -10.3222     98.4196    249.2259   1.3767537062e+02   1.5137288220e+01    0.2186684    0.1462716  47.58  0.001090922    1.118    0.106
        10 -10.5481    102.6796    247.9721   1.3679127654e+02   1.4761201162e+01    0.2231406    0.1282091  45.86 0.0005820854    1.256    0.204
        11  -8.9172     67.4937    250.5337   1.4344689260e+02   1.8746185194e+01    0.1080918   0.07180079  47.73 4.381758e-05    1.019    0.018
        12 -12.8528      6.1164    243.8900   1.5420340043e+02   2.6092543974e+01     2.345864    0.4780875  37.83   0.01289805    2.539    0.606
        13 -14.3440      7.0258    209.5258   1.5329853516e+02   3.1722341162e+01     3.110592    0.7058541 -70.79   0.01404826    4.626    0.784
        14 -14.1764     55.2437    211.7175   1.4353762170e+02   2.6423029553e+01     7.821705          nan  41.25   0.02170204    6.935    0.856
        15 -12.5634     41.9323    234.0654   1.4737853309e+02   2.4145405353e+01    0.3223307     0.248917 -61.19 0.0007900804    1.861    0.463
        16 -10.4899    173.2897    221.9349   1.2081947632e+02   8.2424929865e+00    0.3705195    0.2626463  59.78  0.002307289    2.084    0.520
        17  -8.3403     74.3417    242.7150   1.4171504937e+02   1.9083584591e+01     0.115473   0.05546717  52.96 0.0003509398    1.638    0.389
        18 -13.2569      4.5787    184.4080   1.5315138832e+02   3.6606724261e+01     1.626263    0.5979899 -88.05  0.008422907    2.508    0.601
        19  -8.8342    152.4724    212.9831   1.2360308608e+02   1.2575840363e+01    0.1388532    0.1219194 -39.09 0.0003566787    1.474    0.321
        20  -9.8825     32.5736    207.1953   1.4802036494e+02   2.9728007110e+01    0.3512025   0.08080844  45.95  0.001568535    2.596    0.615
        21 -12.2802     24.4731    202.1198   1.4949334415e+02   3.1466932740e+01    0.4396358    0.1606563  48.16  0.002169243    1.882    0.469
        22 -11.3659     66.7069    199.3726   1.4019714260e+02   2.7257591845e+01    0.2708755    0.2233457 -46.34  0.001158033    1.712    0.416
        23  -9.8876    192.6062    194.3156   1.1321313574e+02   8.7447737318e+00    0.5122545     0.289166 -60.58  0.001845273    6.454    0.845
        24 -11.5721     72.1929    191.3685   1.3828827451e+02   2.8048406203e+01    0.2277212    0.2223288  72.21 0.0004910185    1.309    0.236
        25 -13.8691     48.3443    226.8362   1.4579698322e+02   2.4625054235e+01    0.9931098    0.7900802  83.57  0.004925267    1.364    0.267
        26 -13.1506     68.7674    176.3884   1.3768105295e+02   3.1438141845e+01    0.4542896     0.282223 -44.24  0.001775941    2.332    0.571
        27  -8.9986    104.2954    180.3013   1.2966049626e+02   2.5525104284e+01    0.1711148    0.1239941  57.44 0.0004484032    1.289    0.224
        28 -10.7481     81.4714    178.5320   1.3484403602e+02   2.9270290975e+01    0.2289576    0.1945084  50.63 0.0004069817    1.070    0.065
        29  -8.5467    171.5558    173.5313   1.1380833025e+02   1.5224086662e+01    0.1325729    0.1113493  28.86 0.0001165788    1.006    0.006
        30 -11.6728     88.5797    169.0154   1.3199886458e+02   3.0140973541e+01    0.6124726    0.4838317  41.71  0.003706443    1.138    0.121
        31  -8.9108    250.5400    171.5259   9.9524689329e+01   2.3964953304e+00    0.1170582   0.09047303   6.58 4.847234e-05    1.016    0.016
        32  -9.3602    183.4607    238.5231   1.2111456165e+02   4.8509734646e+00    0.1130553   0.07930967  27.09  3.49537e-05    1.033    0.032
        33 -10.3625    192.1900    155.7831   1.0643482072e+02   1.4142837900e+01    0.3982542    0.3005107 -81.34  0.001882239    2.686    0.628
        34  -9.8327    100.2379    152.5738   1.2673597661e+02   3.1696184457e+01    0.2604557    0.2335113  56.10 0.0007624064    1.030    0.029
        35 -11.8852     89.0324    152.1614   1.2960506958e+02   3.3588628950e+01    0.2604979    0.2501415  13.73 0.0005473561    1.253    0.202
        36 -12.4229     66.9633    143.9064   1.3447535000e+02   3.8648223052e+01    0.8388682    0.4893278  66.02  0.004070206    1.849    0.459
        37 -11.6856     57.7278    132.8705   1.3569893032e+02   4.2402660292e+01    0.6514401    0.3200178 -85.52  0.002775925    2.473    0.596
        38  -9.1828    181.5495    144.4728   1.0623849323e+02   1.7908141055e+01    0.2174553     0.184198  78.82   0.00059949    1.649    0.393
        39 -10.0352     83.0225    243.9090   1.4016194713e+02   1.7840152407e+01    0.3398824    0.1148456  56.12  0.001569861    3.294    0.696
        40  -9.4938    110.8005    137.6938   1.2141076774e+02   3.3002599543e+01    0.3243912    0.2226052 -27.95  0.001262047    2.119    0.528
        41 -10.4579     98.4547    134.9772   1.2426328394e+02   3.5779792242e+01      0.25743    0.2391927 -22.43 0.0004621518    1.300    0.231
        42 -15.0211     17.2555    166.6832   1.4956707923e+02   3.9125865179e+01     6.483279     1.667906  85.03   0.02231393    5.067    0.803
        43  -8.4846    191.7982    143.9791   1.0412047058e+02   1.5983506481e+01    0.1661973    0.1061606 -32.20 0.0003866492    1.642    0.391
        44  -9.3531    107.8323    124.1878   1.1956285177e+02   3.6464113856e+01     0.205988    0.1810319  59.80 0.0002841412    1.081    0.075
        45  -9.5846     70.0245    124.1041   1.3069197024e+02   4.2792038334e+01    0.2054531    0.1825438  64.23 0.0003063567    1.027    0.027
        46  -8.8822    154.2834    119.9655   1.0669457758e+02   2.7805978088e+01     0.288099     0.180777  70.82  0.001120819    2.568    0.611
        47  -8.9487    103.1239    148.1438   1.2527393342e+02   3.2142324695e+01    0.2050849    0.1861082  -6.43   0.00119054    1.375    0.272
        48  -9.3406    166.6623    130.6388   1.0637136984e+02   2.3240323368e+01    0.2819429    0.2103789  89.48 0.0008791647    2.189    0.543
        49 -10.4352    168.0547    113.2718   1.0200237011e+02   2.5990592854e+01    0.3284261    0.2893298  84.57 0.0008339443    1.372    0.271
        50  -9.2852    203.2245    111.5938   9.4738081747e+01   1.8566628561e+01    0.1978542    0.1224302  37.95 0.0004897131    1.630    0.386
        51  -9.8134     33.4496     92.5925   1.3815013676e+02   5.4858141971e+01    0.4048599    0.1702971  44.93  0.001754117    2.403    0.584
        52  -9.1779    155.5114     75.5387   9.4428015552e+01   3.5654769135e+01    0.1542559    0.1503367  54.23 0.0001617715    1.004    0.004
        53  -9.1908     17.7717     66.7655   1.4061460008e+02   6.2469124891e+01    0.1722436    0.1339737  65.17 0.0004176949    1.343    0.256
        54 -11.2962      2.4741     61.6172   1.4698265873e+02   6.4503906222e+01    0.4863279    0.2273407 -82.67  0.001178015    1.846    0.458
        55 -10.5493    238.3161    247.5579   1.1331360613e+02  -3.1600567711e+00    0.2050132    0.1116051 -25.71  0.001486628    2.115    0.527
        56  -9.9621     81.3421    248.4940   1.4078009989e+02   1.7382806435e+01    0.2341532    0.1281904  56.82  0.001251015    1.583    0.368
        57 -11.1601      9.5455     54.0070   1.4249670887e+02   6.6036225226e+01    0.2898036    0.2062873  32.12 0.0006044106    1.589    0.371
        58  -9.4531     46.8159    249.0041   1.4712737787e+02   2.1299409311e+01    0.2236942   0.09072918  55.97  0.001387807    1.873    0.466
        59 -10.3723    196.6328    241.9323   1.1927942523e+02   2.6876512992e+00    0.3499236    0.2009651 -57.05   0.00169734    5.536    0.819
