#   1 NUMBER                 Running object number                                     
#   2 MAG_AUTO               Kron-like elliptical aperture magnitude                    [mag]
#   3 X_IMAGE                Object position along x                                    [pixel]
#   4 Y_IMAGE                Object position along y                                    [pixel]
#   5 X_WORLD                Barycenter position along world x axis                     [deg]
#   6 Y_WORLD                Barycenter position along world y axis                     [deg]
#   7 A_WORLD                Profile RMS along major axis (world units)                 [deg]
#   8 B_WORLD                Profile RMS along minor axis (world units)                 [deg]
#   9 THETA_WORLD            Position angle (CCW/world-x)                               [deg]
#  10 FWHM_WORLD             FWHM assuming a gaussian core                              [deg]
#  11 ELONGATION             A_IMAGE/B_IMAGE                                           
#  12 ELLIPTICITY            1 - B_IMAGE/A_IMAGE                                       
         1 -14.8746    155.1884     49.7771   8.3876570148e+01   4.0444850590e+01     1.294473     1.231618 -16.39  0.003529115    1.094    0.086
         2 -14.9229    164.7894     18.7771   7.1901253793e+01   4.1988345540e+01     1.555927     1.066289 -82.36  0.004782001    1.691    0.409
         3 -14.0384    190.3564     13.2057   6.6658254713e+01   3.5845858765e+01    0.6834838    0.6399318  77.38  0.002759797    1.066    0.062
         4 -13.8320    173.2936      3.8525   6.5948652094e+01   4.1246787210e+01     1.219321    0.4721994  87.66   0.00382845    4.015    0.751
         5 -11.0320    144.1565     14.1076   7.3771181708e+01   4.7848143819e+01    0.2154464    0.1772896  36.85 0.0003276618    1.207    0.171
         6 -13.6862    187.5896    245.1343   1.2096872708e+02  -5.5450153670e-01     0.593662    0.4266807  69.70  0.003002599    2.165    0.538
         7 -20.5445     86.5486    181.7518   1.3223251579e+02   2.7098148016e+01     14.47655     6.483512 -65.44   0.06671513    2.279    0.561
         8 -13.6153    190.1521    161.1051   1.0620124740e+02   1.1776186202e+01     1.098347    0.5324236 -38.93  0.002657777    2.192    0.544
         9 -13.6408    229.8232    168.0877   1.0015224643e+02   2.7473655230e+00    0.5813234    0.3198039 -31.47  0.002812014    1.830    0.454
        10 -11.2759    151.0509    240.8280   1.2690151764e+02   5.9762695841e+00    0.2562529    0.2176284 -59.31  0.001832593    1.501    0.334
        11 -11.7866    236.0168    157.4977   9.6858860631e+01   3.1623406654e+00    0.2086945    0.1282392  43.69  0.001043176    1.620    0.383
        12 -11.9308    211.0867    239.7075   1.1612036121e+02  -3.6473869850e+00    0.2162889    0.1716274 -55.19   0.00145174    1.984    0.496
        13 -13.9331    160.6491    152.9363   1.1070078227e+02   1.9495415358e+01    0.7385291    0.5297734  51.74   0.00319939    1.351    0.260
        14 -11.5563     22.9057    155.9498   1.4352485929e+02   4.0581762728e+01    0.2067499    0.1929496 -32.80 0.0008339401    1.548    0.354
        15 -10.9008    176.8247    154.8427   1.0762368281e+02   1.5710755796e+01    0.2455604    0.2167948  81.97  0.000480632    1.317    0.241
        16 -12.4110    174.0894    148.4119   1.0681775147e+02   1.7514919297e+01    0.4667709    0.3340433 -55.43  0.001115949    1.591    0.372
        17 -11.6396    172.6542    138.9032   1.0499832590e+02   1.9667601498e+01    0.2602375    0.2045964  36.34 0.0005454199    1.284    0.221
        18 -11.3112     13.6207    134.0018   1.4364976573e+02   4.6245783403e+01    0.3262753    0.1820297 -44.26  0.001827381    2.298    0.565
        19 -10.3540      9.5588    236.7750   1.5098869654e+02   2.5964036410e+01    0.1252034   0.06570371  76.13 0.0004989571    1.409    0.291
        20 -10.9648     39.4738    250.7329   1.4695276847e+02   2.0380421818e+01    0.1022481   0.06482989  58.44 0.0001606629    1.131    0.116
        21 -11.9415     27.8022    231.0834   1.4778714670e+02   2.5056615036e+01    0.1768053    0.1238491  84.42 0.0008845304    1.197    0.164
        22 -12.2625    196.1398    229.8575   1.1727801686e+02   4.1260087903e-03    0.1958941    0.1692802   2.69 0.0007243484    1.243    0.196
        23 -12.5928    207.6549    223.8610   1.1429919753e+02  -1.1358184779e+00    0.4089743    0.2087277 -40.65  0.001741875    2.383    0.580
        24 -13.2670    160.5615    128.1794   1.0516264149e+02   2.4500928928e+01    0.5158142    0.4726356  85.94  0.001672062    1.165    0.142
        25 -10.4714     24.8380    214.0000   1.4733856188e+02   2.8495987536e+01    0.1319609   0.09462886  74.15  0.000984842    1.022    0.022
        26 -13.3228     11.4092    206.4184   1.4927872667e+02   3.1286670168e+01    0.3942173    0.3824445 -68.06  0.003396339    1.682    0.405
        27 -12.5681     38.8797    115.8531   1.3471556758e+02   4.8155227830e+01    0.4003567    0.2649707 -20.41  0.001921828    2.407    0.585
        28 -10.9809    167.6444    112.5315   9.9666279930e+01   2.6014645158e+01    0.3429802    0.2483426 -86.91  0.001269312    2.007    0.502
        29 -12.3804     14.6044    196.9377   1.4818350425e+02   3.2816187440e+01    0.2181291    0.1650763 -75.76  0.001138932    1.402    0.287
        30 -10.9963    205.3431    110.1253   9.1377212511e+01   1.7536569422e+01    0.3285224    0.2242242  45.65  0.001072213    1.488    0.328
        31 -11.4482     38.3664    102.2457   1.3261152989e+02   5.1354506650e+01    0.2421604    0.1940669 -13.73 0.0008328639    1.642    0.391
        32 -10.1898     22.9949    191.7755   1.4628731610e+02   3.3016702393e+01    0.1411911    0.1101885  76.84 0.0002190299    1.095    0.087
        33 -10.4137     32.6698    250.5325   1.4800948812e+02   2.1192641458e+01   0.09979366    0.0685873  71.02 0.0002364704    1.068    0.064
        34 -10.6665     17.6987    187.3772   1.4701329056e+02   3.4428610484e+01    0.1843813    0.1275858  83.84 0.0006471768    1.091    0.083
        35 -10.8890    237.6516    184.6929   1.0208741036e+02  -1.0489789389e+00    0.1367438   0.08835246  12.53 0.0007043121    1.704    0.413
        36 -12.5490    196.2159    174.7762   1.0776723008e+02   8.2042823163e+00    0.5360346    0.4102974 -71.34  0.002537998    1.961    0.490
        37 -13.2219    193.1394    165.5342   1.0651916443e+02   1.0388247567e+01    0.4184791    0.3607913 -31.75  0.001014838    1.223    0.183
        38 -11.9734    141.3111     82.6525   9.7495859147e+01   3.8159304547e+01    0.4377132    0.2760733 -21.06  0.001476072    2.120    0.528
        39 -11.1265    107.4116     82.8614   1.0667008196e+02   4.5529266945e+01    0.2268114    0.2018984  60.43 0.0003562255    1.210    0.174
        40 -11.9821     60.7285     82.9498   1.2132431940e+02   5.3214899899e+01    0.2558457    0.1976349  32.66 0.0004846086    1.465    0.317
        41 -14.7226    145.3300     63.8599   9.0655171856e+01   4.0641598859e+01     1.279839     1.148996  85.56  0.003052319    1.217    0.178
        42 -13.5966    159.1708     40.4493   8.0010077509e+01   4.0771962956e+01    0.5375701    0.5031034  19.08 0.0008409739    1.131    0.116
        43 -12.8892    197.9617    245.7691   1.1925395933e+02  -2.2886290176e+00    0.2873924    0.1952221  36.75 0.0009476375    1.129    0.114
        44 -11.4329     13.3435     59.7870   1.3269774169e+02   6.2795839475e+01    0.1965624    0.1632318 -49.04 0.0004653916    1.087    0.080
        45 -12.1027      2.2118     26.7734   1.2874660347e+02   7.0044141659e+01    0.2591964    0.1583816 -27.75 0.0007222742    1.509    0.337
        46 -11.6668    162.2164    237.1519   1.2442230563e+02   4.6676837010e+00    0.3212164    0.1977765  53.25  0.001337621    1.507    0.336
        47 -11.6833    157.8410    244.6320   1.2615240020e+02   4.3305054595e+00    0.2538193    0.2014143  -6.67  0.001482874    1.816    0.449
        48 -11.3651    158.7884    240.2473   1.2543753356e+02   4.7926970262e+00    0.2188912    0.1826139  37.85 0.0007196599    1.116    0.104
