#   1 NUMBER                 Running object number                                     
#   2 MAG_AUTO               Kron-like elliptical aperture magnitude                    [mag]
#   3 X_IMAGE                Object position along x                                    [pixel]
#   4 Y_IMAGE                Object position along y                                    [pixel]
#   5 X_WORLD                Barycenter position along world x axis                     [deg]
#   6 Y_WORLD                Barycenter position along world y axis                     [deg]
#   7 A_WORLD                Profile RMS along major axis (world units)                 [deg]
#   8 B_WORLD                Profile RMS along minor axis (world units)                 [deg]
#   9 THETA_WORLD            Position angle (CCW/world-x)                               [deg]
#  10 FWHM_WORLD             FWHM assuming a gaussian core                              [deg]
#  11 ELONGATION             A_IMAGE/B_IMAGE                                           
#  12 ELLIPTICITY            1 - B_IMAGE/A_IMAGE                                       
         1 -14.8860    184.5257     90.5258   7.9948889040e+01   2.5988171507e+01      8.88331     2.262611 -43.95   0.02342942    4.457    0.776
         2 -14.9010    171.8472     68.1107   7.5991382438e+01   3.2924406530e+01     4.834599      2.95405 -63.84  0.006110078    2.442    0.591
         3 -16.1124    211.7723     67.4586   6.8735301650e+01   2.3059608735e+01     10.31311     4.778005 -51.29   0.03042769    2.706    0.630
         4 -13.5197    205.6426      8.0956   5.2880344095e+01   3.2115102646e+01     2.376913     1.189096   5.10  0.007984756    3.791    0.736
         5 -14.5123    247.3463     46.1971   5.8452366595e+01   1.7562221377e+01     2.343102     1.549374  52.84  0.003662968    1.653    0.395
         6 -14.5980    232.8867      6.8579   4.9997424006e+01   2.5509580659e+01     1.288203     1.170179 -35.40  0.005075625    1.155    0.134
         7 -14.0293    249.1147      3.1137   4.7819989715e+01   2.2108107823e+01    0.7302344    0.6204504  -7.10  0.003952508    1.431    0.301
         8 -12.7569    216.0109      7.6671   5.1726114078e+01   2.9548534686e+01     1.137555    0.8102309 -16.14  0.004706995    1.583    0.368
         9 -16.2661    243.5404     23.5985   5.3226083707e+01   2.1183162757e+01     8.777555    0.9942206  60.01   0.02514184    5.523    0.819
        10 -11.5452    130.9169     19.8448   6.8098648406e+01   5.0063003941e+01    0.7715753    0.5446268 -58.39  0.003143457    1.827    0.453
        11 -10.8535    134.3988     15.8767   6.5870155228e+01   4.9652280594e+01    0.6649159    0.3098865  53.86   0.00281482    1.922    0.480
        12  -9.6166    115.6704     12.6877   6.8666758646e+01   5.4484798982e+01    0.2555971    0.1979621  40.93 0.0008075255    1.189    0.159
        13 -11.3748    120.2229      8.9326   6.6115072103e+01   5.3804126457e+01    0.5253297    0.4054333  36.80  0.001413109    1.198    0.165
        14 -11.0057    188.8544      4.6570   5.3717490377e+01   3.6757812884e+01    0.4052399     0.240828 -32.28 0.0006410044    1.696    0.410
        15 -10.7180    182.8053      3.8956   5.4192388728e+01   3.8397059684e+01    0.4988154     0.337267  70.10  0.001666973    1.372    0.271
        16  -8.8862    141.5192      8.2155   6.1662153967e+01   4.8653986302e+01    0.3450231    0.1276401  51.63  0.001325394    2.331    0.571
        17  -9.1339     93.3584      3.9853   7.0488819079e+01   6.0331072570e+01     0.295487    0.1184573 -22.18  0.001244938    2.483    0.597
        18  -9.8772    171.9071      2.5564   5.5118716028e+01   4.1351796467e+01    0.3254471    0.2076507 -38.85  0.001079669    1.628    0.386
        19  -9.5797    129.0403      9.6800   6.4571852485e+01   5.1608669416e+01    0.3215729    0.1871398 -15.86  0.001057736    1.838    0.456
        20  -9.3903    136.4075      1.6879   6.0127144630e+01   5.0526077436e+01     0.446824    0.1343851  55.75  0.001641262    2.625    0.619
        21  -8.7320    159.8070    159.0394   1.0153370681e+02   1.8736427315e+01    0.2052601    0.1513051  64.55 0.0005577742    1.575    0.365
        22 -11.7618     68.4193    146.4222   1.2019929587e+02   3.7002870639e+01     1.811782    0.9042439 -51.77  0.007129801    2.090    0.522
        23 -12.4766     49.5640    164.5580   1.2675687749e+02   3.5415867193e+01    0.7126067    0.4280398 -84.61  0.002644845    1.534    0.348
        24 -12.4856     54.8648    160.1473   1.2510410427e+02   3.5729052920e+01    0.7406687    0.4597473  85.25  0.001832024    1.598    0.374
        25  -8.4819    250.4985    174.4861   8.7656183667e+01  -8.7326703073e-01    0.1295961    0.1034887   7.88 -0.0001133321    1.053    0.050
        26 -10.2621    244.3422    172.3452   8.8244272559e+01   4.5663558142e-01    0.2934911     0.183928  12.10  0.001541376    1.750    0.429
        27 -10.8692    213.4920    167.2726   9.2601963743e+01   6.7959753118e+00    0.6204737    0.3486418  64.78  0.002353592    3.654    0.726
        28 -10.7419    230.5684    167.6269   8.9634301124e+01   3.5524523599e+00    0.3397101    0.2122532 -38.23  0.001785058    1.737    0.424
        29 -10.9795    245.1448    165.5774   8.6750179397e+01   1.2075796154e+00    0.4373521    0.2817622  43.55  0.001572813    1.578    0.366
        30  -9.6067     72.0555    248.9771   1.2983734670e+02   1.7104127454e+01    0.1354888    0.1277554  23.25  0.001138101    1.717    0.418
        31 -11.9863    240.4507    243.0560   1.0114549323e+02  -6.9589177940e+00    0.2192777     0.168621  29.03 0.0003277306    1.200    0.167
        32  -8.8748     71.6749    239.6535   1.2922745457e+02   1.8615634309e+01   0.08815647   0.08415158   6.01            0    1.745    0.427
        33  -9.0781    226.1516    154.8988   8.7766803826e+01   6.2142308964e+00    0.1948027    0.1880988 -28.31  0.001006946    1.246    0.198
        34 -10.1705    214.6049    153.7174   8.9584955667e+01   8.6482810476e+00    0.2569843    0.2277727  37.68  0.000341194    1.151    0.131
        35  -9.2987    203.8814    152.8371   9.1391729690e+01   1.0932288980e+01    0.2218627    0.1795995  17.84 0.0006304369    1.230    0.187
        36 -10.4501    134.0000    146.5607   1.0472965246e+02   2.6211895082e+01    0.8253413    0.2486614 -53.26  0.002582965    3.903    0.744
        37  -9.6480    152.0454    149.6192   1.0131329995e+02   2.2066546758e+01    0.2523248    0.1995429 -71.36 0.0006444978    1.523    0.344
        38  -8.7711    219.2652    149.2299   8.7773358283e+01   8.4169978079e+00    0.1696719    0.1631898 -87.43 0.0003405693    1.332    0.249
        39 -11.5670    174.2111    137.3334   9.3895109922e+01   1.9811261810e+01    0.8281352    0.3060465 -43.08   0.00279239    2.801    0.643
        40 -11.1505    177.8350    142.1343   9.4214897398e+01   1.8163024231e+01    0.5029478    0.2982353  25.71  0.002069846    2.249    0.555
        41  -8.6542    222.8385    145.4894   8.6317307442e+01   8.2795910494e+00    0.1991154    0.1322734  45.26  0.001002001    1.504    0.335
        42 -12.8871    192.4113     71.4554   7.3091087271e+01   2.7234501985e+01     1.141019    0.9561066  35.70  0.005822965    1.253    0.202
        43 -10.1763    191.8712    144.0049   9.1792187068e+01   1.4879960868e+01    0.2822182     0.201134  51.96 0.0006047901    1.449    0.310
        44 -11.6934    188.5410    138.6808   9.1261681580e+01   1.6510549284e+01    0.4869094    0.3765285 -40.01  0.002098759    1.339    0.253
        45  -9.8238    228.7000    141.4316   8.4392513738e+01   7.7283847640e+00    0.2440828    0.1611514  -7.04    0.0010192    1.765    0.433
        46 -11.2778    157.0351    140.4005   9.8270927008e+01   2.2842653925e+01     0.746779    0.4753365  89.16  0.002505584    3.540    0.718
        47 -10.3795    146.7093    137.1736   9.9873238344e+01   2.5601300615e+01    0.5241941     0.308456 -78.23  0.001675356    4.235    0.764
        48 -11.4824    166.9263    136.7690   9.5314890717e+01   2.1466693629e+01    0.5597915    0.3253878 -47.01   0.00144936    1.823    0.451
        49 -11.7664    211.4647    136.4656   8.6348855112e+01   1.2029708411e+01    0.5362203     0.388463  32.36  0.002079079    1.380    0.275
        50 -10.4795    160.8985    135.0774   9.6240995900e+01   2.3066795742e+01    0.4211015    0.1950093  54.43  0.001433737    2.469    0.595
        51 -11.4342    159.7392    128.7933   9.5052393130e+01   2.4533937835e+01    0.5161729    0.4208926   6.37  0.002586481    1.487    0.328
        52 -10.9951    134.8471    123.5160   9.9567528727e+01   3.0814548196e+01     0.749843     0.318405 -52.00  0.002735518    2.554    0.608
        53  -9.4596    131.6214    119.7838   9.9473628270e+01   3.2248885616e+01    0.3487015    0.2412193 -68.87  0.001513029    1.818    0.450
        54 -10.4254    222.9780    128.4998   8.2440631994e+01   1.0889598571e+01    0.3885202    0.1953822  50.00  0.001665179    2.053    0.513
        55 -10.3340    151.9800    125.1826   9.5947608136e+01   2.6905442697e+01    0.7110077    0.2980655 -54.58  0.002327684    3.282    0.695
        56 -10.5983    225.9292    122.3583   8.0486448215e+01   1.1231098499e+01    0.3913865    0.3571003  76.32  0.001625088    1.354    0.261
        57 -10.9564    179.4885    145.7358   9.4665533531e+01   1.7166232245e+01    0.4049878    0.3112193  -2.91  0.001280305    1.597    0.374
        58  -9.6974    210.7698    123.6294   8.3471752168e+01   1.4279913733e+01    0.2859076    0.1749834 -21.92  0.001263349    1.807    0.447
        59 -10.1129    140.9929    121.3132   9.7583090065e+01   3.0006460989e+01    0.4588017    0.2788762  83.96  0.001449801    4.143    0.759
        60  -8.7951     56.5122    236.4728   1.3150432662e+02   2.1017993812e+01    0.1063353   0.07652666  64.91 0.0001368885    1.002    0.002
        61 -11.4728    166.9031    114.0914   8.9892342128e+01   2.5797857811e+01    0.5949841    0.5550466 -38.15  0.001272079    1.080    0.074
        62  -9.8031      5.8227    116.3846   1.3198412101e+02   4.9939233485e+01    0.1312467    0.1084294 -13.60 0.0009061295    1.732    0.423
        63 -10.0321    174.6908    114.6902   8.8371204114e+01   2.3923324838e+01    0.3465529    0.2902431 -81.30   0.00171743    1.497    0.332
        64 -10.0143    157.2276    113.1561   9.1805676601e+01   2.8145549213e+01    0.4737482    0.3497664 -81.57  0.001702628    1.966    0.491
        65 -11.0044    134.9585    108.5469   9.5891473916e+01   3.3905624295e+01     1.272324    0.2816643 -44.24  0.003382381    4.481    0.777
        66  -9.8475    126.3890    110.9417   9.8629190468e+01   3.5169606759e+01     0.315698    0.1708769 -56.13  0.001268742    2.070    0.517
        67  -8.2296      4.7291    236.5864   1.3964142893e+02   2.6531350502e+01   0.08247992   0.06282421 -69.40 0.0001796428    1.778    0.438
        68  -9.2191    141.4554    104.5473   9.3268229886e+01   3.3335470906e+01    0.2585433    0.2042776   3.41  0.000556178    1.638    0.389
        69 -10.7046    124.2680    102.7250   9.7077817433e+01   3.7331641016e+01    0.5471703    0.3196132  44.27  0.002358751    1.753    0.430
        70 -10.5775    205.4563    101.9433   7.9041326073e+01   1.9080342905e+01    0.5286145    0.3298105 -65.60  0.002050139    2.652    0.623
        71 -10.1756    147.8455    100.4877   9.0656635699e+01   3.2738299708e+01    0.3578607     0.322512 -81.23 0.0006034386    1.243    0.196
        72  -9.8080    133.8039     96.0293   9.2856413073e+01   3.6718767745e+01    0.5026851    0.2476108 -53.38  0.001624238    2.387    0.581
        73 -12.0617      3.7345     91.3820   1.2969403016e+02   5.5580717546e+01     0.676653    0.1984951 -70.20  0.003071007    2.482    0.597
        74 -10.5304    141.0984     90.0811   8.9382452318e+01   3.6301447038e+01    0.3902839    0.3484164 -56.76  0.001655567    1.169    0.145
        75 -11.0692    157.7758     93.3371   8.6389433650e+01   3.1851808368e+01    0.5715813     0.474568  -7.46  0.002810534    1.377    0.274
        76 -10.1567    152.8496    220.4269   1.1292203570e+02   9.6206974981e+00    0.2020959      0.17546  48.34 0.0002389528    1.074    0.069
        77 -12.0201    155.7890     83.5736   8.4040650414e+01   3.4144892042e+01     0.563307    0.4986162  48.26  0.001208009    1.137    0.120
        78 -10.5790    168.5069     92.4176   8.3769521213e+01   2.9493389324e+01    0.5062227     0.282175  35.52  0.001960465    2.149    0.535
        79  -8.9341    140.4731     78.4554   8.6109244180e+01   3.8676949128e+01    0.1507086     0.148528 -31.05 1.999602e-05    1.026    0.025
        80  -9.1309    124.8534     75.7124   8.9223554285e+01   4.2684426603e+01    0.2901929    0.1952016 -65.00   0.00122796    2.064    0.515
        81 -10.1315     37.5045    214.5152   1.3326102562e+02   2.6992715223e+01    0.1639634    0.1002173  28.39  0.001036627    2.323    0.570
        82  -8.6378     19.6753     83.6883   1.2364994381e+02   5.6250711826e+01    0.1237564   0.07324481 -43.92 0.0005217342    1.658    0.397
        83 -13.6402    247.3017     37.4265   5.6281122172e+01   1.8673384897e+01    0.6517586     0.399395 -50.59  0.001371846    1.559    0.359
        84 -10.1237    152.0768     72.4929   8.1550682847e+01   3.7037137680e+01    0.4939516    0.3014109 -61.12  0.001907739    2.365    0.577
        85  -8.1092    116.9994     72.0087   9.0172129686e+01   4.5069304853e+01    0.1693347    0.1636193 -14.97 0.0009382027    1.014    0.014
        86 -11.3319      8.9010     68.9860   1.2460049286e+02   6.0193933111e+01    0.3823494    0.2598341   1.29  0.002505254    1.954    0.488
        87  -9.2494     86.9813     65.8241   9.7026735202e+01   5.2023710982e+01    0.2288601    0.1609722   4.37  0.001079965    1.975    0.494
        88  -9.8865    195.0459    198.7422   1.0184796043e+02   5.5615919386e+00    0.3118483    0.2086969 -58.27  0.001645537    2.322    0.569
        89  -9.4776    191.6007    192.4836   1.0140952777e+02   7.0902892082e+00    0.4519254    0.2351056 -59.18  0.001722404    4.265    0.766
        90  -8.7189     72.5681     58.1097   9.9230163907e+01   5.5899300538e+01    0.2032075     0.121414 -47.16 0.0009975161    1.534    0.348
        91 -10.5578      6.0036     56.2950   1.2317347143e+02   6.3079553511e+01    0.1577644    0.1308912 -53.44 0.0007745116    1.103    0.094
        92  -8.5920    101.9625    162.0008   1.1477595605e+02   2.8678488573e+01    0.1498382    0.1345317  77.56 0.0009210393    1.009    0.009
        93  -8.9424     82.8708     51.8094   9.3618840273e+01   5.5431505844e+01    0.2014449    0.1701311 -21.68 0.0004172634    1.106    0.096
        94 -12.2689    122.4729     38.4870   7.7119687690e+01   4.9618578451e+01    0.6114672    0.3964607  47.28  0.002912553    1.506    0.336
        95 -12.8098     42.8985    168.6862   1.2860002182e+02   3.5302820455e+01    0.6890737    0.4561379 -73.19  0.002055466    1.352    0.260
        96  -9.8925    160.7730     30.0517   6.5913661159e+01   4.1321862154e+01    0.4403257    0.2076006 -34.11  0.001590588    2.095    0.523
        97  -9.6884    158.8503     25.0429   6.4560117367e+01   4.2426618006e+01    0.4970988    0.2114344 -24.59   0.00189385    2.461    0.594
        98 -10.7303    106.9019     36.2911   8.0418802121e+01   5.3399738262e+01    0.2555219    0.1971492 -25.52 0.0006072624    1.254    0.203
        99 -10.1517    113.4311     29.1802   7.5867483633e+01   5.2990491990e+01    0.3426902    0.1058108 -38.02   0.00115157    3.257    0.693
       100  -8.6419    167.9271    158.3025   9.9686047439e+01   1.7259138525e+01    0.1950947    0.1692953  38.74  0.000243101    1.077    0.072
       101  -9.7475    153.5766     23.3903   6.4932578573e+01   4.3976863612e+01    0.2745208     0.239455 -35.64 0.0004506954    1.197    0.164
       102 -13.4838     11.6988    188.7875   1.3625770749e+02   3.4383802667e+01    0.8137282    0.5653099  77.46    0.0037872    1.053    0.050
       103  -9.2508    216.6174    190.2995   9.6457908758e+01   2.9265112983e+00    0.1198996    0.1010995  70.98 0.0007020904    1.773    0.436
       104  -9.3968    108.7021     22.4913   7.4414855833e+01   5.4921740186e+01    0.2489041    0.1221435 -26.19  0.001003775    2.035    0.509
       105  -9.2486    192.3038     15.1612   5.6439052540e+01   3.4817090848e+01    0.4050417    0.1661866  61.81  0.001616957    2.195    0.544
       106 -10.5336    192.4457    153.5907   9.3755375608e+01   1.3126463700e+01     0.431679    0.2878717 -34.41   0.00213971    1.565    0.361
       107  -8.9223    204.7822    190.1598   9.8564128565e+01   5.0528647926e+00    0.1973172    0.1448421  84.40 0.0009435407    2.844    0.648
       108 -12.4994     34.7111    183.2076   1.3153371618e+02   3.3225941691e+01     1.014555    0.4298789  61.25  0.005323564    2.274    0.560
       109 -12.0348     30.0916    174.2427   1.3173119594e+02   3.5509694270e+01    0.4091715    0.2794444  72.33  0.002306298    1.208    0.172
       110 -12.1777     24.9372    167.7286   1.3225229589e+02   3.7352691434e+01    0.5307877    0.3889651 -74.70  0.003780539    1.266    0.210
       111 -10.5300    222.6734    176.5800   9.2795641612e+01   3.7388555667e+00    0.4146673    0.2877822 -26.90  0.002346543    1.474    0.322
       112 -10.2691    226.9400    172.4399   9.1230856687e+01   3.5421017675e+00    0.4501242    0.2044613  44.76  0.002045956    2.101    0.524
       113  -8.6053    101.0225    175.9658   1.1705619353e+02   2.5972764059e+01    0.1726088    0.1497999  68.89  0.001093281    1.008    0.008
       114 -10.6412    235.0555    173.9594   9.0128059197e+01   1.8738862285e+00    0.3775075     0.223302  47.51  0.001124651    1.782    0.439
       115  -9.6967    200.8165    173.8601   9.6254577383e+01   8.2057015495e+00    0.3088116    0.2074214   8.82  0.001529215    1.889    0.471
