#   1 NUMBER                 Running object number                                     
#   2 MAG_AUTO               Kron-like elliptical aperture magnitude                    [mag]
#   3 X_IMAGE                Object position along x                                    [pixel]
#   4 Y_IMAGE                Object position along y                                    [pixel]
#   5 X_WORLD                Barycenter position along world x axis                     [deg]
#   6 Y_WORLD                Barycenter position along world y axis                     [deg]
#   7 A_WORLD                Profile RMS along major axis (world units)                 [deg]
#   8 B_WORLD                Profile RMS along minor axis (world units)                 [deg]
#   9 THETA_WORLD            Position angle (CCW/world-x)                               [deg]
#  10 FWHM_WORLD             FWHM assuming a gaussian core                              [deg]
#  11 ELONGATION             A_IMAGE/B_IMAGE                                           
#  12 ELLIPTICITY            1 - B_IMAGE/A_IMAGE                                       
         1 -10.3172     10.4059     18.7619   9.9842767335e+01   7.0603319870e+01      1.30544    0.4057467 -27.23  0.003972727    7.000    0.857
         2 -10.2110     18.2646      5.2252   8.9551526213e+01   7.2140558864e+01    0.5678894     0.436408 -47.79  0.003219239    1.735    0.424
         3 -10.6654     37.2704      9.8399   8.2400040929e+01   6.9369961196e+01    0.8331267    0.3227499 -42.50  0.001824912    2.793    0.642
         4 -10.2661     27.2690     11.5477   8.8054972042e+01   7.0288127876e+01    0.7214639    0.3772927  32.78  0.003805018    2.144    0.534
         5 -11.0000     24.0648     32.0118   9.8309647925e+01   6.7155099284e+01     1.480843    0.4250642 -38.93  0.004050315    3.123    0.680
         6  -9.8343      2.3424     14.4982   1.0237771911e+02   7.1868007221e+01    0.6854824    0.2110412 -57.97  0.002920044    3.602    0.722
         7 -10.2984      4.8306     41.6342   1.1008917659e+02   6.6619171135e+01    0.7846852    0.3722427 -69.11  0.002898877    2.213    0.548
         8 -10.0870      6.1744      5.2140   9.6212256461e+01   7.3159642365e+01    0.3577128    0.2437537 -30.22  0.001593365    1.074    0.069
         9  -9.8896      2.5057      3.1284   9.7325218130e+01   7.3746389154e+01     0.265703    0.1365975 -36.78 0.0009928853    1.429    0.300
        10 -10.4140     73.4992     16.5557   7.1020849360e+01   6.2898273886e+01     1.510562    0.3559576 -29.32   0.00494018    4.347    0.770
        11  -9.3545     77.8951      3.7221   6.3540246331e+01   6.3506749709e+01    0.4938631    0.3007255  -7.91   0.00200963    1.666    0.400
        12  -9.9523     60.9438     31.7703   8.2413019398e+01   6.2800206191e+01    0.9621925    0.4953448 -20.53  0.003117607    2.400    0.583
        13 -10.3467     62.1128      3.8190   6.8948608262e+01   6.6388999989e+01     0.667228    0.4435953   4.75  0.003940937    1.433    0.302
        14 -10.0817     69.6194     41.0711   8.2915910971e+01   5.9900925276e+01     1.095768     0.360567 -40.62  0.002439639    2.812    0.644
        15 -10.2548     50.7836     15.2325   7.9085739987e+01   6.6786155262e+01     1.070104    0.5754294   1.64  0.004827527    2.795    0.642
        16  -9.7816     63.0168     20.7818   7.6787910525e+01   6.4134113364e+01    0.5555215    0.2686466 -44.75  0.001650244    2.610    0.617
        17  -9.6750     64.6277     13.4295   7.2744014367e+01   6.4842606733e+01    0.3103219    0.2336217 -16.21 0.0002170916    1.200    0.167
        18  -8.6505    104.5310     15.1633   6.1056521117e+01   5.6787526192e+01    0.3532096    0.2001794  15.42  0.001558722    2.278    0.561
        19  -9.3570    102.7360     21.7840   6.4273256029e+01   5.6419138106e+01    0.4941332    0.3068201 -21.89  0.001927365    1.641    0.390
        20  -9.1709     96.1643     15.0531   6.3263144501e+01   5.8612439574e+01    0.6632755    0.2548443 -16.74  0.002161248    3.425    0.708
        21  -9.4652     91.3411     26.2758   6.9457753973e+01   5.8229967341e+01    0.6266273    0.2284517 -38.37  0.002417013    2.874    0.652
        22  -8.3167     97.5329      5.9888   5.8973462861e+01   5.9251427891e+01    0.2631945    0.1750179  24.51  0.001083526    1.471    0.320
        23  -8.4687     95.7825      2.9764   5.8108708310e+01   5.9906074142e+01    0.2153535    0.1708886 -30.37 0.0004070528    1.417    0.294
        24 -10.0837    153.7674     27.8565   5.5062714696e+01   4.3465562924e+01    0.5839761    0.3451175  35.57  0.002557338    1.943    0.485
        25  -8.8277    128.6026     25.3070   5.9256437516e+01   5.0045167161e+01    0.4566414    0.2617832 -24.54  0.001398195    1.834    0.455
        26  -9.1307    114.0762     10.0608   5.6650872043e+01   5.5148896350e+01    0.3557593    0.2016408  35.61 0.0004160118    1.747    0.428
        27  -8.6955    112.4976     15.8904   5.9360554038e+01   5.4913799636e+01    0.3297843    0.2009551 -30.08  0.001530352    1.711    0.415
        28  -9.0558    139.3480     17.9337   5.4341979658e+01   4.8247002564e+01    0.3856879    0.2081153   1.04  0.001223016    2.774    0.639
        29  -8.3484    136.7016      1.5704   4.8957695755e+01   5.0464441209e+01     0.373811     0.145968  58.84  0.001557708    2.101    0.524
        30  -9.5731    131.0191      5.9768   5.1575010476e+01   5.1484355913e+01    0.5319294    0.1548968  48.64  0.001901898    2.912    0.657
        31  -9.8805    133.4045     12.0246   5.3350269164e+01   5.0329652359e+01    0.5550001    0.2210249 -26.18  0.002240795    2.590    0.614
        32  -9.5229     85.3378     13.0375   6.5549517046e+01   6.1064256074e+01    0.4155596     0.253667 -51.15  0.001559294    2.582    0.613
        33  -8.4972    168.7670     12.7926   4.7740081408e+01   4.1290007735e+01     0.226947    0.2039488  63.83 0.0004821069    1.046    0.044
        34  -9.1095    125.1298     12.9215   5.5351480970e+01   5.2253805309e+01    0.2971795    0.1937135 -37.28 0.0005487751    1.685    0.406
        35  -9.4145    125.8083      5.0950   5.2237639977e+01   5.2829540542e+01    0.4453971    0.2388785 -24.66   0.00212792    1.978    0.495
        36  -7.8915     80.4033     12.3403   6.6778949919e+01   6.2110669948e+01    0.2254007    0.1458592 -32.12  0.001228611    1.619    0.382
        37  -8.6569    141.5858     11.6561   5.1698789094e+01   4.8334033421e+01    0.2799149     0.194431  13.04 0.0009627656    1.709    0.415
        38  -8.1489    156.3162      8.0785   4.8056568865e+01   4.4947744626e+01    0.2594144    0.1330174 -10.26  0.001095246    2.518    0.603
        39  -8.5831    137.4986      9.0267   5.1496816809e+01   4.9606502021e+01    0.1936202    0.1368687 -19.54 0.0004332516    1.537    0.349
        40  -8.6471    101.9654      7.8982   5.8660155921e+01   5.8100311391e+01    0.2600012    0.1778889 -26.10 0.0005707442    1.535    0.348
        41  -8.8107    105.3257      2.1806   5.5428650453e+01   5.7870686145e+01    0.5337526    0.1985921  50.25  0.002267753    2.200    0.545
        42  -9.1556    110.6224      5.5672   5.5616582738e+01   5.6368095526e+01    0.4403206    0.2282922 -10.07  0.002017632    2.228    0.551
        43  -8.9145    115.0689      4.0381   5.4017819973e+01   5.5474108154e+01    0.2387118    0.2223841 -79.64 0.0005566342    1.276    0.216
        44  -9.2989     87.7120      3.9740   6.0737475413e+01   6.1517226942e+01    0.6073373    0.2721175  23.42  0.002403446    3.078    0.675
        45  -7.9198     67.9827      9.2296   6.9503580844e+01   6.4764276022e+01    0.1732296    0.1393058  23.32  0.000446403    1.115    0.103
        46  -8.0835    143.1591      5.1241   4.9135548826e+01   4.8549790217e+01     0.182838    0.1543031 -63.14 0.0005441183    1.330    0.248
        47  -8.2799    151.4127      2.1112   4.6813766092e+01   4.6730902945e+01    0.3274169    0.1669474 -67.14  0.001276311    3.010    0.668
        48  -7.9257    142.8021    131.9902   8.8578309618e+01   2.6988113599e+01    0.2633836    0.1850823 -81.03  0.001088311    2.097    0.523
        49  -9.4188    204.8790    248.9904   9.7224218415e+01  -4.8746773196e+00    0.3247816    0.2034751  -8.52  0.001926642    2.085    0.520
        50  -9.8355    181.6351    248.8706   1.0131692863e+02  -1.2696214834e+00     0.264882    0.2091288 -80.22  0.001705498    2.147    0.534
        51  -9.9035    152.8036    245.2766   1.0605315567e+02   3.7904337421e+00    0.2237776    0.1676144  49.61   0.00100585    1.158    0.136
        52 -10.7929     70.0215    126.3190   1.0652744198e+02   4.1307663263e+01    0.7655015    0.6086772 -32.62  0.001684882    1.517    0.341
        53 -10.1229     58.2254    124.4399   1.0946480010e+02   4.3302473835e+01    0.6983461    0.3742813  85.33  0.002410793    3.072    0.675
        54  -9.7472     98.5527    128.6713   9.9195887975e+01   3.6312388212e+01    0.6552663    0.3929628  72.00  0.001916384    2.691    0.628
        55 -11.1650    120.6761    111.7743   8.9260430721e+01   3.6074003693e+01     1.648367    0.8496699 -39.95  0.003254739    2.046    0.511
        56  -9.6453     41.7143    122.5470   1.1374900813e+02   4.5630044780e+01    0.5603793    0.2662996 -84.61  0.002313475    2.715    0.632
        57  -9.8718     27.3892    122.9926   1.1774906590e+02   4.6892045142e+01    0.5353581    0.2679145  73.98  0.001937123    2.702    0.630
        58  -7.1532    160.6567    128.3158   8.3469871616e+01   2.3905917503e+01    0.1596386    0.1248617 -89.15 0.0007048235    1.713    0.416
        59  -7.7717    158.4497    122.2123   8.2468734502e+01   2.5673531236e+01    0.2197946    0.1467428 -55.70 0.0009313885    1.668    0.401
        60  -8.5467      1.6423    116.7496   1.2391979553e+02   5.0229691198e+01    0.3425232    0.1263607 -85.06  0.001377251    2.647    0.622
        61 -10.1769     91.7253    112.7591   9.7543028360e+01   4.1217439633e+01    0.6229284     0.407822 -77.75  0.001715019    2.020    0.505
        62  -8.7663     92.1021    104.1159   9.5341098128e+01   4.3166923827e+01    0.7457319    0.4190492  13.29  0.002454516    4.064    0.754
        63  -8.6600    152.7484    115.4782   8.2093283216e+01   2.8369858580e+01    0.2863656    0.2127494 -43.38 0.0005509462    1.334    0.250
        64 -10.4568     14.2694    109.8101   1.1963726692e+02   5.1009151547e+01    0.9652678     0.478413  83.58   0.00408261    2.457    0.593
        65  -7.8968     23.1541     69.1077   1.0959139926e+02   5.9663307154e+01    0.1826426     0.135041 -45.38 0.0003536415    1.142    0.125
        66 -10.5721     25.3392     77.8744   1.1074662312e+02   5.7544977154e+01    0.6284055    0.4373822  74.97  0.002083402    1.935    0.483
        67 -10.3977     33.2298     63.6122   1.0444295346e+02   6.0020953853e+01     1.165084    0.4473965 -32.12  0.003604355    3.994    0.750
        68 -10.8916     21.2054    101.7135   1.1644092280e+02   5.2386548266e+01     1.395445    0.6678078  81.35  0.003712342    3.427    0.708
        69  -9.8420     19.6814     87.5866   1.1455981655e+02   5.5762884676e+01     1.054925    0.1905614 -63.09  0.003695499    3.560    0.719
        70 -10.0141     34.4376     90.3976   1.1025825029e+02   5.3916421461e+01    0.6146654    0.2780436 -78.17  0.001917221    3.101    0.678
        71  -9.9133     36.9489     81.0867   1.0741948673e+02   5.5816265602e+01    0.6367553    0.3189471 -23.74  0.002634293    3.316    0.698
        72 -10.2124     78.1085    112.8829   1.0150453964e+02   4.3350889687e+01     0.559419    0.3319622 -77.66  0.001622273    2.269    0.559
        73  -9.7406     81.3026     99.8424   9.7502488425e+01   4.5921991330e+01    0.8860425    0.3064937 -48.81  0.002578186    2.603    0.616
        74  -9.3075    243.7630    112.7764   6.3614353567e+01   8.4380295535e+00    0.3581198    0.1617813 -28.78  0.001425814    2.218    0.549
        75  -9.1083     64.7900     84.5389   9.8822613874e+01   5.1836298536e+01    0.6802006    0.4768767 -57.67  0.003262805    1.325    0.245
        76 -10.5267     63.0407     95.7748   1.0219360513e+02   4.9494744987e+01    0.8452279    0.4919679 -87.91  0.001658393    3.292    0.696
        77 -10.2615     65.8570    110.1323   1.0452005827e+02   4.5741520887e+01    0.9534776    0.4073461 -66.97  0.003303288    2.639    0.621
        78  -9.5626     59.8256    110.0994   1.0630814800e+02   4.6531273907e+01    0.3906001    0.2417651  57.71  0.001505441    2.005    0.501
        79  -8.3075    240.2989    113.6625   6.4365228001e+01   9.0050634287e+00    0.1437445    0.1058999 -59.61 0.0002378606    1.659    0.397
        80  -9.6400    209.8561    111.5627   6.9035370875e+01   1.5973479931e+01    0.2621344    0.2495946 -28.42 0.0003654708    1.016    0.016
        81  -8.7411    158.6163    111.1077   7.9563907489e+01   2.7946839254e+01    0.4671064    0.1840319 -44.48  0.001309732    2.529    0.605
        82  -8.9542    149.9496    110.6605   8.1501660424e+01   3.0017455353e+01    0.3371136    0.1892689 -43.18 0.0008335353    1.759    0.432
        83  -9.3431     35.9845    110.4411   1.1344239307e+02   4.9074208322e+01    0.3312275    0.1817415  88.72  0.001258087    2.340    0.573
        84 -10.8460     45.1669    102.6658   1.0927759098e+02   4.9991639133e+01    0.9013813    0.4528722  68.28  0.003236515    4.210    0.762
        85  -9.1533     40.1614    107.0619   1.1161996938e+02   4.9467283821e+01    0.2656338    0.1634392 -74.37 0.0009253054    1.517    0.341
        86  -9.6202      5.9757    103.7851   1.2123596747e+02   5.2938055601e+01    0.4602589    0.2736043  56.44  0.001627015    1.969    0.492
        87  -8.4575    165.9902    104.0502   7.5980365409e+01   2.7661450051e+01    0.3024719    0.2129673 -40.21 0.0004482457    1.400    0.286
        88  -9.6545    149.4866    103.1467   7.9583628753e+01   3.1695295228e+01    0.4895138    0.3107453 -57.44  0.001038355    1.859    0.462
        89  -8.1882     73.8387    102.9100   1.0051530701e+02   4.6334262538e+01    0.2544334    0.1773864 -61.12 0.0006702649    1.341    0.254
        90  -8.6043    159.0751    101.2173   7.6780346210e+01   2.9860333899e+01    0.2621287    0.2244295 -57.84 0.0004023662    1.231    0.188
        91 -10.1592    238.4562     96.0223   6.0407371427e+01   1.2265945287e+01    0.4393524    0.3415903 -62.13  0.002304894    1.455    0.313
        92  -9.4489     94.3997     97.3230   9.2906316306e+01   4.4324760267e+01    0.3360994    0.2781072 -76.68 0.0006457455    1.376    0.273
        93  -8.8455     96.2392     90.8693   9.0590493839e+01   4.5444178664e+01    0.4953804     0.312729 -16.84   0.00194928    2.601    0.616
        94 -10.2590      4.9974     87.1085   1.1923576668e+02   5.6795178994e+01     1.301069    0.4175022 -72.12  0.003785312    2.550    0.608
        95  -8.9744    150.2995     95.2645   7.7179749516e+01   3.3122810788e+01    0.4315969    0.2839099 -52.64  0.001834248    1.644    0.392
        96  -8.7783    164.5809     94.2266   7.3571824621e+01   2.9936563889e+01    0.3997258    0.2509172 -41.03  0.001437033    1.566    0.362
        97  -9.6552    138.5069     92.7453   7.9370329560e+01   3.6356061566e+01    0.4560917    0.3337721  67.26 0.0008488005    1.662    0.398
        98  -9.3813    157.5300     90.4557   7.4095297122e+01   3.2366298512e+01    0.4563617    0.2557489 -41.16  0.001621039    1.755    0.430
        99  -9.0024    108.8046     91.0130   8.6927890623e+01   4.3044947628e+01    0.5873261     0.302655  27.89  0.002092531    2.877    0.652
       100  -8.5802    113.3036     88.3137   8.4854784101e+01   4.2725945992e+01    0.3782241    0.2408815 -49.75  0.001533993    1.564    0.361
       101  -8.5668    150.4348     89.1819   7.5390881689e+01   3.4307498040e+01    0.2723126    0.2254097  49.81 0.0005347819    1.224    0.183
       102  -9.9044     81.5222     72.2927   8.9723640393e+01   5.1991643201e+01     0.520228    0.3207272 -63.90 0.0009917294    2.202    0.546
       103  -8.9093     83.3531     64.4761   8.6590474987e+01   5.3279575728e+01    0.4973427    0.3023367 -18.17  0.002111009    2.300    0.565
       104 -10.2472     85.2912     86.5391   9.2739864960e+01   4.8297629953e+01    0.4860038    0.3804929  69.27 0.0008178437    1.667    0.400
       105  -9.5863     87.3889     78.6617   8.9778090705e+01   4.9658404297e+01    0.5931474    0.4033246   5.65  0.001978735    2.157    0.536
       106  -7.4162     78.4374     89.5332   9.5727967122e+01   4.8726963815e+01    0.1436716    0.1285244 -43.18 6.764095e-05    1.028    0.027
       107 -10.5449     48.4480     82.3821   1.0377714241e+02   5.4339932674e+01     1.202327    0.4253505 -53.92  0.003001714    2.274    0.560
       108  -9.9390     62.7877     60.8568   9.2550512665e+01   5.7201365724e+01    0.6637622    0.2525544  32.68  0.002285925    2.996    0.666
       109 -10.5400     55.0042     70.7706   9.8400359036e+01   5.6144289137e+01    0.6130497    0.3897432  58.33  0.001198601    2.454    0.593
       110  -8.9958     55.1081     63.3708   9.6159050604e+01   5.7702767157e+01    0.3891184    0.2975458  -8.03  0.001436914    1.459    0.315
       111  -7.6024    174.5299     88.5219   6.9799090772e+01   2.8605715634e+01    0.1562847    0.1519331 -57.99  4.79343e-05    1.034    0.033
       112  -8.2129    163.5861     87.0499   7.1737840672e+01   3.1558871476e+01    0.3374202    0.1517668 -37.65  0.001024938    2.197    0.545
       113  -8.0825    139.9341     87.5155   7.7475534525e+01   3.7093609329e+01    0.4437355    0.2700587  23.95  0.001640987    2.500    0.600
       114  -9.0763    139.9520     75.8691   7.3922882493e+01   3.9364602309e+01    0.6711909    0.3197644 -30.50  0.002397995    2.410    0.585
       115  -8.8042    140.4906     83.1225   7.6019012439e+01   3.7838033333e+01    0.2837917    0.2508536 -86.06 0.0006758327    1.308    0.235
       116  -8.2654    141.3329     79.3356   7.4654133651e+01   3.8377953505e+01    0.4065286    0.2604273  23.22  0.001592281    2.225    0.551
       117  -7.8874    214.8620    107.8668   6.7203296134e+01   1.5495783418e+01    0.2219255    0.1958459  -1.23  0.001171706    1.202    0.168
       118 -10.2842    103.9506     82.6227   8.5876641144e+01   4.5789743061e+01    0.5048134    0.3052935 -55.37 0.0008812855    1.826    0.452
       119  -9.4455    105.0391     71.2013   8.1969353018e+01   4.7917820865e+01    0.8500388    0.3506883 -33.54  0.002785577    2.855    0.650
       120  -8.8636    157.8125     83.6696   7.2045426378e+01   3.3605265489e+01    0.2991142    0.2176497 -47.31 0.0006836883    1.400    0.286
       121  -7.4413    116.6386     84.6998   8.2835639622e+01   4.2800439842e+01    0.1579402    0.1203363   3.34 0.0007035654    1.719    0.418
       122  -7.7533    170.0559     83.5108   6.9304740020e+01   3.0635184527e+01    0.2310746    0.1558524  55.51 0.0005809508    1.514    0.340
       123  -8.7554    149.9000     80.5870   7.2960197053e+01   3.6102567133e+01    0.4338552    0.2420504 -42.93 0.0005891992    1.785    0.440
       124  -8.8582    119.1332     80.4546   8.0841547859e+01   4.3147229705e+01    0.3073641    0.2561067 -76.08 0.0006092943    1.483    0.326
       125  -8.0495    119.8518     75.8948   7.9214218998e+01   4.3906668290e+01     0.284569     0.211035 -19.49 0.0006378118    1.540    0.351
       126  -9.1990     74.2325     79.2307   9.4222769782e+01   5.1660578482e+01    0.6382519    0.2579134 -50.46  0.001674987    2.239    0.553
       127  -8.2589     68.8904     79.2341   9.6004499535e+01   5.2446529699e+01    0.2810579    0.1694611 -46.41  0.001366867    1.469    0.319
       128  -7.9581    166.4306     78.4670   6.8598211848e+01   3.2454822760e+01    0.2765911    0.1352957 -46.59 0.0006486473    2.166    0.538
       129  -7.8374    184.1986     78.0981   6.4884033674e+01   2.8093049556e+01    0.2333612    0.2093275   9.48 0.0005951917    1.242    0.195
       130  -8.6655    156.9783     76.5134   7.0088713025e+01   3.5144167008e+01    0.2359384    0.2069078 -37.24  0.000324118    1.132    0.117
       131  -9.5443    127.4226     75.3442   7.6982416931e+01   4.2347277690e+01    0.4380384    0.2915739 -58.97 0.0008392708    1.878    0.467
       132  -9.1895    130.1081     66.5410   7.3433654494e+01   4.3393232349e+01    0.7696626    0.3876686 -25.29  0.002775472    2.558    0.609
       133 -10.3382    192.7224    248.5883   9.9306950874e+01  -2.9608513232e+00    0.4413323    0.2117658  51.35  0.002188142    2.485    0.598
       134  -8.7981     40.8560     20.6115   8.5911316142e+01   6.7332844108e+01    0.2831183    0.1496525 -33.79 0.0005361075    1.624    0.384
       135  -9.6497    165.3644    249.1222   1.0426473466e+02   1.2559268332e+00    0.3692995    0.1256231  49.12  0.001546427    2.983    0.665
       136  -9.7644     15.9928     70.5567   1.1252930481e+02   5.9848774064e+01    0.6221545    0.2045117 -53.53  0.001475517    2.146    0.534
       137  -9.6807     17.1329     61.2768   1.1002432279e+02   6.1795612202e+01    0.6503773    0.2390407 -58.04  0.003105688    2.012    0.503
       138  -9.2231    166.0207    244.7624   1.0358271237e+02   1.7568231912e+00    0.2157002    0.1509331 -88.12  0.001186685    2.682    0.627
       139 -10.1890    120.6676    243.4443   1.1169900220e+02   9.1127663674e+00    0.2094679    0.1804786  58.76 0.0001831715    1.110    0.099
       140  -8.0187     84.8200    248.1924   1.1853857365e+02   1.3587206669e+01    0.1378414    0.1233508  50.59 0.0004297245    1.348    0.258
       141  -9.7385    187.7370    233.9093   9.8092359269e+01  -2.3887107895e-01    0.2901688    0.2742153 -15.59  0.001671701    1.276    0.216
       142  -8.5159    122.6299    229.0456   1.0970286033e+02   1.1184165654e+01     0.244266     0.136228  52.95  0.000736042    1.583    0.368
       143 -10.8498     21.9016     53.4144   1.0611406347e+02   6.3118766119e+01    0.7878481    0.4626127 -89.88  0.002975632    3.705    0.730
       144 -10.2286     14.5952     44.7064   1.0670777833e+02   6.5421185054e+01    0.6054479    0.2878224 -27.19  0.003108466    2.335    0.572
       145  -9.6307      6.8178     32.6652   1.0656527725e+02   6.8276630562e+01    0.3098312    0.1680898 -31.05  0.001124847    1.641    0.391
       146  -9.9874      7.5562     28.2991   1.0478582252e+02   6.9062240692e+01    0.2862115    0.2408928  57.63  0.001087398    1.851    0.460
       147  -8.4605    232.0565    218.4056   8.7589588104e+01  -5.2963593415e+00    0.1905216    0.1597818 -13.92 0.0001895803    1.249    0.199
       148 -10.0365     10.3852    207.4506   1.2879525833e+02   2.9937370558e+01    0.3910833    0.2538912  28.82  0.002679932    2.100    0.524
       149 -10.4914    114.0975     71.2730   7.9347749080e+01   4.6042612719e+01    0.4198445    0.3694541 -41.31 0.0005807381    1.123    0.110
       150  -9.1474    121.0568     66.0243   7.5673411273e+01   4.5534029346e+01    0.3897038    0.3294756 -48.70 0.0009168184    1.240    0.194
       151  -8.2666    122.3571     61.3935   7.3762905202e+01   4.6085959376e+01    0.3126307    0.2162631  27.28  0.001038273    1.673    0.402
       152  -8.2291    162.8165     73.0521   6.7751087811e+01   3.4325323949e+01    0.2395771    0.2039456 -61.86  0.000568676    1.273    0.215
       153  -7.4161    175.4842     72.5288   6.4971273351e+01   3.1243780372e+01    0.1545964    0.1495191 -67.87 0.0001553281    1.038    0.037
       154  -7.9838    169.3913     71.1486   6.5792459038e+01   3.3014573802e+01    0.2230385    0.1383459 -46.11 0.0003666462    1.656    0.396
       155  -9.5261    146.9262     68.4548   6.9899785921e+01   3.9059140505e+01    0.6927628    0.2733846 -39.80  0.001710643    2.486    0.598
       156  -8.4731    156.5187     70.0480   6.8208346583e+01   3.6421551764e+01    0.2328177      0.15187 -36.48 0.0004409367    1.524    0.344
       157  -9.7460     94.8440     68.5230   8.4216560937e+01   5.0419265344e+01    0.4069335    0.2605774 -50.71  0.000719144    1.629    0.386
       158  -9.4533     97.1859     58.6946   8.0140809552e+01   5.1864239468e+01    0.8169197    0.4979482 -28.04  0.003705566    1.730    0.422
       159  -8.2237     75.5621     67.2177   9.0114824277e+01   5.4004809522e+01    0.4249701    0.1286872 -48.70  0.001248125    3.126    0.680
       160  -9.0175    144.8541     43.1780   6.2034555090e+01   4.3673626339e+01    0.7225254    0.3247071  29.97  0.002040013    4.647    0.785
       161  -9.2091    138.1390     65.4129   7.1034292551e+01   4.1714838807e+01    0.6314693    0.2195302 -36.92  0.001319837    2.836    0.647
       162  -8.9632    138.8979     56.8972   6.8035315591e+01   4.2998496481e+01    0.3890781    0.2194608 -37.33 0.0004667683    1.768    0.434
       163  -7.9566    138.7768     52.4049   6.6549715638e+01   4.3760898034e+01    0.2606349    0.2112256   1.07 0.0006650335    1.398    0.285
       164  -8.6757    141.8670     48.5484   6.4524612067e+01   4.3610649340e+01    0.3103034     0.224012 -24.59 0.0004883205    1.452    0.311
       165  -9.4672    109.8078     63.9485   7.8150166625e+01   4.8341822383e+01    0.4174488    0.2737656 -50.40 0.0006055182    1.677    0.404
       166  -8.8849    110.8146     58.2331   7.5890258132e+01   4.9174751387e+01     0.350071     0.280315   7.27 0.0008515575    1.392    0.282
       167  -9.0501    209.6697     63.8177   5.6506069233e+01   2.4108526491e+01    0.3311756    0.2605381 -26.17 0.0009570679    1.317    0.240
       168  -8.0165    170.5634     64.9845   6.3695178496e+01   3.3766873701e+01    0.2314404    0.1495147 -34.76 0.0003645955    1.543    0.352
       169  -7.9954    157.5983     62.9264   6.5746874360e+01   3.7380913552e+01    0.2935009    0.1744894 -47.79 0.0008139191    1.811    0.448
       170  -8.8412     49.1734     61.7798   9.7876911397e+01   5.8754959998e+01    0.2440737    0.1406761 -57.80  0.001217547    1.724    0.420
       171  -8.4497      9.9775     60.6492   1.1263649067e+02   6.2377198342e+01    0.2984067    0.1929596  87.17  0.001706788    2.095    0.523
       172  -9.2258     87.9158     56.9276   8.2484125516e+01   5.3933008838e+01    0.8117104    0.3151329 -32.40  0.002796507    3.102    0.678
       173 -10.2032     73.4409     57.2729   8.7529340910e+01   5.6326605824e+01     1.093012    0.3598423 -40.46  0.002506569    2.867    0.651
       174  -8.8814     79.9792     46.7732   8.1433463645e+01   5.7181168724e+01    0.4494277    0.2389344 -28.16 0.0007573124    1.996    0.499
       175 -10.1801     85.1367     48.0157   8.0152493622e+01   5.6048075295e+01    0.4283715     0.330549 -70.70 0.0009789274    2.021    0.505
       176 -10.2516     89.9672     38.3048   7.4809513358e+01   5.6751806890e+01    0.8983814    0.3440517  33.54  0.003030222    3.629    0.724
       177  -8.4808    245.0120     59.9866   5.0734522984e+01   1.6373787341e+01    0.1688237    0.1544451 -65.05  0.001013411    1.064    0.060
       178  -8.0180    164.5081     60.1387   6.3426648580e+01   3.6100594265e+01    0.2281191    0.1505601 -33.92  0.001009405    1.522    0.343
       179  -8.5994    149.8473     48.2077   6.2650970038e+01   4.1679642013e+01    0.3641524    0.2253254 -48.34 0.0006051857    1.796    0.443
       180  -8.5586    146.5227     58.9865   6.6942284110e+01   4.0791829828e+01    0.2746054    0.2020102 -48.49 0.0006916767    1.449    0.310
       181  -9.1352    147.7048     54.2126   6.5107257935e+01   4.1279540686e+01    0.4942535    0.2397615 -25.00  0.001822965    2.434    0.589
       182  -8.9393    130.1123     57.0419   7.0250543320e+01   4.5063605127e+01    0.5437687    0.2425443 -32.01 0.0008564587    2.335    0.572
       183  -7.8362    122.4254     40.8139   6.6466059988e+01   4.9431321407e+01    0.3093133     0.178169  -3.62   0.00116593    2.771    0.639
       184  -9.2607    118.2653     55.5631   7.2862909147e+01   4.8021559650e+01    0.5333475    0.3167362 -45.53  0.001721998    1.802    0.445
       185  -9.0763    121.0705     47.0078   6.9067850765e+01   4.8798355630e+01    0.4180635    0.2259695 -28.53  0.001042097    1.927    0.481
       186  -7.6927    169.0000     56.0125   6.1254685758e+01   3.5616969882e+01    0.2456761   0.08655898 -32.17 0.0004551901    2.870    0.652
       187  -7.5389    152.4029     60.2423   6.6026937900e+01   3.9127350319e+01    0.2187729    0.1391799 -44.50 0.0009418728    1.627    0.385
       188  -9.0051     39.7075     52.5675   9.8669188129e+01   6.1693583751e+01    0.3280447    0.1838463 -37.95  0.001738066    1.561    0.360
       189  -9.2155     44.0495     53.7887   9.7339659603e+01   6.0979295343e+01    0.3490852    0.1847043 -31.44 0.0008609971    1.969    0.492
       190  -9.2133     53.6500     39.1144   8.8277702261e+01   6.2596110921e+01    0.2438275    0.1972992 -46.14 0.0009457769    1.342    0.255
       191  -8.3358     54.4887     35.4424   8.6483722309e+01   6.3122659425e+01    0.1735282    0.1161403  14.91 0.0006336304    1.627    0.385
       192 -10.0250     49.9707     54.4985   9.5262481595e+01   6.0150371537e+01    0.5273188    0.3480116 -68.58  0.001354697    2.168    0.539
       193  -7.9995     50.4856     48.4937   9.3014616955e+01   6.1267298697e+01    0.2271623    0.1617111 -23.54 0.0007796264    1.343    0.255
       194  -9.4857     56.0275     43.4641   8.9001867797e+01   6.1490847896e+01    0.6688043    0.3592793  -9.67  0.002577852    3.544    0.718
       195  -8.8171    162.6921     54.1742   6.1923278249e+01   3.7513688465e+01    0.2388021    0.1790057 -49.21 0.0004662508    1.402    0.287
       196  -8.8366    105.4768     52.1077   7.5267934426e+01   5.1371104543e+01    0.5607377    0.2381474 -35.98  0.001224364    2.309    0.567
       197  -7.2874    171.5964     50.5248   5.9067053705e+01   3.5793577584e+01    0.1472259    0.1444236  30.57 0.0002732431    1.055    0.052
       198  -9.1568    162.5882     47.3767   5.9783980979e+01   3.8572758082e+01    0.5033062    0.1741425 -40.02  0.001689108    2.863    0.651
       199  -9.7020    130.6230     46.2346   6.6371998949e+01   4.6688714337e+01    0.8702037    0.3488419 -22.91  0.001473608    3.517    0.716
       200  -8.8370    139.5415     40.0846   6.2134362487e+01   4.5434104479e+01    0.4046241    0.3502237 -51.72  0.001314097    1.263    0.208
       201  -8.9297    132.8733     36.0502   6.2212083982e+01   4.7627090062e+01    0.3947664    0.2303094 -47.51 0.0005229593    2.013    0.503
       202 -10.8305    134.0414     31.0217   6.0140132822e+01   4.8011111768e+01    0.3731422    0.2714577   1.76            0    1.612    0.380
       203  -8.7642    112.0894     47.0864   7.1531702422e+01   5.0794967244e+01    0.3025655      0.21602 -45.77   0.00114728    1.533    0.348
       204  -9.1464    230.5250    200.9017   8.4729421607e+01  -2.7349255966e+00    0.2669307    0.2331577 -49.51  0.001039709    1.625    0.384
       205  -8.2191    193.6200    197.7919   9.1053302637e+01   4.1385470264e+00    0.3095052    0.1972736 -53.69  0.001542218    2.125    0.529
       206  -8.6040    191.7643    193.7283   9.0678203754e+01   5.1345153456e+00    0.4528661    0.2700997 -67.57  0.001658056    4.296    0.767
       207  -8.9003    218.6924    195.5128   8.5872789964e+01   3.8506387167e-02    0.2975854    0.2012281  43.83  0.001108666    1.500    0.333
       208  -7.2903    142.5354    195.6019   1.0106444704e+02   1.3843184597e+01    0.1367297    0.1182378  53.13 4.401177e-05    1.057    0.054
       209  -9.8896     76.2776     32.2494   7.6938411364e+01   6.0215178227e+01    0.5037398    0.3165254  45.52  0.002235006    1.725    0.420
       210 -10.2959     45.5189     29.2064   8.7629261764e+01   6.5362413958e+01    0.4327919      0.39783 -77.05  0.002868462    1.710    0.415
       211 -10.4259    249.7671    193.1431   7.9916661073e+01  -4.8005233073e+00    0.2199934    0.1851282   7.20 0.0003042889    1.085    0.078
       212  -7.5259    244.6464    192.2969   8.0628850497e+01  -3.8667605337e+00     0.165475    0.1156569  62.08 0.0008323369    2.619    0.618
       213  -8.9973    219.3445    190.7250   8.4844900680e+01   6.3719589004e-01    0.2314392    0.1883187  11.59 0.0003105031    1.105    0.095
       214  -9.6662     79.3081     24.2516   7.2475552906e+01   6.0827232612e+01    0.5460842    0.2582241  29.18  0.001653957    2.591    0.614
       215  -8.9719     84.6933     21.8957   6.9674880812e+01   6.0120143976e+01    0.2664099    0.2184709 -11.03 0.0006697174    1.138    0.121
       216  -8.6869     40.1894     34.6396   9.2123506905e+01   6.5062191963e+01    0.2893071    0.2366727   1.84  0.001483428    1.215    0.177
       217 -10.1403     35.9006     37.9807   9.5243177440e+01   6.4920567356e+01    0.3645401    0.1910534 -36.35 0.0003443937    1.632    0.387
       218  -8.6041    158.1889     42.8231   5.9171814223e+01   4.0357456474e+01    0.2024221    0.1685803  29.51 0.0002576729    1.288    0.224
       219  -7.8062    150.3525     43.3303   6.0919039403e+01   4.2273498323e+01    0.3164462    0.2018045  21.70 0.0007104024    2.151    0.535
       220  -9.1134    153.5879     40.9759   5.9474607025e+01   4.1790221064e+01    0.3595718    0.2207496 -42.27 0.0008750982    1.701    0.412
       221  -9.0920    110.2957     33.2713   6.6805386961e+01   5.3264655663e+01    0.3121153    0.2624664 -33.54 0.0008023928    1.247    0.198
       222  -9.3231    105.0278     41.0448   7.1280443355e+01   5.3269391762e+01    0.4599117    0.2474921 -48.31     0.001231    2.334    0.571
       223  -8.4619    106.0385     36.4793   6.9232145911e+01   5.3738377886e+01    0.3015345    0.1981692  32.95  0.001242626    1.554    0.357
       224  -7.7678    113.6752     42.0149   6.9215360173e+01   5.1240384158e+01    0.3013977    0.1569427  29.25  0.001062923    2.593    0.614
       225  -8.6245    157.2890     48.6307   6.1239084618e+01   3.9737177391e+01    0.2891061    0.1699676 -43.67  0.001232048    1.774    0.436
       226  -8.7113    144.2736     36.6434   5.9919422851e+01   4.4736509056e+01    0.2867941    0.2158948 -62.09 0.0006321408    1.608    0.378
       227  -8.8488    118.9884     34.4886   6.4989282602e+01   5.1129639237e+01    0.2993995    0.2011153 -28.63 0.0007726742    1.510    0.338
       228  -9.8760     37.9718     42.2744   9.5914609835e+01   6.3895899067e+01    0.3874522     0.301998 -81.21  0.001422838    2.103    0.524
       229  -7.7067    153.2231     34.6378   5.7435137808e+01   4.2745121459e+01    0.2150088    0.1252183  52.21 0.0009454678    1.610    0.379
       230  -8.6886    219.9892    186.0093   8.3813948377e+01   1.2366013704e+00    0.2536621    0.1818349  14.61   0.00138815    1.408    0.290
       231  -9.1485    101.0695     31.8201   6.8821560970e+01   5.5464688324e+01    0.4697579    0.1938427 -37.66  0.001321842    2.470    0.595
       232  -7.9388    229.6871    186.0121   8.2043472745e+01  -4.6932394658e-01     0.178178    0.1546977  -4.16  0.000456138    1.076    0.071
       233  -8.3650     96.8670     32.8932   7.0494996130e+01   5.6187871279e+01    0.2150219    0.1712546   8.51 0.0004816861    1.251    0.200
       234 -10.3301    187.8102    182.2161   8.9303034210e+01   7.8166899142e+00    0.2477905    0.2248458  36.59 0.0003746951    1.086    0.079
       235  -8.3091    140.1027    182.8851   9.9480688183e+01   1.6755771741e+01    0.1982321    0.1708904  67.02            0    1.174    0.148
       236  -8.6036     92.0405     20.9852   6.7002823954e+01   5.8771999774e+01    0.3603057    0.2092429  23.30  0.001323221    1.990    0.497
       237  -8.9419    246.9065    181.1021   7.8052077237e+01  -2.6886031060e+00    0.1990808     0.162735   1.74 0.0005237131    1.034    0.033
       238  -8.9975     73.0765    179.9533   1.1391710383e+02   2.8430995218e+01    0.1879135    0.1613904  82.67  0.001192468    1.034    0.033
       239  -8.1979    230.8044    167.9259   7.8181170121e+01   2.0746509004e+00    0.2685781    0.1550668 -34.50   0.00131206    1.680    0.405
       240  -8.7968    208.3252    166.0329   8.1971478497e+01   6.6359330266e+00      0.22975    0.1897747  41.07 0.0002233338    1.222    0.182
       241  -9.1389    144.0425     25.4807   5.6093411595e+01   4.6216149468e+01    0.2699324    0.1870328 -45.30 0.0007126172    1.588    0.370
       242  -8.0005    140.4765     22.9555   5.5907442835e+01   4.7405163342e+01    0.1993259    0.1061423 -50.18 0.0006885894    2.383    0.580
       243  -9.5739    118.9222     21.2726   5.9947993208e+01   5.2823531566e+01    0.3159134    0.2757367 -41.62  0.001184686    1.288    0.223
       244  -8.1908    119.6871     15.6637   5.7592205408e+01   5.3266297634e+01    0.2945563    0.2004739  38.00  0.001522375    1.390    0.280
       245  -8.6090     73.2635    164.1502   1.1180378525e+02   3.1945209461e+01    0.2082816    0.1826721  86.36 0.0004917221    1.025    0.025
       246  -7.9537    111.4978     21.9964   6.2050337511e+01   5.4448968124e+01    0.2925678     0.132704 -27.24 0.0009942156    2.246    0.555
       247  -7.5530    193.9921    164.0194   8.4380360708e+01   9.8248302773e+00    0.2131532    0.1802602 -89.63 0.0005565794    1.644    0.392
       248  -7.5025    136.3315    159.8167   9.6105834613e+01   2.2249126392e+01    0.1887335    0.1341557 -43.31 0.0002103467    1.506    0.336
       249  -8.3198    110.1037     27.0019   6.4399043619e+01   5.4144549598e+01    0.3514293    0.1939983  14.31  0.001361338    2.835    0.647
       250  -8.6672    236.0054    154.5041   7.4399089668e+01   3.2235224247e+00    0.1929049    0.1327559  41.70 -0.0002249322    1.506    0.336
       251  -8.2651    133.8414    146.7497   9.4041614882e+01   2.5579488627e+01    0.5237755    0.1875579 -55.97  0.001631488    3.457    0.711
       252  -9.1842    236.6736    146.5855   7.2543993398e+01   4.3617043682e+00    0.3593929    0.1957684  23.73  0.001472037    2.574    0.612
       253  -8.8904    132.5209     17.0630   5.5375132383e+01   5.0028694374e+01    0.2358928    0.1884814  71.49 0.0005466826    1.299    0.230
       254  -8.4524    128.9597     16.0059   5.5714603675e+01   5.1010047547e+01    0.2652267    0.2136044 -57.15 0.0003900065    1.483    0.326
       255  -7.3056    189.5186     15.5010   4.5798558351e+01   3.5668422911e+01    0.1391581    0.1256879  58.50 0.0008069119    1.137    0.120
       256  -9.3350     66.6719    143.9097   1.1043230703e+02   3.7568127688e+01    0.4738405    0.2797128  62.97  0.002264143    1.954    0.488
       257  -7.4907     95.4860    136.4207   1.0159899046e+02   3.5007615174e+01    0.1448046    0.1322113  89.58 0.0001194538    1.050    0.047
       258  -8.5934    112.3151    133.9598   9.6695216796e+01   3.2615418952e+01    0.3659407     0.240537 -83.98   0.00108374    2.215    0.548
       259  -9.9967    134.0193    131.7113   9.0671791347e+01   2.8878306966e+01    0.5533361    0.4416622  57.18    0.0027268    1.304    0.233
       260 -10.3962    140.7598    117.6595   8.5576377839e+01   3.0553363906e+01     1.014307    0.5232562 -45.99  0.002006604    1.918    0.479
       261 -10.7082    123.6096     90.0610   8.2503192493e+01   4.0204365343e+01      1.18979    0.6380776 -32.51  0.002974738    2.145    0.534
       262 -10.0426    117.2695    125.4915   9.3509512871e+01   3.3628326002e+01    0.7893178    0.4854186 -89.60  0.001603845    3.356    0.702
       263 -10.0527    127.6664    102.3700   8.4903592795e+01   3.6703648394e+01    0.6871436    0.3994882 -40.36  0.002843239    1.719    0.418
       264  -9.9394    135.1872    122.2540   8.8121274146e+01   3.0735557445e+01    0.5633665    0.3243435 -47.33  0.002337798    1.717    0.418
       265 -10.4151    108.9607    113.2720   9.2821619496e+01   3.8023652715e+01     1.130146    0.4423018 -51.02  0.001762737    2.471    0.595
       266 -10.4723    108.6118     99.9468   8.9475108254e+01   4.1113650662e+01    0.9859786    0.6316003  69.95  0.003910341    2.483    0.597
       267 -10.3299    139.2927    104.4016   8.2450299191e+01   3.3735006534e+01    0.8660499    0.4241806 -43.47  0.001841344    2.006    0.502
       268 -10.0005    130.3508    118.5074   8.8423983052e+01   3.2580391981e+01    0.5091028    0.3402369 -65.18  0.001206219    1.817    0.450
       269 -11.1058    133.7017    108.9358   8.5097378785e+01   3.3980987231e+01     1.464864    0.4778769 -48.32   0.00446119    3.156    0.683
       270  -8.7436     83.2741    131.7416   1.0393556873e+02   3.8076061366e+01    0.5643535    0.3115757  77.64  0.001964508    3.604    0.723
