#   1 NUMBER                 Running object number                                     
#   2 MAG_AUTO               Kron-like elliptical aperture magnitude                    [mag]
#   3 X_IMAGE                Object position along x                                    [pixel]
#   4 Y_IMAGE                Object position along y                                    [pixel]
#   5 X_WORLD                Barycenter position along world x axis                     [deg]
#   6 Y_WORLD                Barycenter position along world y axis                     [deg]
#   7 A_WORLD                Profile RMS along major axis (world units)                 [deg]
#   8 B_WORLD                Profile RMS along minor axis (world units)                 [deg]
#   9 THETA_WORLD            Position angle (CCW/world-x)                               [deg]
#  10 FWHM_WORLD             FWHM assuming a gaussian core                              [deg]
#  11 ELONGATION             A_IMAGE/B_IMAGE                                           
#  12 ELLIPTICITY            1 - B_IMAGE/A_IMAGE                                       
         1 -12.2564    119.6642     38.5832   2.7518945987e+01   4.9612835913e+01     0.787554    0.4207734 -45.10   0.00310932    2.246    0.555
         2 -12.1932    104.8119     13.4796   2.2234648093e+01   5.5688940556e+01    0.4416234    0.3605975  -5.70  0.001562483    1.332    0.249
         3 -10.1075     29.4238      2.0409   4.2448463693e+01   7.0440255020e+01    0.1809392     0.146558   6.58 0.0003626817    1.177    0.150
         4 -10.0594     13.0171      2.1033   5.0765676055e+01   7.2379368053e+01    0.2656209    0.1621365   8.98  0.001382026    1.418    0.295
         5 -11.9293     36.4736     18.6296   4.7122022319e+01   6.7508573240e+01    0.7067899    0.3949841 -31.60  0.004134717    1.684    0.406
         6 -12.1891     48.6360     12.9115   3.9356839070e+01   6.6465465340e+01    0.6136037    0.2959116  46.78  0.003151991    2.285    0.562
         7 -11.8795     20.1530     21.8711   5.6252676813e+01   6.8941098590e+01    0.6282351    0.3126211 -27.32  0.002567726    1.824    0.452
         8 -11.1768      6.3158     10.6303   5.8543382898e+01   7.1862669994e+01    0.4735052    0.3581451 -13.33  0.003578591    1.074    0.069
         9 -10.6624     12.8442      8.5753   5.4042737469e+01   7.1559196254e+01     0.319813    0.1956543 -39.93 0.0008272422    1.733    0.423
        10 -10.0415     22.3043      3.0543   4.6413767930e+01   7.1226148812e+01     0.214286    0.1612102   1.76 0.0008919477    1.041    0.039
        11 -12.4445     15.5346     14.8156   5.5511487615e+01   7.0430505152e+01    0.8656662    0.3897217 -19.65  0.004205262    2.595    0.615
        12 -12.2443     22.7743     10.8064   4.9980532419e+01   7.0214382714e+01     0.583971     0.378984  -7.12  0.003850951    1.325    0.245
        13 -10.6927    135.8106     22.3699   1.8825399653e+01   4.7745086968e+01    0.5678529    0.3911377  65.50  0.003111417    1.335    0.251
        14 -10.8463    127.1773     16.6341   1.8613758520e+01   5.0336759970e+01    0.4796546    0.3178203  -1.53   0.00207646    1.915    0.478
        15 -11.1722    135.1320     14.9854   1.6626789119e+01   4.8635851394e+01    0.8259926    0.3804578  66.56  0.003752901    2.003    0.501
        16 -12.2549    164.7509     18.1894   1.2933523854e+01   4.1286073068e+01    0.5311376     0.279274  42.42  0.002498864    2.187    0.543
        17 -11.9278    227.7336     15.1390   5.3864818301e+00   2.7231758515e+01    0.4737242    0.2658545 -82.37  0.001422804    1.772    0.436
        18 -10.9615     86.1116     14.2573   2.7293830283e+01   5.9564629425e+01    0.3721929    0.3171923   7.08  0.001674787    1.152    0.132
        19 -11.0353     67.6501     18.7963   3.4893576669e+01   6.2619931845e+01    0.4156486    0.3744292  64.79  0.002724028    1.565    0.361
        20  -9.9989    218.4382     13.0678   5.7411036732e+00   2.9456109725e+01    0.2151524    0.2057523 -42.91  0.001244493    1.311    0.237
        21 -10.4692    191.3097     13.6573   8.5078340614e+00   3.5495587512e+01    0.3115152     0.160135 -48.26  0.001452673    1.942    0.485
        22 -10.9526    192.6788      8.6839   7.1725496818e+00   3.5677211917e+01     0.429077    0.2993724 -17.22  0.002525519    1.873    0.466
        23 -11.3522    206.5370      2.7387   4.5166463168e+00   3.3121828320e+01    0.5578511    0.2456274  84.86  0.002608602    2.262    0.558
        24 -10.7517    218.5331      3.6501   3.7257615641e+00   3.0404689117e+01    0.3120183    0.1873414  65.38 0.0008139664    1.598    0.374
        25 -11.1515    223.7902      2.6536   3.1119210355e+00   2.9376673465e+01    0.3794391    0.2145369 -79.40 0.0004469008    1.652    0.395
        26 -13.2752    105.4565     20.4137   2.4597416222e+01   5.4871302310e+01    0.3470222    0.3257887  75.78   0.00054189    1.238    0.192
        27 -10.0554    168.8584      9.5166   1.0053866207e+01   4.1156236055e+01    0.4628172    0.1454728  57.05  0.001892172    2.628    0.619
        28 -10.1329    163.9559      6.7236   9.9188961477e+00   4.2569196711e+01    0.5017767    0.2634305  -5.14  0.002272536    3.137    0.681
        29  -9.6658    145.1669      9.9454   1.3440450968e+01   4.6730706251e+01    0.2182332    0.1594843  29.89 0.0008007282    1.569    0.363
        30 -10.3214      1.1260      7.7104   6.0124477750e+01   7.2696562742e+01    0.3181705   0.06743142 -44.31  0.001344317    3.765    0.734
        31 -10.8429      2.1676      2.1341   5.6874518211e+01   7.3390046161e+01    0.3157069    0.1697079   1.41  0.001992496    1.776    0.437
        32 -11.4911    244.9161      5.0499   2.0864210779e+00   2.4768263722e+01    0.5489945    0.2857606 -72.12  0.003163812    1.790    0.441
        33 -10.2329    245.8986      1.3994   1.3298102081e+00   2.4950938120e+01     0.192139    0.1254523  78.50 0.0003630231    1.417    0.294
        34 -10.8316    232.1818      6.9186   3.3514190796e+00   2.7174063177e+01    0.2710775    0.1915415 -77.97  0.001138916    1.188    0.158
        35 -11.7328    233.4243      2.4928   2.3776203202e+00   2.7370668764e+01    0.4071981     0.208386 -73.74 4.777147e-07    1.881    0.468
        36 -10.3841    184.6898      6.5447   7.4828085602e+00   3.7725528298e+01    0.3546583    0.2011973 -56.99  0.001892717    1.834    0.455
        37  -9.4678     78.0039      7.6661   2.6930074658e+01   6.1795529050e+01    0.1846441    0.1678577 -14.17 0.0005492393    1.285    0.222
        38 -10.2736     74.1076      3.3521   2.6254648086e+01   6.2926910099e+01    0.3966042    0.2433259  59.18  0.001860338    1.733    0.423
        39  -9.9633    153.7935      6.9479   1.1317748184e+01   4.4953228470e+01     0.288247     0.105468  48.20  0.001188751    2.694    0.629
        40  -8.6441     89.3337      7.3032   2.3677476580e+01   5.9539950842e+01    0.1346895   0.07746334  31.73 0.0007036832    1.660    0.397
        41 -10.1927     62.7657      6.6137   3.1269458051e+01   6.4751670027e+01    0.2552364    0.1728326  17.18  0.001575181    1.345    0.256
        42  -9.8970    177.3153      6.0488   8.1599337264e+00   3.9488639720e+01    0.2273762    0.1534013  81.84 0.0003679727    1.318    0.241
        43 -11.5305    133.6874      2.5809   1.2988852083e+01   5.0043399831e+01    0.4045919     0.256603  63.93  0.001948402    1.321    0.243
        44  -8.9065    128.6656      1.2730   1.3386220425e+01   5.1310266380e+01    0.1874085   0.09368784  59.25 0.0007515668    1.610    0.379
        45 -10.2501     41.4041      3.9958   3.8111676697e+01   6.8534483096e+01    0.3072609    0.1701227   6.39  0.001265521    1.997    0.499
        46 -11.7548    212.1522      9.4949   5.5162464633e+00   3.1208194785e+01    0.5183265    0.3688276   1.66  0.002949876    2.335    0.572
        47  -9.9928    141.6743      3.9638   1.2183972504e+01   4.8063962441e+01    0.3040152    0.1641213  65.52  0.001578646    1.553    0.356
        48 -10.4886    113.4803      2.8610   1.6621310695e+01   5.4657897797e+01    0.2686498    0.2416284 -84.22  0.001592542    1.293    0.227
        49  -9.9701    187.8852      2.2402   6.1139913484e+00   3.7385435970e+01    0.2591588    0.1776642 -77.00  0.001160883    1.381    0.276
        50 -10.1868    122.2119      5.3075   1.5812660579e+01   5.2481497460e+01    0.2284098    0.1914587  21.37  0.001466961    1.280    0.219
        51 -10.5567    105.2374      1.9907   1.7970890516e+01   5.6559522794e+01    0.3324151    0.2082386  87.56  0.001691676    2.269    0.559
        52 -10.1060    152.9569      1.5282   9.8985722537e+00   4.5606554837e+01    0.2693147    0.1239926  70.06 0.0005944565    1.857    0.461
        53  -8.5571     52.6550      2.2729   3.2855716489e+01   6.6907951066e+01   0.09902465   0.09354744  64.23 0.0002318059    1.620    0.383
        54  -9.4626     81.4040      1.2179   2.3312706687e+01   6.1657444678e+01    0.2141402   0.08594736  56.42 0.0006529914    2.177    0.541
        55  -8.9886     33.5257      1.5255   4.0304506682e+01   6.9935011513e+01    0.1171869   0.08599454   8.82 0.0004715521    1.045    0.043
        56  -9.2812     62.7642    131.2668   7.1056726700e+01   4.1651409716e+01    0.2357111   0.09015301 -49.72 0.0008828308    2.390    0.582
        57 -10.2909     50.4986    250.0086   8.8649151885e+01   1.6439241722e+01    0.1621851    0.1033178 -78.47  0.001030809    1.583    0.368
        58  -9.0771     92.9908    129.7737   6.1813396478e+01   3.7462368779e+01    0.2209744    0.1678658 -80.24  0.001040146    1.630    0.387
        59 -10.9733      9.8753    127.1931   8.6081234032e+01   4.7856067326e+01    0.5188943    0.2449356 -57.48  0.001730001    1.705    0.414
        60  -9.0471    182.1746    129.3812   3.9197006273e+01   1.9552705258e+01    0.2017009    0.1442127  59.03  0.000338736    1.608    0.378
        61  -8.9415     26.5292    127.4803   8.1246306402e+01   4.6508419853e+01    0.1308083    0.1109649 -66.17 4.665592e-05    1.003    0.003
        62  -9.9910     22.8180    127.0072   8.2275979120e+01   4.6934081137e+01    0.1875433    0.1728761 -60.29 0.0003613235    1.106    0.096
        63  -9.8586     33.1599    125.7271   7.8983496684e+01   4.6332852983e+01    0.2559259    0.1617524  88.78  0.001266566    1.910    0.476
        64  -9.7337      2.2340    125.8443   8.8102862046e+01   4.8658892123e+01    0.2295954    0.1570027  81.03  0.001124633    1.509    0.337
        65 -11.6229    104.4195    122.3957   5.6787603267e+01   3.7174641345e+01    0.3880543    0.3452771  65.24 0.0009595939    1.254    0.203
        66  -9.7584     19.0563    123.8733   8.2936882373e+01   4.7982089486e+01    0.1906718    0.1557104 -67.91 0.0004650942    1.030    0.029
        67  -9.8549     49.8100    122.8335   7.3370794107e+01   4.5292517918e+01    0.3029588    0.1941714 -21.85  0.001429331    2.083    0.520
        68  -9.9351     56.1599    122.1663   7.1272795418e+01   4.4695668733e+01    0.1892759    0.1616731  74.79  0.000591136    1.337    0.252
        69  -9.9584     44.5346    120.0253   7.4479176866e+01   4.6557342703e+01    0.2837737    0.1854384 -79.25 0.0005829531    1.727    0.421
        70  -9.7948     43.5192    116.4806   7.4123143141e+01   4.7515613120e+01    0.3368708     0.182622  21.30  0.001583052    2.188    0.543
        71 -10.8302     26.7311     86.2087   7.3538136194e+01   5.6118458760e+01    0.5156777    0.4688717  -3.15  0.002682563    1.207    0.172
        72 -12.2307     17.4380    100.7023   7.9718811557e+01   5.3551260033e+01     0.302743    0.2686076 -44.27 0.0005177921    1.104    0.094
        73 -11.8335     20.8750     92.8681   7.7055081630e+01   5.5091576746e+01    0.8381218     0.510455  81.78   0.00159721    2.651    0.623
        74 -10.7003      7.8569    114.8917   8.5041953944e+01   5.0885439119e+01    0.4435872     0.247292 -46.31  0.002077692    1.639    0.390
        75 -11.7409     25.7454    107.1641   7.8121580099e+01   5.1406736709e+01    0.8518468    0.4452416 -32.93  0.004060546    2.194    0.544
        76 -12.2515      2.5869    111.8581   8.6240257981e+01   5.1904489658e+01    0.4773049    0.2669513 -69.94  0.002021237    1.443    0.307
        77 -11.1237      4.8945    105.2880   8.4587893830e+01   5.3295854544e+01    0.3759834      0.32846   7.99  0.002631451    1.393    0.282
        78 -11.6944     21.5914    114.5149   8.0721338073e+01   5.0009461616e+01    0.6685642    0.2810829  12.41  0.001913036    3.324    0.699
        79 -11.1491     28.3267    112.9846   7.8325230258e+01   4.9816338205e+01     0.381038    0.2783976  14.44  0.001451198    1.621    0.383
        80 -10.2125     37.4516    116.7682   7.6101995682e+01   4.8070376735e+01    0.2462466    0.1969033 -44.53 0.0004165819    1.167    0.143
        81  -9.5041     79.4122    114.7233   6.2397893522e+01   4.3217942804e+01    0.2823727    0.1689718 -44.09  0.001270346    1.600    0.375
        82  -8.8824     67.5001    114.9834   6.6187586496e+01   4.4917952961e+01    0.1916646     0.124954 -84.67 0.0008069981    2.342    0.573
        83  -9.4226     57.6926    114.4545   6.9187236943e+01   4.6347590754e+01    0.2835604    0.1656493 -72.63  0.001038987    2.099    0.524
        84  -9.7437    104.9395    112.8795   5.4255891106e+01   3.9244221183e+01     0.264925    0.2064432  32.29 0.0008385149    1.330    0.248
        85 -11.5923     80.3189    108.5266   6.0603274580e+01   4.4509145076e+01    0.7750413    0.4855247  38.13 0.0006975383    1.678    0.404
        86 -10.1425     85.5663    103.5045   5.7667300162e+01   4.4791601764e+01     0.276116    0.2185071 -37.07 0.0006129817    1.217    0.178
        87  -9.9579     48.9845    112.1878   7.1508333266e+01   4.7932701699e+01    0.2818092    0.1787471  36.63  0.001409105    1.743    0.426
        88  -9.1565    134.8713    109.8575   4.5246851904e+01   3.3847285329e+01    0.2053747    0.1840127 -86.46 0.0003583812    1.295    0.228
        89  -9.3689    120.0445    109.5168   4.9101831781e+01   3.7025720485e+01    0.2461618    0.2001135 -40.55 0.0006403461    1.214    0.176
        90 -10.2472     89.0298    104.7974   5.6926513830e+01   4.3916164197e+01    0.4844091    0.1942723  37.33 0.0009142803    2.587    0.613
        91 -10.8217     15.8063    109.1857   8.1694747255e+01   5.1694517423e+01    0.2490663    0.2376074  84.86 0.0005315239    1.196    0.164
        92  -9.7570     45.8823    104.8157   7.0960316453e+01   5.0013532572e+01     0.505009   0.09734701 -49.04   0.00152718    4.028    0.752
        93  -9.2890    182.5081    104.4745   3.3003801612e+01   2.4284515520e+01    0.1482969    0.1434618 -54.03 4.493028e-05    1.018    0.018
        94 -10.8790     52.1823     99.0850   6.7527168763e+01   5.0608634322e+01    0.6211574    0.2194332 -44.33  0.001059447    2.666    0.625
        95  -8.7625    120.4662    101.4665   4.6803907047e+01   3.8651679390e+01    0.1530544    0.1455881  -4.17 0.0003677437    1.044    0.042
        96 -11.3085     90.0957     88.0075   5.1938718792e+01   4.7350537608e+01     1.284506    0.6252528 -26.38   0.00429735    3.422    0.708
        97 -11.9543     68.7438     96.0182   6.1152827223e+01   4.9096184767e+01     0.642698    0.4275109  16.74 0.0008122331    1.764    0.433
        98 -11.2424     76.0782     79.7549   5.4081924199e+01   5.1429016268e+01     1.053244    0.7806361 -75.65  0.005046675    2.125    0.529
        99 -10.1130     77.6580     96.7104   5.8391383940e+01   4.7587343965e+01    0.2956547    0.2283726  -6.14 0.0007516674    1.492    0.330
       100 -11.3271     79.7111     92.9994   5.6706186696e+01   4.8066896591e+01    0.6634498    0.5601237  55.92  0.003224794    1.418    0.295
       101 -12.0597      9.3908     97.1071   8.1807891218e+01   5.4910076177e+01    0.4180464    0.3922504 -28.29  0.000436892    1.199    0.166
       102  -8.9241     33.5279     98.4917   7.3800752829e+01   5.2737306126e+01    0.1311952    0.1143413 -52.97 2.024953e-05    1.049    0.047
       103 -10.5847     35.5705    103.0308   7.4048586580e+01   5.1494210538e+01    0.5820054    0.3067532   6.22  0.002604017    2.700    0.630
       104  -9.9647     30.4489     96.7283   7.4495683724e+01   5.3422788507e+01    0.2597855    0.1498901 -56.29 0.0008293251    1.451    0.311
       105 -10.6647    120.2748     85.8149   4.2383552143e+01   4.1842844862e+01     0.685226    0.3731099 -47.72  0.002824469    1.964    0.491
       106 -10.6629    121.7063     93.9531   4.4355206725e+01   3.9934520124e+01    0.2985487    0.2497851 -43.98 0.0009335448    1.207    0.172
       107 -10.7207     42.9303     93.5784   6.9426004062e+01   5.2913616588e+01    0.4575987    0.3092217 -52.56  0.002489058    1.296    0.228
       108 -10.1578     35.4109     92.4639   7.1824490007e+01   5.3932404433e+01    0.5136268    0.2718934 -76.25    0.0021549    2.809    0.644
       109 -11.6078     44.2924     84.8563   6.6786012470e+01   5.4700715040e+01    0.6009944    0.3967009   9.79  0.001887789    1.750    0.429
       110  -9.9791     37.0414     86.0000   6.9718451159e+01   5.5215142634e+01    0.3092434    0.1773356  15.68   0.00105625    2.033    0.508
       111 -11.3477     98.6839     91.1006   5.0171846445e+01   4.5134056950e+01    0.4423012    0.2546218  48.84   0.00189305    1.932    0.482
       112  -9.8391     49.2832     91.2415   6.6618991007e+01   5.2722591837e+01    0.2690403    0.1871084  37.28  0.001442438    1.625    0.385
       113 -11.5424      7.3687     88.5803   8.1009938322e+01   5.6958331200e+01    0.4941862    0.3814441   1.03  0.002482042    1.509    0.337
       114  -9.8227     66.4753     88.6483   5.9936467869e+01   5.1039035224e+01    0.3480012    0.2205417  -5.90  0.001380632    2.263    0.558
       115  -9.3590    112.0307     88.2601   4.5404706913e+01   4.3086178144e+01    0.2805774    0.2159434  62.18  0.001351691    1.569    0.363
       116 -10.3437    104.0560     86.8814   4.7320775030e+01   4.4959797851e+01    0.2264147    0.2122201 -12.67  0.001251561    1.024    0.024
       117 -10.7573    143.2522     84.5126   3.6146830087e+01   3.6991590837e+01    0.2650297    0.2531526 -37.67 0.0003550577    1.062    0.058
       118  -9.3259    133.7319     84.8369   3.8568781513e+01   3.9086080235e+01    0.2045455    0.1787422 -86.45 0.0008171551    1.370    0.270
       119 -11.0364    112.8062     83.1982   4.3680474938e+01   4.3917076345e+01    0.4463593    0.3038631  54.25  0.001419637    1.628    0.386
       120 -10.1496     66.7706     81.7732   5.7885666591e+01   5.2453803927e+01     0.344747    0.2628871   0.18  0.001448141    1.438    0.305
       121 -11.1933     53.3208     75.7160   6.0954987709e+01   5.5561801578e+01    0.6069751    0.3208401 -52.62   0.00285368    1.854    0.461
       122 -10.9265     58.1314     77.8296   5.9810574064e+01   5.4492073560e+01    0.4507812    0.2943802 -64.90 0.0005501722    2.033    0.508
       123 -10.4177    125.8572     94.7141   4.3453062996e+01   3.8897941308e+01    0.2887337    0.2554843 -50.92 0.0003212497    1.181    0.153
       124 -10.4192    102.9024     79.3341   4.5387306888e+01   4.6665763291e+01    0.3470781    0.2181033 -33.17 0.0006975952    1.639    0.390
       125  -9.7651    103.2167     74.9741   4.3940372593e+01   4.7425494987e+01    0.2733354    0.2353976  74.88  0.001442091    1.491    0.329
       126  -9.0221     88.6689     73.2765   4.7905748684e+01   5.0528224335e+01    0.2080321    0.1796294 -25.07 0.0003983531    1.110    0.099
       127 -10.3458     93.0358     72.9455   4.6411876907e+01   4.9780881356e+01    0.3689682    0.2891335  83.50  0.001004149    2.041    0.510
       128 -10.9365     92.9961     77.0623   4.7719752271e+01   4.9007433501e+01    0.7435403     0.390718  27.52  0.002974409    2.368    0.578
       129 -10.5246     87.7039     77.4222   4.9517677003e+01   4.9906557400e+01    0.5776199     0.226737  42.96  0.002163435    2.632    0.620
       130  -8.9823      1.3889     80.2801   8.1644656953e+01   5.9115851117e+01    0.1592388   0.09849451 -70.20 0.0006569984    1.477    0.323
       131 -11.1900     14.1782     74.9146   7.5707344738e+01   5.9536747623e+01    0.4175358    0.2448651 -65.48  0.002313853    1.639    0.390
       132  -9.0919    134.7357     77.5527   3.6178473847e+01   4.0189547449e+01    0.2034042    0.1436839  61.39 0.0009386357    1.563    0.360
       133  -9.0883    181.8748     76.1875   2.5835627867e+01   2.9408466082e+01    0.1926653    0.1685966  27.75 0.0004090475    1.309    0.236
       134  -8.8154    158.9939     76.2579   3.0289778308e+01   3.4785749804e+01    0.1866306    0.1252105  54.64  0.000475155    1.465    0.317
       135  -9.3099    112.4902     75.3525   4.1374961551e+01   4.5455461509e+01    0.2533068    0.1356083  45.86 0.0008697364    1.841    0.457
       136  -9.6204     66.4880     74.8280   5.5912480828e+01   5.3914308417e+01    0.2650433    0.1759678  49.89  0.001297512    1.944    0.486
       137  -9.8755     46.9470     74.3896   6.2952064343e+01   5.6621499131e+01    0.3777647    0.1565659 -50.32  0.001167089    2.153    0.536
       138  -9.9566     24.8861     74.6047   7.1482404076e+01   5.8797964660e+01    0.2451373    0.1442958 -47.77 0.0005050445    1.386    0.278
       139 -10.6756      2.0709     71.6538   7.9697819682e+01   6.0945533345e+01    0.3793941    0.1582399 -58.02  0.001670852    1.790    0.441
       140 -12.4503      6.6560     61.5651   7.5583167577e+01   6.2808244561e+01    0.7710761     0.416054 -29.46  0.003165653    1.732    0.423
       141  -9.8078     81.0323     73.2168   5.0391707621e+01   5.1892658911e+01     0.334192    0.1892992 -34.40 0.0008584313    1.778    0.438
       142 -10.4568     81.6060     68.7925   4.8780956366e+01   5.2629906257e+01    0.3015557    0.2342846 -52.97  0.001603316    1.502    0.334
       143 -10.1563     77.8461     67.6820   4.9688158275e+01   5.3483230725e+01     0.393484    0.3015262 -72.40  0.001959252    2.065    0.516
       144  -9.8443    186.9785     72.1794   2.3902560924e+01   2.8863820818e+01    0.3166241    0.2528404 -14.57  0.001399372    1.522    0.343
       145 -10.0568    153.8015     72.8053   3.0410791865e+01   3.6590594947e+01    0.4737861    0.1723704  44.52  0.001587076    2.952    0.661
       146 -11.1217     35.9475     71.8300   6.6446804798e+01   5.8360758529e+01    0.5437059    0.2498767  26.41  0.002092438    2.352    0.575
       147  -9.6836     41.2386     73.0095   6.4731652127e+01   5.7557898480e+01    0.2537215    0.1942613 -39.15  0.000740882    1.124    0.111
       148 -11.2983     40.5044     69.0813   6.3888120763e+01   5.8444115297e+01     0.316653     0.236545  14.58 0.0009252275    1.402    0.287
       149 -11.0789    122.7178     68.9173   3.6597477421e+01   4.4388126395e+01    0.5116704    0.2883706  43.03  0.001704418    1.731    0.422
       150  -9.9796     13.8846     67.3672   7.4043326478e+01   6.1154257371e+01    0.3809098     0.203105   2.96  0.002024748    2.231    0.552
       151  -9.6074    217.2618     66.5637   1.7938656103e+01   2.2852558504e+01    0.1813581    0.1221915  51.74 0.0009438709    1.622    0.383
       152 -10.6233     88.0525     56.1142   4.2403303111e+01   5.3683091298e+01    0.4554403    0.2160573 -30.42   0.00127153    2.306    0.566
       153 -10.2880     96.4542     65.2983   4.2873238668e+01   5.0508376562e+01     0.250917    0.2150553 -10.75  0.001395978    1.151    0.131
       154 -11.0349     92.3128     62.7293   4.3305173650e+01   5.1756722302e+01    0.4287638    0.3240871  60.48   0.00136641    1.696    0.410
       155 -10.4304    201.5638     64.9457   1.9764411531e+01   2.6612192070e+01    0.2547213    0.1936955  68.83 0.0005705626    1.318    0.241
       156  -9.1842    192.4965     65.5135   2.1292231261e+01   2.8616812228e+01    0.1394815      0.13046 -77.98 0.0008105296    1.003    0.003
       157  -9.3462    172.3132     65.3123   2.4661507925e+01   3.3404040918e+01    0.1439651    0.1111085  24.14 0.0003705566    1.634    0.388
       158  -9.1418     52.1144     65.6630   5.8357591742e+01   5.7732130674e+01    0.1809103    0.1165964  15.26 0.0008964708    1.692    0.409
       159 -10.2741    158.5407     63.0499   2.6647627204e+01   3.7037270544e+01     0.453378    0.2095428  45.02  0.001646555    2.263    0.558
       160  -9.9476    106.6218     63.0640   3.9123695590e+01   4.8837236636e+01    0.5282337    0.3395587  11.12  0.002263525    2.262    0.558
       161 -10.3561    106.2815     58.4037   3.7680548246e+01   4.9674923386e+01    0.2948129    0.2072929  76.71  0.001298988    2.310    0.567
       162  -9.5494     57.8487     61.7537   5.4915002088e+01   5.7699715315e+01    0.3169585    0.2590823  89.58   0.00117627    2.102    0.524
       163  -9.9165     62.9482     61.5390   5.2941049351e+01   5.6998318486e+01    0.3625608    0.2070716  25.63  0.001754291    1.860    0.462
       164  -8.7416     64.5611     58.4988   5.1318136628e+01   5.7305996378e+01    0.2317128    0.1577858 -26.25  0.000768665    1.421    0.296
       165  -8.5273     50.9822     56.5109   5.5801538673e+01   5.9607818390e+01    0.3544488    0.1818419  25.39  0.001697566    2.075    0.518
       166 -10.7777     51.3260     61.4141   5.7297777768e+01   5.8650282995e+01    0.3346063    0.2675093  42.81   0.00114965    1.550    0.355
       167 -11.0605     40.2502     56.8838   6.0224874766e+01   6.0862112800e+01    0.3176199    0.2049201  30.91   0.00105576    1.679    0.404
       168 -11.1476     43.2039     61.6706   6.0571417416e+01   5.9607258820e+01     0.431071    0.2015066 -41.51  0.002042648    1.883    0.469
       169 -10.5338     46.4836     59.4763   5.8563551141e+01   5.9632134006e+01    0.2515146    0.2035172 -37.27  0.000773043    1.166    0.142
       170  -9.7684    114.1324     61.3343   3.6466801117e+01   4.7529950162e+01    0.3134125    0.2242138 -48.74  0.001493227    1.598    0.374
       171  -9.6116     84.0100     61.2181   4.5467094388e+01   5.3566342441e+01    0.2425025    0.1786333 -50.49 0.0007126179    1.604    0.377
       172 -12.5333     76.3932     53.3271   4.5296164780e+01   5.6258781604e+01    0.7153628    0.4282831 -39.02 0.0008064235    1.680    0.405
       173 -12.2741     72.7698     47.4961   4.4451345381e+01   5.7828359020e+01    0.3852513     0.265879 -45.03  0.001007192    1.671    0.402
       174 -10.5328    124.7343     56.4936   3.2158772368e+01   4.5948673330e+01    0.3414348    0.2813166 -10.32 0.0009634222    1.328    0.247
       175 -11.8368    118.0117     55.9547   3.3686414651e+01   4.7534123582e+01     1.346633    0.7851124 -66.01  0.004736271    3.831    0.739
       176 -11.5945    112.3013     42.6745   3.0725008337e+01   5.0716115011e+01    0.5078188    0.3300288  52.34 0.0001886297    1.453    0.312
       177 -10.5801    110.1978     38.8330   2.9943501850e+01   5.1687837467e+01    0.3644501     0.238754  26.48  0.001010333    1.686    0.407
       178 -11.6633    117.4598     43.9014   2.9837113156e+01   4.9406146869e+01    0.6389264    0.3871721 -36.23  0.003115863    1.760    0.432
       179  -8.8653    213.4868    248.5133   5.6415587416e+01  -6.9171546817e+00    0.1229606   0.09556757  10.16 -7.753477e-05    1.026    0.026
       180 -11.0876     31.8707     52.9944   6.2443186315e+01   6.2497643363e+01    0.5436059    0.2769611   7.82  0.002288104    2.513    0.602
       181  -9.5740     29.5165     60.4811   6.5763496133e+01   6.1288457957e+01    0.2198484    0.1823932   2.18 0.0008932875    1.221    0.181
       182 -11.2977     25.1202     57.3475   6.6663521240e+01   6.2306415440e+01    0.5002797    0.4286607   3.52  0.002361203    1.230    0.187
       183  -8.8414    135.4781     59.0514   3.0396977767e+01   4.3094688154e+01    0.1999499    0.1275265  -1.32 0.0008090239    2.507    0.601
       184 -10.3143    157.3377     54.2966   2.4374114869e+01   3.8634719770e+01    0.4463815    0.3427269 -70.30   0.00230198    1.526    0.345
       185  -9.7536    154.4423     51.5059   2.4122063712e+01   3.9726570871e+01    0.3337159    0.2156821 -21.16  0.001090729    1.858    0.462
       186  -9.4012     91.8106     57.5804   4.1719209556e+01   5.2723866646e+01    0.1951653    0.1309989  53.39 0.0009500592    1.709    0.415
       187  -8.8667    237.9788     55.9836   1.3057823651e+01   1.9969421086e+01    0.1502827    0.1295406 -68.85            0    1.031    0.030
       188  -9.7704    139.8283     54.3694   2.7980937014e+01   4.2783670870e+01    0.2391004     0.207469  78.20 0.0004786792    1.244    0.196
       189  -9.4212     66.6375     54.2698   4.9087763492e+01   5.7723547629e+01    0.2999865    0.1619228 -52.29  0.001325464    2.483    0.597
       190 -10.5120     27.6896     47.2738   6.2350481178e+01   6.3970086077e+01    0.6446731    0.3128457  -6.30  0.002725011    3.290    0.696
       191 -11.2283     20.2969     46.4376   6.5353357348e+01   6.4797532785e+01    0.5386531    0.3060847 -49.83  0.002967946    1.599    0.374
       192 -12.2405     43.4465     44.7855   5.4716545146e+01   6.2648900962e+01     0.679097    0.5265113  33.43  0.001178427    1.476    0.323
       193 -10.1695     51.9259     48.0918   5.2474508357e+01   6.0966296474e+01    0.2709493    0.1953228   6.61  0.000658076    1.369    0.270
       194 -10.1292     26.3456     42.9668   6.1465774195e+01   6.4873919770e+01    0.2592254    0.2170839   5.02 0.0008848247    1.217    0.178
       195 -10.2721     22.8077     37.3248   6.1061237276e+01   6.6195259170e+01    0.4479808    0.1962126  38.95  0.002115446    3.175    0.685
       196 -11.2398     60.8246     47.9971   4.8990623447e+01   5.9685971782e+01    0.7678475     0.347452 -32.74  0.003421538    2.238    0.553
       197  -9.6661     55.5381     50.5241   5.1933149995e+01   6.0042384318e+01    0.1983698    0.1218248  33.39  9.66402e-05    1.650    0.394
       198 -10.5648    145.4383     49.6340   2.5354992701e+01   4.2137262595e+01    0.5054979    0.2691126 -15.72  0.001572668    2.852    0.649
       199  -9.6698    240.0730     50.7881   1.1728490364e+01   2.0253863369e+01    0.2142877    0.1638992 -45.13 0.0005753157    1.204    0.169
       200  -9.8894     11.2999     49.3083   7.0279448073e+01   6.4948172036e+01    0.3712954    0.1194782 -42.78  0.001699434    2.368    0.578
       201  -8.3336     97.3208     50.3116   3.7521632444e+01   5.2787463135e+01    0.1446185    0.1011827  14.24 0.0007037271    1.649    0.394
       202 -10.3256     82.7096     47.1334   4.0946587099e+01   5.6109370972e+01    0.3840976    0.2295906 -20.62  0.001645489    1.879    0.468
       203  -9.1286    189.0491     49.3085   1.7690669323e+01   3.1769926807e+01    0.1856803    0.1601829  76.20 0.0003502391    1.096    0.088
       204  -9.7525      2.0229     48.8940   7.4321999167e+01   6.5596318438e+01    0.2043982    0.1347325 -47.94 0.0007137523    1.197    0.164
       205 -10.4022    199.8023     45.0891   1.5142086963e+01   2.9832725958e+01    0.4525335      0.21334  75.75  0.001840802    2.470    0.595
       206 -10.5140    138.0847     44.8467   2.5417562097e+01   4.4533001853e+01     0.590224    0.2266021  42.27  0.002111017    2.933    0.659
       207  -8.7684    179.7172     45.3134   1.8049903263e+01   3.4518734108e+01    0.1394111   0.09842712 -68.63 0.0003217347    1.574    0.365
       208 -10.4352    155.9793     42.6578   2.1261291325e+01   4.0559434499e+01    0.3090566    0.2726445  -0.53 0.0009841325    1.317    0.240
       209  -9.8839     92.3289     42.3075   3.6164597111e+01   5.4964530656e+01    0.4867489    0.3205351  83.38  0.001874626    3.881    0.742
       210  -8.9789      4.9966     42.0082   7.0975942187e+01   6.6736067126e+01    0.3784528    0.1334604 -48.81  0.001896295    2.079    0.519
       211 -11.3051      5.0333     35.8216   6.8999132340e+01   6.7864064720e+01     0.372957    0.2655126  -7.88  0.002538091    1.305    0.234
       212 -10.3528      9.4292     30.9267   6.5148783169e+01   6.8417107595e+01    0.5303945     0.282841   2.54  0.003067927    1.988    0.497
       213  -9.9166     56.8946     41.9828   4.8249459523e+01   6.1252144143e+01    0.2588075    0.1717719  36.42  0.001033516    1.543    0.352
       214 -10.2918    231.9476     39.9708   1.0256773799e+01   2.3377520461e+01    0.2089317    0.1253063 -65.62 0.0006718288    1.666    0.400
       215 -10.3422     80.5818     39.4038   3.8781459039e+01   5.7642195858e+01    0.4077313    0.2898678  57.30  0.001797504    1.772    0.436
       216 -11.1722     78.2868     34.4739   3.7652805297e+01   5.8747722941e+01    0.5756087    0.3655568  23.32  0.003017954    1.618    0.382
       217  -9.0012    220.3597     39.2577   1.1314837785e+01   2.5963640609e+01    0.1206755   0.09371893  43.98 0.0003700196    1.622    0.384
       218  -9.2029    188.6940     38.4837   1.4984815264e+01   3.3277667047e+01    0.2272218    0.1189807 -33.27  0.001066053    1.990    0.497
       219 -12.4865    152.8816     35.8800   1.9837232457e+01   4.2156966855e+01    0.2839608    0.2658728  65.72 0.0004184304    1.026    0.026
       220 -10.9663     61.3335     36.0204   4.4238507969e+01   6.1468076620e+01    0.4832263    0.2870827  -6.46  0.001962738    2.117    0.528
       221  -9.9254     67.6483     32.0195   4.0333738861e+01   6.0980323865e+01     0.440518    0.3749172 -79.18  0.002578816    2.059    0.514
       222  -8.8207    206.4336     37.5113   1.2493944195e+01   2.9294481532e+01    0.1297547    0.1140352 -77.73 0.0001281278    1.009    0.009
       223  -9.1108    195.1493     37.6476   1.3920860428e+01   3.1872668610e+01    0.1794738    0.1097514  58.07 0.0003205238    1.586    0.370
       224 -10.0608    176.7432     35.6972   1.5946394096e+01   3.6456685324e+01     0.311924    0.2095696 -52.99  0.001079987    1.555    0.357
       225 -10.6408    174.9217     31.1175   1.4991360264e+01   3.7440708378e+01    0.3845712      0.20868  59.39  0.001444757    1.667    0.400
       226  -8.9084     12.9057     36.4080   6.5399827522e+01   6.7203997201e+01    0.2478101    0.0977172 -42.50  0.001261243    1.988    0.497
       227  -8.6499     94.6325     36.2903   3.3285472124e+01   5.5316957862e+01    0.1272687    0.1075996 -88.82 0.0007024966    1.710    0.415
       228 -11.6786    126.3117    241.2673   7.2678801228e+01   7.4473235442e+00    0.3695985    0.2799053  76.00  0.001538818    1.662    0.398
       229 -11.5406    106.0384     33.0074   2.8971339426e+01   5.3328469280e+01    0.5953486    0.3439822  16.56  0.002602956    2.485    0.598
       230 -12.2900    114.4053     24.9988   2.4114881769e+01   5.2404015491e+01    0.8106219    0.3158115  45.43  0.003185716    2.306    0.566
       231 -10.2462    240.7112     32.3564   7.8255203664e+00   2.2510530848e+01    0.2343858    0.1981257  40.57  0.001549549    1.641    0.391
       232  -9.9245    168.7263     23.7327   1.3887179158e+01   3.9754345285e+01    0.2920581    0.1580732  57.68 0.0009912761    1.654    0.395
       233 -11.0354    160.0266     29.9271   1.6915971060e+01   4.1146349173e+01    0.3552724    0.2854748 -35.18  0.000576905    1.354    0.261
       234 -11.7562    164.2700     27.6387   1.5612773882e+01   4.0388753666e+01    0.3302332    0.2950361 -62.21 0.0003986957    1.161    0.139
       235  -9.5275     60.1972     23.9351   3.9729527558e+01   6.3292838601e+01    0.2683226    0.1507535 -34.65  0.001293917    1.877    0.467
       236 -11.4994     57.4034     30.6957   4.3596011489e+01   6.2849693971e+01     0.422075    0.3239467 -20.35  0.001847985    1.228    0.186
       237 -11.3446     48.9433     30.5479   4.6895942161e+01   6.4145658057e+01    0.6817652    0.3087491  33.36  0.003347344    2.131    0.531
       238 -10.9822    189.1757     27.6308   1.2190045474e+01   3.4474389964e+01    0.4341829    0.3413737  -1.54  0.002504896    1.755    0.430
       239 -10.7689    183.1854     25.2671   1.2347810956e+01   3.6151017162e+01    0.3809564    0.3221682  52.36  0.001845981    1.256    0.204
       240  -9.4286    187.4210     22.8171   1.1202951469e+01   3.5428162854e+01    0.2243142    0.1850741  -5.77 0.0008829986    1.594    0.373
       241 -10.4222    131.1325    240.8411   7.1626872133e+01   6.7749620660e+00    0.2006028    0.1601287  51.13  0.001233751    1.196    0.164
       242 -11.3455     67.7832    240.6892   8.4543973225e+01   1.6033128664e+01    0.3304487    0.2196682  20.77  0.001367501    2.050    0.512
       243 -10.4634     32.5955     31.0555   5.4158518671e+01   6.6194382280e+01    0.2068578    0.1658346  -4.88 0.0003193715    1.052    0.049
       244 -11.8778     26.4258     28.6379   5.6029478437e+01   6.7256590962e+01     0.533379    0.3645632  -4.90  0.003247153    1.313    0.238
       245 -10.8023    147.3343    238.3363   6.7930105012e+01   4.6668495180e+00    0.3557812    0.3112196  61.06  0.002259211    1.297    0.229
       246  -9.3737    167.1408    237.8529   6.3793421432e+01   1.6129511621e+00    0.1755477    0.1396562   4.29  0.000681647    1.301    0.232
       247  -9.2212     15.5039    233.9818   9.4047937611e+01   2.3430557604e+01    0.1604846   0.09251824 -79.78  0.001017147    1.559    0.359
       248  -9.1145    181.4558    228.4711   5.9396780687e+01   8.8768809161e-01    0.1315089    0.1123351  16.53 0.0002413065    1.005    0.005
       249  -9.1627     49.6676    222.6510   8.6566121641e+01   2.1967091730e+01    0.1145737   0.09237207 -37.08 0.0007048327    1.771    0.435
       250  -8.8377     44.5376    215.4881   8.6989104296e+01   2.4091955739e+01    0.1231065    0.1019944  74.23 0.0001902571    1.003    0.003
       251  -9.1371    164.4862    211.9058   6.0151797335e+01   6.5874832269e+00      0.18584    0.1359656 -44.21  0.000456121    1.483    0.326
       252  -9.8293      9.0008    211.5114   9.3902310316e+01   2.8646329442e+01    0.1606378     0.103897  38.06  0.001040309    1.612    0.380
       253  -9.6807    134.5207     31.4874   2.1955220814e+01   4.7045418371e+01    0.2468632    0.1284944  72.47  0.001033474    2.341    0.573
       254 -11.9924    126.0644     28.1461   2.2614302402e+01   4.9398609656e+01    0.4612288    0.3745552  77.27  0.001805291    1.338    0.253
       255  -9.0756    221.6743     29.6805   9.0535584897e+00   2.6865243432e+01     0.117547   0.09428069  38.83 0.0007046284    1.679    0.404
       256  -9.9155    230.9830     27.2475   7.6421167843e+00   2.5157376034e+01    0.3231258     0.190384 -84.09  0.001773598    1.739    0.425
       257 -11.0382    201.1564     25.3518   1.0226288407e+01   3.1961810890e+01    0.3571405    0.2373291   1.69  0.001771577    2.628    0.619
       258 -10.9492    143.7505     25.3119   1.8297150191e+01   4.5553763182e+01    0.3913272    0.2622326  81.26  0.001299107    1.650    0.394
       259 -10.3437    148.4872     22.3412   1.6593250436e+01   4.4741384973e+01     0.430729    0.1457942  55.86  0.001352844    2.424    0.587
       260  -8.9781     97.3512     26.2939   2.8827233550e+01   5.5974358430e+01    0.1412645   0.08788879  27.58 0.0007031438    1.679    0.404
       261 -10.3691    154.7268     23.4369   1.5902036105e+01   4.3134977092e+01    0.4027521    0.3220415 -59.06  0.002371507    1.358    0.263
       262  -9.7902     17.6258    206.8823   9.1860158025e+01   2.8822201290e+01    0.2522071    0.1235179  86.40   0.00131816    1.978    0.494
       263  -9.1320     61.5090    206.5052   8.2429596773e+01   2.3949173145e+01    0.1287152    0.1121257  74.01 -2.028164e-06    1.007    0.007
       264 -11.1105      4.4736    204.0563   9.4323901094e+01   3.0632269072e+01    0.3517272    0.1168307 -63.64   0.00167963    2.685    0.628
       265  -9.1825      5.0640     21.9158   6.3982824321e+01   7.0233582673e+01    0.1537959    0.1277498  -8.88  0.000792309    1.222    0.182
       266  -9.7271    216.4264     20.3112   7.5030561188e+00   2.9104208628e+01    0.2025669    0.1183235 -30.54 0.0009363321    1.890    0.471
       267  -9.6886     78.4684    203.9272   7.8298060881e+01   2.2213271842e+01    0.2493153    0.1591167  52.80 0.0004680486    1.496    0.331
       268 -10.7495    246.6450     19.5911   4.7742854752e+00   2.2825376138e+01    0.2270226    0.1267161 -42.31  0.001340755    1.597    0.374
       269  -9.7746     74.4527     20.0273   3.3142376525e+01   6.1236930265e+01    0.2256805    0.1466082  28.17   0.00115312    1.405    0.288
       270  -9.8565     46.4643     19.9932   4.3423642724e+01   6.5939785504e+01      0.20994    0.1639292  43.09  0.001350966    1.609    0.379
       271  -8.8107      1.4509     20.5531   6.5364896322e+01   7.0704820048e+01    0.1131455   0.08146239 -23.71 0.0002643171    1.017    0.017
       272 -11.2277    239.1208     16.4257   4.7298053471e+00   2.4710219727e+01    0.2819845    0.1763942  80.01  0.001629837    1.485    0.326
       273  -8.8892     21.5143    200.5725   9.0572145127e+01   2.9817501139e+01    0.1210777   0.09607943  77.84 -0.000188017    1.037    0.036
       274  -9.3877     90.7648     23.0063   2.9401650247e+01   5.7708725750e+01    0.2377511    0.1686157  44.94  0.001045415    1.249    0.199
       275  -9.4073    223.8405     22.1536   7.2118428581e+00   2.7279409481e+01    0.1907368     0.138506 -72.26 0.0005473464    1.221    0.181
       276  -9.0943    240.3252    195.3322   4.2126358107e+01  -2.9926465596e+00    0.1355426   0.08757084  -3.63 0.0007050917    1.708    0.415
       277 -10.1625    186.8465     15.0348   9.3367963738e+00   3.6390331140e+01    0.2053874    0.1614652  77.15 0.0003420233    1.116    0.104
       278  -9.1377     52.9713    190.5063   8.2580917813e+01   2.8632439682e+01    0.1642117    0.1151935  -9.44  0.000808772    2.435    0.589
       279 -12.4982      4.4351    183.9106   9.2954038134e+01   3.5048760918e+01    0.6117179    0.3681681 -84.59  0.002886989    1.368    0.269
       280  -9.6068     28.1244    175.6953   8.6837813105e+01   3.4821747632e+01    0.2177056    0.1492782 -87.85 0.0006598432    1.308    0.236
       281  -9.2249     39.4855    173.5209   8.3850035358e+01   3.4161621933e+01    0.1300194    0.1124461 -87.75 0.0008101398    1.004    0.004
       282  -8.6158    170.3302    171.6991   5.1259734372e+01   1.3380842790e+01     0.144403    0.1196092  80.37 0.0007032449    1.647    0.393
       283 -11.5320     18.6574    164.9774   8.8031601655e+01   3.8212991476e+01    0.4934956     0.281462 -34.79  0.002471646    2.528    0.604
       284 -10.9670      9.3513    155.5157   8.9389104226e+01   4.1194138345e+01     0.318046    0.2397587  82.88  0.001696593    1.206    0.171
       285  -9.2208    120.4735     11.6698   1.8266132719e+01   5.2340616117e+01    0.2311926    0.1047832  61.25 0.0007909315    1.902    0.474
       286 -12.2476      8.9623    166.8674   9.0545904651e+01   3.8574296835e+01    0.4695655     0.346857  63.88  0.002041102    1.314    0.239
       287 -10.7340    178.7246     20.7413   1.1753398756e+01   3.7699978538e+01    0.4528838    0.2249044  46.13  0.002086881    2.284    0.562
       288 -11.7076     10.9513    162.1206   8.9632198743e+01   3.9522384537e+01    0.4503998    0.2485592 -86.11   0.00178832    1.635    0.388
       289 -10.4270     14.0181    159.0072   8.8573252925e+01   4.0007745534e+01    0.3727373    0.1813357 -75.28  0.001177294    1.736    0.424
       290 -10.3025    205.1326    163.4068   4.2218826053e+01   8.3728568044e+00    0.2726708    0.2219707 -25.02 0.0006790538    1.161    0.139
       291  -9.3527     65.7095     10.4543   3.1970482845e+01   6.3852021045e+01    0.2079555    0.1094764  50.85 0.0007172193    1.874    0.467
       292 -10.5619     28.0554    161.7351   8.5341156256e+01   3.8127177464e+01    0.3545137    0.2409969 -58.94  0.002049011    1.365    0.268
       293  -9.3825    104.4990    154.9729   6.3945771161e+01   2.9488069743e+01    0.2310116     0.144778 -54.79  0.001028405    1.576    0.366
       294 -12.4886     22.7221    149.2617   8.5259917275e+01   4.1596307449e+01      0.66814     0.319005 -40.91  0.003029098    2.608    0.617
       295 -10.8194     16.7976    147.8742   8.6665511536e+01   4.2422932992e+01    0.3010978    0.1986285 -63.78 0.0004415334    1.286    0.222
       296 -11.0890     47.0384    147.6870   7.8429664431e+01   3.9558027608e+01    0.7587557    0.3686161 -50.59  0.003430874    1.958    0.489
       297 -10.7548      4.3147    153.5861   9.0459544751e+01   4.2013702805e+01     0.234804    0.1762394  48.30  0.001174972    1.445    0.308
       298  -9.7344     61.6546    151.9225   7.5057581678e+01   3.6751873622e+01    0.2249366    0.2001303   6.92 0.0007623755    1.330    0.248
       299  -9.8377     29.9345    152.0773   8.3691318059e+01   4.0264998851e+01    0.2087906    0.1384536 -41.41 0.0008716359    1.704    0.413
       300 -10.3314      3.0385    147.9100   9.0239196772e+01   4.3429200595e+01     0.281444    0.1500897 -73.14 0.0009481682    1.498    0.332
       301 -11.6547     12.1688    136.4758   8.6580545407e+01   4.5492106856e+01    0.7315387    0.4010785 -56.39  0.003985058    1.560    0.359
       302 -11.0521      8.4747    148.0115   8.8854371399e+01   4.3025724878e+01    0.3540356    0.1687646 -66.67  0.001148669    1.671    0.402
       303 -10.5683      5.8078    142.8172   8.9007903680e+01   4.4437863490e+01    0.3094011    0.1878958  75.04  0.001085614    1.743    0.426
       304 -11.0827      2.2832    141.9174   8.9840491947e+01   4.4883390636e+01    0.4143212    0.1897527 -73.13  0.001978627    1.742    0.426
       305 -10.0471    104.1844    146.9900   6.2404040773e+01   3.1438133981e+01    0.2322998    0.2091531  37.64 0.0002448782    1.134    0.118
       306 -10.8033     33.0840    144.3476   8.1812653019e+01   4.1832098529e+01    0.2889793     0.233629  87.17 0.0007758101    1.209    0.173
       307 -10.4469     40.3304    138.6128   7.8926350036e+01   4.2498474334e+01    0.4059653    0.1992406 -68.95  0.001310938    1.885    0.470
       308  -9.1011    227.7008    140.3327   3.3090295624e+01   8.3431875082e+00     0.136578    0.1059874 -64.91 0.0003731001    1.649    0.393
       309 -11.2523     80.1888    138.5219   6.7381415813e+01   3.7415290018e+01    0.3029611    0.2763413  52.35 0.0006354392    1.150    0.131
       310 -11.4452     23.8335    136.7004   8.3349526822e+01   4.4520354122e+01    0.5953308     0.483399  35.17  0.003005642    1.413    0.292
       311 -10.4487     30.3720    132.7086   8.0903641001e+01   4.4906083051e+01    0.3561018    0.2912124 -17.14 0.0009194718    1.473    0.321
       312  -8.8841    217.3501    138.7152   3.4543344655e+01   1.0592738899e+01    0.1375942    0.1119946 -77.40   0.00033722    1.656    0.396
       313  -9.3109     47.4732    133.5865   7.6025513761e+01   4.2950213835e+01    0.3099767    0.1206613 -62.39  0.001237153    2.265    0.559
       314  -9.6163     32.0517    137.6820   8.1154394605e+01   4.3546270410e+01    0.2356534    0.2183783  14.06 0.0007178235    1.279    0.218
       315  -9.2701     39.1120    133.4876   7.8469653875e+01   4.3870652840e+01    0.1790999    0.1344976  26.37 0.0005278618    1.524    0.344
       316  -8.8483    103.6685    131.2435   5.9094263158e+01   3.5252546457e+01    0.1477602    0.1168904  69.00 0.0002641317    1.543    0.352
