#   1 NUMBER                 Running object number                                     
#   2 MAG_AUTO               Kron-like elliptical aperture magnitude                    [mag]
#   3 X_IMAGE                Object position along x                                    [pixel]
#   4 Y_IMAGE                Object position along y                                    [pixel]
#   5 X_WORLD                Barycenter position along world x axis                     [deg]
#   6 Y_WORLD                Barycenter position along world y axis                     [deg]
#   7 A_WORLD                Profile RMS along major axis (world units)                 [deg]
#   8 B_WORLD                Profile RMS along minor axis (world units)                 [deg]
#   9 THETA_WORLD            Position angle (CCW/world-x)                               [deg]
#  10 FWHM_WORLD             FWHM assuming a gaussian core                              [deg]
#  11 ELONGATION             A_IMAGE/B_IMAGE                                           
#  12 ELLIPTICITY            1 - B_IMAGE/A_IMAGE                                       
         1 -10.3730    127.2553     31.3408   4.7319619494e+01   4.8756730954e+01    0.3097873     0.260586 -26.11  0.001837194    1.325    0.245
         2 -11.3550     45.8399     22.3777   6.8578417659e+01   6.6333291589e+01    0.4817262     0.223616 -43.29 0.0006658477    2.819    0.645
         3 -10.8758     74.4220     20.3184   5.6893569675e+01   6.1540116513e+01    0.4887744    0.2788676  -6.03  0.002407218    2.231    0.552
         4 -11.4511     13.4823     15.3852   8.1492255192e+01   7.1421533064e+01    0.3257642    0.2416348 -36.36  0.001134537    1.462    0.316
         5 -11.6261     83.6873     15.0110   5.1913513554e+01   6.0217618642e+01    0.4432256    0.2465316  20.15 0.0006397381    2.237    0.553
         6 -11.7076    234.8272     14.9597   2.9724813958e+01   2.6280993089e+01    0.2152254    0.1688475 -70.69 0.0002912553    1.029    0.028
         7 -10.6691    172.0977     11.8941   3.4750183055e+01   4.0245924706e+01    0.1874077    0.1578802 -88.37  0.000287175    1.027    0.026
         8 -11.5057     35.0688     12.5626   6.8841204632e+01   6.9166647718e+01    0.2798978    0.2428975  23.85 0.0008726702    1.359    0.264
         9 -11.5978     30.2841      7.5432   6.8636485311e+01   7.0434419281e+01    0.3874959    0.2458901  19.95   0.00245903    1.336    0.251
        10 -10.1523     27.9135      2.0452   6.6935658018e+01   7.1375331977e+01    0.2240194    0.1493693 -19.88  0.001186816    1.436    0.304
        11 -11.0197    192.9925     11.4574   3.2461103662e+01   3.5528270973e+01    0.1813887    0.1534472 -64.28 0.0007709681    1.135    0.119
        12 -10.4914    164.9234     12.1194   3.5655067372e+01   4.1893767548e+01    0.1865611    0.1606355  82.37 0.0006009456    1.025    0.024
        13 -11.6935    128.5152     10.8285   4.0521580304e+01   5.0574870997e+01    0.4339638     0.201543  59.45  0.002097709    1.762    0.432
        14 -11.3835    117.3694      8.8947   4.1873319686e+01   5.3331665699e+01    0.3845978    0.2437578  84.48  0.001071527    1.827    0.453
        15  -9.9085     45.6277      9.9591   6.2852365505e+01   6.7844361095e+01    0.1635144    0.1295534   1.14 0.0003724888    1.130    0.115
        16 -10.6758     22.4697      9.3360   7.3560673620e+01   7.1244183713e+01    0.2887256    0.1547055  12.71  0.001196033    1.914    0.477
        17 -10.6663      2.4585      6.8411   8.3923051235e+01   7.3661424504e+01    0.2387209    0.1709674 -13.99 0.0007410813    1.028    0.028
        18  -9.3900      9.2797      9.6835   8.1174773797e+01   7.2645567678e+01   0.09302634   0.08592705  -4.14 0.0002455483    1.575    0.365
        19  -9.6588     40.7376      7.6233   6.3807265162e+01   6.8875814794e+01    0.1897188    0.1380291  32.20 0.0002144207    1.239    0.193
        20 -10.2045     37.4465      6.2211   6.4572982889e+01   6.9534553432e+01    0.2521001    0.1666438 -41.32   0.00151294    2.166    0.538
        21 -10.1347    198.6575      7.2588   3.0992609121e+01   3.4700745233e+01    0.1449808    0.1125244 -26.29 0.0008104836    1.613    0.380
        22  -9.5232     98.1391      7.1896   4.5214996587e+01   5.7817683083e+01    0.1565241    0.1371443  77.31 0.0003412258    1.259    0.206
        23 -10.6007     15.0122      8.7480   7.7370850622e+01   7.2185360498e+01    0.2786029    0.1451527   8.07  0.001013292    2.036    0.509
        24  -9.9805    188.3460      6.3183   3.1710669428e+01   3.7084000429e+01    0.1195425   0.08375458  47.98 0.0007048866    1.726    0.421
        25 -10.9662    150.7655      5.8349   3.5732690421e+01   4.5791395778e+01     0.253358    0.1678309 -79.88 0.0007531255    1.584    0.369
        26 -10.0161     70.5726      5.8849   5.1953379098e+01   6.3713695561e+01    0.2248646    0.1547442  16.51  0.001065304    1.440    0.305
        27  -9.8950    235.7672      5.4164   2.7822490144e+01   2.7139290362e+01    0.1476558   0.09073172  71.19 0.0006452839    1.614    0.380
        28 -10.6347    104.3305      3.9318   4.2694039729e+01   5.6701512625e+01     0.252577    0.2107678 -63.64 0.0009746467    1.471    0.320
        29 -10.1717    177.0000      3.9919   3.2256774751e+01   3.9873113149e+01    0.1796593   0.06871506 -27.65 0.0008064985    2.971    0.663
        30  -9.9207     74.9870      3.7808   4.9738652847e+01   6.3006651144e+01    0.1973783    0.1275365  35.23 0.0006680204    1.328    0.247
        31 -10.1930    165.4765      7.5163   3.4385827574e+01   4.2202908539e+01    0.1250309    0.1052405  82.37 6.087672e-05    1.017    0.017
        32 -10.4268     58.5196      2.6888   5.4437738784e+01   6.6294964936e+01    0.2214221    0.1827115  78.17  0.001287702    1.852    0.460
        33 -11.6110     20.8397      2.0951   7.0634342755e+01   7.2315741915e+01    0.2867411     0.149789  27.72  0.000453344    1.663    0.399
        34 -10.2906    237.9247      2.1165   2.7063936040e+01   2.7062757626e+01    0.1728055    0.1122737 -68.10 0.0003467229    1.205    0.170
        35  -9.8134    162.6554      2.3110   3.3351253970e+01   4.3324791489e+01    0.1305353    0.0801497 -70.97 0.0007045708    1.704    0.413
        36 -10.5285     80.0290      1.6060   4.7439364031e+01   6.2143301158e+01    0.2451507    0.1150618  48.45  0.001264312    1.678    0.404
        37 -10.7868    217.4979      8.5147   2.9722741396e+01   3.0526497256e+01    0.2169327    0.1145208  -8.50 0.0008105992    5.820    0.828
        38  -9.6596    204.0133      1.2082   2.9228092614e+01   3.4132081022e+01    0.1522624   0.07968544  77.75 0.0003557162    1.656    0.396
        39  -9.6810     11.0541      1.2682   7.5731699323e+01   7.3568366918e+01    0.1400113   0.08196149  31.88 0.0003546558    1.779    0.438
        40  -9.3857     22.3398    180.2661   1.1444397733e+02   3.3446064270e+01    0.1238605   0.09323691 -42.35 0.0003570409    1.597    0.374
        41 -10.7055     27.7425    250.5390   1.1860058028e+02   1.7147772240e+01    0.2708016   0.08996026  35.68  0.001288913    2.539    0.606
        42 -11.9537     17.9760    249.0433   1.2036002117e+02   1.8481984450e+01    0.2971295    0.2474582 -41.85  0.002111744    1.809    0.447
        43 -11.3157      3.5584    248.5384   1.2298970595e+02   2.0015319851e+01     0.548425    0.1944214  55.07  0.002866891    2.220    0.550
        44 -13.3728      7.6941    242.3096   1.2192944417e+02   2.0860214503e+01    0.9069121    0.4691824  60.84  0.005472582    1.571    0.364
        45  -9.9892     29.1137    163.2471   1.1089461059e+02   3.7063840410e+01    0.1871739    0.1657187 -64.45 0.0003760296    1.128    0.113
        46  -9.2882     17.3812    163.7041   1.1409058917e+02   3.8012470736e+01     0.140992   0.08425324  63.09 0.0007020537    1.759    0.432
        47  -9.9285     14.6327    163.7117   1.1481592310e+02   3.8240112856e+01    0.1316365   0.08796335 -43.25 0.0007023044    1.705    0.413
        48 -10.6173      4.1608    158.8557   1.1710519660e+02   4.0250153595e+01    0.2116411    0.1927339  72.00  0.001430968    1.172    0.147
        49 -11.5096      5.8295    153.4846   1.1616454816e+02   4.1470012236e+01    0.5549024     0.208358  15.24  0.002303024    3.580    0.721
        50  -9.4066     27.3748    147.2155   1.0939936846e+02   4.1327791658e+01    0.1885431    0.1164026 -80.97 0.0004054572    1.539    0.350
        51  -9.5871     23.3340    147.3284   1.1058783345e+02   4.1658649514e+01    0.1427454   0.08865011 -42.98  0.000705188    1.721    0.419
        52  -9.8910    236.3300    138.7508   5.5374504333e+01   7.1509874671e+00    0.2058499    0.1905022  -0.94 0.0007663135    1.188    0.158
        53  -9.3045     24.5094    138.9893   1.0914644738e+02   4.3692638717e+01    0.2052055    0.0785455 -49.47 0.0008092091    2.437    0.590
        54 -11.0708      3.8926    134.5553   1.1475950165e+02   4.6338861447e+01    0.3363486    0.2020355  80.66  0.001402278    1.754    0.430
        55 -10.0725    212.5131    133.9462   5.8314096328e+01   1.2305092518e+01    0.2342968    0.2019888  80.69 0.0005514268    1.453    0.312
        56  -9.8280     96.0280    133.7474   8.6100518197e+01   3.5645644330e+01    0.2134653    0.2084258  -0.53 0.0005375961    1.054    0.051
        57  -9.1489     61.5247    130.5396   9.6118833168e+01   4.1823097084e+01    0.1481526    0.1362092 -53.82 0.0001741876    1.011    0.011
        58  -9.6457     40.3258    130.3248   1.0287860342e+02   4.4410205286e+01    0.1504859   0.09603884 -36.99 0.0007048994    1.692    0.409
        59 -10.8229     12.3442    129.3566   1.1157889141e+02   4.7092273512e+01    0.2721001    0.1473993 -73.53  0.001344534    1.584    0.369
        60 -10.8922     28.4852    128.1388   1.0631382724e+02   4.6121692930e+01    0.2188135    0.2172003  78.91  0.000312621    1.150    0.131
        61 -10.0496     47.5394    127.0950   9.9964939572e+01   4.4445958952e+01    0.2245599    0.1883815  43.43  0.001234369    1.315    0.240
        62 -10.2357      1.7553    123.5952   1.1414538849e+02   4.9199937321e+01    0.2559742    0.1159008 -62.59 0.0009151191    1.697    0.411
        63 -11.1969     24.0741    121.9816   1.0676811199e+02   4.8067266083e+01    0.2340693    0.1999745  28.42            0    1.351    0.260
        64 -11.6344      9.5597    120.5825   1.1128810263e+02   4.9483436089e+01    0.3582023    0.2149611 -66.66  0.001916058    1.353    0.261
        65  -9.2581     17.9336    121.7856   1.0874653614e+02   4.8600199094e+01    0.1490595    0.1113963  12.57            0    1.597    0.374
        66 -10.4774     69.0792    116.9943   9.0723102934e+01   4.4189677405e+01    0.2246628    0.2072113 -43.54  0.001229004    1.007    0.007
        67 -10.8244      1.8745    113.9210   1.1289237217e+02   5.1587660605e+01    0.3090237    0.1275144 -66.27 0.0007764181    1.853    0.460
        68 -11.6629      3.7068    108.8816   1.1158972732e+02   5.2727256364e+01    0.4239546    0.1932525  14.35  0.002026434    2.654    0.623
        69 -10.7125     45.4484    110.7895   9.7403809042e+01   4.8804407742e+01    0.2439625    0.2249337 -44.06 0.0002581169    1.040    0.038
        70  -9.5074     64.6829    109.7093   9.0480875410e+01   4.6619342184e+01    0.1517203    0.1081075 -23.83 0.0002076314    1.597    0.374
        71 -10.0593     22.4657    109.5679   1.0522616100e+02   5.1310929834e+01     0.135442    0.1150979 -55.59 6.511425e-05    1.007    0.007
        72 -10.7176     31.8736    112.8507   1.0255040128e+02   4.9684307331e+01    0.2146382    0.1622096 -43.87 0.0006040926    1.212    0.175
        73 -11.1833     56.8143    107.9258   9.2780807215e+01   4.8128058955e+01    0.3778513    0.2143332  10.21   0.00147828    2.439    0.590
        74 -10.3183      1.4304    104.2841   1.1170924091e+02   5.3967659295e+01     0.252196   0.09263339 -64.59 0.0008563845    2.027    0.507
        75  -9.7273    246.6815    101.6789   4.6166175001e+01   1.1708292150e+01    0.1224986   0.09815266  -9.45 0.0005093825    1.666    0.400
        76  -9.5271    159.5813    100.9866   6.0789962334e+01   2.9910602199e+01    0.2218807    0.1454414 -42.74 5.581332e-05    1.485    0.327
        77  -9.0332     91.9403     99.7964   7.8768420422e+01   4.4509049920e+01    0.1815375     0.121313  35.10            0    1.539    0.350
        78 -12.3365      6.9864     92.0041   1.0772114002e+02   5.6622713894e+01    0.5394928    0.3357158 -31.81 0.0006726188    1.581    0.367
        79 -12.0175    125.2202     93.3270   6.7061412122e+01   3.9155543917e+01    0.2777918    0.2733514  17.49 0.0002153039    1.011    0.011
        80 -11.4217     57.9927     91.4696   8.8194622400e+01   5.1878611012e+01    0.3747502    0.2492468 -20.93  0.000834573    1.741    0.425
        81 -10.1759     45.1064     91.3640   9.2997004985e+01   5.3530081414e+01    0.3017887    0.1519469 -38.20  0.001300371    1.967    0.492
        82 -10.0254     28.9975     91.9940   9.9312428261e+01   5.5032144143e+01    0.2447181    0.1796684  16.79 0.0008634622    1.513    0.339
        83 -12.3625     11.4544     86.1900   1.0489952268e+02   5.7726649545e+01    0.5941989    0.2937728 -86.21  0.002372582    3.332    0.700
        84 -10.3989      7.0152     84.9970   1.0640987154e+02   5.8267200382e+01    0.2817343    0.1587724 -55.63  0.001116379    1.388    0.279
        85  -9.5305     80.1831     94.3159   8.1107457965e+01   4.7822134927e+01    0.2149765    0.1314687  44.06 0.0009391157    1.781    0.438
        86 -12.1707     20.3656     93.0618   1.0284641837e+02   5.5490758888e+01    0.4110596    0.2458145 -31.16 0.0006280999    1.692    0.409
        87 -11.1599     66.2112     91.5450   8.5217627254e+01   5.0683179507e+01    0.5478373     0.309444 -70.55  0.001461372    3.053    0.672
        88  -9.0932     29.9535     84.7762   9.7248385715e+01   5.6630152697e+01      0.15081    0.1091469  12.35 0.0003861273    1.509    0.337
        89 -10.7363    145.6038     83.1560   5.9055777753e+01   3.6536923447e+01    0.3252638    0.2023911  50.88  0.000804389    1.595    0.373
        90  -9.5290    250.2754     80.9817   4.1502022358e+01   1.4365012834e+01    0.1640909   0.09268218 -42.38 0.0006543824    1.462    0.316
        91 -10.4828     89.3060     80.5415   7.3926572473e+01   4.9137307857e+01    0.4116067    0.2784245  68.13   0.00123663    2.462    0.594
        92 -11.4165     48.5779     78.8019   8.8234979834e+01   5.5949093835e+01    0.4099113    0.2422389   6.93 0.0009810583    2.148    0.534
        93 -11.8781     55.1371     74.9418   8.4502179344e+01   5.5911704756e+01    0.3266102     0.250679 -23.98  0.001782673    1.239    0.193
        94  -8.9432    124.4572     79.3891   6.3157165288e+01   4.2059018614e+01    0.1475446     0.142608  58.66 0.0001408868    1.060    0.057
        95  -9.6574     80.4000     79.2782   7.6538270894e+01   5.1019962896e+01    0.1955472    0.1375407 -53.06   0.00093266    1.566    0.361
        96  -9.7666     31.1551     79.1070   9.5334183823e+01   5.7805574191e+01    0.2008698    0.1531003 -27.12 0.0005774922    1.208    0.172
        97  -9.8872    176.6802     76.8585   5.1000488156e+01   3.0431716491e+01    0.2476068     0.197166  48.71  0.001300107    1.329    0.248
        98 -10.1675    159.6150     77.2003   5.4354719216e+01   3.4343706219e+01    0.2558858    0.1978846  57.02 0.0005203728    1.285    0.222
        99  -9.2227     76.5519     82.9786   7.9024278663e+01   5.0913155143e+01    0.2112356    0.1374747 -43.83 0.0004430453    1.479    0.324
       100  -9.8015     22.3478     76.1945   9.8227607739e+01   5.9234878282e+01     0.184033     0.114282 -67.39 0.0009424693    1.735    0.424
       101 -11.3651     15.8329     75.4322   1.0076857887e+02   5.9899132122e+01    0.2754355    0.2189792 -23.75  0.001726333    1.184    0.155
       102 -11.0504      7.0247     76.2140   1.0462257745e+02   6.0280444122e+01    0.2051488     0.169081  38.49 0.0008708776    1.534    0.348
       103  -9.7663     41.2772     74.7873   9.0002433064e+01   5.7696363429e+01    0.2890128     0.165697 -22.65  0.001323969    2.031    0.508
       104 -10.5869     36.1734     72.8178   9.1539543578e+01   5.8684069239e+01    0.4780807    0.3657271 -12.91  0.001732313    1.280    0.219
       105  -9.7896    174.9884     72.3212   5.0116327386e+01   3.1583255013e+01    0.1964228    0.1740277  76.98 0.0003733758    1.113    0.101
       106 -12.6109    105.9148     71.0796   6.5726377483e+01   4.7635950553e+01    0.3241814    0.2955212  76.69 0.0005252574    1.290    0.225
       107  -9.2273     92.3284     71.6933   7.0112166829e+01   5.0292034017e+01    0.1412106    0.1191227  86.97 0.0005664691    1.656    0.396
       108 -10.1947     81.0096     68.2817   7.2763798181e+01   5.3078964801e+01    0.3738973    0.1815665 -49.10  0.001510175    2.329    0.571
       109 -10.2890     45.6217     69.4283   8.6609727774e+01   5.8313473896e+01    0.2662619    0.2310984  -8.39  0.001291981    1.075    0.070
       110 -10.3534     51.0416     66.5631   8.3482627917e+01   5.8195846069e+01    0.3056457    0.1980785 -11.83  0.001065916    1.799    0.444
       111  -8.8874    120.2921     69.2803   6.1145896254e+01   4.4823153629e+01    0.1453976    0.1130637  15.72 0.0002292148    1.529    0.346
       112 -11.3573      3.5706     67.4487   1.0416121364e+02   6.2415762086e+01    0.3914575    0.2233759  42.24  0.002070165    2.441    0.590
       113 -10.1852      7.5960     64.1663   1.0160109404e+02   6.2904810111e+01    0.2219698    0.1286246 -41.52   0.00125085    1.378    0.274
       114 -10.3018    168.0101     65.8899   4.9654801503e+01   3.4259800602e+01    0.2057146     0.193071 -87.89  0.001187362    1.008    0.008
       115 -11.6592     96.8926     63.9408   6.6098859484e+01   5.0789460023e+01    0.3239642    0.2329056  33.67 0.0002713691    1.369    0.269
       116  -9.8327     15.3963     63.0855   9.7817964449e+01   6.2621920977e+01    0.3257537    0.2060549   5.66  0.001855271    1.689    0.408
       117 -12.9340     20.9516     58.1189   9.3864909695e+01   6.3217643274e+01    0.4350416    0.2713631 -19.69 0.0006775274    1.569    0.363
       118 -10.5128     63.0724     62.3920   7.7314216121e+01   5.7245870879e+01      0.36154    0.2866256 -64.95  0.001926885    1.772    0.436
       119 -10.2806     39.2607     60.6445   8.6484111758e+01   6.0863457855e+01    0.4034995    0.1687206 -28.58   0.00146976    3.349    0.701
       120  -9.9693     48.6226     58.3979   8.1739701386e+01   6.0119919344e+01     0.219248    0.1881891 -18.77  0.001310024    1.038    0.037
       121 -11.2315     11.8035     59.3600   9.8434036117e+01   6.3657221745e+01    0.3886439    0.1533969  17.31  0.001799128    2.744    0.636
       122  -9.0903     77.7920     57.9569   7.0329100602e+01   5.5540129071e+01    0.1633865    0.1082239 -35.05 0.0003546066    1.507    0.337
       123 -10.1135     71.7124     56.7066   7.2063181403e+01   5.6843991135e+01    0.1705949    0.1543706 -48.62 0.0005152892    1.332    0.249
       124 -10.6350     32.8432     55.9102   8.7747887625e+01   6.2516093671e+01    0.2597734    0.1586185 -30.41 0.0005380777    1.491    0.329
       125 -10.1977      6.1363     56.7857   1.0036743525e+02   6.4550876217e+01     0.307079    0.1518613 -19.26 0.0008711334    2.150    0.535
       126 -11.8919    114.5301     53.2445   5.7484144324e+01   4.8742344442e+01    0.2740799     0.252622 -10.19 0.0002921435    1.131    0.116
       127 -11.4530     87.3746     54.0114   6.5681643075e+01   5.4382045564e+01    0.4331219    0.3118173  18.04  0.002214512    1.511    0.338
       128 -12.1112     66.9234     52.7941   7.2423340445e+01   5.8343309005e+01    0.4031426     0.209372  34.96  0.001146567    1.881    0.468
       129 -10.0664    149.1266     52.1827   4.9345778989e+01   4.0831040488e+01    0.2578553    0.1816379  64.69 0.0007447053    1.373    0.272
       130 -11.8840    106.0014     50.4858   5.8842822165e+01   5.1049567579e+01    0.2793227    0.2353162 -14.24 6.160507e-05    1.258    0.205
       131 -10.0248     77.2836     50.5889   6.7844079911e+01   5.6871377422e+01        0.376    0.2750505 -80.20  0.001677702    2.875    0.652
       132 -10.0202    145.0490     59.3271   5.2264503793e+01   4.0727492601e+01    0.2027168    0.1713717  62.98 0.0001940347    1.139    0.122
       133  -9.5609    121.7083     50.6928   5.4841858856e+01   4.7493112786e+01    0.1892775    0.1326911 -44.77 0.0005140142    1.559    0.359
       134 -10.7629    119.4973     48.0333   5.4509945727e+01   4.8385908735e+01      0.40299    0.3049802  15.21   0.00193332    1.591    0.371
       135  -9.5802     33.1490     51.1479   8.5982183629e+01   6.3395540684e+01    0.2893436    0.1603132  36.16  0.001009504    2.073    0.518
       136  -9.8818      4.1238     51.1285   9.9775762357e+01   6.5827336018e+01    0.1986525    0.1243923 -37.42 0.0005886173    1.255    0.203
       137  -9.7970     58.5891     49.8336   7.4561374896e+01   6.0209505218e+01    0.2198323    0.1597081 -42.98 0.0009773765    1.489    0.328
       138  -9.6437     38.5048     48.8447   8.2730096101e+01   6.3196903307e+01    0.1905313    0.1514746   4.93  0.001052581    1.158    0.136
       139 -10.6981      9.7891     48.2164   9.6145658187e+01   6.6054069601e+01    0.2927436    0.2213814  21.41   0.00191068    1.517    0.341
       140 -11.1512    137.6606     47.0036   5.0096620943e+01   4.4292037037e+01    0.3562616    0.2482094  54.03  0.001303263    1.329    0.248
       141 -10.1852     52.4803     48.0851   7.6393406186e+01   6.1441043505e+01    0.3288834     0.164008  36.90  0.001554566    2.016    0.504
       142  -9.2165    154.7118     47.3397   4.6903896088e+01   4.0185903091e+01    0.1411753    0.1317338  72.87 0.0007541481    1.025    0.025
       143  -9.8127    152.1239     44.5584   4.6571588759e+01   4.1183842321e+01    0.2005338    0.1549573  81.52 0.0002549112    1.325    0.245
       144 -10.5116     69.1998     46.7965   6.9331026003e+01   5.8942259662e+01    0.3046567    0.1538782  37.63 0.0007262781    1.889    0.471
       145 -10.5081     79.0173     45.7814   6.5457196710e+01   5.7302116582e+01    0.2066166    0.1840037 -16.25 0.0003107191    1.137    0.120
       146 -10.9423     27.3140     34.7031   8.2581313690e+01   6.6958996506e+01    0.2722749    0.1582271 -13.65 0.0009131856    1.816    0.449
       147 -10.1084     29.4097     46.3091   8.5997538017e+01   6.4700788247e+01    0.2821431    0.1430565  17.20 0.0007145553    2.099    0.524
       148 -11.6490     19.8001     43.9220   8.9782774138e+01   6.6085235206e+01    0.7274273    0.3988582  14.66  0.003290824    1.870    0.465
       149 -10.7904     22.2676     38.0659   8.6412009539e+01   6.6911037634e+01    0.2245427    0.1956194 -10.95 0.0005163567    1.182    0.154
       150  -9.1792    241.7217     45.3094   3.5170764139e+01   2.1160401748e+01    0.1259995   0.07366257 -63.05 0.0001866462    1.558    0.358
       151 -10.3817      2.8278     43.3204   9.8127951668e+01   6.7449585096e+01    0.3339411    0.1485932 -34.13   0.00174195    1.876    0.467
       152  -9.6741     69.1422     41.9176   6.7475707177e+01   5.9710488609e+01    0.1803599     0.173678  13.49 0.0002479307    1.235    0.190
       153 -10.3469     36.2075     41.2690   8.0924363349e+01   6.4813149454e+01    0.2503488    0.1560232 -37.50 0.0008698152    1.478    0.323
       154  -9.7755    184.0133     41.2561   4.0688554657e+01   3.4091097884e+01    0.2332599    0.1366509 -75.16  0.001079301    2.084    0.520
       155 -10.5508     58.4145     41.4250   7.1392576124e+01   6.1613684450e+01    0.3326297    0.1427136  43.88  0.001429442    2.484    0.597
       156  -9.3631    204.8338     39.8140   3.7755517963e+01   2.9569555817e+01    0.1759153    0.1273236 -68.19 0.0002790847    1.276    0.216
       157 -10.1258    170.9568     40.5041   4.2352147782e+01   3.7242694180e+01    0.2327276     0.120151  61.41 0.0007711857    1.787    0.441
       158  -9.6564    139.1723     40.2261   4.7719094893e+01   4.4844011617e+01     0.186975    0.1560907 -78.16 0.0006151209    1.313    0.238
       159  -9.1140     99.3341     40.2838   5.7116141785e+01   5.3955817384e+01    0.1427172   0.09683941  25.14 0.0004228587    1.619    0.382
       160 -10.4458    128.1040     38.6406   4.9487985036e+01   4.7662084822e+01    0.1997148    0.1836873 -58.34 0.0004271245    1.187    0.158
       161 -11.7818    121.2016     37.1985   5.0534764454e+01   4.9454136429e+01    0.3837349    0.3456954 -30.40 0.0009986995    1.213    0.176
       162 -10.6726     43.8411     40.7646   7.7267850436e+01   6.3904154568e+01    0.2126177    0.1713238  16.49 0.0002665866    1.170    0.145
       163  -9.4799    212.6109     37.7845   3.6443717743e+01   2.8137478335e+01    0.1678152    0.1010971 -49.59 0.0002503288    1.486    0.327
       164  -8.9401    239.3021     37.3193   3.3786387094e+01   2.2687643716e+01     0.102496    0.0948834  27.76 0.0007025631    1.625    0.385
       165 -12.2714     39.8391     32.4098   7.5655819382e+01   6.5779722980e+01    0.3633385     0.260138 -12.09 0.0007576562    1.261    0.207
       166  -9.7060    133.1953     35.0689   4.7304499839e+01   4.6910783133e+01    0.1987738    0.1563336  34.82 0.0003067532    1.355    0.262
       167 -10.5300      2.7157     34.8314   9.5431256916e+01   6.9059851613e+01    0.2740376    0.1896641  40.77  0.001697579    2.150    0.535
       168  -9.5812      7.0196     34.0154   9.2828116951e+01   6.8922055575e+01    0.1557191    0.1468883  60.56 0.0008215514    1.674    0.403
       169 -10.8544     90.1380     31.7750   5.6609584722e+01   5.7013739807e+01    0.4490632    0.3473128 -88.36   0.00219274    2.014    0.504
       170 -10.5773     45.8867     33.5342   7.3418181221e+01   6.4755834023e+01    0.2277557    0.1742555  23.83 0.0007868908    1.221    0.181
       171  -9.1228    241.6845     33.2448   3.2776362837e+01   2.2740782359e+01     0.119283    0.0714611 -69.02 0.0002243413    1.515    0.340
       172  -9.7201    229.9145    247.7540   7.7110571247e+01  -9.7424226886e+00    0.1613014    0.1245135   3.87 0.0004710421    1.074    0.069
       173  -9.8069     68.6378     26.1057   6.1264906346e+01   6.1971701686e+01     0.211417     0.178242   0.37 0.0006588877    1.126    0.112
       174  -9.1626     55.4527     33.4448   6.9344833907e+01   6.3293577074e+01    0.1324791    0.1058875   6.67 0.0005973266    1.087    0.080
       175 -10.8965    144.0900     31.2378   4.4095561240e+01   4.4783468525e+01    0.2369093    0.1864295 -41.50  0.000650901    1.368    0.269
       176 -10.2253     18.0830     32.1565   8.6251958423e+01   6.8332823932e+01    0.3516707    0.1417201  10.31  0.001176855    3.522    0.716
       177 -11.4361      9.9350     29.8450   8.9687178416e+01   6.9436278651e+01    0.3329719    0.2273204  35.87  0.001695075    1.979    0.495
       178 -10.3662    135.6515     29.3727   4.5055595837e+01   4.7005088053e+01    0.2295867    0.1934559  48.58 0.0004284125    1.140    0.123
       179  -9.2356     34.6116     29.5716   7.6891979510e+01   6.6904570126e+01    0.2420205   0.08762831 -28.95 0.0009244403    3.466    0.711
       180  -9.2459    151.2056     29.5978   4.2414862942e+01   4.3279080642e+01    0.1782749     0.111382  56.31 0.0004213551    1.458    0.314
       181 -10.4286     94.9228     27.8235   5.3762338356e+01   5.6473976892e+01    0.3462943    0.2272912 -81.25   0.00148347    3.179    0.685
       182  -9.5813    140.0104     26.9900   4.3536211606e+01   4.6240572322e+01    0.2150369    0.1509637 -75.48  0.001124346    1.703    0.413
       183 -10.3343      2.8975     26.8195   9.2424694763e+01   7.0475950262e+01    0.1793711    0.1183557 -21.43 0.0002502016    1.207    0.172
       184  -9.4711     59.8216     25.8384   6.4395111407e+01   6.3592617508e+01    0.1616488    0.1476523  47.54 0.0005842304    1.409    0.290
       185 -10.1356    225.0250    247.2496   7.7923194508e+01  -9.0802064560e+00     0.212363    0.1472164 -23.01  0.001378187    1.302    0.232
       186 -11.9278     73.1129     31.7072   6.2005118384e+01   6.0420311344e+01    0.3147199      0.27896  82.93 0.0003470788    1.653    0.395
       187 -10.4292     77.5313     22.5458   5.6817077870e+01   6.0678224355e+01    0.1838176    0.1497667  32.98 2.620089e-05    1.049    0.047
       188  -9.6086    170.9487    246.9902   8.8477436756e+01  -1.7745624689e+00    0.2041412    0.1382209  -0.35  0.001067754    1.652    0.395
       189 -11.3066      1.9407     20.9176   9.0632098890e+01   7.1538130588e+01    0.2680482    0.1879355 -36.43  0.001361701    1.235    0.190
       190  -7.4592      6.9595     19.8182   8.7242044312e+01   7.1335319774e+01    0.2873802    0.1517311 -35.05  0.001720762    1.547    0.354
       191 -10.6566    228.4897     21.7016   3.1551275214e+01   2.6783004180e+01    0.3616679    0.2078182  71.35  0.001634396    1.681    0.405
       192  -8.9273    120.2671     22.6619   4.5908507122e+01   5.1352205571e+01     0.127183   0.09774484 -68.25 0.0002594725    1.595    0.373
       193  -9.3603     97.2061     21.8729   5.0928897525e+01   5.6640095710e+01    0.2111481    0.1330243  48.66            0    1.363    0.266
       194 -10.1830     54.7642     21.9716   6.4682618206e+01   6.4944097408e+01    0.2072081    0.1483416  30.27 0.0005937943    1.216    0.178
       195 -10.9448     14.1064     21.0282   8.3720827385e+01   7.0513173832e+01    0.3379028    0.2100622  37.18  0.001298744    2.148    0.535
       196  -9.2676    115.9984    246.9055   1.0009989920e+02   6.3382930184e+00     0.146842    0.1413868  51.54 0.0009811661    1.126    0.112
       197  -9.7092    132.0047     21.0246   4.3122710461e+01   4.8775711948e+01    0.2027872    0.1408063  36.24 0.0005899909    1.567    0.362
       198  -9.8552     84.4052     20.8223   5.4031644463e+01   5.9473416494e+01    0.1698049     0.116435  -1.78 0.0005632598    1.656    0.396
       199  -9.9092     30.3033     21.0504   7.5198781584e+01   6.8703036058e+01    0.2157394     0.137843   6.51  0.001281671    1.480    0.324
       200  -9.5954     21.2684     21.5679   8.0075325236e+01   6.9697994885e+01    0.1586252   0.09586666  10.47 0.0005879916    1.555    0.357
       201  -9.8806    214.6569     20.3035   3.2432504658e+01   2.9829689493e+01    0.1309927   0.07414334 -68.06 0.0007040072    1.683    0.406
       202  -9.7790     39.0913     19.4287   7.0242521132e+01   6.7726074954e+01    0.2941776    0.2003253  55.17  0.001588684    2.571    0.611
       203  -9.0162    151.6836     19.3375   3.9407205450e+01   4.4289142858e+01     0.135653   0.09022206 -69.89 0.0007048196    1.700    0.412
       204  -9.2238    120.5099     19.4431   4.4788777256e+01   5.1626294125e+01    0.1330014    0.1122849  50.88 3.877496e-05    1.059    0.056
       205 -10.2190     61.3839     18.4493   6.0587418359e+01   6.4204900719e+01     0.273153    0.1237767  41.27  0.001326496    1.913    0.477
       206 -10.0597     20.0642     17.6650   7.8923802238e+01   7.0401830951e+01    0.2257568    0.1270771 -18.07  0.001005039    1.697    0.411
       207  -9.6838    125.1766     17.2018   4.3155089164e+01   5.0761211053e+01    0.1660717    0.1417796 -85.74 0.0003230299    1.260    0.207
       208  -9.7951     33.7583    247.3669   1.1723719503e+02   1.7113838783e+01    0.1456095    0.1034285  31.53 0.0002584202    1.534    0.348
       209  -9.3271     86.5157    245.4210   1.0624409972e+02   1.0845828990e+01     0.127907    0.1067844  50.36 0.0002951289    1.020    0.020
       210 -11.0018    202.4962     16.1382   3.2626488341e+01   3.2925987641e+01    0.2156329    0.1519846  85.03 0.0005856212    1.243    0.196
       211  -9.1841    145.6878     16.7270   3.9554659872e+01   4.5973932697e+01    0.1292628   0.08739292  43.90 0.0001459781    1.554    0.357
       212 -10.0840     48.7805     15.5737   6.4203487201e+01   6.6703696072e+01    0.2184778    0.1875932 -51.24  0.001419734    1.826    0.452
       213  -9.4622     26.5300     16.5832   7.5008486209e+01   6.9794353672e+01    0.1202465   0.09135642   0.25  9.48032e-05    1.024    0.023
       214 -10.1082    168.8665     14.8881   3.5898889259e+01   4.0697489853e+01    0.1884154    0.1605973  87.86 0.0002647324    1.012    0.012
       215 -11.9297      4.1200    232.7812   1.2212206092e+02   2.3155696541e+01    0.2987351    0.1919044  61.39  0.001970987    1.247    0.198
       216  -9.9403    154.8020     15.5770   3.7905080640e+01   4.3932259925e+01    0.1891251    0.1100961  83.40 0.0009475736    1.746    0.427
       217  -9.1751     99.4366     14.4744   4.7623279242e+01   5.6888685589e+01    0.1285145    0.1097546  44.73 6.174291e-05    1.007    0.007
       218  -9.4718     39.6523    243.3345   1.1579017077e+02   1.7258492634e+01    0.1342575   0.06969931  61.46 0.0007048384    1.774    0.436
       219  -9.4607    226.3606    163.8608   6.2245957394e+01   4.3134589245e+00    0.2018052    0.1106614 -31.14 0.0009365543    1.719    0.418
       220  -9.1425     60.9249    241.0000   1.1123134190e+02   1.5151124329e+01    0.1934627   0.06313087  33.35 0.0005014877    2.792    0.642
       221 -11.0510    208.0229     13.0341   3.1448343798e+01   3.2059623021e+01    0.1823448    0.1493414 -79.41 0.0003645174    1.026    0.026
       222  -9.4010     89.5314     13.4639   4.9708822521e+01   5.9134643820e+01    0.1273037    0.1085772  41.70 0.0001768427    1.029    0.028
       223  -9.7444     72.5526     13.2464   5.4511446953e+01   6.2644158391e+01    0.1638045    0.1107931   1.02 0.0009363079    1.604    0.376
       224  -9.5687    148.6924    238.4899   9.1901578322e+01   2.9870452641e+00    0.2127648    0.1211377 -48.96  0.001065455    1.981    0.495
       225 -11.3219     25.0774    236.1528   1.1821418233e+02   2.0362135235e+01    0.2116061     0.134257  47.56 0.0003518164    1.354    0.262
       226  -9.3036     49.6897    235.6821   1.1313135664e+02   1.7656348015e+01    0.1123242   0.09564745 -33.79  0.000500566    1.640    0.390
       227  -9.9716    134.5613     11.5032   3.9733502971e+01   4.9096413718e+01    0.1278518     0.110164  66.13 2.549656e-05    1.012    0.012
       228  -9.5668    249.4688    233.5353   7.1272481976e+01  -1.0085656451e+01    0.1188587   0.08897168  -8.44 0.0001773269    1.013    0.013
       229 -12.1149      3.4087    226.0465   1.2190928848e+02   2.4640972526e+01    0.5935911    0.1511486  46.34  0.002650538    2.907    0.656
       230 -10.8177      2.4798    219.9758   1.2176700090e+02   2.6030697826e+01    0.2909366     0.136872  85.82  0.001098329    1.909    0.476
       231  -9.6752      3.6168     10.4869   8.4986006718e+01   7.3037948893e+01    0.1111145   0.08333135 -15.06 0.0001486945    1.068    0.063
       232 -10.2742     56.8835    229.8315   1.1107804266e+02   1.8012413191e+01    0.1737943    0.1655074  76.99 0.0004258012    1.183    0.154
       233  -9.4484     47.8186    229.8505   1.1303425372e+02   1.9124932461e+01    0.1738459    0.1191175  62.30  0.001020071    1.296    0.228
       234  -9.4926     97.2321     10.4548   4.6644902705e+01   5.7739051842e+01    0.1732385     0.113421  71.16 0.0009370121    1.648    0.393
       235 -12.0355     10.7602    231.7886   1.2078168774e+02   2.2733736440e+01    0.2690818    0.1423817  51.49 0.0006939588    1.570    0.363
       236  -9.8571    209.5024    229.5244   7.7892716160e+01  -4.4297310555e+00    0.1285469    0.1047494  -0.51 2.597248e-06    1.009    0.009
       237 -10.9966    140.1956    228.1056   9.2210734314e+01   6.2406884456e+00    0.2989899    0.2356991 -67.71  0.001672242    1.601    0.375
       238  -9.9383    223.1858    226.8367   7.4823774946e+01  -5.8609502390e+00    0.1765956    0.1219117  -6.97 0.0003822042    1.318    0.241
       239  -9.1596    167.3042    221.6694   8.5216919052e+01   3.1837045877e+00     0.128133    0.1081259  66.95  0.000703631    1.655    0.396
       240  -9.2108    114.4635    221.5050   9.7079625627e+01   1.1611412136e+01    0.1365295     0.125932  34.54 0.0001711148    1.032    0.031
       241  -9.7478    233.2232    218.9751   7.1594364042e+01  -5.9744393895e+00    0.1758177    0.1339296 -14.62 0.0003944186    1.066    0.062
       242 -10.9100      8.1331    218.1791   1.2051901875e+02   2.5910779252e+01    0.2181227    0.2058837  87.05 0.0009499195    1.298    0.230
       243  -8.8781     85.5443    215.4444   1.0301247703e+02   1.7296933551e+01    0.1342494    0.1245839  55.96 3.585788e-05    1.039    0.038
       244 -10.0872     15.8273    213.1507   1.1858937465e+02   2.6302317074e+01    0.1953016    0.1357235  66.85 0.0008897046    1.223    0.183
       245  -9.5379    205.5034    212.4888   7.5665480642e+01  -1.0565796238e+00     0.133947    0.1129875  -4.64 0.0002379987    1.007    0.007
       246  -8.7811    124.2444    205.7538   9.2389102220e+01   1.3420959161e+01    0.1306385     0.106339  64.94 0.0006701351    1.401    0.286
       247  -9.9278    193.7203    202.5701   7.6210022763e+01   2.5130625197e+00    0.1794378     0.126702  41.33 0.0009372472    1.556    0.357
       248 -11.2412      4.0880    201.0940   1.2031682861e+02   3.0111728865e+01    0.3298748     0.126127 -64.03  0.001564764    2.355    0.575
       249  -9.8471     22.0000    198.9586   1.1616489248e+02   2.8971033929e+01    0.2118003   0.06360947 -74.15 0.0008078668    2.980    0.664
       250  -9.2280     24.4910    195.5334   1.1530148090e+02   2.9536666883e+01    0.1309821    0.1062816  77.98 0.0001209242    1.053    0.050
       251  -9.5064     14.1032    192.6967   1.1748254046e+02   3.1197287171e+01    0.1954188    0.1225742  55.64 0.0006683285    1.489    0.329
       252  -9.9278      6.0566    192.2246   1.1928687515e+02   3.2008589861e+01    0.1748942    0.1419858  82.91  0.001156856    1.017    0.017
       253  -9.6112      1.1845    191.8181   1.2035535822e+02   3.2502112556e+01    0.1635867   0.07844175 -83.63  0.000827299    1.769    0.435
       254  -9.2482      7.4306    188.4138   1.1869901556e+02   3.2795367051e+01    0.1235971    0.1013273  88.30 0.0001612922    1.031    0.030
