#   1 NUMBER                 Running object number                                     
#   2 MAG_AUTO               Kron-like elliptical aperture magnitude                    [mag]
#   3 X_IMAGE                Object position along x                                    [pixel]
#   4 Y_IMAGE                Object position along y                                    [pixel]
#   5 X_WORLD                Barycenter position along world x axis                     [deg]
#   6 Y_WORLD                Barycenter position along world y axis                     [deg]
#   7 A_WORLD                Profile RMS along major axis (world units)                 [deg]
#   8 B_WORLD                Profile RMS along minor axis (world units)                 [deg]
#   9 THETA_WORLD            Position angle (CCW/world-x)                               [deg]
#  10 FWHM_WORLD             FWHM assuming a gaussian core                              [deg]
#  11 ELONGATION             A_IMAGE/B_IMAGE                                           
#  12 ELLIPTICITY            1 - B_IMAGE/A_IMAGE                                       
         1 -13.8987     54.9703    147.0099   1.0813074486e+02   3.8559104709e+01     6.825548      1.74703 -68.65   0.01967087    4.594    0.782
         2 -14.9627     68.5459    144.1045   1.0382453430e+02   3.7541110446e+01      5.27911     2.132594  57.68  0.008049528    5.065    0.803
         3 -14.4081    199.5404     39.5617   4.4086965985e+01   3.0408980285e+01     1.612574      1.34317  20.21  0.005521543    1.569    0.363
         4 -13.8812      2.5851     10.5999   9.5295596552e+01   7.2913458366e+01     2.305534    0.4800982 -50.79  0.009272213    3.949    0.747
         5 -14.6553    210.0213     28.8355   4.0116281023e+01   2.9251928990e+01     1.669724     1.201432  10.29  0.002581512    2.220    0.550
         6 -13.4106    234.8569      4.3017   3.2289353234e+01   2.6376262902e+01    0.8427972    0.4652182  77.14  0.004801574    1.657    0.396
         7  -9.9867     60.4923      7.5312   6.4284636601e+01   6.6238313089e+01    0.1262075    0.1010482  16.92 5.556514e-05    1.014    0.014
         8 -11.3669    144.5356     41.4988   5.3878755309e+01   4.3865308651e+01    0.4585804    0.3118296 -80.71   0.00204154    2.105    0.525
         9 -12.2165    139.3149    248.7357   1.0218271663e+02   4.2679431892e+00    0.4168213    0.3561203 -30.43  0.002806985    1.449    0.310
        10 -13.2132     28.0313    215.3688   1.2157536965e+02   2.5851399958e+01    0.8056714    0.3425347  87.34  0.001916473    2.506    0.601
        11 -14.3281     44.3105    200.0826   1.1698105632e+02   2.7324267065e+01     1.857546    0.8542867 -87.29  0.008150221    2.432    0.589
        12 -15.4559     54.7488    188.2959   1.1345453172e+02   2.8723746820e+01     7.478483     3.150531  66.91     0.026906    3.750    0.733
        13 -14.5359     25.5018    226.4065   1.2277146934e+02   2.3879951694e+01     1.564525    0.6579456  53.99  0.007309151    1.947    0.487
        14 -14.8249     57.1816    239.6916   1.1762354395e+02   1.7647091039e+01     1.007385    0.7233701  77.87  0.004667132    1.263    0.208
        15  -9.3004     24.5373    194.3738   1.2080287066e+02   3.0688899860e+01    0.1820952    0.1412585  67.82 9.180039e-05    1.096    0.088
        16 -11.7227    207.0204    193.8791   7.9366431983e+01   2.2104010427e+00    0.3105812    0.2115065  12.48  0.001594714    1.551    0.355
        17  -9.1928    120.0235    194.0365   9.8694776482e+01   1.7706726526e+01    0.1645401    0.1580774  64.32 0.0005253775    1.060    0.057
        18  -9.2060     70.5024    184.8746   1.0929991968e+02   2.7465484651e+01    0.1863006    0.1260625 -72.36 0.0003556796    1.451    0.311
        19 -16.7958      6.9106    202.9572   1.2500166703e+02   3.0472857151e+01     8.290634     1.175024 -74.59   0.02017932    5.130    0.805
        20  -9.3388     91.5147    183.4779   1.0396929526e+02   2.4719780784e+01    0.1395922    0.1284861  67.14 2.976478e-05    1.004    0.004
        21 -10.5888     99.4455    180.7918   1.0159794204e+02   2.4078174489e+01    0.2603236    0.2363012  45.80 0.0005963039    1.076    0.071
        22 -16.7143      6.4715    246.3649   1.2717659519e+02   2.1988842614e+01     1.688669     1.126675  36.96   0.01251777    1.621    0.383
        23  -9.0510     93.9492    249.9911   1.1135954748e+02   1.0827450070e+01    0.1460753    0.1146928  50.68  0.000490077    1.010    0.010
        24 -11.0050    144.3248    178.4491   9.0177380441e+01   1.6664152280e+01    0.3136112    0.2619466 -38.38  0.001200365    1.272    0.214
        25 -10.1650    149.6136    177.1371   8.8667569083e+01   1.5941133957e+01    0.2414989    0.1936249  49.16 0.0003982562    1.260    0.206
        26 -12.2115     69.1962    174.3363   1.0824687673e+02   3.0106964050e+01    0.4237536    0.3109892 -28.75  0.001840777    1.907    0.476
        27 -12.2106     73.6096    169.5717   1.0645426925e+02   3.0630915536e+01    0.3577275    0.2912543 -44.85   0.00121429    1.381    0.276
        28 -10.3975    187.8430    173.1669   7.9204124091e+01   9.3888250831e+00     0.361032    0.1952188 -57.94  0.001342218    3.012    0.668
        29 -12.7887     14.3154    190.1925   1.2268938327e+02   3.2566445382e+01    0.2737291    0.2062491  77.27 0.0004498507    1.066    0.062
        30 -16.4265     30.7769    249.6732   1.2315292159e+02   1.8887474835e+01     11.18531     3.422189  25.74   0.02528595   15.804    0.937
        31 -11.0208    137.8906    169.3380   8.9981484832e+01   1.9852051861e+01    0.4004816    0.3330012  76.38  0.001527208    1.449    0.310
        32  -9.4277    110.9844    167.9776   9.6515455819e+01   2.5093836767e+01    0.1788439    0.1688779  52.66 0.0004519331    1.021    0.020
        33 -10.9536     34.0830    166.2581   1.1609002696e+02   3.6179650367e+01    0.5033429    0.2316785  46.51  0.002417152    2.141    0.533
        34 -10.4621    156.3209    158.1849   8.3187351514e+01   1.8651630848e+01    0.3778484    0.2593806 -69.29  0.001415922    2.106    0.525
        35 -10.7433     35.8375    158.3466   1.1478024134e+02   3.7893395997e+01    0.2619182    0.1939116  74.57 0.0006786378    1.300    0.231
        36 -10.7822     32.4863    156.5002   1.1543853791e+02   3.8667218254e+01    0.2252562    0.1866046 -63.51 0.0008317895    1.185    0.156
        37  -9.4055     32.0463    203.2881   1.1988367067e+02   2.7980140718e+01    0.1674077    0.1292017  66.36 0.0005719264    1.084    0.078
        38 -12.4250     89.1044    153.7563   9.9764320286e+01   3.2138870494e+01    0.6654191    0.4729742 -23.82  0.003068937    1.953    0.488
        39  -9.9179    187.4893    151.4960   7.4595403876e+01   1.3650009501e+01     0.150828    0.1418795  -1.29 2.187749e-05    1.006    0.006
        40 -11.4298    133.7793    144.9326   8.5910253909e+01   2.6146063643e+01      1.17006    0.3339171 -54.90  0.002876444    5.182    0.807
        41 -10.2846    174.3892    148.6173   7.6837981031e+01   1.6937342467e+01    0.3606173    0.2736075 -76.54  0.001302849    1.954    0.488
        42 -11.2611     38.5862    146.1381   1.1255769771e+02   4.0579860705e+01    0.3289813    0.2398599  55.24  0.000729939    1.426    0.299
        43  -9.9202     83.6290    143.1359   9.9339760539e+01   3.5591602451e+01    0.2272518     0.191686  53.46 0.0004028965    1.217    0.179
        44 -10.9710    102.8913    139.1541   9.3052452337e+01   3.3372403825e+01    0.5998479    0.3753815 -22.29  0.002301663    2.576    0.612
        45 -12.4648     90.1113    139.1235   9.6697023871e+01   3.5549451879e+01    0.3008227    0.2670713 -36.43 0.0004723408    1.186    0.157
        46 -12.8643     42.9724    128.9051   1.0881355404e+02   4.4372077998e+01    0.8116229    0.4205113  82.11  0.003120899    3.159    0.683
        47 -10.6858    105.9750    130.8140   9.0337718676e+01   3.4821822707e+01    0.3612977    0.3233535 -74.45  0.001244562    1.185    0.156
        48 -11.3654    135.7117    128.0024   8.1430490642e+01   2.9598089636e+01    0.7377433    0.1932318 -49.34  0.001944453    4.160    0.760
        49 -10.3437    111.8070    130.0427   8.8492975233e+01   3.3919796017e+01    0.3397415    0.2618501  11.13  0.001276315    1.605    0.377
        50 -10.1539    160.7890    127.7011   7.5030775543e+01   2.4235556900e+01    0.3326566    0.2208855 -52.47   0.00142152    1.642    0.391
        51 -11.1281     99.0868    125.8725   9.1215789317e+01   3.7245850652e+01    0.3263673    0.2618543 -11.60 0.0008541066    1.523    0.343
        52  -9.4392     93.3437    125.9224   9.2934841797e+01   3.8228904837e+01    0.2095805     0.181076 -57.44 0.0004137434    1.131    0.116
        53 -11.3814    119.0919    123.0174   8.4744399183e+01   3.4150156394e+01    0.6957429     0.416088 -11.92  0.002138111    3.906    0.744
        54 -10.0506    107.9921    118.9774   8.6941277281e+01   3.7252820009e+01    0.2195658    0.2167463 -13.29  0.001182369    1.013    0.012
        55 -12.0916     35.0279    118.1489   1.0952763656e+02   4.7790897587e+01    0.4241605     0.257717 -19.97  0.002041973    2.293    0.564
        56  -9.7599    133.9902    196.3030   9.5785777611e+01   1.4805595933e+01    0.2047144    0.1695816  39.32 0.0003898769    1.100    0.091
        57 -13.3132     82.1485    160.8607   1.0286767598e+02   3.1487664989e+01     1.641706    0.6359543  55.58 0.0004760858    4.412    0.773
        58 -10.9180    134.8043    112.8259   7.7795071744e+01   3.3172900413e+01    0.5363865    0.1238884 -45.35  0.001360562    4.357    0.771
        59 -10.1823    205.5083    110.1563   6.1142461471e+01   1.7696288611e+01    0.3065911    0.2147049  40.80 0.0009764977    1.533    0.348
        60 -11.6241    118.9855    110.0003   8.1434446694e+01   3.7147338708e+01    0.4499115    0.3310791 -86.33  0.001887272    2.071    0.517
        61 -12.4248     30.2318    108.2585   1.0942144801e+02   5.0617817653e+01    0.4205658    0.2935024   4.90  0.002351745    1.775    0.437
        62  -8.7422    141.3173    108.2511   7.4846380847e+01   3.2725934201e+01    0.1561831    0.1235251  11.67 0.0002554767    1.528    0.345
        63  -9.2915    168.2203    113.2195   6.9602850916e+01   2.5564830233e+01    0.2586602    0.1856191 -82.06  0.001041945    2.187    0.543
        64 -11.2831    119.9815    104.2023   7.9577989248e+01   3.8232539895e+01    0.2929094    0.2303746 -43.79  0.001263251    1.265    0.210
        65 -13.8503     70.5840    155.7342   1.0516512332e+02   3.4400582599e+01     0.636676     0.561278 -25.02  0.002530985    1.357    0.263
        66 -10.8114     33.6613    100.1232   1.0679076536e+02   5.2277878198e+01    0.2087279    0.1854471  47.84  0.001090374    1.311    0.237
        67  -8.9134    128.6206     96.2019   7.4889424028e+01   3.8099370404e+01    0.2171995    0.1474234 -31.71 0.0009316595    1.578    0.366
        68 -10.2091     52.8291     91.1637   9.8048467998e+01   5.2423853030e+01    0.1988409    0.1467221 -34.71 0.0005525958    1.299    0.230
        69  -9.1794    157.2407     89.4284   6.5656577043e+01   3.2837803171e+01    0.2161275    0.1502992  65.23 0.0007162589    1.666    0.400
        70  -9.3080    117.2726     86.0170   7.5109607866e+01   4.2674371458e+01    0.2086306    0.2016481 -14.08  0.000716189    1.030    0.029
        71  -9.9493    158.3002     81.9638   6.3270606993e+01   3.3976499179e+01    0.2174008    0.2026606 -35.79 0.0004461645    1.088    0.081
        72  -8.8754     70.6391     82.2418   8.9225216841e+01   5.2060086338e+01    0.1349549     0.111048  62.69 0.0002820085    1.597    0.374
        73  -9.0621     56.5030     66.5125   8.9789055013e+01   5.7404161963e+01    0.1354081    0.1224654 -26.25 -4.474085e-05    1.076    0.071
        74 -11.2803     13.0343     59.5438   1.0594956486e+02   6.3002314564e+01     0.318041    0.2490546  68.77  0.000746902    1.844    0.458
        75 -13.7179    189.2581     47.1455   4.7550898259e+01   3.1901808836e+01       1.0972    0.7767822  41.46 0.0009077025    1.612    0.380
        76  -9.5003     64.5178    223.8312   1.1482844602e+02   1.9816424177e+01    0.2173105    0.1140303 -79.37  0.001122788    2.071    0.517
        77 -11.3569    143.5461     48.4378   5.6327895574e+01   4.3137545942e+01     0.593369    0.3605091 -83.96 0.0007529918    3.179    0.685
        78 -10.3515     59.9107    220.3356   1.1546784283e+02   2.1121701406e+01    0.2893329    0.1900714  29.18  0.001012234    1.722    0.419
        79 -10.9551     18.3833     32.8878   9.5410474033e+01   6.7949082486e+01    0.1944899    0.1492731  17.00   0.00130753    1.439    0.305
        80 -12.2827    194.5429    198.2986   8.2748968815e+01   3.6172797765e+00     1.260062    0.6931203 -56.94  0.005114925    3.131    0.681
        81  -9.8098     68.1909     52.2660   8.0343927057e+01   5.8473251963e+01    0.2254054    0.1810967  49.08 0.0008098369    1.568    0.362
        82 -10.7301    198.0086     23.6389   4.0199580857e+01   3.2737202391e+01    0.2613922    0.1950349  -2.84  0.000970288    1.884    0.469
        83  -9.7071    189.8157     15.0907   3.8954557238e+01   3.5671289981e+01    0.2064282    0.1617021 -71.57 0.0006558528    1.221    0.181
        84 -10.2217    113.0560    206.0355   1.0211985268e+02   1.6346257176e+01    0.3041811    0.1764897  66.86  0.001301961    2.448    0.592
        85 -12.0576    109.2355    201.4652   1.0234639056e+02   1.7925538372e+01    0.5937069    0.4178496 -26.12  0.001902527    2.091    0.522
