#   1 NUMBER                 Running object number                                     
#   2 MAG_AUTO               Kron-like elliptical aperture magnitude                    [mag]
#   3 X_IMAGE                Object position along x                                    [pixel]
#   4 Y_IMAGE                Object position along y                                    [pixel]
#   5 X_WORLD                Barycenter position along world x axis                     [deg]
#   6 Y_WORLD                Barycenter position along world y axis                     [deg]
#   7 A_WORLD                Profile RMS along major axis (world units)                 [deg]
#   8 B_WORLD                Profile RMS along minor axis (world units)                 [deg]
#   9 THETA_WORLD            Position angle (CCW/world-x)                               [deg]
#  10 FWHM_WORLD             FWHM assuming a gaussian core                              [deg]
#  11 ELONGATION             A_IMAGE/B_IMAGE                                           
#  12 ELLIPTICITY            1 - B_IMAGE/A_IMAGE                                       
         1 -11.4409    165.7574     48.7428   6.8394252496e+01   3.7568482415e+01     1.108997    0.9175486  -7.39  0.004981663    1.287    0.223
         2 -10.9304    180.1666     20.6684   5.6491014243e+01   3.7487114324e+01    0.9185275    0.6020385  64.34  0.004285471    1.504    0.335
         3 -11.0308    181.1203     14.8463   5.4405227042e+01   3.7872332930e+01    0.8029698    0.4563042  54.03  0.003543183    1.705    0.414
         4  -8.9471    120.9286      9.2310   6.2581386615e+01   5.4099321987e+01     0.369039    0.2852924 -34.80  0.001767996    1.341    0.254
         5  -7.7143    145.6430      4.2087   5.5825161833e+01   4.8361325994e+01    0.1995442     0.132746  -0.13   0.00039214    1.662    0.398
         6  -8.1417    150.8697    237.2173   1.1123191204e+02   9.0802355736e+00    0.1709165    0.1322536   2.10  0.001023281    1.966    0.491
         7 -11.9898    233.6137    249.3005   9.9781457300e+01  -4.3506066888e+00    0.2015629    0.1381848  33.79 0.0003669208    1.135    0.119
         8  -8.6741    153.2466    248.6996   1.1207122197e+02   7.3279542981e+00    0.3442864    0.1760143  36.13  0.002164292    1.708    0.415
         9 -18.0794     62.7568    226.5794   1.2479524008e+02   2.2786230728e+01     3.160539     2.353646  66.98   0.01100826    1.059    0.055
        10  -8.1663    165.3401    206.3014   1.0494008408e+02   1.0913742199e+01    0.1180129   0.08390234  20.65 0.0005412894    1.670    0.401
        11  -8.2251    169.2394    189.9351   1.0182093729e+02   1.2609491840e+01    0.1723587    0.1553343  67.89 0.0006287815    1.242    0.195
        12  -7.4844    156.5515    190.4518   1.0423870450e+02   1.4734013452e+01    0.1240117    0.1049164  49.40 8.800563e-05    1.041    0.040
        13  -8.2054    132.0890    190.1140   1.0878775052e+02   1.8917764611e+01    0.1730997    0.1473195  57.62 0.0002893936    1.023    0.022
        14  -8.3608    153.4131    185.8294   1.0412774048e+02   1.6003708934e+01    0.2488205    0.1551804 -50.82  0.001079873    1.874    0.466
        15 -13.9791     56.3312    140.3958   1.1814092923e+02   3.9810467224e+01     3.107821     2.799253 -11.69   0.02109174    1.657    0.396
        16  -9.6188    113.6306    185.8453   1.1176872311e+02   2.2625701945e+01    0.5378753    0.2499195  59.85  0.002456352    2.535    0.605
        17  -7.2987    186.2868    185.3531   9.7984626648e+01   1.0263897802e+01    0.1258527   0.09043105  12.00 0.0007022934    1.668    0.400
        18  -8.8672    134.0645    201.9561   1.0997761839e+02   1.6679100973e+01    0.2105625    0.1705409 -79.06  0.000889267    1.432    0.302
        19 -10.4821    145.9101    225.5154   1.1074260032e+02   1.1365595853e+01    0.2524081    0.2318603  62.44 0.0005643878    1.206    0.171
        20  -8.5867    143.3150    183.7879   1.0574148700e+02   1.8081847768e+01    0.2574227    0.1864875  72.38   0.00127944    1.623    0.384
        21  -9.7798    188.6023    176.2014   9.5987672041e+01   1.1161760320e+01    0.4479292    0.2664838 -52.59  0.001915593    2.300    0.565
        22  -9.2718    161.2663    176.1667   1.0109408433e+02   1.6162683182e+01    0.2734643    0.2289048  84.51 0.0008011111    1.460    0.315
        23  -8.7359     20.1671    176.7367   1.2903387628e+02   3.6222523807e+01    0.1969753    0.1873938 -68.75  0.001575709    1.578    0.366
        24  -9.5866     25.2682    173.8200   1.2787679812e+02   3.6295863135e+01    0.4036378    0.1856975  44.62  0.001917699    1.927    0.481
        25  -7.7031    221.4337    176.4853   9.0277388487e+01   5.1808968061e+00    0.1255424     0.105932  19.84 5.686153e-05    1.017    0.017
        26  -9.2450    134.3195    173.9035   1.0600418417e+02   2.1326104556e+01    0.2512436     0.199472  79.75 0.0005816736    1.383    0.277
        27  -9.8542    191.9818    191.6808   9.8019943982e+01   8.3854590386e+00    0.5607361    0.2207646 -46.96   0.00242785    3.476    0.712
        28  -9.5297    239.9408    172.2109   8.6426327418e+01   2.4656412603e+00    0.2947808    0.1726685  45.24 0.0007078918    1.674    0.403
        29  -8.7317    141.2505    170.3229   1.0405340377e+02   2.0743966529e+01    0.2254546    0.1481286  54.45 0.0005090001    1.439    0.305
        30  -9.1189    240.4612    167.4883   8.5432041342e+01   2.9378661744e+00     0.242395    0.1748554  15.98 9.966489e-05    1.260    0.206
        31  -8.6192     19.5041    166.4583   1.2850736678e+02   3.8283726297e+01    0.2237649    0.1707651  40.32   0.00119323    1.551    0.355
        32  -8.7855     19.7912    163.2090   1.2823204185e+02   3.8902205979e+01    0.2207092    0.1897843 -23.19 0.0003209844    1.990    0.498
        33 -10.5971     11.7867    206.9750   1.3205943641e+02   3.1515046715e+01    0.3926344    0.2614211  54.38  0.002500788    1.281    0.219
        34  -8.4119    250.3704    176.1952   8.5533893192e+01   2.4730358875e-01    0.2211088    0.1502927 -38.39  0.001322726    1.854    0.460
        35  -8.3149    161.9858    163.9981   9.8848095726e+01   1.8040041477e+01    0.1934968    0.1715469  40.61            0    1.036    0.035
        36  -9.1430    240.9021    162.7169   8.4422399633e+01   3.4375536884e+00    0.2258133    0.1916423  22.97 0.0005707897    1.109    0.098
        37 -10.0803    208.7416    160.3122   8.9372296163e+01   9.6819621056e+00    0.2432071    0.2062816  39.30 0.0004428279    1.145    0.127
        38  -9.1904    135.4273    158.7450   1.0331048863e+02   2.3881344524e+01     0.402918    0.2574041  79.71  0.001603265    2.428    0.588
        39  -9.3565     21.9503    157.2441   1.2736926066e+02   3.9904181368e+01    0.2521374    0.1862931 -14.83  0.001607408    2.719    0.632
        40 -10.4059    135.3223    148.7211   1.0154600270e+02   2.5793011096e+01    0.8221358    0.4912331 -56.58  0.004022901    1.825    0.452
        41  -8.9925    145.3559    156.3290   1.0082096143e+02   2.2504588470e+01     0.413276    0.2540665  78.00  0.001707131    2.958    0.662
        42  -8.4690    140.3886    151.8786   1.0104827940e+02   2.4253303745e+01     0.251121    0.1745117  59.89 0.0005477492    1.491    0.329
        43  -9.0149    156.1303    154.3199   9.8236958420e+01   2.0827059283e+01    0.2918121     0.228704  84.26 0.0009323173    1.632    0.387
        44  -9.1188      7.6994    154.4623   1.3010191443e+02   4.1703528054e+01    0.2541998    0.1743529 -44.93  0.001018912    2.216    0.549
        45  -9.4998    116.8038    145.8539   1.0508222756e+02   2.9688108931e+01    0.3094097    0.2573448 -17.29   0.00171925    1.696    0.410
        46  -9.1251    119.5184    148.4959   1.0494388813e+02   2.8685870808e+01    0.2577703    0.2283719 -36.16  0.001553928    1.355    0.262
        47 -11.1929    184.9493    217.0490   1.0306570314e+02   6.2904939193e+00     1.203824    0.2877849 -41.14  0.004738561    5.242    0.809
        48  -8.5847     20.9684    143.7648   1.2652321862e+02   4.2779528808e+01    0.1736727    0.1174092  74.00 0.0003427592    1.226    0.184
        49  -9.2562     13.0131    144.6473   1.2832602709e+02   4.3278462985e+01     0.254733     0.166721  44.43  0.001639447    1.593    0.372
        50  -8.3875     17.0514    142.2761   1.2726443146e+02   4.3434072235e+01    0.1766324    0.1596571  54.01 0.0004926886    1.383    0.277
        51  -8.7450    228.0609    142.9794   8.2438965713e+01   8.3809915652e+00    0.1949366    0.1716511  11.05            0    1.015    0.015
        52  -8.4455    161.3226    141.8360   9.4701697255e+01   2.2041540811e+01    0.2983105    0.1795879 -16.73  0.001161805    3.060    0.673
        53  -8.8704    156.4843    140.9942   9.5534918225e+01   2.3164230090e+01     0.213156    0.1803532  45.97 0.0003911782    1.121    0.108
        54  -8.4308    119.0513    141.4703   1.0379077164e+02   3.0178425312e+01    0.2052529    0.1268006  46.67 0.0005638422    1.556    0.357
        55  -9.8597     24.1728    132.2798   1.2476922912e+02   4.4941227470e+01    0.3167302    0.1603478 -80.75  0.001805639    1.632    0.387
        56 -11.3981     28.6351    128.4939   1.2332610328e+02   4.5357021183e+01    0.8926688    0.3062083  57.82  0.003709505    3.604    0.723
        57 -10.3800     30.8944    140.6949   1.2403051777e+02   4.2507004753e+01    0.3426932    0.2374083  25.93  0.002223501    1.944    0.486
        58 -10.7860     26.0897    137.1179   1.2478547677e+02   4.3726216207e+01    0.6502622    0.3877715   9.70   0.00351651    3.218    0.689
        59  -9.7887    115.1853    135.5582   1.0357062451e+02   3.2073434713e+01    0.3694486    0.3002515  47.71  0.001298236    1.219    0.180
        60  -8.6189    112.7077    194.5436   1.1302499681e+02   2.1257729942e+01    0.3422819    0.2046244  88.65  0.001810781    2.355    0.575
        61  -9.9131    106.7042    134.0373   1.0526292933e+02   3.3861505177e+01    0.3769245    0.3155496 -27.88  0.001328647    1.560    0.359
        62  -8.6405    103.0295    130.0433   1.0539108848e+02   3.5328511611e+01    0.2216175    0.1546154  78.19 0.0005737785    1.706    0.414
        63  -7.5115      2.6807    130.7060   1.2960493173e+02   4.6997521040e+01    0.1022288   0.07008691 -58.53 0.0003578725    1.608    0.378
        64  -9.6762    134.4368    239.4602   1.1414119617e+02   1.1219171873e+01     0.300389    0.1796769 -58.81  0.001412211    2.194    0.544
        65  -8.5994    120.6285    127.2650   1.0066232101e+02   3.2807636587e+01     0.241402    0.1794364 -43.40  0.001044778    1.438    0.305
        66 -10.3547    183.4705    208.9792   1.0216890076e+02   7.5488160294e+00     0.556083    0.2042089 -48.69  0.002440728    3.992    0.750
        67  -9.4716    177.8118    224.5302   1.0526745946e+02   6.5107760713e+00    0.3102434    0.1702399 -42.89 0.0009330016    2.340    0.573
        68  -7.9439    109.3144    122.9630   1.0248428827e+02   3.5757539867e+01    0.1946772    0.1680417 -61.12 0.0004591238    1.128    0.113
        69  -8.0698    184.0123    118.0518   8.4729936989e+01   2.1456813111e+01    0.2161818     0.207361  21.79 0.0003134386    1.014    0.014
        70 -10.3748     32.0978    115.3456   1.2094018302e+02   4.7941381501e+01    0.4107715    0.1655095 -52.66  0.001942543    2.536    0.606
        71  -7.9179    245.3145    116.9968   7.3809999141e+01   8.5009893685e+00     0.191621    0.1593131 -13.79 0.0003521313    1.079    0.073
        72  -8.9146    166.8243    221.5319   1.0672066771e+02   8.6251829152e+00     0.174837    0.1624384 -79.58 0.0006438104    1.382    0.277
        73  -8.0280    169.0192    114.0557   8.6796151703e+01   2.5479278230e+01    0.2321012    0.1843092 -79.70  0.001123442    1.658    0.397
        74 -10.8001     62.5580    108.7070   1.1179532980e+02   4.6078022197e+01    0.4088074    0.3373814  32.79  0.001754778    1.459    0.315
        75 -10.3826     67.6990    104.4544   1.0958892776e+02   4.6368172608e+01    0.3749431    0.3194038   5.27  0.001904491    1.610    0.379
        76 -10.0068    158.0051    219.0000   1.0789941928e+02   1.0358786958e+01    0.6241884    0.2076642  37.50  0.002687852    2.953    0.661
        77 -10.0317    152.2334    217.2972   1.0867889234e+02   1.1507219195e+01    0.6038253    0.2291266  38.71  0.002882904    2.359    0.576
        78  -8.5899    170.0414     95.2350   8.1690325945e+01   2.8666929572e+01    0.2360952    0.2072696 -32.94 0.0003068534    1.126    0.112
        79  -8.2574     92.9429     95.2418   1.0055019587e+02   4.4622624671e+01    0.2095645    0.1781565  89.46 0.0004738671    1.254    0.203
        80  -8.9041     66.3968     94.4231   1.0791343091e+02   4.8817085207e+01    0.3673306    0.2044877  36.59  0.001261786    2.040    0.510
        81  -7.6755    132.5787     94.4883   8.9979455702e+01   3.7212732432e+01    0.1474109    0.1421468 -37.89 0.0001167144    1.042    0.040
        82  -8.4970     14.8010     90.6978   1.2251430083e+02   5.4913088090e+01    0.2357436    0.1618997   5.74  0.001495593    2.164    0.538
        83  -9.4107    226.1096     87.8429   6.9536735366e+01   1.6710075997e+01    0.2500167    0.2194701  25.41 0.0003191699    1.159    0.137
        84  -8.7949     29.0055     86.8146   1.1765997730e+02   5.4671037711e+01    0.2233475    0.1976637 -17.88  0.001109649    1.478    0.324
        85  -8.9111    231.2525     83.7983   6.7697551255e+01   1.6119182171e+01    0.3231772    0.2137804  33.89  0.001076207    1.681    0.405
        86  -8.1735    104.8020     80.2192   9.3252500790e+01   4.5750393806e+01    0.2118797    0.1937557 -80.49 0.0005852915    1.158    0.136
        87  -7.6580    235.5740     78.2231   6.5608289352e+01   1.5918052928e+01    0.1979636    0.1314986 -14.88 0.0004159308    1.544    0.352
        88  -7.8150     12.9171    219.8021   1.3240944267e+02   2.9256359083e+01    0.1324268    0.1063022  84.07  0.001194294    1.354    0.262
        89  -7.5097    228.3420     77.2656   6.6399225997e+01   1.7712367751e+01    0.1479608    0.1066461  23.30 0.0002747119    1.600    0.375
        90  -8.7096    112.9879     76.7354   8.9971172884e+01   4.4878038167e+01    0.2512061    0.1990019 -52.90  0.000253382    1.237    0.192
        91  -7.8696    169.9796     68.9925   7.4068841356e+01   3.3266386744e+01    0.2305493    0.1804026  12.66 0.0003502368    1.519    0.342
        92 -10.6069    154.1024     62.0282   7.5179586812e+01   3.8371935881e+01    0.4973507    0.3777796 -24.10  0.001289425    1.345    0.257
        93  -9.6614    144.4436     59.2772   7.6427091520e+01   4.1193771580e+01    0.4696616    0.2838802 -17.97   0.00188147    2.066    0.516
        94  -8.3761    166.0077    248.6884   1.1006212690e+02   5.4664821498e+00    0.1482931     0.131644  43.52 0.0006065962    1.221    0.181
        95 -10.0143    126.2105     54.6275   7.9239412093e+01   4.6279540566e+01    0.2668817    0.2440435 -23.12 0.0002180367    1.054    0.052
        96  -9.9053    170.6576     39.8218   6.4488382226e+01   3.7589069312e+01     0.469679    0.3633628 -17.62 0.0007755506    1.327    0.246
        97  -9.1103    221.7959     39.3596   5.6748402229e+01   2.4393793855e+01    0.4298025     0.241739 -19.80  0.001742285    1.822    0.451
        98  -7.4005    195.1758     32.1353   5.8085861541e+01   3.2139905475e+01    0.2032202    0.1652308 -57.43 0.0002777409    1.283    0.221
        99  -7.6620    127.5582    248.4946   1.1610501056e+02   1.1034073994e+01    0.1040281   0.07722085  48.06 6.312389e-05    1.070    0.065
       100  -8.1811    167.8949     22.6780   5.9047005089e+01   4.0525289405e+01    0.2460551    0.1995428   2.96  0.000707333    1.334    0.250
       101  -9.5841    117.3507    244.8045   1.1739165369e+02   1.2945340708e+01    0.2635573    0.2134502  11.01 0.0007308701    2.024    0.506
       102  -8.2344    250.6551    238.0309   9.5713717732e+01  -5.7685156058e+00    0.1257426   0.08683407 -12.05  0.000960285    1.529    0.346
