#   1 NUMBER                 Running object number                                     
#   2 MAG_AUTO               Kron-like elliptical aperture magnitude                    [mag]
#   3 X_IMAGE                Object position along x                                    [pixel]
#   4 Y_IMAGE                Object position along y                                    [pixel]
#   5 X_WORLD                Barycenter position along world x axis                     [deg]
#   6 Y_WORLD                Barycenter position along world y axis                     [deg]
#   7 A_WORLD                Profile RMS along major axis (world units)                 [deg]
#   8 B_WORLD                Profile RMS along minor axis (world units)                 [deg]
#   9 THETA_WORLD            Position angle (CCW/world-x)                               [deg]
#  10 FWHM_WORLD             FWHM assuming a gaussian core                              [deg]
#  11 ELONGATION             A_IMAGE/B_IMAGE                                           
#  12 ELLIPTICITY            1 - B_IMAGE/A_IMAGE                                       
         1 -14.5592    201.9941     18.9375   6.6912770989e+01   3.2185368791e+01     1.880842     1.011359  -3.55  0.007289909    3.152    0.683
         2 -14.9284    217.2939     36.2592   6.9824880643e+01   2.6159521333e+01      1.18899    0.8011317 -64.44  0.003882973    1.547    0.354
         3 -17.3811    188.0835     75.6345   8.5320004115e+01   2.7782983514e+01     4.769244     2.995846 -21.84   0.01996461    1.885    0.470
         4 -16.7820    243.5733     68.1486   7.4737509833e+01   1.5372189003e+01     5.535659    0.9949565 -38.59   0.01615605    4.106    0.756
         5 -16.8229    241.8782    108.8045   8.4871221443e+01   9.5409506919e+00     9.143523     4.857038  10.08   0.02178868    8.214    0.878
         6 -17.0726    214.9001     55.1155   7.5216317116e+01   2.4171595091e+01     4.208591     2.321558 -55.35   0.01758174    2.030    0.507
         7 -18.9601    219.7581     89.6218   8.3614562339e+01   1.7614938630e+01     9.646692      7.69807  37.20   0.04934531    1.374    0.272
         8 -10.4744    165.9278     16.7426   7.1063795082e+01   4.1908694830e+01    0.4238918    0.1659215 -32.98  0.001644458    2.522    0.603
         9 -11.9309    247.6623     15.1420   6.1492259792e+01   2.1357206954e+01     0.323934    0.2128294 -44.41  0.001809431    1.346    0.257
        10 -10.3445    121.9186     14.3923   7.8310439218e+01   5.3346950290e+01    0.3191556    0.2190323 -66.73  0.001119876    2.068    0.516
        11 -12.2249    238.0555     10.2477   6.1118830542e+01   2.4153185887e+01    0.3919241    0.2649408  64.65  0.001765709    1.510    0.338
        12 -10.4361    160.4208     11.0126   7.0022640219e+01   4.3943941088e+01    0.2479884    0.1873775  77.24 0.0003805713    1.270    0.212
        13 -11.5858    142.7074      8.0294   7.1852826962e+01   4.8813600259e+01    0.2532578    0.2405079 -24.28 0.0002030911    1.152    0.132
        14 -10.0830    140.9401      3.8178   7.0638026473e+01   4.9643282802e+01    0.4116481    0.1071903  55.46  0.001432746    2.889    0.654
        15  -9.9465    223.0319      8.2601   6.1915538744e+01   2.8011208325e+01    0.1854618    0.1474279 -81.30  0.001075876    1.129    0.114
        16  -9.2168    196.3765      8.2335   6.4541361160e+01   3.4787258705e+01    0.1419061    0.0922298  50.01 0.0005938089    1.615    0.381
        17  -9.7013    117.3433      7.7363   7.6663084121e+01   5.5102594349e+01    0.1722427    0.1241753  -2.78 0.0003777043    1.502    0.334
        18 -11.8687    210.3601      6.1423   6.2538823796e+01   3.1406590492e+01    0.2817565    0.2091361  58.03 0.0004096099    1.380    0.276
        19  -9.6419     14.7296      7.5654   1.1463467635e+02   7.2543214911e+01    0.1282855   0.09938317  22.24 0.0006955599    1.535    0.349
        20 -11.1313    151.0690      3.2437   6.8819624856e+01   4.7098473725e+01    0.3508498    0.2470423 -56.85 0.0008854155    1.617    0.382
        21 -11.3428    180.3232      1.8757   6.4498370303e+01   3.9584876931e+01    0.2506677    0.2220481  47.77  0.001132272    1.197    0.164
        22 -11.1653    166.2240      2.1726   6.6326806959e+01   4.3249459761e+01    0.2656329    0.2210302  50.74  0.001521424    1.177    0.150
        23 -10.9939     55.5431    164.3532   1.3699963891e+02   3.5176410021e+01    0.3474374    0.2010408  87.50  0.001821692    1.763    0.433
        24 -11.0502    228.9845    250.4852   1.1468466364e+02  -7.5679748069e+00    0.2714331     0.130094  37.80  0.001005298    1.611    0.379
        25 -11.1065    232.5047    248.9613   1.1388188161e+02  -7.9278044411e+00    0.2051481    0.1431634  30.49 0.0004136595    1.108    0.097
        26 -10.0846    222.2889    250.4387   1.1578713089e+02  -6.5696957600e+00    0.1488849   0.08730865  43.09 0.0009282511    1.519    0.342
        27 -10.2355    205.0083    249.7129   1.1859347275e+02  -3.8553835746e+00    0.1679971    0.1162303  34.20 0.0004842142    1.091    0.084
        28 -10.5765    192.0396    250.6178   1.2093485086e+02  -1.9334821319e+00    0.1713658   0.08622546  40.49            0    1.511    0.338
        29  -9.9974    182.6545    250.2999   1.2251238878e+02  -4.0955847194e-01    0.1130042   0.07855684  58.46 0.0007037142    1.680    0.405
        30 -10.6975    165.4281    249.7598   1.2544368641e+02   2.4111241906e+00    0.2333554    0.1693567  55.70 0.0007375455    1.351    0.260
        31 -10.1641    161.8559    246.1093   1.2562241926e+02   3.4765858646e+00    0.1751503    0.1321876  52.62 0.0004167863    1.204    0.170
        32  -9.9120    124.8661    250.1081   1.3258739975e+02   8.7744322076e+00    0.1759885    0.1227548  58.99   0.00064818    1.219    0.180
        33 -10.9950    127.7950    226.5318   1.2945193102e+02   1.2010269823e+01    0.2687559    0.1733365  57.59  0.001042553    1.379    0.275
        34 -10.8922    203.7131    225.9946   1.1533578087e+02  -7.5469940761e-01    0.3426856    0.1446999  45.53  0.001637812    2.093    0.522
        35 -12.4876    238.1389    224.0456   1.0904993972e+02  -6.0738763668e+00    0.2626055    0.1878998  26.54 0.0004152454    1.117    0.104
        36  -9.0918     40.3016    225.2819   1.4533018997e+02   2.4686173608e+01   0.08801346   0.08165381 -85.07 0.0002568067    1.550    0.355
        37 -10.3346    165.5374    223.9748   1.2202112284e+02   6.0390137602e+00    0.2517081    0.1481311  51.71  0.001368916    1.568    0.362
        38 -10.7136    179.0228    223.1660   1.1939441204e+02   3.8316340194e+00    0.3271665    0.1425832  51.00  0.001471702    2.334    0.572
        39 -10.4632     93.6730    222.1354   1.3539181892e+02   1.8138882344e+01    0.2020575    0.1281293  55.31 0.0003384652    1.266    0.210
        40 -11.4902     62.9224    219.7038   1.4088879183e+02   2.2908939653e+01     0.284879    0.1703599  60.43 0.0003796271    1.332    0.249
        41 -11.1995     59.3957    214.8389   1.4114178082e+02   2.4279119556e+01    0.3715198    0.1803904  51.50  0.001296869    1.659    0.397
        42 -10.4705    179.1230    216.7312   1.1840394669e+02   4.7578397023e+00    0.2257022    0.1587636  -0.89  0.001223581    2.043    0.511
        43 -11.3601    124.6232    215.6998   1.2872911783e+02   1.4378961549e+01    0.2598817    0.2385387 -57.92   0.00106773    1.347    0.258
        44 -10.9850    202.9492    211.7917   1.1319125527e+02   1.2878615839e+00    0.4205373    0.2595057 -34.65  0.001745043    1.860    0.462
        45 -10.0341    187.6501    215.0784   1.1655108039e+02   3.5012849640e+00    0.2703299     0.138725  31.34  0.001296039    1.974    0.494
        46 -10.2572      2.8836    214.1257   1.5110663805e+02   3.0641513466e+01    0.1976721     0.129189  41.42  0.001080703    1.669    0.401
        47 -10.8713     90.0044    211.3030   1.3497105578e+02   2.0679347558e+01    0.1880727    0.1622873 -67.46 0.0003402523    1.390    0.280
        48 -11.5302     88.9791    206.9480   1.3470433962e+02   2.1660798083e+01    0.3448689    0.2697974  20.90  0.002085135    1.910    0.476
        49 -11.0750    183.0037    210.1881   1.1664361544e+02   5.0516063022e+00     0.333825    0.2564974 -78.41   0.00187687    2.048    0.512
        50  -9.8032    143.3159    211.3112   1.2448836118e+02   1.1942725346e+01    0.1223659   0.09759614  15.41 0.0005637038    1.637    0.389
        51 -11.2288    156.7997    209.3273   1.2155806420e+02   9.8905341724e+00    0.5064811    0.2386449  59.03  0.002030843    2.983    0.665
        52 -11.6161     96.9315    208.8755   1.3334576673e+02   2.0083895693e+01    0.2031116    0.1724891 -88.32 0.0002908111    1.197    0.165
        53  -9.8654    237.3895    208.3279   1.0649443107e+02  -4.0844088704e+00    0.2029041    0.1776494  -9.40 0.0008287703    1.234    0.190
        54  -9.4923    122.6762    209.3143   1.2829446734e+02   1.5841030116e+01    0.1332203   0.08645969  68.03 0.0002901463    1.662    0.398
        55  -9.6102     34.1285    209.1474   1.4537330592e+02   2.8408995153e+01    0.1548152   0.09509829  69.11 0.0002700623    1.266    0.210
        56  -9.7432    127.4869    206.9889   1.2702784370e+02   1.5445073563e+01    0.1683838    0.1272426 -62.38 0.0004352434    1.505    0.336
        57  -9.9788    210.2859    204.6574   1.1063755184e+02   9.9898891013e-01    0.1693314     0.117415 -20.89 0.0004598294    1.618    0.382
        58 -10.1785    210.0477    201.2595   1.1008552238e+02   1.5207982797e+00    0.1994925    0.1810498 -25.04            0    1.265    0.210
        59 -10.1046     13.8047    205.4082   1.4880252967e+02   3.1248492077e+01    0.1206425   0.09643107  41.54 0.0003466464    1.575    0.365
        60  -9.4106    251.0000    202.8529   1.0322699239e+02  -5.6003399687e+00     0.179306   0.06397972 -31.83 0.0007907536    2.862    0.651
        61 -11.1418    191.6445    202.0379   1.1365372112e+02   4.7268385699e+00    0.3319186    0.2578429  77.44  0.001407487    1.944    0.486
        62 -10.8993    244.8948    201.8430   1.0406224318e+02  -4.5004633575e+00    0.2479852    0.1599509  27.25  0.000851065    1.358    0.264
        63  -9.2241    206.6713    202.2634   1.1088231139e+02   1.9793328792e+00    0.1194833   0.09761828  61.75 0.0002972826    1.569    0.363
        64 -10.9944    156.9404    201.7097   1.2036381801e+02   1.1148786906e+01    0.2453112    0.1782291 -78.20  0.001311662    1.926    0.481
        65  -9.9119    111.4228    202.2653   1.2964309100e+02   1.9022940640e+01    0.1657877    0.1158938 -83.41 0.0005619679    1.602    0.376
        66  -9.8403     85.7695    202.3677   1.3484343510e+02   2.3027294368e+01    0.1604138    0.1081605  37.80 0.0003340264    1.579    0.367
        67 -10.0350     46.9838    201.5355   1.4240589239e+02   2.8406675845e+01    0.1684651   0.09913294  44.02  0.000768795    1.595    0.373
        68  -9.8649     36.9793    199.6834   1.4417658040e+02   2.9938785196e+01    0.1562713    0.1127923  65.88 0.0003130885    1.104    0.094
        69 -10.0335    103.6776    199.0905   1.3082027220e+02   2.0895476333e+01    0.1697138    0.1466978  81.97 0.0003069136    1.111    0.100
        70  -9.5279     59.8695    199.1243   1.3968382324e+02   2.7277453658e+01    0.1419052    0.1260754  83.33            0    1.246    0.197
        71 -11.4749    149.1364    196.3203   1.2108967487e+02   1.3522394308e+01    0.2846563    0.2524961 -49.23 0.0004984636    1.303    0.233
        72 -12.3784    201.3362    193.7253   1.1035791405e+02   4.2101724368e+00     0.722986    0.4541205 -24.15  0.003723504    1.900    0.474
        73 -11.7200    207.8037    191.7059   1.0877757881e+02   3.3206152114e+00    0.4486784     0.286552 -17.13 0.0003845394    1.933    0.483
        74 -12.1724    213.8572    186.8799   1.0675510541e+02   2.9232981704e+00    0.4757471    0.3348382  17.49 0.0007270972    1.490    0.329
        75 -10.7817     48.8310    193.4737   1.4136876027e+02   2.9803983480e+01    0.4744646    0.2214853  81.20  0.002316988    2.413    0.586
        76 -10.9016    166.2205    195.5317   1.1751049892e+02   1.0489127328e+01     0.223136    0.1963032 -47.63 0.0008725332    1.308    0.235
        77 -12.2981    155.8424    194.4432   1.1942417886e+02   1.2616613913e+01    0.4984942    0.3130634  51.12  0.002439471    1.460    0.315
        78 -11.8830    143.2950    188.3833   1.2102720665e+02   1.6055670634e+01    0.3816615    0.2477542 -70.27  0.001874375    2.025    0.506
        79 -11.0915    143.6460    195.2346   1.2204250173e+02   1.4723647643e+01     0.256276    0.2036037 -76.08 0.0007362126    1.479    0.324
        80 -11.0733    140.9934    192.6946   1.2219329706e+02   1.5675318917e+01    0.2521026    0.2104366  74.86 0.0009365525    1.252    0.201
        81 -11.6459    117.6170    190.7136   1.2679013864e+02   2.0211841762e+01    0.6171697    0.2514389 -57.78  0.002337087    2.708    0.631
        82  -9.8274    249.5745    194.7583   1.0197617191e+02  -4.3780336439e+00    0.2337895    0.1414793  37.06   0.00133117    1.516    0.341
        83 -10.0130    106.6521    195.1720   1.2970182463e+02   2.1178386770e+01    0.1745342    0.1152947 -52.70  0.000951198    1.760    0.432
        84 -10.7384     75.9931    195.0527   1.3602872089e+02   2.5905561308e+01    0.1824837    0.1493706  73.22            0    1.026    0.026
        85 -11.6049    215.0962    197.9403   1.0857154152e+02   1.0929406000e+00    0.3031549    0.2994909   6.08  0.001387713    1.291    0.225
        86 -10.9249    129.9950    192.4165   1.2443979979e+02   1.7712932645e+01    0.2176818    0.1872791 -80.67 0.0003052887    1.242    0.195
        87 -10.9763    128.5538    187.6245   1.2401513452e+02   1.8893193233e+01    0.3297881    0.2271402 -48.29  0.001341644    1.675    0.403
        88 -12.3820    129.0872    180.1420   1.2271924640e+02   2.0270451589e+01    0.4397876    0.2634852 -48.71  0.002109888    1.872    0.466
        89 -10.4433    231.7529    192.5488   1.0460597348e+02  -1.0915363688e+00     0.198928    0.1804785 -10.03  0.001315415    1.201    0.168
        90  -9.9877    236.4910    187.1176   1.0275387463e+02  -1.1773431958e+00    0.1727545    0.1470544  -6.57 0.0004456983    1.117    0.104
        91 -10.5907    226.1616    189.0786   1.0494107223e+02   3.7107396245e-01    0.2936196    0.2111454 -41.91 0.0008234698    1.652    0.395
        92 -11.5532    231.0106    187.2408   1.0373373132e+02  -2.3292059859e-01    0.3748115    0.2533688  56.60  0.001729293    1.964    0.491
        93 -10.8264    107.1732    190.4526   1.2896100901e+02   2.2028051915e+01    0.2205193    0.1769918  46.71  0.001086988    1.199    0.166
        94 -10.6450     89.1924    191.3221   1.3286341062e+02   2.4716454241e+01    0.2601839     0.115485  33.17  0.001102799    2.792    0.642
        95 -11.4601     74.9545    188.1965   1.3548743749e+02   2.7456868534e+01    0.3347685    0.2164717 -64.90 0.0009461343    1.571    0.364
        96  -9.6036    103.4575    248.9708   1.3619815108e+02   1.2181619090e+01    0.1436277   0.08013608  76.11 0.0003606207    2.211    0.548
        97 -10.8970    132.2783    246.9053   1.3094973272e+02   8.0953332164e+00    0.2283668    0.1404522  50.33 0.0002372395    1.258    0.205
        98 -11.6405    215.2758    244.3311   1.1608229845e+02  -4.8346797247e+00    0.3150677    0.2060619  48.65 0.0007224431    1.626    0.385
        99 -12.2761    225.7403    241.9064   1.1395584249e+02  -6.1699866573e+00     0.331809    0.2323792   9.20  0.000441115    1.386    0.279
       100 -10.3176     65.8526    242.4707   1.4211777102e+02   1.8496283296e+01    0.1795462    0.1312822  86.53 0.0004116481    1.283    0.221
       101  -9.2846      2.3109    243.7030   1.5236150969e+02   2.5498601899e+01    0.1046414    0.0453478  64.24 0.0002717106    1.597    0.374
       102  -9.6816     56.5856    241.9255   1.4364195150e+02   1.9779298569e+01    0.1427254   0.09073555 -82.68  0.001001616    1.546    0.353
       103 -10.6878    230.1295    164.8494   9.9430105883e+01   3.1754210100e+00    0.2846161    0.1865619  30.35 0.0005710347    1.510    0.338
       104 -11.3032    234.9908    164.1128   9.8425419566e+01   2.3681461520e+00    0.4398776    0.2178687  42.23  0.001543676    1.955    0.488
       105 -10.6941    139.8876    165.2080   1.1774476012e+02   2.1241488904e+01    0.2218245    0.1882386  72.28 0.0006550732    1.204    0.169
       106 -10.9572    128.2706    163.7246   1.2009593229e+02   2.3780551266e+01     0.348445    0.2144228  68.82  0.001171963    2.124    0.529
       107 -11.8141    120.5359    162.8256   1.2170880214e+02   2.5412890181e+01    0.3276596     0.244853 -32.63  0.001653023    1.790    0.441
       108 -10.9058    148.1629    184.9606   1.1944092945e+02   1.5785741293e+01    0.2994073    0.1774619 -26.26  0.001227451    3.039    0.671
       109 -10.2515     72.4862    163.4917   1.3299493157e+02   3.3116798850e+01    0.1308545    0.1125522  83.87 5.892539e-05    1.030    0.029
       110 -10.9113    110.6699    184.4576   1.2737206700e+02   2.2649560853e+01    0.2882617    0.2384369  88.63   0.00120504    1.191    0.160
       111 -10.2098    242.9910    160.3127   9.6264131308e+01   1.4369900047e+00    0.2095666    0.1807574 -53.85 0.0008184719    1.518    0.341
       112 -11.1894    138.9158    159.8803   1.1696025365e+02   2.2524367226e+01    0.2737384    0.1900852  54.03  0.001340618    1.392    0.281
       113 -11.2699    112.7710    157.4077   1.2256451305e+02   2.7992706244e+01    0.2718936    0.1250156  46.56  0.000768746    2.068    0.517
       114  -9.2679     56.2723    157.6982   1.3603216149e+02   3.6568582136e+01    0.1291715   0.08313534  74.87 0.0002190974    1.533    0.348
       115 -10.4760     16.5080    155.8159   1.4493983275e+02   4.1187429541e+01    0.2560378    0.1622205 -65.61    0.0016442    1.479    0.324
       116 -11.0706     77.0251    154.3535   1.3062883001e+02   3.4514416371e+01    0.2417294    0.1782322 -73.68 0.0001505865    1.258    0.205
       117 -11.7436    129.0052    149.9085   1.1731522535e+02   2.6574704873e+01     0.410995    0.2356044  56.49  0.001239602    1.874    0.466
       118 -11.4646    108.3672    149.7379   1.2223813534e+02   3.0470809087e+01    0.3616656    0.2031609 -56.00  0.001302535    1.781    0.439
       119 -11.3745     42.2303    149.9948   1.3843196905e+02   3.9953363320e+01    0.3115589    0.1415546 -67.79 0.0008033336    1.878    0.468
       120  -9.5468     34.2391    150.9702   1.4043389964e+02   4.0581161103e+01    0.1607502   0.08608706 -75.20 0.0005302816    1.575    0.365
       121 -12.4112    121.4848    150.6754   1.1925230396e+02   2.7854405535e+01      0.43751    0.3495881 -62.53  0.001001225    1.271    0.213
       122 -12.7659     11.2896    146.6350   1.4534721686e+02   4.3631069873e+01    0.3556353    0.2045489  68.25 0.0007141281    1.608    0.378
       123  -9.8186     92.4959    185.0589   1.3137396589e+02   2.5491094880e+01    0.1905428    0.1217931 -66.41  0.001033174    1.592    0.372
       124 -10.2454     36.5188    147.0103   1.3945819070e+02   4.1237208840e+01    0.1901689    0.1028964 -77.06  0.001020728    1.588    0.370
       125 -10.1435    248.9917    152.9912   9.3721701453e+01   1.3921083590e+00    0.1968787    0.1644561 -65.41  0.001118241    1.741    0.426
       126 -10.0895     55.2324    188.6029   1.3962905886e+02   3.0014222090e+01    0.2232228     0.126538 -89.91  0.001110579    1.702    0.412
       127  -9.9248     31.1778    187.8201   1.4441291401e+02   3.2971056208e+01    0.1411233    0.1163062 -81.53 0.0002915038    1.276    0.216
       128  -9.1906     58.6368    138.6863   1.3287136124e+02   4.0610735673e+01    0.1283975   0.09677918 -36.45 0.0007040768    1.759    0.432
       129 -10.9208     32.5490    135.5548   1.3910149156e+02   4.4238385723e+01    0.2655492    0.1803693 -67.66 0.0008340486    1.267    0.211
       130  -9.7402     86.8788    135.1440   1.2495756549e+02   3.7416426760e+01    0.1758614    0.1646674 -34.84 0.0002973231    1.278    0.218
       131  -9.9367      1.4980    133.5010   1.4653958425e+02   4.7237043298e+01    0.1815814   0.07696531 -67.62 0.0005319256    1.834    0.455
       132 -10.8772    172.6970    182.9598   1.1401284684e+02   1.1429366083e+01    0.1819087    0.1799293 -42.35 0.0006493405    1.134    0.118
       133 -11.6759    105.6152    132.6299   1.1960145944e+02   3.4818936838e+01    0.4084999    0.2212885  35.42  0.001729266    2.084    0.520
       134 -10.0908     41.6713    130.9926   1.3616684183e+02   4.4359984176e+01    0.1773164    0.1355318 -79.26 0.0006255411    1.096    0.087
       135  -9.6544      6.6322    131.1754   1.4509626703e+02   4.7395973195e+01     0.160425   0.08043012 -68.27 0.0002371317    1.577    0.366
       136 -11.1148     89.8686    116.8255   1.2046937752e+02   4.1172215314e+01    0.3046088    0.1927371  34.67   0.00135429    1.772    0.436
       137 -12.0849    101.4210    125.1320   1.1912426318e+02   3.7280100752e+01    0.5632075    0.3112507 -47.98 0.0003929592    1.816    0.449
       138 -12.7765     99.7240    117.6666   1.1793938207e+02   3.9289830877e+01    0.5713139    0.4391218  34.84            0    1.436    0.304
       139 -11.3813     94.5135    115.4971   1.1888469129e+02   4.0696008770e+01    0.2706255    0.2522616  38.33 0.0009987827    1.174    0.148
       140 -11.2109     73.8499    128.4562   1.2718387209e+02   4.0940975469e+01    0.2959264    0.2140361  64.18  0.001198011    1.468    0.319
       141 -10.7366     41.7417    126.5144   1.3551892180e+02   4.5388580395e+01    0.2532941    0.1749967  54.82   0.00104246    1.515    0.340
       142  -9.7137     57.4913    124.5652   1.3094784968e+02   4.4038898689e+01    0.1325986     0.113708 -84.28 0.0001026905    1.039    0.038
       143  -9.1430     45.2446    182.3436   1.4110321817e+02   3.2535907446e+01    0.1083311   0.08262979 -58.91 0.0003093563    1.568    0.362
       144  -9.9733     12.1532    124.1750   1.4302275049e+02   4.8561252088e+01    0.1649898    0.1140653  79.09 0.0008429732    1.320    0.242
       145 -10.3052     96.2414    128.0760   1.2111710477e+02   3.7505991995e+01    0.2427631    0.1610537 -88.15  0.001082732    1.984    0.496
       146 -11.5166     56.1266    115.4442   1.2974538423e+02   4.6336960092e+01    0.5508832    0.3285737  87.50  0.002580572    2.174    0.540
       147 -10.2284     33.4456    179.0863   1.4325946651e+02   3.4544173120e+01    0.3133574   0.09913072 -75.53  0.001375253    2.867    0.651
       148 -10.6012    121.2317    181.9916   1.2471666824e+02   2.1314546963e+01    0.1830288     0.164837  80.43 0.0003092186    1.078    0.073
       149  -9.4615     11.3199    114.2995   1.4215602708e+02   5.0845833114e+01    0.1164135   0.07332265 -50.37 0.0004720139    1.621    0.383
       150 -12.5044    112.8527    109.3395   1.1237932092e+02   3.8721989388e+01    0.4312567    0.3140093 -36.16  0.001339293    1.508    0.337
       151 -10.0215     92.8574    110.2002   1.1813622255e+02   4.2193629538e+01    0.1876839    0.1662219 -27.23 0.0002560616    1.291    0.225
       152  -9.3803     37.9514    111.0000   1.3421364324e+02   4.9372164320e+01    0.1757487   0.07316799  28.52 0.0005210137    2.859    0.650
       153 -12.1959    100.0169    106.7410   1.1528389283e+02   4.1722307673e+01    0.4545625    0.3569613  26.64  0.001539474    1.496    0.332
       154 -11.2059     29.5874    107.1966   1.3604558815e+02   5.1030059588e+01    0.2474241    0.1850487 -85.44 0.0003762979    1.222    0.181
       155  -9.6672     75.3359    107.2964   1.2253467681e+02   4.5651724829e+01    0.1375363    0.1055902 -26.09 0.0007030158    1.650    0.394
       156  -9.0397     41.7108    106.2657   1.3231533738e+02   5.0090162353e+01    0.1218453   0.08909626  77.02 0.0001744253    1.500    0.333
       157 -10.7754    236.0393    177.4603   1.0095199274e+02   2.4208740289e-01    0.2079513    0.1963002  -6.35 0.0005450906    1.211    0.174
       158 -10.0088     76.7429     98.9547   1.2020151925e+02   4.7358357260e+01    0.1860677    0.1108432 -54.32 0.0003871745    1.525    0.344
       159 -10.0785     63.9857     97.8389   1.2384950241e+02   4.9422929925e+01    0.2099799    0.1732287 -35.40  0.001215066    1.306    0.234
       160 -11.5103    123.4428    176.5206   1.2336658494e+02   2.2026850956e+01    0.3715389    0.2228422 -82.12  0.001596484    2.516    0.603
       161  -9.4520     94.2985     93.3248   1.1349384755e+02   4.5745188013e+01    0.1455277    0.1125745 -18.48 0.0002589125    1.630    0.386
       162 -11.9272    105.2353     84.1867   1.0769549659e+02   4.5680655385e+01    0.5166454    0.2972305 -37.80  0.002220037    1.794    0.443
       163 -11.7598    107.6410     89.9984   1.0867884842e+02   4.3976794559e+01    0.3953027    0.2894048 -36.08  0.001459095    1.408    0.290
       164 -10.8259     87.0473     88.5751   1.1439922279e+02   4.8043583857e+01    0.3633878    0.2540644  -4.50  0.001628992    2.260    0.558
       165 -12.2861    115.9438     84.4817   1.0472516777e+02   4.3454144377e+01    0.3659216    0.3079685  61.37 0.0003766647    1.289    0.224
       166 -10.3774     58.9122     83.1870   1.2198701701e+02   5.3395710626e+01    0.2322403    0.1716005 -54.15 0.0004850317    1.185    0.156
       167  -9.7632     49.1380     84.6794   1.2560016927e+02   5.4232838510e+01    0.2350857    0.1067258  39.52  0.001074292    2.495    0.599
       168 -11.3733    101.9481     78.7131   1.0702694782e+02   4.7459210640e+01     0.249005    0.2123947  43.98 0.0007688931    1.225    0.184
       169 -11.4030     94.9099     78.8137   1.0918540640e+02   4.8760468827e+01    0.3880838    0.2517097 -32.72  0.001175115    1.667    0.400
       170  -9.5587     86.6400     79.3061   1.1190361286e+02   5.0117340314e+01     0.143031    0.1123649  85.03 0.0007039797    1.731    0.422
       171 -12.3863    135.2601     64.6471   9.3344784577e+01   4.2943821007e+01    0.8100331     0.344249 -25.42  0.002488005    3.589    0.721
       172 -12.3949    126.0433     76.9875   9.9681107004e+01   4.2773091228e+01    0.4942143    0.3997386  -8.52  0.001690841    1.476    0.322
       173 -13.0484    130.1060     71.6824   9.6936738732e+01   4.2866163146e+01    0.9685004    0.6568562  89.41  0.003821063    2.519    0.603
       174 -10.8963     87.5796     74.8235   1.1026397834e+02   5.0898564256e+01    0.2466774    0.1978959  38.72 0.0005448278    1.329    0.248
       175 -11.5933    104.9627     72.8827   1.0431642317e+02   4.8051394085e+01    0.3349844    0.2838766 -56.89 0.0003495944    1.248    0.199
       176 -12.5536    107.7261     66.5793   1.0145508972e+02   4.8721936482e+01    0.4758819     0.426619 -40.03 0.0006216775    1.096    0.087
       177 -11.2960    102.0993     69.1370   1.0396703607e+02   4.9359473071e+01    0.3004059    0.2757183  35.53  0.001048037    1.125    0.111
       178 -10.7326     94.7822     72.8477   1.0739091444e+02   5.0014754098e+01     0.266273    0.1898346  71.40   0.00090203    2.066    0.516
       179  -9.9080     49.0464     73.2923   1.2281684574e+02   5.6760159038e+01    0.1712178    0.1555092 -39.90 0.0003500552    1.080    0.074
       180  -9.6931     20.8099     72.6556   1.3270892334e+02   5.9519713271e+01    0.1404616    0.1083212  38.09 0.0002529015    1.588    0.370
       181 -11.4705    120.1529     69.6343   9.8934603944e+01   4.5493777953e+01    0.3347299    0.2547291 -62.34 0.0008645882    1.570    0.363
       182  -9.6315     57.6880     69.7170   1.1878582133e+02   5.6484701217e+01    0.1319013   0.09385192 -24.99 0.0002191676    1.572    0.364
       183 -10.8958     62.9842     63.8284   1.1514623516e+02   5.7010405822e+01    0.2432655    0.1749782 -47.13 0.0006812245    1.240    0.194
       184 -10.6349     12.7518     64.4375   1.3392870244e+02   6.1841819018e+01    0.1781337    0.1116687  25.48 0.0007534723    1.966    0.491
       185 -11.2205    100.6980     63.2785   1.0244865851e+02   5.0766478927e+01    0.3276468    0.2331674  -5.38  0.001252468    1.890    0.471
       186 -11.2474     98.8947     60.1909   1.0194640615e+02   5.1701965509e+01     0.342901    0.2405859  60.24   0.00120928    1.774    0.436
       187 -11.9813     88.5346     57.0852   1.0414415813e+02   5.4240593751e+01    0.4742016    0.3081675  26.82  0.002277075    1.789    0.441
       188 -10.5047     18.1097     61.6835   1.3130470856e+02   6.2079612397e+01    0.2874129    0.1393514 -65.92 0.0009820253    1.796    0.443
       189  -9.2844     53.6843    178.2950   1.3893232792e+02   3.2376041209e+01    0.1290542   0.07590099  69.10 0.0001995322    1.603    0.376
       190 -11.1053     80.1367     75.6075   1.1289350117e+02   5.1981200792e+01    0.2665153    0.1862706 -42.88 0.0005904628    1.325    0.245
       191 -10.2568     49.2388     57.9957   1.1838019674e+02   5.9963438176e+01     0.179111     0.148119 -42.61  0.000406047    1.039    0.037
       192  -9.7007      1.9800     58.2127   1.3672773146e+02   6.3752916710e+01    0.1238689   0.09196351   8.88 0.0008697151    1.707    0.414
       193  -9.4175     36.5042     55.4693   1.2252842990e+02   6.1852417694e+01    0.1263713    0.1017361 -40.49  0.000809436    1.046    0.044
       194 -10.7982    247.2981    174.0314   9.8350616368e+01  -1.2745147071e+00    0.2209118     0.173656  12.55 0.0002363631    1.153    0.133
       195 -10.6121    106.0880     51.5019   9.6706611108e+01   5.1796428428e+01    0.2545997    0.1773487  38.79 0.0008847968    1.454    0.312
       196 -10.5795     24.3117     51.5740   1.2628523038e+02   6.3731223101e+01    0.1889371    0.1624772 -68.13  0.000552945    1.264    0.209
       197 -10.3485     29.1811     50.7059   1.2405296015e+02   6.3501390369e+01    0.2672364    0.1295293 -46.72  0.001412427    1.647    0.393
       198 -12.5354    124.7784     47.3191   9.0058739812e+01   4.8327068614e+01     0.580475    0.4117922  19.08  0.002698736    1.727    0.421
       199 -11.9657    126.0452     40.5431   8.7287486215e+01   4.9059916516e+01    0.4763629     0.235622  39.90  0.001205736    2.182    0.542
       200 -12.0560    139.8340     45.1767   8.5663161972e+01   4.5020780542e+01    0.4850017    0.3537284 -58.30  0.001613998    1.642    0.391
       201 -11.2211    134.0635    172.4532   1.2033963143e+02   2.0889965215e+01     0.304684    0.2008608 -38.43  0.001471453    1.898    0.473
       202  -9.5244     62.4877     47.4858   1.0982096356e+02   6.0283112985e+01    0.1332899    0.1135598 -22.73 0.0001188841    1.048    0.046
       203 -10.6089    116.5658     45.7270   9.1642918101e+01   5.0465219461e+01    0.2014112    0.1344298 -42.91 0.0009446081    1.576    0.365
       204 -10.8896    233.5874    171.8993   1.0026604644e+02   1.4850457737e+00    0.3127736    0.2801668  58.00  0.001330124    1.422    0.297
       205 -11.4059    140.8440    172.2313   1.1880878181e+02   1.9642597099e+01    0.3275022    0.2765588  65.60  0.001384667    1.159    0.137
       206  -9.8281     19.4899     42.9877   1.2581768119e+02   6.5829583357e+01     0.154237    0.0971636 -81.86 0.0008099449    2.492    0.599
       207 -10.3110     54.7923     40.1390   1.1004902123e+02   6.2698050948e+01    0.1835139    0.1611538 -38.82 0.0006342857    1.176    0.149
       208 -10.6393    249.8133     38.3101   6.6771654938e+01   1.8050405267e+01    0.2331596    0.1807362 -30.14 0.0005464394    1.308    0.235
       209 -10.7531    140.8717     41.1044   8.4011998195e+01   4.5359303637e+01     0.288226    0.2462176 -69.76   0.00138988    1.344    0.256
       210 -10.3088    105.7818     37.1895   9.1414803896e+01   5.4154174000e+01    0.1932199    0.1871976 -29.41 0.0003237652    1.133    0.117
       211 -10.0806     49.0315     37.0008   1.1116424554e+02   6.4011604762e+01    0.1803152     0.158535 -86.99  0.001133926    1.730    0.422
       212 -11.1030    123.2963     34.4930   8.5726649384e+01   5.0573442751e+01    0.2852025    0.2290762   3.04 0.0008231958    1.354    0.261
       213 -10.9810    150.1615     31.6757   7.8801715618e+01   4.4278171144e+01    0.4631398    0.2870669 -77.36  0.001166285    2.458    0.593
       214 -10.8230    133.0876     30.7713   8.2046706590e+01   4.8704686189e+01    0.2991265    0.2179009 -28.47 0.0007272085    1.424    0.298
       215 -11.2761     21.5705     30.9257   1.2091425279e+02   6.7977121881e+01    0.2050392    0.1611032 -32.66 0.0002855537    1.033    0.032
       216 -10.8001    127.0469     30.6840   8.3396687682e+01   5.0189295956e+01    0.3024907    0.1938795  28.78   0.00128202    1.786    0.440
       217  -9.4000    154.3060     30.3071   7.7542089944e+01   4.3379725412e+01    0.1522719    0.1068234  31.65 0.0002605378    1.608    0.378
       218  -9.9920     48.3599     29.3459   1.0835559764e+02   6.5418834907e+01    0.2601599    0.1433015  16.62  0.001284658    2.344    0.573
       219  -9.5876     81.0013    188.0000   1.3419019553e+02   2.6624454198e+01    0.2000859   0.06548409  39.25 0.0005372412    2.887    0.654
       220 -10.1585     25.8848    172.2016   1.4426467369e+02   3.6781798463e+01    0.1759502    0.1219507  73.13 0.0004002927    1.178    0.151
       221  -9.4990    106.5933    171.4934   1.2632974709e+02   2.6038074506e+01    0.1364111    0.1203136  75.24 4.662742e-05    1.018    0.018
       222 -10.2309     99.0631     25.9436   8.8829420318e+01   5.7169474312e+01    0.2071904    0.1824378  14.60  0.000339341    1.046    0.044
       223 -10.5023    124.0495     24.1591   8.1622591764e+01   5.1732104176e+01    0.2496612    0.2021865   8.40 0.0005092816    1.311    0.237
       224 -11.0968    127.3039     22.2781   8.0165418904e+01   5.1169268399e+01    0.4709193    0.2727777 -62.47  0.001540542    2.848    0.649
       225 -10.6654     43.2959     23.0944   1.0784273492e+02   6.7087001140e+01    0.2295642    0.2070093 -42.06 0.0009665591    1.381    0.276
       226 -10.2193     40.9952     19.6611   1.0732349209e+02   6.7916016751e+01    0.1971967    0.1328465 -27.48  0.001020733    1.257    0.204
       227  -9.3542    211.2760     23.3035   6.7045631255e+01   2.9292131743e+01     0.133998    0.1057207  35.34  0.000206911    1.543    0.352
       228 -11.6179     70.9651    167.4289   1.3386136262e+02   3.2459677329e+01    0.4478427      0.17014  48.99  0.001909133    2.508    0.601
       229  -9.7455     32.5009    242.4995   1.4762613250e+02   2.2554252644e+01    0.1051319   0.07279889  67.86 0.0008105495    1.027    0.026
       230 -10.3348    112.0922     17.9983   8.2053294076e+01   5.5263974247e+01     0.291254     0.192215 -15.20  0.001115713    1.614    0.380
       231  -9.6752     87.6183     17.7373   8.8735591947e+01   6.0568691505e+01    0.1771768    0.1168244 -33.66 0.0007565981    1.570    0.363
       232 -11.0614     13.3224    241.3124   1.5059240389e+02   2.4811014253e+01    0.3226288    0.1027011  68.61  0.001695199    2.807    0.644
       233 -10.3531     19.0015     17.4863   1.1688525685e+02   7.0565917940e+01    0.1500878    0.1049028  16.18 0.0005221012    1.560    0.359
       234 -11.0512    187.9612    236.5130   1.1970828706e+02   4.8823852256e-01     0.186721    0.1707543 -17.89  0.001366942    1.329    0.247
       235  -9.5480      5.9854     15.2720   1.2273289345e+02   7.1912651864e+01     0.147373    0.1121817 -29.62 0.0003358804    1.069    0.065
       236  -9.9056     99.5277     12.7466   8.3096667145e+01   5.8655175391e+01    0.1796842     0.121407 -33.92  0.000418698    1.590    0.371
       237 -10.2865    126.9727    238.2835   1.3095598928e+02   1.0249634479e+01    0.1749113    0.1242558  47.04 0.0004606882    1.121    0.108
       238 -10.0271    102.2477    166.7750   1.2658370492e+02   2.7785488612e+01    0.1744523    0.1623083 -39.57 0.0007354263    1.344    0.256
       239 -11.1145    236.4751    235.1870   1.1112577122e+02  -7.0620487458e+00    0.2577398    0.1897099 -15.68  0.001123811    1.431    0.301
       240 -15.6930    232.4140     79.1575   7.9001616470e+01   1.6295973276e+01    0.8724869    0.8528659   3.86  0.003475248    1.100    0.091
       241 -10.4333    192.8305    237.1175   1.1893044041e+02  -3.8981609138e-01    0.1802119    0.1426399  49.54  0.001215105    1.305    0.234
       242  -9.8481    167.1412    233.5396   1.2304855805e+02   4.3623191310e+00    0.2639808    0.1392066 -40.64  0.001422912    2.452    0.592
       243 -10.4959    217.9283    233.7806   1.1404853577e+02  -4.0325666594e+00    0.3251701    0.1504323  29.09  0.001634613    2.103    0.524
       244 -10.9787    211.3185    232.5691   1.1500793098e+02  -2.8298404574e+00    0.2564456    0.1452087 -38.90  0.001486237    2.173    0.540
       245  -9.8081     32.0697    233.4590   1.4721011207e+02   2.4165103693e+01     0.152999   0.08332901  45.61  0.001028621    1.589    0.371
       246 -10.7276    176.5113    231.9029   1.2111704776e+02   3.0190208819e+00    0.2764946    0.1434332  44.19 0.0008928732    1.555    0.357
       247 -10.6408    153.9601    231.0577   1.2513815877e+02   6.9408054321e+00    0.1828228    0.1742515 -81.26 0.0003553151    1.281    0.219
       248 -10.0955    145.0543    231.4558   1.2683587785e+02   8.3689871739e+00    0.1884969    0.1434251  63.85 0.0003972335    1.321    0.243
       249 -10.3929     69.1716    230.3817   1.4062373981e+02   2.0143972695e+01    0.1792032    0.1350214  88.38 0.0002235454    1.255    0.203
       250 -10.4954    150.0502    226.7166   1.2529587465e+02   8.2665559360e+00    0.1972387    0.1846867 -13.82 0.0007160287    1.360    0.265
       251  -9.4026     96.1465    166.1757   1.2789730976e+02   2.8925349227e+01    0.1873866    0.1414016  70.93  0.000395474    1.281    0.220
