#   1 NUMBER                 Running object number                                     
#   2 MAG_AUTO               Kron-like elliptical aperture magnitude                    [mag]
#   3 X_IMAGE                Object position along x                                    [pixel]
#   4 Y_IMAGE                Object position along y                                    [pixel]
#   5 X_WORLD                Barycenter position along world x axis                     [deg]
#   6 Y_WORLD                Barycenter position along world y axis                     [deg]
#   7 A_WORLD                Profile RMS along major axis (world units)                 [deg]
#   8 B_WORLD                Profile RMS along minor axis (world units)                 [deg]
#   9 THETA_WORLD            Position angle (CCW/world-x)                               [deg]
#  10 FWHM_WORLD             FWHM assuming a gaussian core                              [deg]
#  11 ELONGATION             A_IMAGE/B_IMAGE                                           
#  12 ELLIPTICITY            1 - B_IMAGE/A_IMAGE                                       
         1 -15.7794     44.3434    165.2607   1.2994076004e+02   3.5715831584e+01     3.732556     1.533901  36.70   0.01875128    2.212    0.548
         2 -15.7335    243.6675    112.5951   7.4756324291e+01   1.0236519102e+01     5.953923     1.558701 -27.23   0.01858971    4.024    0.751
         3 -13.4743    216.8230      8.0535   5.1334590056e+01   2.9198875606e+01     1.037387     0.803335 -75.12  0.005803265    1.285    0.222
         4 -16.1314    241.0088     36.3481   5.6340713118e+01   2.0605466990e+01     4.699322     2.904171 -83.23   0.02316637    2.076    0.518
         5 -14.5174    221.7363     28.6734   5.6374179384e+01   2.5914088770e+01     1.420852     1.022856  16.52  0.005444243    1.738    0.425
         6 -14.3401    246.4063      3.7743   4.7942400163e+01   2.2750494848e+01    0.9534203    0.8172673  86.87  0.004369647    1.178    0.151
         7 -12.6012    236.2825      2.0692   4.8239429045e+01   2.5167581770e+01    0.3638135    0.2586829  85.69 0.0005224516    1.398    0.285
         8 -14.9355    154.1303     47.5176   7.2683539810e+01   4.0734230696e+01      2.19738     1.409217 -83.15  0.008275212    2.765    0.638
         9 -14.7585    147.4558     33.5478   6.9201292841e+01   4.4368020483e+01      3.71097     1.898273  84.98   0.01074682    4.649    0.785
        10 -14.5325    136.4423     26.9479   6.9119628979e+01   4.8033693693e+01      1.49026    0.8941087 -46.37  0.006447774    1.985    0.496
        11 -13.6213    110.3251     20.6656   7.2979203820e+01   5.5270125294e+01     1.591391    0.8141407 -20.72  0.006721513    2.071    0.517
        12 -14.9110     64.5472     17.9691   8.7488270750e+01   6.5155760113e+01     1.423701     1.157839  14.52  0.008507577    1.123    0.109
        13 -13.3043     31.5691     18.2373   1.0381381990e+02   6.9720917562e+01    0.5359133    0.3378183 -39.98  0.002348546    1.335    0.251
        14 -13.1555    176.7040     16.4014   5.8292494713e+01   3.8618967840e+01     1.209722    0.7052197 -52.78  0.005354911    1.976    0.494
        15 -13.3364    156.0741      8.8613   5.8771571040e+01   4.4810463300e+01     1.256639    0.4706427  55.82   0.00480288    2.247    0.555
        16 -13.1326     45.0068      5.1422   8.9778276710e+01   7.0180112610e+01    0.4941002    0.3656023  -4.79  0.002880955    1.165    0.142
        17 -11.9790    139.8893      2.4422   5.9026301770e+01   4.9647632270e+01    0.3825023    0.2055369  72.37  0.001664774    1.871    0.465
        18 -11.6216    155.1123     75.9001   8.1692888612e+01   3.5927684615e+01    0.3599593    0.2529513 -26.89 0.0006971451    1.459    0.315
        19 -13.0359     21.5277     68.5583   1.2406352771e+02   5.9799082258e+01    0.5415801    0.4151718 -74.90  0.003415948    1.228    0.185
        20 -11.3725    179.6148     68.0838   7.4054724313e+01   3.1185995327e+01    0.2548063    0.2183544  70.10 0.0005573164    1.300    0.230
        21 -12.1861    221.1682     60.4965   6.5004113133e+01   2.2184093404e+01    0.5324621    0.3105561  29.35  0.002283681    2.247    0.555
        22 -13.0509    158.4708    200.2576   1.0890806313e+02   1.2746532927e+01    0.8151476    0.5884875  37.62  0.004903011    1.159    0.137
        23 -14.6287     45.1696    187.9954   1.3166424401e+02   3.0997050671e+01    0.9272047    0.6841228  40.52  0.004617535    1.304    0.233
        24 -12.4676     14.2404    217.8872   1.3935751859e+02   2.8459506612e+01    0.2610068    0.1895668  80.62  0.002132691    1.194    0.162
        25 -14.0292    185.8743    156.1327   9.5231140013e+01   1.4978640170e+01    0.8807175    0.6838303 -31.85  0.004843488    1.362    0.266
        26 -12.0321     96.2179    210.4947   1.2306574407e+02   2.0544071967e+01    0.2588787    0.2091262  16.57  0.001724965    1.522    0.343
        27 -11.5290    188.8002     59.2133   6.9706205867e+01   3.0211737666e+01    0.3964692    0.2995454  56.45   0.00102735    1.331    0.249
        28 -13.1299    193.5266     55.5026   6.7803333384e+01   2.9550064591e+01     1.609213     0.936399 -41.83  0.005657677    1.759    0.432
        29 -12.0501    171.3499     56.6410   7.2147461487e+01   3.4997106255e+01    0.5341343    0.3655762   2.37   0.00159747    1.845    0.458
        30 -12.1076    127.6251     52.3972   8.0781302511e+01   4.6547111641e+01    0.6751347     0.460519 -37.27   0.00310822    1.498    0.333
        31 -12.6525    132.6673     49.9216   7.8567138628e+01   4.5737644380e+01     0.611252    0.4621379  76.55  0.002813008    1.746    0.427
        32 -15.4043    210.7244    143.5457   8.7562520756e+01   1.2165905688e+01     1.624119     1.571717 -50.28  0.009881074    1.386    0.278
        33 -11.7533    171.7536    144.7212   9.5825956456e+01   1.9689269735e+01    0.4173861     0.293757 -52.28  0.002023354    1.778    0.438
        34 -12.7020    121.0524    144.7558   1.0788451305e+02   2.9369243528e+01    0.3467495    0.2612073  44.99  0.001816103    1.269    0.212
        35 -13.5528     84.9066    140.4122   1.1653778468e+02   3.6159096706e+01     0.534295    0.3972597 -67.37  0.002943189    1.363    0.266
        36 -14.6615     63.4553    134.3443   1.2142461672e+02   4.0397555233e+01    0.8787601    0.6588306  84.48  0.005018839    1.397    0.284
        37 -12.5913    173.6056    122.0264   9.0161083657e+01   2.3371022486e+01    0.4759506     0.449493 -85.73   0.00260332    1.321    0.243
        38 -12.3013    195.5868    117.0092   8.4289205009e+01   1.9486465539e+01    0.4674391      0.25242 -32.74  0.001998689    1.835    0.455
        39 -13.1106    150.0021    162.6946   1.0436961620e+02   2.0605527517e+01    0.8157586     0.647407 -53.76  0.004501743    1.484    0.326
        40 -12.6757    168.9478     77.7203   7.9130615796e+01   3.2260685560e+01    0.7328605    0.4572455 -19.39  0.003065855    1.826    0.452
        41 -13.8293     24.8760     26.4147   1.1090666325e+02   6.8781427265e+01    0.9411724    0.3871671  15.11  0.004254753    3.004    0.667
