#   1 NUMBER                 Running object number                                     
#   2 MAG_AUTO               Kron-like elliptical aperture magnitude                    [mag]
#   3 X_IMAGE                Object position along x                                    [pixel]
#   4 Y_IMAGE                Object position along y                                    [pixel]
#   5 X_WORLD                Barycenter position along world x axis                     [deg]
#   6 Y_WORLD                Barycenter position along world y axis                     [deg]
#   7 A_WORLD                Profile RMS along major axis (world units)                 [deg]
#   8 B_WORLD                Profile RMS along minor axis (world units)                 [deg]
#   9 THETA_WORLD            Position angle (CCW/world-x)                               [deg]
#  10 FWHM_WORLD             FWHM assuming a gaussian core                              [deg]
#  11 ELONGATION             A_IMAGE/B_IMAGE                                           
#  12 ELLIPTICITY            1 - B_IMAGE/A_IMAGE                                       
         1 -14.2979      4.7514    125.7854   1.2868163720e+02   4.8220613477e+01     2.288276    0.5725713 -70.12  0.009564991    3.278    0.695
         2 -13.1406      2.5222     81.6417   1.2662949398e+02   5.8630460122e+01     1.301407    0.1214351 -74.02  0.003880408    5.297    0.811
         3 -13.4349    207.9117     33.7430   5.2903033712e+01   2.8207146282e+01     1.337471     1.243516  44.97  0.005701233    1.147    0.128
         4 -13.7617    225.6338     16.6039   4.6258211707e+01   2.5710086603e+01     1.137707    0.9232853  20.91  0.001399797    1.449    0.310
         5 -13.2089      3.1269      5.1796   1.1245656509e+02   7.6580946162e+01     1.107595    0.6400357 -63.68  0.006525932    1.438    0.305
         6 -11.5845    149.8161    246.6309   1.0718003147e+02   9.1004600208e+00    0.3395827    0.2336887  -0.95  0.002369945    2.128    0.530
         7 -10.7863    162.3032    250.2901   1.0543044877e+02   7.0357063172e+00    0.3785004   0.09955686  39.75  0.001827236    2.629    0.620
         8 -11.0916    143.9787    249.9890   1.0850789670e+02   9.4895490078e+00    0.3236038    0.1873611  62.75   0.00195059    2.784    0.641
         9 -13.6535    129.8496    240.8580   1.1010951358e+02   1.2465185415e+01     1.318206    0.6662169  43.90  0.008486499    1.459    0.315
        10 -11.0089    110.0303    247.4867   1.1417989404e+02   1.4205621521e+01    0.3112573    0.1675054  38.28  0.001721624    1.316    0.240
        11 -11.3535     97.5782    239.4735   1.1577468722e+02   1.6855799332e+01    0.3342074    0.2668953 -23.96  0.002533777    2.067    0.516
        12 -10.5648     99.5444    250.4769   1.1623688994e+02   1.5132105107e+01    0.6226107    0.1525881  33.98  0.002648256    3.659    0.727
        13 -11.4830     99.3126    246.8797   1.1601712409e+02   1.5634180718e+01    0.5153103    0.1615387  36.84  0.002701323    2.280    0.561
        14 -11.1311    101.7341    240.0269   1.1506860825e+02   1.6252726180e+01    0.2828413     0.203525 -89.13  0.001144968    1.814    0.449
        15 -12.1745    104.9776    237.1506   1.1425321570e+02   1.6231124436e+01    0.4388152    0.2339248  46.83  0.002321902    1.392    0.281
        16 -10.1270     81.6104    247.6187   1.1917631475e+02   1.7687910226e+01    0.2015069    0.1009011 -70.76   0.00136128    2.641    0.621
        17 -10.5475     84.1726    230.1185   1.1753831077e+02   1.9878811873e+01    0.1699719    0.1546293 -83.69  0.001145499    1.428    0.300
        18 -12.1892     88.5710    238.1400   1.1730470288e+02   1.8168004524e+01     0.655641    0.3062519  63.91  0.003724812    2.603    0.616
        19 -11.4710     83.3761    240.5240   1.1840525636e+02   1.8465336261e+01    0.4301519    0.2088189  50.20   0.00281698    1.541    0.351
        20 -11.6012     58.3199    246.7121   1.2318861204e+02   2.0479423295e+01    0.3411954    0.3077784  54.00  0.003139517    1.394    0.283
        21 -11.3148     73.7794    243.7522   1.2031884210e+02   1.9148578050e+01    0.2872213    0.2399447 -71.87  0.002485579    1.625    0.385
        22 -11.4387     68.1027    245.3416   1.2141011236e+02   1.9578355053e+01    0.3059215    0.1704255  51.51   0.00144094    1.286    0.222
        23 -12.5283     35.7399    206.0779   1.2540057407e+02   2.9331296920e+01     0.634789    0.4186445  44.83  0.004632388    1.207    0.171
        24 -14.8365     13.6185    242.3947   1.3067546461e+02   2.5599189600e+01     2.625829    0.8452615  37.70   0.01663433    2.054    0.513
        25  -9.8007     53.7133    240.9909   1.2371709528e+02   2.1812252179e+01    0.1359968    0.1008887  59.95 0.0006024223    1.148    0.129
        26 -12.4964    122.4688    248.9694   1.1212845815e+02   1.2422487005e+01    0.8044263    0.2287134  37.32  0.004000471    2.466    0.595
        27 -11.6387    116.5187    238.9781   1.1232174231e+02   1.4477870110e+01    0.2889076    0.2155841 -12.97  0.002030939    2.239    0.553
        28  -9.7728     77.5409    233.5604   1.1900186320e+02   2.0178605355e+01    0.3015349   0.07605441  36.28  0.001224768    2.867    0.651
        29 -10.8254     69.0886    237.5159   1.2078750362e+02   2.0594636276e+01    0.2478278    0.1712838  29.76   0.00141233    1.525    0.344
        30 -10.6010     73.3742    236.9836   1.1998072793e+02   2.0171244389e+01    0.2771514    0.1408033  50.70 0.0008553576    1.445    0.308
        31 -11.8185    117.0770    249.7506   1.1313097501e+02   1.3018895741e+01    0.5127203    0.2588985  40.55  0.002155121    1.354    0.262
        32 -11.4135     98.9145    230.8420   1.1485328784e+02   1.7903773511e+01    0.4114662     0.185737  27.08  0.001971266    2.682    0.627
        33 -12.0733    105.5913    228.9387   1.1345158884e+02   1.7303743134e+01    0.5906122    0.2394677  55.59  0.002932491    2.812    0.644
        34  -9.4024    153.5370    230.0558   1.0477358008e+02   1.0554954810e+01    0.1247058    0.1119228 -38.66 0.0003915609    1.519    0.342
        35 -10.8957     56.5310    228.3283   1.2256066783e+02   2.3419253139e+01     0.202681    0.1416788  59.73 0.0001835072    1.138    0.122
        36 -11.4252     91.0189    224.9503   1.1586127904e+02   1.9789529520e+01    0.4823221    0.1865806  49.85  0.002589649    2.099    0.524
        37  -9.2222     90.9733    220.2629   1.1549198491e+02   2.0510100051e+01     0.177931    0.1121289  54.98  0.000516125    1.333    0.250
        38 -10.7091     79.1231    225.4532   1.1815120223e+02   2.1208245558e+01    0.2870208    0.1668782 -64.20  0.001940146    2.174    0.540
        39 -14.7675     22.7281    219.7812   1.2843927470e+02   2.8294919544e+01      1.12627    0.8132172  38.47  0.009065248    1.353    0.261
        40  -9.4453     64.8659    224.2713   1.2076682092e+02   2.3102098724e+01     0.243211    0.1448037 -38.90   0.00137245    3.581    0.721
        41 -10.8694    113.7150    229.9811   1.1203385739e+02   1.6073621991e+01    0.2113549    0.1786574   1.90  0.001618845    1.624    0.384
        42 -10.6249     72.3552    219.7898   1.1904495500e+02   2.2921259981e+01    0.5178161    0.1845533  44.29  0.002806138    1.953    0.488
        43  -9.8267     60.1001    220.3536   1.2143298057e+02   2.4278249463e+01    0.1493654    0.1253559  58.54 0.0003391684    1.191    0.161
        44 -10.0510     50.8481    218.7018   1.2310635116e+02   2.5588621435e+01    0.2492971    0.1184951  62.31  0.000798467    1.844    0.458
        45  -9.9705     46.4862    214.4322   1.2371677963e+02   2.6771808367e+01    0.3453946   0.07353593  45.37  0.001622332    2.754    0.637
        46  -9.6237    107.4578    216.8992   1.1200503211e+02   1.8824394889e+01    0.2844816    0.1043181  46.14 0.0006789439    2.133    0.531
        47  -8.6293    117.6627    215.2811   1.0986578492e+02   1.7646502776e+01     0.117551   0.06995105  54.97 0.0002066177    1.620    0.383
        48  -9.5670     88.3840    212.9916   1.1539225308e+02   2.1991053353e+01     0.199503    0.1434528 -77.43  0.001029603    1.670    0.401
        49  -9.6350    110.8674    211.3895   1.1079757760e+02   1.9192077034e+01    0.1717967     0.135188  63.37 0.0003978389    1.290    0.225
        50  -9.0247     58.4982    212.5463   1.2126434543e+02   2.5744879173e+01    0.1703382   0.06997249  45.39  0.000695171    1.729    0.422
        51  -9.8906     55.9455    208.8959   1.2154152554e+02   2.6654411228e+01     0.271684    0.1546219 -77.80  0.001777248    1.951    0.487
        52  -9.4422     99.4935    210.0015   1.1291786477e+02   2.0985315472e+01    0.2416091   0.09672412  58.08  0.001038016    3.337    0.700
        53 -10.6100     62.7415    209.1757   1.2020422804e+02   2.5816963635e+01    0.2940752    0.1822669  43.20   0.00154175    1.244    0.196
        54  -9.8253     65.1816    205.1846   1.1943548170e+02   2.6207039453e+01    0.3287644    0.1217344  38.57  0.001400975    2.027    0.507
        55 -14.1282      7.8664    212.3200   1.3097198128e+02   3.0883301859e+01     2.181143    0.8045454  89.38   0.01297399    2.592    0.614
        56  -9.7282    246.9695    206.6739   8.5913454255e+01  -1.0216296513e-01    0.1877798   0.05657917  26.96  0.000704509    4.470    0.776
        57  -9.3900    113.9280    204.4159   1.0945734064e+02   1.9844032980e+01    0.1776395    0.1450147  72.02 0.0005490554    1.352    0.260
        58  -9.4819    106.7673    203.6766   1.1082710410e+02   2.0987132547e+01    0.1748187     0.150271  68.25 0.0004273192    1.222    0.181
        59  -9.8580    250.5441    200.4543   8.4392859402e+01  -1.6130900075e-02    0.1770991   0.08611391 -11.73  0.000737389    2.180    0.541
        60  -9.7600     73.8394    200.8167   1.1732694745e+02   2.5895749896e+01    0.1593842    0.1033809  57.95 0.0003707192    1.291    0.226
        61 -10.5056     46.5275    198.5237   1.2281711815e+02   2.9524022201e+01     0.348346    0.1530249  34.62  0.001600713    1.943    0.485
        62  -9.2314    250.3254    194.0078   8.3378073437e+01   6.0881292001e-01    0.1763591   0.07317218  -6.34 0.0007051167    4.334    0.769
        63  -9.6865     30.4692    193.7215   1.2587746811e+02   3.2071016668e+01    0.1309154   0.09279677 -74.85 0.0009359788    1.580    0.367
        64 -11.8732     49.8845    191.7933   1.2169200668e+02   3.0375730867e+01     0.300532    0.2380511 -52.40 0.0009074027    1.752    0.429
        65 -11.7349     87.8242    248.5974   1.1815188540e+02   1.6811726775e+01    0.5247884    0.2526849  38.64  0.002570896    1.467    0.318
        66  -9.8311     25.9986    192.8257   1.2676046108e+02   3.2671276937e+01    0.2073482    0.1436272  51.69  0.001516829    1.112    0.100
        67  -8.9129     21.7048    193.2893   1.2766341215e+02   3.2992113692e+01    0.1559371    0.1315617  55.91 0.0002352378    1.223    0.183
        68 -10.1086     19.0908    188.7955   1.2802359043e+02   3.4062913561e+01    0.3589799     0.149079  72.79  0.001344708    2.165    0.538
        69  -8.9738    191.5400    191.5145   9.2688517604e+01   9.6495973720e+00    0.1218221   0.09575903  24.78 0.0001258487    1.003    0.003
        70  -9.0070    109.2026    191.2434   1.0895758810e+02   2.2693663519e+01    0.1675579    0.1123366  53.32 0.0003011904    1.324    0.245
        71  -9.3745    250.2937    188.3734   8.2443925747e+01   1.1468232492e+00       0.1196   0.06671149   9.31 0.0007025037    1.733    0.423
        72  -9.5255     70.1423    187.1812   1.1696862327e+02   2.8809946333e+01    0.3277528    0.1389494  32.34 0.0007816376    2.238    0.553
        73 -12.1194     56.5523    184.3477   1.1971950104e+02   3.1001719104e+01    0.3423198    0.2016594  41.31   0.00120422    1.402    0.287
        74 -10.4226     35.7293    191.6692   1.2467699499e+02   3.1918868654e+01    0.3512452    0.1339718  42.42  0.001353416    1.904    0.475
        75  -9.7037     36.9529    180.2447   1.2376718002e+02   3.3955315308e+01    0.2282998    0.1759495 -62.10  0.001029452    1.620    0.383
        76  -8.5876      8.6030    182.2679   1.2998468483e+02   3.6202090385e+01    0.1199938   0.05030859  54.27 0.0006979699    1.728    0.421
        77  -8.8306    110.4161    178.4296   1.0713176039e+02   2.4746197729e+01    0.1248944    0.1051242  45.61 0.0001282168    1.036    0.034
        78  -9.4889     59.5497    177.2150   1.1847639561e+02   3.2015408059e+01    0.3586842   0.09709395  41.58  0.001544934    2.661    0.624
        79 -11.8769     12.8055    172.3890   1.2872745785e+02   3.7760208166e+01    0.4582665     0.321923 -48.46  0.003100868    2.078    0.519
        80 -11.6508      9.1572    156.5919   1.2893231688e+02   4.1250010228e+01     0.396769    0.1470389  64.13  0.002008819    2.284    0.562
        81 -11.0796     12.5177    153.4783   1.2799017083e+02   4.1632377763e+01    0.2507235     0.151411  63.64  0.001030959    1.319    0.242
        82 -11.3795     13.7032    167.0864   1.2831111506e+02   3.8739720125e+01    0.3462792    0.2276354  23.14  0.002298023    1.807    0.447
        83 -12.4642      8.3189    164.6170   1.2943984357e+02   3.9676735665e+01    0.6364406    0.4441422  -1.96  0.004120824    2.359    0.576
        84  -9.5439     18.4618    172.4909   1.2747266756e+02   3.7251066138e+01    0.2099968    0.1443946  56.74 0.0009966766    1.121    0.108
        85 -10.9566     19.7994    168.3370   1.2697766152e+02   3.7960644961e+01     0.232385    0.2049348 -45.89 0.0002632498    1.616    0.381
        86 -11.3608    248.5298    172.4775   7.9940734330e+01   2.9768698742e+00    0.3859105    0.2363478  17.81  0.002415776    1.427    0.299
        87 -10.7562     69.1622    172.4397   1.1583262224e+02   3.1752904620e+01    0.2168327    0.1823643  58.49 0.0004325018    1.050    0.047
        88 -10.7785      2.9960    172.7275   1.3089196578e+02   3.8485500181e+01    0.2856306    0.1433953  47.84 0.0009214096    1.510    0.338
        89 -10.9639     53.7842    171.3940   1.1931767155e+02   3.3848786335e+01    0.2611923    0.2177938  39.53 0.0008686186    1.261    0.207
        90 -10.7579     27.0308    171.7783   1.2550654993e+02   3.6605224507e+01    0.2299225    0.2004267  12.13 0.0004786088    1.596    0.374
        91 -10.4084     39.9868    168.0246   1.2228413582e+02   3.6061320097e+01    0.2638737    0.2258986  37.95   0.00130133    1.308    0.235
        92 -11.5346    247.0255    157.0890   7.7313012340e+01   4.8312563960e+00    0.5598046    0.3287776  55.29   0.00296267    2.627    0.619
        93  -8.7842     37.4190    162.4871   1.2250293903e+02   3.7463847829e+01    0.1188198   0.09367917  66.70 0.0001323273    1.013    0.013
        94 -10.5540     23.7781    161.9916   1.2572466597e+02   3.8892987364e+01    0.1814212     0.149779  45.25 0.0003172027    1.244    0.196
        95 -12.0737     77.2459    164.4909   1.1308857651e+02   3.2263854576e+01    0.4958509    0.4319784  61.27  0.003317268    1.056    0.053
        96 -11.9305    245.1817    162.0182   7.8526263777e+01   4.5849109936e+00    0.3676006    0.2303263 -28.07  0.002263035    1.617    0.382
        97 -11.0584     26.1422    155.7008   1.2478720263e+02   3.9986305713e+01    0.2841393    0.1595074  49.66 0.0008295852    1.467    0.318
        98 -11.1017     21.7256    156.0270   1.2588421303e+02   4.0318397343e+01    0.2719537    0.1731302  83.55  0.001327221    1.352    0.260
        99  -8.4660    228.4642    155.4754   7.9909037342e+01   8.0245862189e+00    0.1235846    0.1032813   9.97 0.0001017721    1.063    0.059
       100 -11.1176    249.6049    150.9179   7.5734950214e+01   5.0971859166e+00    0.3470235     0.210021 -27.68  0.002069404    1.598    0.374
       101 -12.7946    241.6545    120.3297   7.0570335256e+01   9.9740035928e+00    0.7362536    0.6538406  62.08  0.004750025    1.529    0.346
       102 -10.8904     23.7439    150.0118   1.2502981265e+02   4.1413935508e+01    0.2574593    0.1477943  56.52   0.00154324    1.446    0.309
       103 -10.4234     80.4115    148.5740   1.1034805730e+02   3.5112725571e+01    0.2372876    0.2090932  56.94 0.0002477457    1.053    0.051
       104  -9.7155     38.8354    148.9041   1.2111342919e+02   4.0194339395e+01    0.1691544    0.1546976 -76.52 0.0004856097    1.273    0.215
       105 -11.6579     68.4118    143.6918   1.1283945731e+02   3.7828909226e+01    0.6423573    0.3247303  65.11  0.002169919    2.364    0.577
       106 -12.8484      6.1385    142.9157   1.2909977408e+02   4.4363230253e+01    0.6089259    0.5253411  55.74    0.0023432    1.205    0.170
       107 -10.0383    238.4781    249.5145   9.3245194326e+01  -2.6110369524e+00    0.1009736    0.0654081  20.60  0.000119886    1.001    0.001
       108  -8.8182    133.4693    140.9723   9.5896429326e+01   2.7804893712e+01    0.1897969    0.1237851 -78.82 0.0008098415    2.583    0.613
       109  -9.6479     45.0139    139.8020   1.1866260042e+02   4.1536402666e+01    0.2060152    0.1590577 -88.84 0.0002502849    1.181    0.153
       110 -12.5613     15.4652    121.2179   1.2536637599e+02   4.8503247582e+01    0.5745168    0.1779848 -73.65  0.002504555    2.684    0.627
       111 -10.9154     91.8867    149.7628   1.0759707021e+02   3.3156519038e+01    0.3147379     0.262496  53.57  0.001077848    1.054    0.052
       112  -9.8502    106.0906    135.6434   1.0169383508e+02   3.3799685583e+01    0.3955377    0.2660173 -12.65   0.00138004    2.933    0.659
       113  -8.4584     92.3618    133.2688   1.0490573114e+02   3.6589329253e+01    0.1307338    0.1088201  -1.83 0.0006994627    1.649    0.393
       114 -11.5862     17.8298    132.8088   1.2548336381e+02   4.5689755147e+01    0.3088974    0.2033059  31.40  0.001224361    1.601    0.376
       115  -8.9506     44.2427    129.9864   1.1785935857e+02   4.3838786045e+01    0.1593565   0.09753267 -77.45 0.0005067362    1.526    0.345
       116 -12.6382    247.8981    113.5895   6.8192128124e+01   9.6571851423e+00    0.8108938    0.5331986 -38.74   0.00456518    1.645    0.392
       117  -9.1395     95.7474    145.9035   1.0604637638e+02   3.3357653348e+01    0.1802812    0.1623791  79.40 0.0006566893    1.093    0.085
       118 -13.0192    248.3461    101.4268   6.5389208680e+01   1.1022210649e+01    0.9607144    0.5522317 -19.57  0.005015436    1.581    0.368
       119 -11.8945    248.3956    142.3103   7.4204958159e+01   6.2458659076e+00    0.5714576    0.3285443  -6.37  0.003099002    1.789    0.441
       120 -12.1009    171.6817    247.7179   1.0358680421e+02   6.0645159910e+00    0.3656711    0.2268254  24.47  0.002639782    1.362    0.266
       121 -12.6663    248.2610    134.1929   7.2563667604e+01   7.1893279983e+00     1.143053    0.5136096 -14.82   0.00512648    2.553    0.608
       122  -9.7181    161.7560     80.0116   7.4495264398e+01   3.3141432248e+01     0.203937    0.1291309 -34.83 0.0005090554    1.586    0.370
       123  -9.2151    236.1043    145.8766   7.6791010318e+01   7.8801858353e+00    0.1758736    0.1241655  10.31 0.0004851849    1.297    0.229
       124 -10.5154    197.8787    245.6599   9.9047188328e+01   2.8089638451e+00    0.1761966    0.0942679  26.92  0.001192351    1.418    0.295
       125 -11.6859    154.5770    247.1966   1.0642179359e+02   8.4010473774e+00      0.31211    0.2680398 -43.37  0.002676442    1.675    0.403
