#   1 NUMBER                 Running object number                                     
#   2 MAG_AUTO               Kron-like elliptical aperture magnitude                    [mag]
#   3 X_IMAGE                Object position along x                                    [pixel]
#   4 Y_IMAGE                Object position along y                                    [pixel]
#   5 X_WORLD                Barycenter position along world x axis                     [deg]
#   6 Y_WORLD                Barycenter position along world y axis                     [deg]
#   7 A_WORLD                Profile RMS along major axis (world units)                 [deg]
#   8 B_WORLD                Profile RMS along minor axis (world units)                 [deg]
#   9 THETA_WORLD            Position angle (CCW/world-x)                               [deg]
#  10 FWHM_WORLD             FWHM assuming a gaussian core                              [deg]
#  11 ELONGATION             A_IMAGE/B_IMAGE                                           
#  12 ELLIPTICITY            1 - B_IMAGE/A_IMAGE                                       
         1 -10.4598     54.8143     18.0476   1.0306555791e+02   6.5603981479e+01    0.4962583    0.3019421 -17.02  0.001641948    2.130    0.531
         2 -12.6648     40.7470     48.6381   1.1961072179e+02   6.1423298698e+01     1.264137    0.8401412 -49.79  0.007614251    1.266    0.210
         3 -10.2744     74.9229     56.7818   1.1039066454e+02   5.5251251300e+01      1.26123    0.7076156 -57.42  0.005738519    1.777    0.437
         4 -11.8108    121.8810     38.4370   9.0548839072e+01   4.9610133475e+01     2.089408     1.100703  -8.77  0.006715757    3.899    0.743
         5 -12.3182     89.0332     53.0699   1.0484451871e+02   5.3650579323e+01     2.424845     1.347425 -23.67  0.009559639    2.923    0.658
         6 -12.2533    134.2394      5.1389   7.4535583585e+01   5.1044151820e+01     1.922239    0.7892864  71.08  0.006912283    2.917    0.657
         7 -12.7085    108.1795     66.8445   1.0377955955e+02   4.7416926525e+01     2.720393     1.578628  27.15   0.01110437    2.679    0.627
         8 -12.2521    112.0430     22.4330   8.6694891699e+01   5.4240061694e+01    0.7203105    0.6352594  81.23  0.004043257    1.360    0.265
         9 -12.1659    130.4924     20.1087   8.1418051224e+01   5.0237251386e+01     1.242459    0.4633718  53.94  0.004006118    2.533    0.605
        10 -11.0991    123.4220     10.0477   7.8773917053e+01   5.3180761089e+01     0.341323    0.3245307 -31.23 0.0006641646    1.107    0.096
        11 -10.6363     89.7851     21.5789   9.2512595256e+01   5.9047279918e+01     1.237895    0.7627307  47.05   0.00621666    1.733    0.423
        12 -11.9417     67.7787     20.6151   9.9350517142e+01   6.3168017628e+01     1.389588    0.5911056  31.91  0.005409176    3.518    0.716
        13 -11.9713    114.1926      8.6832   8.0237788231e+01   5.5529802261e+01     1.028576    0.5488787  40.53   0.00453927    1.939    0.484
        14 -11.8268    127.0153     15.7535   8.0395484769e+01   5.1630810312e+01      1.49114    0.3973808  43.57  0.004170083    4.581    0.782
        15 -10.9462    117.3282     15.4566   8.2454197703e+01   5.3971339994e+01     0.341935    0.3161288 -68.37 0.0003626616    1.252    0.201
        16 -12.9476    100.0406      6.6338   8.2781362903e+01   5.8970240902e+01    0.8831867    0.4882416 -35.59 0.0005237349    1.765    0.433
        17 -11.9534     93.1933      8.6284   8.5584890991e+01   6.0185485339e+01    0.7140037    0.5642547   2.75  0.002814058    1.256    0.204
        18 -12.0230     51.9032     34.6214   1.1093557366e+02   6.2952310610e+01     1.288859     1.072181 -34.46  0.006723868    1.111    0.100
        19 -13.0817     71.1262     31.2941   1.0268488029e+02   6.0768641477e+01     2.550648    0.8764094  46.87  0.009831829    3.453    0.710
        20 -11.1926     78.2527      6.7832   8.9187365210e+01   6.3405769531e+01      0.86941    0.7851275 -37.52  0.004367599    1.226    0.184
        21 -11.6100     28.4095      4.5578   1.0823119940e+02   7.1277774334e+01     1.728223    0.5364956  36.07  0.007639092    3.855    0.741
        22 -11.9595     28.6100     26.7989   1.1754510780e+02   6.7123034567e+01     1.572991    0.6276807 -41.57  0.007440194    2.326    0.570
        23 -12.1473      9.2747     26.7896   1.2607824449e+02   6.8682934452e+01     1.047363    0.7135382  22.38  0.007195886    1.885    0.469
        24 -12.2238     40.7239     16.0751   1.0800171138e+02   6.7833367189e+01     1.339427    0.5623211 -42.90  0.006487584    1.954    0.488
        25 -12.3106     50.6876     10.9186   1.0137123147e+02   6.7393518334e+01    0.7204661    0.4204231 -27.32 0.0006412829    1.651    0.394
        26 -12.2134     18.7578     13.8370   1.1718464681e+02   7.0538093955e+01    0.7859261     0.581578 -18.95  0.005401751    1.467    0.319
        27 -11.5471     13.4878      8.8174   1.1776790820e+02   7.1923957439e+01    0.3557592    0.3432417 -43.28  0.002008393    1.291    0.226
        28 -13.0112      3.0547      5.0746   1.2180375626e+02   7.3379279985e+01     1.545392    0.5559739 -62.12  0.007516034    2.515    0.602
        29 -11.2249     66.1920      6.1183   9.2959038285e+01   6.5680186815e+01      0.58807    0.3814055  17.38  0.002013133    1.874    0.466
        30 -12.1954     60.5010      4.3981   9.4162605649e+01   6.6883814945e+01    0.7522623    0.4156287  51.56  0.003862412    2.242    0.554
        31 -11.7748    101.1927     58.4118   1.0305991411e+02   5.0389626565e+01     1.598593     1.016708   2.40  0.004271427    3.480    0.713
        32 -10.5036     15.4448     33.8490   1.2538332847e+02   6.6799066544e+01    0.7934182    0.3622194 -55.51  0.004416233    1.622    0.384
        33 -11.5849    132.2135     38.4274   8.8079607717e+01   4.7225954549e+01     1.995604    0.9302098 -11.15  0.005362198    5.302    0.811
        34 -10.1280    177.6105     19.7806   7.2875497415e+01   3.8143347031e+01    0.3747777    0.2905418 -39.03  0.000972361    1.289    0.224
        35  -9.5171    184.9559     14.4316   7.0035152855e+01   3.6769574822e+01    0.4511381    0.3991121  51.17  0.002018676    1.129    0.114
        36 -10.2188    178.7442     14.6712   7.0960761804e+01   3.8399915561e+01    0.7853304    0.4192395 -80.78  0.001257083    2.874    0.652
        37 -11.7585    184.4909     26.7191   7.4197348780e+01   3.5522644633e+01    0.7397902    0.4388869  20.21   0.00118651    2.260    0.558
        38 -10.2611    156.1310     15.0292   7.4551665308e+01   4.4347902966e+01    0.6063526    0.3070575 -27.66  0.002205919    1.895    0.472
        39 -11.1864    147.2761     26.1036   8.0298698959e+01   4.5287920083e+01    0.8395963    0.6064861   6.60  0.003959555    1.607    0.378
        40 -10.9809    148.7689     16.7014   7.6466737443e+01   4.6068248842e+01     1.089266    0.6349031   2.82  0.004420506    2.242    0.554
        41 -10.0598    170.0520     14.1869   7.2043577187e+01   4.0765905412e+01    0.3915455    0.2351443 -42.92 0.0005660467    1.722    0.419
        42 -10.5846    162.4293     16.2125   7.3951897837e+01   4.2562008376e+01    0.6758415    0.4351215 -40.93   0.00239193    1.586    0.369
        43 -11.5461    164.1332      7.4746   7.0498188018e+01   4.3033956225e+01    0.9991429    0.4667965 -24.89  0.003135459    2.061    0.515
        44  -9.5419    221.8753     11.2936   6.4844586104e+01   2.7416437808e+01    0.4508975    0.2018908 -40.61  0.001450819    2.095    0.523
        45 -10.1972    212.0846     14.2865   6.6743201919e+01   2.9634011350e+01    0.6263692    0.4274623 -34.21  0.002802245    1.387    0.279
        46 -10.1356    215.4622     21.6917   6.8604613251e+01   2.7997257816e+01    0.6251268    0.4104736 -73.77  0.002885282    1.848    0.459
        47 -10.1551    216.7632     15.3184   6.6555242675e+01   2.8323879374e+01    0.5990925    0.3636076  12.92  0.002601831    2.132    0.531
        48 -10.0345    167.2544     24.6626   7.6186684627e+01   4.0308070208e+01     0.742251    0.4040559  38.77  0.003010391    2.054    0.513
        49 -10.1689    243.1832     13.0453   6.3392106486e+01   2.1976479652e+01      0.52469    0.2946615 -32.46  0.001772813    1.575    0.365
        50 -10.6259    234.1007     12.4021   6.4014421639e+01   2.4247267053e+01    0.6796634    0.3273694 -60.63   0.00204924    2.606    0.616
        51 -10.5964    242.9388     19.3882   6.5144834181e+01   2.1411183786e+01    0.8009527    0.3567023  80.33  0.003192018    2.810    0.644
        52  -9.6318    230.9753     21.7125   6.6947809639e+01   2.4086065888e+01    0.5826936    0.2674155 -47.88  0.001952662    2.303    0.566
        53  -9.7889    231.6226     17.7687   6.5763328294e+01   2.4328966573e+01    0.4313994    0.2224234 -45.67  0.001714435    1.922    0.480
        54 -10.6231    202.1007     19.2825   6.9433096381e+01   3.1719466694e+01    0.5260305    0.3503695  46.67   0.00152277    1.548    0.354
        55 -11.9675     58.4333     69.5402   1.1913411096e+02   5.4897431972e+01     2.745431    0.7521701 -60.34  0.009290917    3.761    0.734
        56 -10.1872     31.3401     11.4708   1.1014271130e+02   6.9746001615e+01    0.2807147    0.2004892 -27.83  0.001369131    1.291    0.225
        57  -8.9237    192.1424     12.1638   6.8367276223e+01   3.5089725083e+01    0.2167091    0.1939398  31.49 0.0005645104    1.152    0.132
        58  -9.5599    189.9756      8.4496   6.7408434673e+01   3.6034962359e+01    0.2648047    0.2282465  45.60 0.0003780924    1.172    0.147
        59 -10.1734    196.1232      4.0474   6.5266467045e+01   3.4814841085e+01    0.6730163    0.5204127  13.49  0.003463619    1.430    0.301
        60 -10.3155    200.5969      6.7722   6.5652581875e+01   3.3375300939e+01    0.6852748    0.2579646 -27.68  0.002581907    2.389    0.581
        61 -11.1445    204.2743      6.6318   6.5215103101e+01   3.2419353734e+01    0.4211589     0.381613   9.35 0.0005676571    1.157    0.135
        62 -11.3775    209.4613      3.7854   6.3805710693e+01   3.1324514360e+01    0.6105715    0.3472033 -89.12  0.001400771    2.042    0.510
        63 -10.9287    247.5163      6.0126   6.1140337844e+01   2.1604908996e+01    0.6033276    0.4111553 -56.18  0.003130626    1.468    0.319
        64  -9.6409    180.2206      8.0886   6.8501442932e+01   3.8677055045e+01    0.6277073    0.3234622  -2.79  0.002431647    2.444    0.591
        65 -10.1666    173.3569      8.9174   6.9705640405e+01   4.0430787429e+01    0.2923082    0.2456527 -22.13 0.0005011079    1.186    0.157
        66 -10.2401    175.0763      4.7310   6.8002209699e+01   4.0377296534e+01    0.4664515    0.3109504  58.88 0.0007295391    1.446    0.308
        67 -11.5808    223.1627      2.8163   6.2246184325e+01   2.7883131610e+01     0.796753    0.6116295 -79.23  0.001853698    1.370    0.270
        68  -9.6688    229.9862      3.0019   6.1715639781e+01   2.6148170144e+01      0.53793    0.2262914  46.89  0.002116888    2.690    0.628
        69  -9.1258    157.6725      7.1005   7.1331360510e+01   4.4783322135e+01    0.2776103    0.2030817 -79.10  0.001330271    1.633    0.387
        70  -8.4111    189.7520      1.3642   6.5089361308e+01   3.6755698520e+01    0.2028964     0.123793  59.11 0.0009283347    1.580    0.367
        71  -8.2363    149.6624      1.2012   7.0310563709e+01   4.7459652595e+01    0.1375845    0.1064704 -75.25 0.0002008959    1.509    0.337
        72  -8.5681    145.9862      1.3671   7.0959425304e+01   4.8403774936e+01    0.1985754    0.1352137  66.12 -0.000275831    1.465    0.317
        73 -12.0381     46.2539     69.4921   1.2298121446e+02   5.6359569364e+01      1.00242    0.4493877  46.75  0.004792895    2.656    0.623
        74  -9.1039    183.9822    250.4734   1.2147054451e+02   5.1674390102e+00    0.1618061   0.07063683  43.84  0.001036613    1.607    0.378
        75  -8.8278    125.3236    250.3121   1.3007557959e+02   1.3316856320e+01   0.08954297   0.06559014  30.29 0.0007039703    1.657    0.396
        76 -11.1514     40.5951     63.3185   1.2341970699e+02   5.8305732720e+01    0.4576998     0.357095 -18.75  0.001998425    1.701    0.412
        77 -10.3827    105.9161    119.8946   1.1725484463e+02   3.7140759273e+01    0.3587285    0.2249494  55.07  0.001863333    1.608    0.378
        78 -10.6108     52.6124    117.2746   1.2966904577e+02   4.5301003516e+01    0.4598347    0.3021526  -7.61  0.002162277    3.813    0.738
        79  -9.8480     40.1984    116.5902   1.3263681456e+02   4.6809130439e+01     0.367603    0.1772729  79.00  0.001747918    2.644    0.622
        80  -9.8764     12.6901    117.2740   1.3939419854e+02   4.9162307710e+01    0.2358401    0.1667693  54.16 0.0008601038    1.406    0.289
        81  -9.0532    118.5993    116.2026   1.1358786375e+02   3.5650890328e+01    0.1858899    0.1246624 -41.72 0.0007855719    1.646    0.393
        82  -8.7905     27.8220    115.9212   1.3559951266e+02   4.8158826625e+01    0.1619111    0.1216741 -71.43 0.0002403944    1.213    0.176
        83 -10.0959    132.5114    111.3279   1.0937832387e+02   3.3972399634e+01    0.3948399    0.3885621 -83.42  0.001750469    1.054    0.051
        84  -9.5402    133.4579    103.6301   1.0739106653e+02   3.5251768466e+01     0.445862    0.2012072 -45.36  0.001825653    2.227    0.551
        85  -8.4998     44.9855    113.2125   1.3100647273e+02   4.7017719786e+01    0.1428363   0.09233237  39.63 0.0008681102    1.702    0.412
        86  -9.0175    195.1994    112.4045   9.6931867232e+01   2.0609684990e+01    0.2023867    0.1335107  62.22 0.0009591944    1.755    0.430
        87  -9.0029     92.6509    111.5003   1.1880473210e+02   4.1024443543e+01    0.2600421    0.1945064  38.96  0.001487492    1.477    0.323
        88 -10.7328     67.3950    108.0518   1.2451334757e+02   4.5427781231e+01    0.6685673     0.350374 -47.63  0.003326667    2.129    0.530
        89 -10.1521     73.9916    108.1296   1.2284088900e+02   4.4514944832e+01    0.3300804    0.2650773  73.85  0.001057579    1.220    0.180
        90  -9.4035     34.6195    109.5431   1.3314894700e+02   4.8866264343e+01    0.2606519     0.218134 -61.19  0.001872631    1.304    0.233
        91  -8.5909     38.7795    107.2227   1.3177588554e+02   4.8947999066e+01    0.1799571    0.1219162 -49.22  0.001111084    1.687    0.407
        92  -9.3541    120.6514    108.9256   1.1155699072e+02   3.6702428172e+01    0.2286842    0.1882491  38.95 0.0006413294    1.301    0.231
        93  -9.4118     53.3854    104.9589   1.2763346653e+02   4.7838001212e+01     0.278612    0.1019655 -64.75  0.001237384    2.382    0.580
        94  -8.6518     97.5266    103.8693   1.1604821885e+02   4.1812758068e+01    0.2721836    0.1625701  60.41  0.001305247    1.943    0.485
        95  -9.1843     75.6038    102.3633   1.2135163050e+02   4.5514222575e+01    0.2300357    0.1957077  75.58  0.001148353    1.148    0.129
        96 -10.1001    105.6685    109.3046   1.1519405011e+02   3.9319213496e+01    0.3628103    0.2694176 -79.98  0.001780586    1.498    0.333
        97  -8.8859    183.4939    101.5087   9.6439204042e+01   2.4881192640e+01    0.2685426    0.1406369 -21.59  0.001044318    2.508    0.601
        98  -9.1728     81.1114    102.3213   1.1991103584e+02   4.4721981783e+01    0.2160935    0.1823622  58.75  0.001103458    1.210    0.173
        99 -10.7100     87.7873     99.4755   1.1759673509e+02   4.4303654162e+01     0.592837    0.4353363  -4.56  0.002350791    2.466    0.594
       100  -9.7707    114.6610    100.3113   1.1102898407e+02   3.9526452997e+01    0.3527667    0.2470262 -70.30  0.001458622    1.649    0.393
       101 -10.8697    117.4138     98.1923   1.0986238447e+02   3.9434776754e+01    0.6078094    0.3848026  61.74  0.002252328    1.833    0.454
       102  -9.8440    159.3597     96.5527   9.9974101882e+01   3.1087135181e+01    0.3754199    0.3047177  54.89  0.001423373    1.236    0.191
       103  -9.7365    187.5641     93.2711   9.3575435296e+01   2.5259817169e+01    0.3399449    0.2563728 -48.18  0.001260933    1.447    0.309
       104  -9.1286    206.7135     92.3465   8.9959925567e+01   2.1010363902e+01    0.2742727    0.1663978 -40.16  0.001260293    1.697    0.411
       105  -9.1657     34.4904    246.5056   1.4306981431e+02   2.4644429512e+01    0.1268004   0.06263644  79.66 0.0009877227    1.785    0.440
       106  -9.7998    141.6296    244.2218   1.2710855835e+02   1.1790523472e+01    0.2636104     0.161303  28.47  0.001587894    2.031    0.508
       107 -11.2908    145.4254     37.9951   8.5022627821e+01   4.4101592298e+01     1.693341     0.714312  41.57  0.005928242    2.779    0.640
       108  -9.0136    211.0135    240.2220   1.1637577444e+02   2.2494113478e+00    0.1586042    0.1335569  10.55  0.001384325    1.312    0.238
       109 -10.0333     12.3510    232.3348   1.4569736680e+02   2.8794038914e+01    0.2343231    0.0831263  69.98  0.001555832    2.275    0.560
       110 -12.9403    104.1627     82.1301   1.0917987246e+02   4.5130083020e+01     2.832992     1.473787  45.81   0.01274031    2.024    0.506
       111  -9.3385    136.6792    225.4789   1.2604759215e+02   1.4753631768e+01    0.1497584   0.09804162 -56.75  0.001081304    1.993    0.498
       112  -8.8416    227.7287    231.7306   1.1288035759e+02   5.7297763108e-01    0.2457275   0.06969932  45.23  0.001200629    2.763    0.638
       113 -10.6141     26.7267    191.3296   1.4167124712e+02   3.3849707482e+01     0.327163     0.208022  74.89  0.002570883    1.177    0.151
       114 -11.2383     17.8595    186.3916   1.4293756835e+02   3.5542508716e+01    0.3136317    0.2853299  17.89  0.001433282    1.865    0.464
       115 -10.2042     11.9124    184.3353   1.4386476099e+02   3.6438758595e+01    0.2514206    0.1337847 -87.83  0.001293024    1.544    0.352
       116 -10.4807      4.7108    184.8375   1.4512246014e+02   3.6980773972e+01    0.4285044    0.1022746  50.79  0.002395205    2.731    0.634
       117  -9.8740     38.8472    177.4609   1.3865117165e+02   3.5022326862e+01    0.2887124     0.178221 -70.32  0.001668142    1.634    0.388
       118  -9.0927      1.5181    177.5562   1.4536915791e+02   3.8507910392e+01    0.1728919   0.06474687  83.35  0.001022693    2.275    0.560
       119  -9.5829     62.9535    168.0070   1.3328320471e+02   3.3983015519e+01    0.2399725     0.142779 -85.84  0.001161748    1.621    0.383
       120  -8.9052      9.1629    167.8082   1.4354219431e+02   3.9603447205e+01    0.1644379   0.09929617  68.57  0.001237378    1.237    0.192
       121  -9.3347     13.5512    164.8629   1.4256445224e+02   3.9760952998e+01    0.1966878    0.1141374  53.04  0.001435809    1.449    0.310
       122  -9.7106     82.3446     90.5032   1.1708575097e+02   4.7044881025e+01    0.2717101    0.2436654  34.06  0.001022357    1.306    0.234
       123 -10.7064     88.2649     89.8771   1.1534289741e+02   4.6249246174e+01    0.5890232     0.342736 -46.17  0.002654456    1.710    0.415
       124  -9.0890     92.3055     88.6750   1.1397656933e+02   4.5842737402e+01    0.2599499    0.1629465 -59.99 0.0006510004    1.553    0.356
       125  -9.1485    194.4466     89.7411   9.1403729470e+01   2.4216257056e+01    0.2842953    0.2101294   9.62 0.0008949596    1.612    0.380
       126  -9.3736     74.4869     89.0046   1.1891104926e+02   4.8531607492e+01    0.2404071    0.2011627  44.67   0.00127105    1.323    0.244
       127  -9.9248    160.5794     82.1694   9.5864368519e+01   3.3306843839e+01    0.4805787    0.3189988 -39.98  0.002255007    1.497    0.332
       128 -10.2152    152.5969     87.3015   9.8970155974e+01   3.4218474985e+01    0.3961968    0.2812724  42.59  0.001107148    1.440    0.306
       129  -9.4789    218.3612     78.1480   8.4359693064e+01   2.0306772034e+01    0.5867561    0.2954609  -0.52  0.001875077    3.940    0.746
       130 -10.3826    134.3016     80.8500   1.0131016415e+02   3.9393842787e+01    0.5967854    0.3157405 -37.09  0.002521344    1.937    0.484
       131 -10.2128    150.3355     75.2971   9.6084398998e+01   3.6848734932e+01     0.724081     0.446165  -8.98  0.002763565    2.744    0.636
       132  -9.8402    132.1597     68.1364   9.8094538568e+01   4.2204238598e+01    0.3796032    0.2582499  62.87  0.001264621    1.681    0.405
       133 -10.6181    143.5281     77.0591   9.8106403027e+01   3.8074233498e+01    0.5215225    0.3778364  15.11  0.002389508    1.911    0.477
       134 -10.4314    138.8371     74.4761   9.8425200134e+01   3.9582605369e+01    0.5014722     0.262722 -48.31  0.001729436    2.004    0.501
       135  -9.6968    143.9733     70.9887   9.6219524453e+01   3.9056362838e+01    0.3391109    0.2599787 -46.61 0.0008615696    1.308    0.236
       136 -10.2262    140.1063     67.7267   9.6108902606e+01   4.0509051653e+01       0.5657     0.440673   2.22  0.002584219    1.629    0.386
       137  -9.6469    155.4879     68.0604   9.2823769054e+01   3.6892435512e+01    0.5866552    0.2353771 -32.31  0.002072014    2.577    0.612
       138 -10.0870    150.8145     66.9777   9.3493090575e+01   3.8174315245e+01    0.4687369    0.3285758  44.81  0.001499117    1.459    0.315
       139 -10.4745      2.5040    159.6328   1.4437445517e+02   4.1650716214e+01    0.4856831    0.1707973  89.93  0.002697049    2.449    0.592
       140  -8.8439     13.1734     77.0419   1.3477611285e+02   5.7694204282e+01    0.2072421    0.1225999 -89.59 0.0008670304    1.553    0.356
       141  -9.2849     18.0000     74.9790   1.3298172457e+02   5.7788190936e+01    0.3125852     0.128255 -76.05  0.001486075    2.151    0.535
       142 -10.2359     21.4130     72.5661   1.3152045580e+02   5.8048208085e+01    0.3675367    0.2583412  59.60 0.0008435395    1.583    0.368
       143  -8.7349    192.6111     73.7430   8.7361284916e+01   2.7055456840e+01    0.2160029    0.1304701 -39.88  0.000798343    1.658    0.397
       144 -10.2984      5.0617     71.1328   1.3647612018e+02   5.9507516266e+01     0.442464    0.2087877  57.27  0.002191631    2.522    0.604
       145  -7.9310      7.7166     50.6196   1.3228522329e+02   6.3766209217e+01     0.419748    0.3010204  72.12  0.002873448    1.578    0.366
       146 -11.9646     15.7734     61.8182   1.3150268409e+02   6.0812793411e+01    0.7567675     0.481333  -3.40  0.004569265    2.469    0.595
       147 -11.0179     13.8396     56.7840   1.3124381645e+02   6.2038733727e+01    0.2722374    0.1946863  40.47  0.001868242    1.701    0.412
       148  -9.6660    214.8549     71.5092   8.3104173693e+01   2.2028935367e+01    0.3788507    0.2304543 -20.05  0.001080613    1.670    0.401
       149 -10.2496    250.1524     67.6653   7.7218031215e+01   1.4410184158e+01    0.6559306    0.2035275 -19.75  0.002091745    3.720    0.731
       150  -8.2431    233.7079     71.6418   8.0400225395e+01   1.7612483023e+01    0.1495412    0.1022684  16.24 0.0007029264    1.692    0.409
       151  -9.7148      6.6686    142.7101   1.4261224045e+02   4.4527638110e+01    0.3945591    0.1665366  57.58  0.002392184    2.035    0.509
       152  -8.7206    202.3814     68.2694   8.4168147970e+01   2.5477669515e+01    0.2119764    0.1287133 -37.93 0.0007621283    1.617    0.382
       153  -9.6127    175.1827     48.0295   8.2687432713e+01   3.5158557429e+01    0.7419158    0.2690377 -41.19   0.00249083    2.797    0.642
       154  -9.4010    178.3953     60.2579   8.5937383099e+01   3.2560740885e+01    0.3645492    0.2512144 -28.33   0.00103448    1.431    0.301
       155 -11.2933    174.3037     57.1980   8.5745984121e+01   3.4039046875e+01    0.6688043    0.5090554  45.41  0.002351268    1.327    0.246
       156 -10.4777    164.4777     57.0532   8.7572963820e+01   3.6501062389e+01    0.5374713    0.4235418  25.27   0.00150148    1.412    0.292
       157  -8.9335    135.4996     63.6023   9.5896078829e+01   4.2276889413e+01    0.3073987    0.1418989 -37.33 0.0009323549    2.104    0.525
       158 -11.1178     80.1503     69.1194   1.1238306411e+02   5.1895099548e+01     1.094332    0.4538356  33.32  0.003565617    3.355    0.702
       159  -9.5109    149.4142     59.6705   9.1511153620e+01   3.9732685926e+01    0.4661946    0.2410826 -48.13  0.001545342    2.148    0.534
       160 -10.2387    221.3567     57.9657   7.8401927164e+01   2.2247448817e+01    0.5355589    0.3802714  14.39  0.001874583    1.636    0.389
       161  -8.8218    219.2463     53.0378   7.7305286619e+01   2.3383449881e+01    0.2635637    0.1953004   0.55  0.000509102    1.477    0.323
       162 -10.3890    221.4294     47.9853   7.5572947171e+01   2.3474607554e+01    0.5415763    0.3833422 -58.12  0.002390366    1.641    0.391
       163  -9.8842    189.1559     49.5054   8.0770689011e+01   3.1391517056e+01    0.3938029      0.29376 -60.40   0.00119078    1.568    0.362
       164  -9.2271    158.0766     58.8298   8.9420319303e+01   3.7788337957e+01    0.4626117    0.2582552  21.65  0.001565391    3.292    0.696
       165  -8.1090    239.3200     59.2699   7.6377232222e+01   1.7843018536e+01    0.1420647    0.1010648  24.85 0.0001945732    1.564    0.361
       166 -10.4971    201.3645     57.1187   8.1112347450e+01   2.7273300330e+01    0.6074986     0.392429   6.17    0.0025404    2.032    0.508
       167  -8.5865    137.7513     59.4239   9.4038635731e+01   4.2496135974e+01    0.2104495    0.1357659  40.90 0.0009426667    1.663    0.399
       168 -10.2283      2.9569     57.6451   1.3520489937e+02   6.2537644652e+01    0.2934215    0.2114127  84.12   0.00207207    1.346    0.257
       169 -11.1242     27.5936     51.3947   1.2513974762e+02   6.2119944824e+01    0.6486471    0.2195667 -47.84  0.002878148    2.649    0.622
       170 -10.3897      2.8883    146.7379   1.4362115743e+02   4.4046494563e+01    0.4820289    0.1941733  73.13  0.002767985    2.208    0.547
       171 -10.7440     16.6282    158.9370   1.4162340755e+02   4.0588642734e+01    0.3406054    0.2371071 -48.39  0.002438626    2.185    0.542
       172 -10.4950     38.2753     27.2353   1.1360976486e+02   6.6034249102e+01    0.3437176    0.2628481  33.41  0.001652339    1.582    0.368
       173 -12.0615     20.0984    147.9756   1.4019348323e+02   4.2368950511e+01    0.7757322    0.5642623 -71.09  0.005890027    1.400    0.286
       174 -11.1158     21.6877     44.5205   1.2566897036e+02   6.4080478366e+01    0.9444077    0.4763467  43.60  0.005202191    2.498    0.600
       175 -10.6776     27.1374    126.2955   1.3683325069e+02   4.6063907302e+01     0.786898    0.4191992 -62.32   0.00481313    1.761    0.432
       176 -10.3161      3.7681    135.5452   1.4277377774e+02   4.6154114692e+01    0.4061402    0.2429327  74.57   0.00289619    1.321    0.243
       177 -10.6441     34.7622    150.1966   1.3733791312e+02   4.0533324123e+01    0.3655941    0.2276112  58.53  0.001749393    1.388    0.279
       178 -10.7772     39.0085    145.7643   1.3605249093e+02   4.0963851256e+01    0.4091308    0.2453995 -81.24  0.001699166    1.430    0.301
       179  -9.9637      9.0314    134.5412   1.4157607469e+02   4.5945964223e+01    0.2019625    0.1838483  74.19   0.00112616    1.339    0.253
       180 -11.5865     13.7530    129.8859   1.4019399071e+02   4.6498210862e+01    0.7126349    0.3573636  89.84  0.003992286    1.667    0.400
       181  -9.7053     19.2312    118.8655   1.3797781493e+02   4.8299894035e+01    0.3942782    0.2143308 -67.42  0.002250463    1.576    0.366
       182  -9.0380     43.9423    156.0233   1.3596052986e+02   3.8441778740e+01    0.1584683    0.1278006 -50.35  0.001145442    1.729    0.422
       183 -11.6621    141.5191     51.6440   9.0614541572e+01   4.2926339168e+01     0.838137    0.3987519  48.45  0.001212321    2.126    0.530
       184 -10.8044    149.8108     51.4024   8.8729060232e+01   4.0979582620e+01    0.5291403    0.4649223 -10.91  0.001705976    1.171    0.146
       185  -9.4861    236.9433     49.0203   7.3904612260e+01   1.9611741489e+01    0.2898791    0.1892271 -31.95 0.0005362615    1.405    0.288
       186  -8.2689    183.4767     49.9543   8.1856509554e+01   3.2775406534e+01    0.2265026    0.1081478 -48.64  0.000809335    2.511    0.602
       187  -9.6091     33.8699    155.8413   1.3798615448e+02   3.9535345361e+01    0.1459928    0.1248594  86.27 0.0003238289    1.222    0.182
       188  -9.4215     67.4734     45.3035   1.0911757654e+02   5.8684727574e+01    0.3549992    0.2622749 -31.01  0.001501095    1.389    0.280
       189  -8.3601     67.0000     40.4934   1.0760055277e+02   5.9695154671e+01    0.2736455   0.08892229 -48.79  0.001022484    2.778    0.640
       190  -8.8841     55.3093    155.3407   1.3356954565e+02   3.7283834631e+01    0.1014691   0.08409249 -47.98 0.0004880087    1.690    0.408
       191 -11.6294    164.8962     62.6315   8.9233965656e+01   3.5521504487e+01    0.7405519    0.6082584 -10.77  0.002316022    1.307    0.235
       192  -9.1899     52.8132    151.9102   1.3374122440e+02   3.8237831621e+01     0.158605    0.1403869 -86.87  0.001104399    1.239    0.193
       193  -8.7290     80.8332     46.6467   1.0519487602e+02   5.6303962881e+01    0.1726496    0.1692221  13.62 0.0005368782    1.127    0.112
       194 -10.0195    206.7437     43.9174   7.6391027529e+01   2.7646896939e+01    0.5424032    0.3741863 -53.58  0.002546894    1.618    0.382
       195 -10.7193    202.5639     37.8780   7.5151102770e+01   2.9463280927e+01    0.5481516    0.3979293  40.62  0.002329052    1.445    0.308
       196 -10.6127    199.8526     31.4644   7.3542572700e+01   3.0936475568e+01    0.4188995    0.3009923 -68.39 0.0003188364    1.656    0.396
       197 -10.0217    194.6381     31.0338   7.4131497079e+01   3.2346221145e+01    0.3440377    0.2637539  -5.22 0.0008797088    1.391    0.281
       198  -9.2795    104.4074     45.2511   9.7662496354e+01   5.2197903685e+01    0.3587953    0.2409214 -45.01  0.001514732    1.432    0.302
       199  -8.6992    107.2679     44.3299   9.6537795755e+01   5.1778373434e+01    0.3750854    0.1833498 -47.69  0.001056245    2.147    0.534
       200  -8.9507    248.6917     44.3378   7.1296993475e+01   1.7411670415e+01    0.2871574    0.1736426  26.29 0.0009672804    2.066    0.516
       201  -9.9202    233.0882     41.8412   7.2385700320e+01   2.1364253025e+01    0.6872725    0.3549929  13.71  0.002445217    3.297    0.697
       202  -8.6717    192.8206     53.8124   8.1490395480e+01   2.9870053403e+01    0.2000903    0.1715266 -62.27 0.0003480078    1.295    0.228
       203  -8.2716      1.5189     44.4754   1.3345804174e+02   6.5434722704e+01    0.1152184   0.08185221 -60.70 0.0002445411    1.119    0.107
       204 -10.2731    186.5169     52.9934   8.2285050065e+01   3.1577430255e+01    0.4614371     0.274521  18.61  0.001771866    2.487    0.598
       205 -10.1864    191.2561     39.4180   7.7285248740e+01   3.2188733988e+01    0.5845506    0.3411074 -17.27 0.0008200695    1.824    0.452
       206  -8.5879    196.4148     41.2300   7.7073147630e+01   3.0626064223e+01    0.2575817    0.1974727 -51.51  0.001264306    1.391    0.281
       207 -11.0951    162.2621     38.3593   8.1827968009e+01   3.9817980316e+01    0.5775619    0.3149226 -24.45    0.0023804    1.861    0.463
       208  -9.2601     77.1421     41.3515   1.0450033732e+02   5.7927943624e+01    0.2624284    0.1993026  60.24  0.001165269    1.655    0.396
       209  -9.6623    180.6490     39.2933   7.8925827425e+01   3.4953056679e+01    0.4509613    0.3434853 -62.31   0.00188754    1.519    0.342
       210  -8.5705      4.6932     41.0358   1.3152923954e+02   6.5989015990e+01    0.1466511    0.1114367 -64.41 0.0007456588    1.019    0.019
       211 -10.4116    109.7204     38.0295   9.3531226598e+01   5.2340611789e+01    0.3697311    0.3429683   9.55 0.0007762433    1.101    0.092
       212 -10.6354    106.8187     30.2752   9.1284119345e+01   5.4209827569e+01    0.8238545    0.4283502  55.78  0.003572665    2.130    0.530
       213  -9.2524    168.7417     36.6094   8.0058998293e+01   3.8392758037e+01    0.3278828    0.2647598 -47.20  0.001382318    1.287    0.223
       214 -10.1610    210.4872     32.7811   7.2539220461e+01   2.8038583241e+01    0.5030854    0.2518849 -21.18  0.001746313    1.983    0.496
       215 -10.9939    237.4455     32.8398   6.9394704392e+01   2.1322637028e+01     0.660297      0.41714  58.29   0.00325637    1.648    0.393
       216  -9.7194    246.5713     33.5258   6.8629211632e+01   1.9083536057e+01    0.4417231    0.2590691  41.22  0.001651779    1.929    0.481
       217  -9.2615     37.6902     33.8204   1.1619691494e+02   6.4798404158e+01    0.3352312    0.1920996 -32.73  0.001411376    1.943    0.485
       218 -10.3052     67.4463    148.8468   1.3032273618e+02   3.7049512190e+01    0.3461148    0.1854954 -84.99  0.001861895    2.045    0.511
       219  -8.7998     60.4875    147.4934   1.3164970151e+02   3.8185942251e+01    0.1154226   0.09471235  80.85 0.0001209617    1.028    0.027
       220  -8.1364     46.4931    145.4884   1.3442909499e+02   4.0212557481e+01    0.1142026   0.08923188  80.29 4.568828e-05    1.013    0.013
       221 -10.6141    177.3420     28.9406   7.6029614028e+01   3.7136692399e+01    0.5983627    0.3884543 -20.78  0.002131009    1.550    0.355
       222  -9.0168     47.3228    137.4852   1.3340863155e+02   4.1720267394e+01    0.2169233    0.1295177 -87.92  0.001088826    1.535    0.349
       223 -10.5093     54.6275    137.6205   1.3179639076e+02   4.0856731704e+01    0.3044096    0.2048721 -66.02  0.001363455    1.418    0.295
       224 -11.5356     55.2945    129.6481   1.3067435867e+02   4.2404268001e+01    0.9125526    0.2733197 -56.49  0.003888065    3.182    0.686
       225 -10.1422     64.2614    138.1906   1.2971696816e+02   3.9566629195e+01    0.2443299     0.139649  53.15  0.001411133    1.643    0.391
       226 -10.3200     19.3130    128.8459   1.3885840768e+02   4.6241464227e+01    0.2552444    0.2111048 -76.90 0.0002726718    1.253    0.202
       227  -9.2362     41.5287    134.0356   1.3433422367e+02   4.3049368008e+01    0.2621179   0.09532842  62.45  0.001062329    3.769    0.735
       228  -8.6468     78.4976    127.5069   1.2497316859e+02   3.9838479285e+01    0.1929298    0.1332663  76.22  0.001113246    1.496    0.332
       229 -10.5691    226.3648     28.6814   6.9432155543e+01   2.4488970847e+01    0.6760929     0.314997 -42.73  0.002768603    2.111    0.526
       230 -10.9475     65.1195    130.6557   1.2853425247e+02   4.0988160447e+01    0.4931366    0.2502078  53.17  0.002622766    1.937    0.484
       231  -9.3201    219.9626     25.4694   6.9216952770e+01   2.6445415799e+01    0.3316944    0.2335129 -62.23 0.0007062804    1.593    0.372
       232 -10.7838     72.3134    129.8650   1.2676124850e+02   4.0207094657e+01    0.5563056    0.2956298 -62.34  0.002414446    1.762    0.432
       233  -9.8513     74.2282    125.2130   1.2562106569e+02   4.0902927939e+01    0.3017586    0.1532738  51.20  0.001543001    1.956    0.489
       234  -9.7385     95.8654    130.1891   1.2140920914e+02   3.6714541775e+01     0.249496    0.1716491 -50.15  0.001415032    1.577    0.366
       235  -9.3958    162.5611     32.1392   7.9619173177e+01   4.0583896192e+01    0.4147087    0.2475125  32.75  0.001719411    1.990    0.498
       236 -10.4300    154.2638     24.9387   7.8547308587e+01   4.3652983624e+01    0.4391444    0.2505796 -33.19   0.00172958    1.690    0.408
       237  -9.4821    159.6948     24.4972   7.7414052150e+01   4.2302965703e+01    0.3902666    0.3315105  73.72  0.001434864    1.251    0.200
       238  -8.1849    170.4886     27.5247   7.6650759928e+01   3.9109774087e+01    0.2554944     0.146274  62.66 5.203889e-05    1.754    0.430
       239  -8.9221    167.3364     29.4157   7.7833966967e+01   3.9697132460e+01    0.2768807    0.1962264  35.20 0.0006392587    1.513    0.339
       240  -9.7022     35.0293    129.9642   1.3538406540e+02   4.4550581601e+01    0.2388988    0.1150855  54.26  0.001351596    1.980    0.495
       241  -9.1205    173.6552     39.0821   8.0032795002e+01   3.6790960389e+01     0.285192    0.2127744 -88.31  0.001327696    1.656    0.396
       242  -9.2199    193.0828     24.9046   7.2386280305e+01   3.3469456743e+01    0.4051434    0.2048008  19.68  0.001319529    3.301    0.697
       243 -10.3610     37.8893    126.9378   1.3440137007e+02   4.4884424503e+01     0.239923    0.1575916 -57.10 0.0009889393    1.632    0.387
       244 -10.8218     48.3053    125.4532   1.3178388123e+02   4.4077411778e+01    0.3109264    0.2017858 -74.64  0.001955971    1.331    0.249
       245  -9.5080    241.0197     23.5022   6.6452930006e+01   2.1453077359e+01    0.4001211    0.1637844 -37.79  0.001136077    2.163    0.538
       246 -10.8475     67.7134    122.3883   1.2674136805e+02   4.2361648082e+01    0.5953947    0.3487021 -42.44  0.003066974    2.370    0.578
       247  -8.5488    201.3833     25.2834   7.1405917168e+01   3.1250105649e+01    0.2005035    0.1293852 -33.40 0.0005133571    1.476    0.322
       248 -10.0231     68.0082    115.5850   1.2561260538e+02   4.3749111870e+01    0.5047468    0.2012782  50.91  0.002235333    2.700    0.630
       249  -9.9970     91.9938    120.3405   1.2060705375e+02   3.9308119188e+01    0.3852887     0.272908 -40.61  0.002135684    1.753    0.430
       250 -10.3550     97.3619    115.1445   1.1836486135e+02   3.9518604899e+01    0.3608584     0.288237  20.86  0.001831424    1.703    0.413
       251  -9.3550    198.2410     16.6170   6.9059867869e+01   3.3016167298e+01    0.3152812    0.2204403  55.90 0.0008908238    1.424    0.298
       252  -9.4323     17.0149    249.5009   1.4560464443e+02   2.5954823922e+01    0.1268241   0.06175267  45.17 0.0008327602    1.604    0.376
       253  -8.4651     64.4205     14.1518   9.7590513754e+01   6.4768422846e+01    0.1838626    0.1068549 -46.11 0.0009257255    1.760    0.432
       254 -10.7661      3.8740     99.8599   1.4002498644e+02   5.3442032257e+01    0.5180203    0.2749252 -69.63  0.001225389    1.495    0.331
       255 -11.5020     32.0039     70.6667   1.2779760719e+02   5.7552135432e+01     1.348061    0.7479795 -76.34  0.007418919    1.697    0.411
       256 -12.5547     49.8196     87.3093   1.2555964137e+02   5.2077596069e+01     2.190085     1.832156   9.39   0.01428737    1.660    0.398
       257 -11.2403     49.1967     25.5218   1.0849508933e+02   6.5037962007e+01    0.4052809    0.2219178  34.29  0.001561697    2.169    0.539
       258 -11.1523     27.4915    102.1228   1.3406160707e+02   5.1121293043e+01    0.6657149    0.4844001  -1.10  0.004233048    2.287    0.563
       259 -11.2028      4.9082     80.2458   1.3767928273e+02   5.7554222487e+01    0.5568894     0.335823 -71.74  0.002759401    1.261    0.207
       260 -12.5268      5.6819    114.9234   1.4087113403e+02   5.0174850116e+01     1.107575    0.2939313 -61.52  0.005206763    3.145    0.682
       261 -12.0338     17.3320    102.4878   1.3677792619e+02   5.1902172708e+01     1.167483    0.5213526  83.52  0.005596647    2.481    0.597
       262 -11.1396     22.1563     96.2493   1.3475214678e+02   5.2845610400e+01    0.4636633    0.3342847 -82.76  0.003199662    1.101    0.092
       263 -11.9243     26.9721     85.6320   1.3191772491e+02   5.4736433268e+01    0.9121792    0.6498159 -79.29   0.00607271    1.148    0.129
       264 -11.3233      3.2896     89.2847   1.3914859850e+02   5.5721408422e+01    0.5481651    0.3453027 -81.60  0.003343465    1.202    0.168
       265 -12.1574     12.0421     87.3183   1.3646161028e+02   5.5553030854e+01    0.5720615    0.4063985  68.72   0.00354862    1.388    0.280
       266 -11.0427     68.4544     76.0107   1.1765267854e+02   5.2172118246e+01      0.60965    0.3465602 -53.71   0.00227814    1.548    0.354
       267  -9.8117    157.7766     50.9538   8.6935307357e+01   3.9099374708e+01    0.9115525    0.5400823  18.79  0.003384162    2.730    0.634
       268 -11.4712     76.6345     75.2760   1.1505367831e+02   5.1143312030e+01    0.7814973    0.2918373  38.91  0.003151035    3.030    0.670
       269  -8.7201     25.7446    248.6337   1.4437448240e+02   2.5230728267e+01    0.1227147   0.05139659  50.44 0.0006188641    1.557    0.358
       270 -11.0152     30.9298     43.1119   1.2173188749e+02   6.3571185629e+01    0.3750697    0.2827247  73.81  0.001528656    1.718    0.418
