#   1 NUMBER                 Running object number                                     
#   2 MAG_AUTO               Kron-like elliptical aperture magnitude                    [mag]
#   3 X_IMAGE                Object position along x                                    [pixel]
#   4 Y_IMAGE                Object position along y                                    [pixel]
#   5 X_WORLD                Barycenter position along world x axis                     [deg]
#   6 Y_WORLD                Barycenter position along world y axis                     [deg]
#   7 A_WORLD                Profile RMS along major axis (world units)                 [deg]
#   8 B_WORLD                Profile RMS along minor axis (world units)                 [deg]
#   9 THETA_WORLD            Position angle (CCW/world-x)                               [deg]
#  10 FWHM_WORLD             FWHM assuming a gaussian core                              [deg]
#  11 ELONGATION             A_IMAGE/B_IMAGE                                           
#  12 ELLIPTICITY            1 - B_IMAGE/A_IMAGE                                       
         1 -14.7488      3.3456     81.0358   1.3392887773e+02   5.7649546759e+01       4.3811    0.4299287 -75.71   0.00999721    9.439    0.894
         2 -13.2965    202.0712     31.4322   6.0839222683e+01   3.0529993640e+01     1.414499    0.8474011  46.95  0.005979034    1.716    0.417
         3 -13.4684    220.1398     11.5258   5.3180460161e+01   2.8137108251e+01    0.8939286    0.8163368  39.45   0.00220781    1.196    0.164
         4 -13.7715      5.3100    116.1019   1.3666877294e+02   4.9540689921e+01     1.311169    0.5759863 -87.02   0.00599712    1.998    0.500
         5 -12.7801    218.5282    249.8136   1.0638452120e+02  -2.4074374356e+00    0.8039488    0.1439912  41.11  0.002822236    5.051    0.802
         6 -12.3455    125.9953    249.4622   1.2249540130e+02   1.0545466182e+01    0.5152339    0.1855209  32.05  0.002440929    2.742    0.635
         7 -14.7408      9.0333    241.5299   1.4194974792e+02   2.5048677975e+01      2.47749      1.16369  47.98   0.01859399    1.480    0.324
         8 -14.7779     28.2157    225.0983   1.3816091020e+02   2.5939703412e+01    0.8726976    0.8170408  55.72  0.007884604    1.422    0.297
         9 -13.0781      9.2982    207.1490   1.4075256482e+02   3.0729750911e+01    0.6259566    0.5074984  39.15  0.003509433    1.415    0.293
        10 -11.7853     63.0865    246.5723   1.3328005132e+02   1.8858807590e+01    0.3277394    0.1599225  64.90  0.001740757    1.992    0.498
        11 -12.4176    178.5564    249.0252   1.1313765398e+02   3.2404852506e+00    0.4314081    0.1912758  31.78  0.002421529    1.780    0.438
        12 -11.6935    162.9962    249.1521   1.1589215599e+02   5.4308231433e+00    0.2820766    0.1252249  38.06  0.001614889    1.638    0.389
        13 -12.4806    140.3394    249.2613   1.1992558748e+02   8.6001166619e+00    0.4219276    0.2159744  38.57  0.002620595    1.426    0.299
        14 -12.6621     40.6104    211.9190   1.3523872548e+02   2.6971555371e+01    0.5218217    0.3625499  66.34  0.002028443    1.154    0.133
        15 -12.3805    110.8317    231.4980   1.2353460243e+02   1.5177632069e+01    0.5411679    0.1057977  39.88  0.002084458    3.563    0.719
        16 -11.4909    109.9012    247.4284   1.2516930554e+02   1.2979523667e+01    0.1927519      0.14849 -56.77  0.001430828    1.729    0.422
        17  -8.6512    152.3711    213.2336   1.1339718466e+02   1.1822880767e+01    0.1226803   0.08087103  20.84 0.0005440591    1.605    0.377
        18 -11.9322     53.2620    197.0253   1.3176909753e+02   2.8331253007e+01    0.2880116    0.2367812 -42.35 0.0009196198    1.714    0.417
        19 -11.3016      2.6073    189.6483   1.4132035618e+02   3.4448677764e+01    0.2499827    0.1590298  73.81 0.0005756091    1.207    0.172
        20 -12.0422     60.6308    188.3611   1.2952746027e+02   2.9144363890e+01    0.2175793    0.1987555  70.30 0.0003845743    1.151    0.131
        21 -11.3421      6.5550    185.7778   1.4040832475e+02   3.4874106006e+01    0.2604652    0.1347539  70.94  0.001052257    1.584    0.369
        22 -11.1717     25.5010    184.3101   1.3655979810e+02   3.3564691573e+01    0.3654244     0.107843  58.49  0.001584516    3.441    0.709
        23 -13.1390     58.0864    173.6465   1.2872471538e+02   3.2365198400e+01    0.4525474    0.2482998 -48.06  0.001937213    2.342    0.573
        24 -10.7985     72.2084    175.5909   1.2573094123e+02   3.0267587518e+01    0.2086246    0.1834213  72.03  0.000346737    1.040    0.039
        25 -11.8988     79.8676    167.3929   1.2300623524e+02   3.0948222281e+01    0.4485912    0.4037944 -26.28  0.002051108    1.412    0.292
        26 -10.5253     89.2351    167.1860   1.2076907888e+02   2.9701554006e+01    0.4212371    0.1971259  55.71  0.001246031    2.494    0.599
        27 -13.3767    239.9198    247.1821   1.0249339683e+02  -5.0077946063e+00    0.9449373    0.4511062  23.13  0.005829227    1.658    0.397
        28 -10.3839     93.7878    151.5455   1.1739797181e+02   3.2316967696e+01    0.2483028    0.2332661 -88.73 0.0007359493    1.064    0.060
        29 -12.0398     82.2928    150.2279   1.2010080541e+02   3.4257467270e+01    0.2763388    0.2317199 -50.25 0.0008209854    1.297    0.229
        30  -9.3471     97.1612    147.3339   1.1586682680e+02   3.2708610736e+01    0.1882395    0.1589326  45.67 0.0008081001    1.129    0.114
        31 -11.8865     67.9827    142.9656   1.2274828422e+02   3.7746545566e+01    0.4964895    0.3525329  73.19  0.001709368    1.500    0.333
        32 -10.8418     64.6802    141.6748   1.2343517997e+02   3.8442635922e+01    0.2785722    0.2102454 -46.60 0.0008577436    1.478    0.324
        33  -9.8452    106.9557    136.9242   1.1148477006e+02   3.3387434340e+01    0.3863485    0.2474822 -12.57  0.001539544    2.991    0.666
        34 -10.4777     93.9585    133.9060   1.1438119410e+02   3.6137976469e+01    0.2105588    0.1915905 -60.29 0.0003425058    1.106    0.096
        35  -9.4745     70.4823    125.0095   1.1932794635e+02   4.1499348272e+01     0.258147    0.1648951  53.16 0.0009433103    1.675    0.403
        36  -9.0275    105.1073    123.4581   1.0929432570e+02   3.6644483601e+01    0.1928922    0.1380872  38.31 0.0001275779    1.386    0.279
        37  -8.8186     59.5005    108.4685   1.1970907361e+02   4.6709312624e+01    0.1957847    0.1169443  45.48 0.0009513201    1.797    0.443
        38  -9.7697     51.4928    102.7236   1.2119208043e+02   4.8962076244e+01    0.2382591    0.1808696  68.59 0.0006178579    1.476    0.322
        39 -14.5657      4.6049    142.6766   1.3866652727e+02   4.3742309283e+01     2.591529    0.6940601 -85.97   0.01042703    3.635    0.725
        40 -12.3435     96.6436    247.7918   1.2754387946e+02   1.4644056825e+01    0.3342241    0.2570972  64.80   0.00263789    1.263    0.209
        41 -11.5387     81.0263    249.3240   1.3037932971e+02   1.6355208930e+01    0.2875109    0.1255655  33.61  0.001673513    2.073    0.518
