#   1 NUMBER                 Running object number                                     
#   2 MAG_AUTO               Kron-like elliptical aperture magnitude                    [mag]
#   3 X_IMAGE                Object position along x                                    [pixel]
#   4 Y_IMAGE                Object position along y                                    [pixel]
#   5 X_WORLD                Barycenter position along world x axis                     [deg]
#   6 Y_WORLD                Barycenter position along world y axis                     [deg]
#   7 A_WORLD                Profile RMS along major axis (world units)                 [deg]
#   8 B_WORLD                Profile RMS along minor axis (world units)                 [deg]
#   9 THETA_WORLD            Position angle (CCW/world-x)                               [deg]
#  10 FWHM_WORLD             FWHM assuming a gaussian core                              [deg]
#  11 ELONGATION             A_IMAGE/B_IMAGE                                           
#  12 ELLIPTICITY            1 - B_IMAGE/A_IMAGE                                       
         1 -13.9151     24.8001     49.0100   1.1175204086e+02   6.5185722896e+01     1.298667    0.7261238 -42.22  0.006636204    1.787    0.440
         2 -15.3969      9.0181     25.8764   1.1462184596e+02   7.1672156356e+01     2.899757     1.050308 -61.43   0.01350642    2.046    0.511
         3 -13.3180     30.7797     10.4910   9.3840088377e+01   7.3180280407e+01     1.527861    0.5160202 -44.96  0.006280541    2.530    0.605
         4 -14.8637     44.3738     42.0061   9.9929291546e+01   6.4843564672e+01      2.23663     1.422485 -43.99  0.008314791    1.456    0.313
         5 -15.2883     74.3902     62.4606   9.3806102855e+01   5.5765212767e+01     3.245287     1.784923 -56.34   0.01410033    1.813    0.448
         6 -15.4745     58.1767     70.5509   1.0246357773e+02   5.6365923896e+01     2.860129     1.320024  40.96  0.008852738    2.268    0.559
         7 -11.8336     73.2510      1.4921   6.6205784454e+01   6.7177979380e+01     0.297689    0.1695461  55.09 0.0005595937    1.771    0.435
         8 -13.2883    121.6593     10.6196   5.7462582900e+01   5.4127755171e+01     1.424206    0.4476113  56.43  0.004810303    2.714    0.632
         9 -12.8554    104.2988      5.0576   5.8779766083e+01   5.9302384320e+01    0.7717128    0.6330637 -31.04  0.003164486    1.257    0.204
        10 -14.5513     84.9747      7.5547   6.5640321295e+01   6.3761965576e+01      1.76127     1.197469  52.18  0.008824062    1.440    0.305
        11 -12.3892     75.7374     13.4486   7.2219412030e+01   6.5017471769e+01    0.3554501    0.3516557  20.24 0.0008973277    1.131    0.116
        12 -11.2007    150.8064     20.5148   5.6022763409e+01   4.5041472179e+01    0.5043449    0.3877081  42.60   0.00246692    1.337    0.252
        13 -11.7261     64.7056     18.0398   7.9350248298e+01   6.6509115901e+01     0.457458    0.3138323  29.68  0.001389776    1.577    0.366
        14 -13.0086     83.6014     22.6506   7.4060266777e+01   6.1887879829e+01    0.6236745    0.5120055  61.81 0.0006069373    1.374    0.272
        15 -12.5823    185.9630     11.9542   4.8171024222e+01   3.6372323264e+01    0.5780748    0.4523198  77.22  0.003030483    1.271    0.213
        16 -11.5105    175.3414     13.8980   5.0053881295e+01   3.9040587004e+01    0.3698337    0.2729636  14.75  0.001574469    1.619    0.382
        17 -12.2980    110.6808      4.6996   5.7092496152e+01   5.7681531831e+01    0.6560103    0.4836263   8.50  0.002729266    1.496    0.332
        18 -10.9988    150.2968      8.8340   5.1611340513e+01   4.6463349947e+01    0.3462746     0.290542  87.67    0.0012525    1.202    0.168
        19 -11.9043    188.5785      5.7968   4.5908217492e+01   3.6270097332e+01    0.5019008    0.3278487 -23.85  0.001978063    1.518    0.341
        20 -11.4144    193.4852      7.5260   4.5985269748e+01   3.4808002592e+01    0.3471962    0.2613553  16.54  0.001047904    1.592    0.372
        21 -11.6843    192.6862      4.6844   4.5165114803e+01   3.5284220693e+01      0.42847    0.2615798  55.69  0.001677767    1.678    0.404
        22 -12.2794    138.1723      4.5941   5.1786977291e+01   5.0242530263e+01    0.8093312    0.4013114  55.82  0.002376982    1.850    0.459
        23 -10.4486     49.0037      5.0497   7.9465176623e+01   7.1481539417e+01    0.3830435    0.1774545 -34.10  0.001716567    2.033    0.508
        24 -11.9890     75.8196    140.9884   1.1005365549e+02   3.7337784098e+01    0.4371834    0.2442997  80.62   0.00194077    2.434    0.589
        25 -11.7736    194.1040    136.6133   8.1548444653e+01   1.6764638167e+01    0.6159236     0.416931  18.83   0.00316287    1.610    0.379
        26 -12.2983    199.4377    128.6692   7.8830473067e+01   1.6905628680e+01    0.6845948     0.298631 -37.01  0.002901692    2.335    0.572
        27 -13.3962    204.6197    124.4501   7.6951383478e+01   1.6499829554e+01    0.8476497    0.6919006 -43.01  0.004850175    1.416    0.294
        28 -11.4692     33.9980    135.9425   1.2087991069e+02   4.3477779982e+01    0.3047296    0.1529333  35.11  0.001536447    1.884    0.469
        29 -11.2624    224.1894    133.8454   7.5669263515e+01   1.1486031501e+01    0.3926187    0.2230098  39.26  0.002032612    1.682    0.405
        30 -11.9176     82.4478    133.9845   1.0723161147e+02   3.7919151122e+01    0.2505532    0.2352218  60.74  0.001558069    1.092    0.084
        31  -9.9963    138.8256    152.1984   9.6213118949e+01   2.4674251243e+01    0.1893629    0.1568187  14.36  0.001075463    1.349    0.259
        32 -10.2842     21.8254    133.9744   1.2406687766e+02   4.5030789930e+01    0.2151604    0.1027739  69.27  0.001085726    1.972    0.493
        33 -10.6518     64.5583    129.8700   1.1161610324e+02   4.1370351119e+01    0.2522148    0.1979377 -87.16  0.001475958    1.216    0.178
        34 -11.1657    122.1896    127.2821   9.5450637931e+01   3.2592111979e+01    0.3764207    0.3242022  57.07  0.001335657    1.127    0.113
        35 -13.4818    218.2409    120.6865   7.3762048125e+01   1.4358593503e+01    0.9635236    0.4919741  52.05  0.004445495    2.144    0.534
        36 -11.2272    246.2829    249.4294   9.1557430629e+01  -3.6096861078e+00    0.1968952   0.06452747  33.05  0.001154799    2.169    0.539
        37 -10.8129    187.9804    198.2577   9.3847702478e+01   9.2900827627e+00    0.1630636   0.08347347  38.06 0.0008942557    1.576    0.365
        38  -9.4830    246.3113    183.3309   8.1646921551e+01   2.1898412902e+00    0.1204642    0.0691964  10.76 0.0007042986    1.672    0.402
        39 -14.8625     96.6108     71.5852   8.8833947132e+01   4.9625303234e+01     1.514938     1.361352 -39.16  0.001983419    1.124    0.111
        40 -10.5344    144.4797    181.4955   9.9754854521e+01   1.8675275745e+01    0.1279995    0.1061881  37.51 7.434136e-05    1.004    0.003
        41 -10.7232     33.9807    177.1476   1.2383250343e+02   3.4746374183e+01    0.2350004    0.1514999  -1.62  0.001254021    3.097    0.677
        42 -11.5032    134.8435     98.5963   8.5517266095e+01   3.5882353417e+01    0.5827188    0.4254147 -32.78  0.002771322    1.497    0.332
        43 -10.9346    117.8019     90.1940   8.7830840589e+01   4.1266163272e+01    0.2098819    0.1832514   7.31 0.0006406551    1.348    0.258
        44 -10.8249    188.2760     94.3501   7.2623808659e+01   2.4561928171e+01    0.3513372    0.2810017 -54.64  0.001799893    1.459    0.315
        45  -9.2951    214.0333     87.9931   6.6565368956e+01   1.9768377352e+01    0.1638955    0.1525018   1.14            0    1.030    0.029
        46 -13.2241      6.0501     82.5038   1.2500877875e+02   5.8228583357e+01     1.026552     0.463541 -59.26  0.005208342    1.979    0.495
        47 -13.0793      2.6557     70.5674   1.2522553680e+02   6.1272765635e+01        1.121    0.3067493 -81.80  0.004314551    3.122    0.680
        48 -12.3445      8.1777     65.6728   1.2239725063e+02   6.2200972108e+01     0.427444    0.3018162 -71.49  0.001745363    1.170    0.145
        49 -10.2298    249.9530     86.5881   6.1213248105e+01   1.2583689725e+01    0.2311349     0.193548 -43.37  0.001435242    1.311    0.237
        50 -10.8511    137.7267     84.4375   8.0873785196e+01   3.8035262088e+01    0.3093653    0.1499153  53.87  0.001150989    2.167    0.539
        51 -11.7665    128.2327     81.7972   8.2567979826e+01   4.0720463095e+01      0.39182    0.3455975 -83.46  0.001309073    1.278    0.217
        52 -13.3397    126.9839     72.8712   8.0178576845e+01   4.2776334981e+01    0.8682474    0.4205175  60.87  0.002999763    2.728    0.633
        53 -12.7682    121.2105     80.0087   8.3957427517e+01   4.2652232245e+01    0.4897058    0.3884826  25.20  0.001826095    1.453    0.312
        54 -13.0347    118.1744     67.5211   8.0903198553e+01   4.5856966410e+01    0.5993229    0.4382796 -30.66  0.002350267    1.469    0.319
        55 -11.3346     18.1445     78.1320   1.1991511668e+02   5.8568602085e+01    0.2379016    0.1525687 -83.97 0.0007915734    1.363    0.267
        56 -12.3325    144.0111     75.4422   7.6638044071e+01   3.8262849880e+01    0.5448825    0.3693445 -30.24  0.001446018    1.565    0.361
        57 -10.5101    153.1666     72.8449   7.3710312717e+01   3.6508866557e+01    0.2183579    0.1828117  24.04  0.001068347    1.306    0.234
        58  -9.4363    182.5513     72.0101   6.7509190895e+01   2.9420255424e+01     0.209028     0.144486 -30.00 0.0003777263    1.418    0.295
        59 -10.3606    146.9887     65.8505   7.2918025112e+01   3.9264171152e+01    0.2906389    0.2291669 -32.21  0.001248633    1.282    0.220
        60 -10.6185    214.5435     61.2903   5.9400585307e+01   2.3281550728e+01    0.3720865    0.2266352 -15.41  0.001701273    1.753    0.429
        61 -10.2878    169.8392     63.1531   6.7229080823e+01   3.3965380639e+01     0.300692    0.2156493  50.45 0.0006638687    1.391    0.281
        62  -9.8214    166.0130     62.9738   6.7921108038e+01   3.4961908110e+01    0.2283592    0.2065146  22.12 0.0003898952    1.156    0.135
        63 -13.0526    115.7681     77.6732   8.4803228305e+01   4.4328240072e+01    0.7224677    0.4591625 -33.67  0.003117914    1.755    0.430
        64 -11.8696    141.9012     96.4803   8.3188896626e+01   3.4747016287e+01    0.5766897    0.3486418 -25.68  0.002344741    2.149    0.535
        65 -12.9062    124.7992     57.6572   7.5701877031e+01   4.6192728769e+01    0.3929321    0.3456487  62.62 0.0007588383    1.173    0.148
        66 -10.7624    174.7277     56.5459   6.4255863982e+01   3.3736084589e+01    0.2556462    0.2441534 -66.19 0.0004245428    1.084    0.077
        67 -12.5855    134.0082     53.9226   7.2000785210e+01   4.4592892933e+01    0.4860406    0.3325066  62.75 0.0004975747    1.557    0.358
        68 -10.6893    152.0505     53.9817   6.7866026252e+01   3.9981594012e+01     0.296904    0.1879013  44.18 0.0006766717    1.629    0.386
        69 -10.9559    114.0249     97.0923   9.0728469100e+01   4.0572240306e+01    0.3549759    0.2807947 -85.39  0.001065259    1.546    0.353
        70 -11.7302     92.8629     52.9774   8.3777103351e+01   5.4317664745e+01    0.2789952    0.2578167  24.61 0.0003465331    1.130    0.115
        71 -11.9333     97.2156     51.3624   8.1695237211e+01   5.3723269977e+01    0.3560208     0.259088  62.07 0.0009523251    1.587    0.370
        72 -11.2691    145.3305     50.6675   6.8191667509e+01   4.2252983671e+01    0.3115642    0.2983037 -64.35 0.0006386033    1.076    0.071
        73 -10.2135    137.4078     48.2289   6.9140678698e+01   4.4691703184e+01    0.2233071    0.1395716 -44.38 0.0006995104    1.649    0.394
        74  -9.9993    176.4337     45.1545   6.0332914716e+01   3.4935925609e+01     0.358193    0.2366228 -54.67   0.00158324    1.693    0.409
        75 -11.2026    157.0470     43.8702   6.3380267097e+01   4.0233778227e+01    0.3219562    0.2625431  33.10 0.0006353456    1.316    0.240
        76 -11.0672    121.9722     43.9306   7.1405929604e+01   4.9316532201e+01    0.3246816    0.2740602   7.97  0.001004572    1.340    0.254
        77 -11.1288    100.5048     49.4775   7.9895214483e+01   5.3375238372e+01    0.2833217    0.2444307  36.38 0.0007372408    1.191    0.161
        78 -10.1513    181.9848     43.4584   5.8896559853e+01   3.3717926697e+01    0.2220045     0.203832 -27.14 0.0004121289    1.073    0.068
        79 -10.4967    139.1273     43.4325   6.6990818119e+01   4.5017853804e+01     0.410235    0.2311241  72.65  0.001054964    2.275    0.560
        80 -11.8199    216.6767     38.9710   5.2915155878e+01   2.5555843833e+01    0.5376697    0.3241805  47.43  0.001978336    1.814    0.449
        81  -9.8983    196.8897     41.1026   5.5995751121e+01   3.0188528571e+01    0.2252757    0.1876511 -53.60 0.0005255896    1.210    0.174
        82 -12.0243    203.4265    171.8486   8.6712010540e+01   1.0164307883e+01    0.3731231    0.2477009   2.69   0.00212495    1.660    0.397
        83 -10.5864    204.8853     36.8722   5.3700733343e+01   2.8694640996e+01    0.2899455    0.2404038  55.23 0.0009382563    1.264    0.209
        84 -11.0670    160.0371     36.2053   6.0143822444e+01   4.0522937514e+01     0.232474    0.2148625 -20.25 0.0002836239    1.101    0.092
        85 -12.1200     82.5180     33.5046   7.9586894052e+01   6.0240130877e+01    0.4335235    0.3407636  27.83  0.001219467    1.369    0.270
        86 -12.7367     79.7074     30.7139   7.9393276611e+01   6.1326402602e+01    0.5854266    0.5432003   7.02  0.002077448    1.073    0.068
        87  -9.3959    240.5069     34.4691   4.9271680878e+01   2.0570029829e+01     0.132449    0.1178823 -30.93 5.177993e-05    1.025    0.024
        88 -11.1477    176.7220     33.4225   5.6447229774e+01   3.6414984155e+01    0.2866097    0.2656532  59.71 0.0003302406    1.090    0.082
        89 -10.0661     96.8797     33.7964   7.4653567512e+01   5.7059346201e+01    0.2232572    0.1996231  11.88 0.0005561194    1.163    0.140
        90  -9.6053    108.8430     28.3705   6.8606163298e+01   5.5092058152e+01     0.222494    0.1298742  45.08 0.0007031593    1.717    0.418
        91 -10.4202      2.3982    171.2143   1.3059620176e+02   3.8710799022e+01    0.1565362   0.07578033  75.82 0.0009464538    1.679    0.405
        92 -11.0771    197.4923    168.1036   8.7111137158e+01   1.1660130092e+01    0.2016909    0.1689596  44.87  0.001234248    1.345    0.257
        93 -10.6182    185.8380    167.1516   8.9115083362e+01   1.3803473568e+01    0.1906654    0.1683768  42.07 0.0007867114    1.246    0.197
        94 -12.2518    215.3418    162.6547   8.2938362219e+01   9.3398525891e+00    0.4635738    0.2620332   0.50  0.002226046    2.399    0.583
        95 -10.5578    240.3506    158.6633   7.8094375559e+01   5.7226726552e+00    0.2217374    0.2043075 -50.57  0.001533472    1.731    0.422
        96 -11.4376    241.8753     22.9654   4.6178398425e+01   2.1474063096e+01    0.3957529    0.2589022 -53.02  0.001438339    1.473    0.321
        97 -10.7039     74.3992    157.7993   1.1255786644e+02   3.3935437719e+01    0.1754764    0.1117091 -56.79  0.000960677    1.763    0.433
        98  -9.6706     93.0300     23.9970   7.1438011702e+01   5.9555278208e+01    0.1764716    0.1644016  36.49 0.0004109915    1.068    0.063
        99 -10.2967    139.7581     21.0106   5.8218287300e+01   4.8005871642e+01    0.2701485    0.2167118  65.54 0.0008422284    1.224    0.183
       100 -10.5199    208.8732     18.8000   4.7927436078e+01   2.9719539756e+01    0.3329261    0.2004392 -38.23  0.001312483    1.509    0.337
       101 -12.2365    199.2343    155.1656   8.4366855994e+01   1.3128081792e+01    0.3739005    0.3276009 -69.04  0.002280096    1.744    0.427
       102 -12.0775    233.0967    153.7865   7.8294966184e+01   7.4608707728e+00    0.3579526     0.257861  32.08  0.001633349    1.278    0.217
       103 -14.4921     37.1681     85.0733   1.1367367213e+02   5.5281690551e+01     1.942856      1.15353 -54.26   0.01004643    1.605    0.377
       104 -11.2004    190.6473    153.9999   8.5742592090e+01   1.4843635087e+01    0.3932113    0.3079119 -77.95  0.002070114    2.331    0.571
       105 -11.7214     19.3278    153.7737   1.2594496909e+02   4.0911165148e+01    0.2986724     0.232267   4.17  0.001996297    1.857    0.461
       106 -10.6420     29.9777    153.4586   1.2328396014e+02   4.0011401326e+01    0.2722218    0.1343119 -88.94  0.001453211    1.919    0.479
       107 -12.8210    247.7549    145.0019   7.4302596287e+01   6.0811463665e+00    0.8954287    0.5075271 -28.54  0.005097905    1.667    0.400
       108 -11.5432     59.0363    144.8956   1.1501376764e+02   3.8700537711e+01    0.4946817    0.3067382  63.41  0.002693267    1.546    0.353
       109 -12.9964     49.4415    141.9538   1.1725510074e+02   4.0492687833e+01    0.8294101    0.5189047  34.53  0.004294558    1.581    0.367
       110  -9.9913     90.3943    145.7576   1.0691415243e+02   3.4157357014e+01    0.1805114    0.1215515 -52.22 0.0009516694    1.660    0.398
       111 -12.1227    213.8905    142.1640   7.9146664265e+01   1.2261451063e+01    0.8199776    0.3587369  50.83  0.003538959    2.589    0.614
