#   1 NUMBER                 Running object number                                     
#   2 MAG_AUTO               Kron-like elliptical aperture magnitude                    [mag]
#   3 X_IMAGE                Object position along x                                    [pixel]
#   4 Y_IMAGE                Object position along y                                    [pixel]
#   5 X_WORLD                Barycenter position along world x axis                     [deg]
#   6 Y_WORLD                Barycenter position along world y axis                     [deg]
#   7 A_WORLD                Profile RMS along major axis (world units)                 [deg]
#   8 B_WORLD                Profile RMS along minor axis (world units)                 [deg]
#   9 THETA_WORLD            Position angle (CCW/world-x)                               [deg]
#  10 FWHM_WORLD             FWHM assuming a gaussian core                              [deg]
#  11 ELONGATION             A_IMAGE/B_IMAGE                                           
#  12 ELLIPTICITY            1 - B_IMAGE/A_IMAGE                                       
         1 -13.5291    160.6047     54.6977   7.6735461870e+01   3.8122314625e+01      1.52374     1.199491  36.62  0.005064322    1.413    0.292
         2 -13.5555    173.6339     39.7055   7.0358516420e+01   3.7052608652e+01     0.983856    0.8657863  45.83  0.003776324    1.241    0.194
         3 -13.6507    190.9359      7.9625   6.0096932005e+01   3.6572670236e+01    0.9352924    0.7956017  73.48  0.004085339    1.138    0.121
         4 -12.0292    220.0042      2.2651   5.6034602829e+01   3.0526388059e+01    0.7422101    0.1439882  73.70  0.002396983    4.868    0.795
         5  -9.8634    166.3542    233.8012   1.1638046860e+02   9.4123688525e-01    0.2888163    0.2299768  -9.24 0.0005434304    1.559    0.358
         6 -19.6873     55.1700    163.5841   1.3076071211e+02   3.5077490979e+01     20.60899     4.992439 -66.28   0.06208103    4.196    0.762
         7 -11.4540    153.0000    193.1582   1.1223970616e+02   1.1451452504e+01    0.3586564    0.2882279  72.60  0.001167071    1.429    0.300
         8  -8.5552    219.2607    224.2867   1.0420028316e+02  -6.4765309737e+00    0.1265168   0.09122263  -0.07 -0.0001541599    1.488    0.328
         9 -11.0994    152.4686    185.4104   1.1088622278e+02   1.3238555743e+01    0.3306081    0.2463459 -79.66  0.001534136    1.721    0.419
        10 -11.6167    129.3973    184.7978   1.1612366526e+02   1.7874274559e+01    0.2937193    0.2482741 -53.18  0.001536134    1.221    0.181
        11  -9.7110    168.8911    182.1280   1.0653949043e+02   1.0661814973e+01    0.2320748    0.2037935  72.37 0.0007311701    1.263    0.208
        12  -9.6570     17.5591    180.5823   1.4161396081e+02   3.5182623787e+01    0.1214261    0.0966543 -77.19 0.0007988191    1.127    0.113
        13 -11.7559     10.2690    215.2967   1.4591350258e+02   2.8179349456e+01    0.2129004    0.1070622 -55.09  0.001156093    2.443    0.591
        14  -9.8041    167.9650    230.3464   1.1549451701e+02   1.2786540273e+00    0.1945459    0.1687798  52.14 0.0003261841    1.158    0.137
        15 -10.3773    204.3976    175.6203   9.7660187038e+01   4.9017148342e+00    0.5947987    0.2508366 -54.74   0.00193447    3.542    0.718
        16 -11.5583    203.5398    166.2819   9.5851964286e+01   6.9220298497e+00    0.6619818    0.4779838 -31.52  0.001701404    1.417    0.294
        17  -9.4858    167.9185    176.3667   1.0558184901e+02   1.2093613796e+01    0.2427061     0.203186 -62.43 0.0003953242    1.286    0.222
        18 -11.4305    194.1910    167.2233   9.7967119504e+01   8.6283110924e+00     0.398923    0.3313399 -47.87 0.0007740145    1.205    0.170
        19 -10.5275    190.8373    161.1332   9.7345349685e+01   1.0578056449e+01    0.3975666    0.3367428 -60.56  0.001068539    1.265    0.209
        20 -10.7180    189.9964    155.6273   9.6304787894e+01   1.1903460585e+01    0.4554851    0.4213057 -30.21   0.00185427    1.082    0.076
        21 -10.9136    230.1347    166.4235   9.0785342833e+01   1.7389772568e+00    0.3251574    0.1518678 -49.10  0.001306125    2.297    0.565
        22 -11.2608    120.3080    163.8470   1.1430772289e+02   2.4525348728e+01    0.3604659    0.2851329  77.24 0.0007255773    1.420    0.296
        23 -10.3437     21.8388    234.0888   1.4512911145e+02   2.3030284376e+01   0.08096407   0.05113538  57.06            0    1.339    0.253
        24 -11.4052    113.7037    160.4659   1.1529081069e+02   2.6585871137e+01    0.4267685    0.3222263 -75.47  0.001511716    1.439    0.305
        25 -10.2041    132.8408    160.5774   1.1052750018e+02   2.2840594919e+01    0.3005556     0.151775  38.61  0.001142595    2.076    0.518
        26 -10.9659    120.5616    156.5635   1.1275371135e+02   2.6217416839e+01    0.3152181    0.2746164 -79.08 0.0006935934    1.169    0.145
        27 -12.1591    133.9436    145.8445   1.0703703835e+02   2.6076999864e+01     1.336506    0.3446345 -54.65  0.003130989    5.404    0.815
        28 -10.4819    166.5695    154.8238   1.0125338982e+02   1.7094579125e+01    0.4782536    0.3059764  77.18  0.001745034    2.716    0.632
        29  -9.8158    174.5132    148.9383   9.8135954720e+01   1.6664549099e+01    0.2870226    0.2693977  85.28 0.0007305764    1.113    0.101
        30 -11.0601    144.2336    145.6490   1.0444217261e+02   2.3963156004e+01    0.4160198     0.278394 -73.49  0.001676465    2.035    0.509
        31 -12.7375    112.8868    138.3373   1.1078426250e+02   3.2058558215e+01    0.9560417    0.6692833  -1.35  0.003844718    2.456    0.593
        32 -10.6665    119.4807    140.9867   1.0964405540e+02   3.0146969698e+01    0.3360139    0.2511924  83.09 0.0009218223    1.720    0.418
        33 -11.9327    103.4062    137.0979   1.1305611383e+02   3.4126058558e+01    0.3451312    0.3155566 -76.91 0.0003165834    1.083    0.077
        34 -12.1691    106.6558    131.0286   1.1078863516e+02   3.4973724553e+01    0.5356761    0.4454999  74.23  0.002045283    1.362    0.266
        35 -11.4250    118.7992    128.9596   1.0701634535e+02   3.3112745718e+01    0.3697264    0.2949804 -35.89 0.0009347768    1.330    0.248
        36 -10.8094    107.3676    124.5203   1.0905044087e+02   3.6369041546e+01    0.2962587    0.2580691  -9.37 0.0006091738    1.347    0.258
        37 -11.5210    135.3432    122.6462   1.0113841701e+02   3.1119204688e+01    0.8412722    0.1967843 -48.73  0.002131133    4.471    0.776
        38  -9.9729    182.9753    206.3789   1.0819236244e+02   3.0170704298e+00    0.2903695    0.2114255 -53.32  0.001485324    1.548    0.354
        39 -10.2596    113.5721    118.3375   1.0581507594e+02   3.6596054317e+01    0.3295601    0.2494715  63.06 0.0005094443    1.537    0.350
        40 -10.2204    168.3759    113.3511   9.0897558219e+01   2.5671525702e+01    0.4048134    0.2808539 -82.43  0.001277855    2.093    0.522
        41 -10.8521    160.7395    127.7913   9.6242162173e+01   2.4350039929e+01    0.3985685    0.3337177 -82.52  0.001493208    1.360    0.265
        42  -9.9817    205.3585    110.2040   8.2696663600e+01   1.7734453972e+01    0.3264949    0.2164042  44.42  0.001294244    1.669    0.401
        43 -10.2945     31.3119    207.3089   1.4122666868e+02   2.7681349070e+01    0.1709411    0.1279923  -3.19 0.0009592171    2.594    0.614
        44 -11.5789    193.6963    195.7110   1.0392287042e+02   3.0507533614e+00     1.252673    0.6706454 -67.98  0.003479008    6.075    0.835
        45  -9.8804    162.7535    202.2265   1.1175470577e+02   7.6651970301e+00    0.2884869    0.2184034  69.59 0.0009965069    1.628    0.386
        46 -10.6423    153.5092    201.5891   1.1367080452e+02   9.5640131543e+00    0.3149076    0.1828461 -42.96  0.001393689    1.888    0.470
        47 -10.8754     88.2299     77.9600   1.0207917141e+02   4.9855641088e+01    0.3013384     0.198654  42.72 0.0006653898    1.582    0.368
        48 -10.1402    113.5623     76.5143   9.4199955018e+01   4.5269420164e+01     0.434228    0.2485292  62.09  0.001743472    2.443    0.591
        49 -10.9160    157.2320    199.4074   1.1245185636e+02   9.3071388835e+00     0.254639    0.2414734 -41.82  0.001033933    1.118    0.106
        50  -9.2219     13.0828    245.0481   1.4733570050e+02   2.1798250512e+01    0.1518566    0.1169082 -77.09  0.001129878    1.420    0.296
        51 -12.1201    177.6472     32.5959   6.7879287431e+01   3.6985223518e+01    0.4059555    0.3478802  41.56 0.0009459962    1.341    0.254
        52  -9.9344     13.4531     59.5269   1.2317241649e+02   6.2491487712e+01    0.2032129    0.1554795 -37.80  0.000587624    1.013    0.013
        53  -9.3882    123.9573     25.9703   7.5585529497e+01   5.0395811408e+01    0.1919874    0.1519391 -86.70 0.0004600621    1.586    0.370
        54 -10.8788    204.8705    199.8865   1.0245966593e+02   1.9256321574e-01     0.224541    0.1856673  -0.55 0.0009905733    1.260    0.207
