#   1 NUMBER                 Running object number                                     
#   2 MAG_AUTO               Kron-like elliptical aperture magnitude                    [mag]
#   3 X_IMAGE                Object position along x                                    [pixel]
#   4 Y_IMAGE                Object position along y                                    [pixel]
#   5 X_WORLD                Barycenter position along world x axis                     [deg]
#   6 Y_WORLD                Barycenter position along world y axis                     [deg]
#   7 A_WORLD                Profile RMS along major axis (world units)                 [deg]
#   8 B_WORLD                Profile RMS along minor axis (world units)                 [deg]
#   9 THETA_WORLD            Position angle (CCW/world-x)                               [deg]
#  10 FWHM_WORLD             FWHM assuming a gaussian core                              [deg]
#  11 ELONGATION             A_IMAGE/B_IMAGE                                           
#  12 ELLIPTICITY            1 - B_IMAGE/A_IMAGE                                       
         1  -9.8179     40.7569     12.3404   7.6720086946e+01   6.8723077243e+01     0.217697    0.1330947 -30.55  0.001287556    1.528    0.345
         2 -10.2958     57.1146      9.8313   6.8438514032e+01   6.6529233713e+01    0.2422685    0.1679053  50.22    0.0014174    1.764    0.433
         3  -9.1849    103.5119      9.4897   5.3725229897e+01   5.7323750727e+01    0.1317626    0.1173655  39.16 0.0008097478    1.061    0.057
         4  -9.3441     91.6482      9.3157   5.6724439802e+01   5.9948437572e+01    0.1233357    0.1028749 -70.73 0.0007046665    1.734    0.423
         5 -10.0563     71.7482      6.6330   6.1545581703e+01   6.4239846223e+01    0.2214434     0.154817  53.09   0.00128709    1.543    0.352
         6 -10.0148     35.0447      5.9781   7.6141146422e+01   7.0311999372e+01    0.1562328    0.1490545 -29.92  0.001007402    1.705    0.414
         7 -10.6908    161.1979      2.6052   4.0945338525e+01   4.3912923231e+01    0.1966306    0.1038502  60.19 0.0007221306    1.619    0.382
         8  -9.4464    139.4787      2.4936   4.4016953784e+01   4.9340754794e+01    0.1336848    0.1170367  62.86 0.0001457566    1.017    0.017
         9  -9.7961    152.6626      1.6712   4.1799154014e+01   4.6127194890e+01    0.1434878    0.0860616  41.43  0.000705192    1.731    0.422
        10 -10.7229    162.8475    225.8024   9.6945617032e+01   4.4483953388e+00    0.3973439    0.2463623  27.78  0.002094469    1.560    0.359
        11 -10.2432     88.4799    227.4689   1.1235062387e+02   1.6009843080e+01    0.1246748    0.1029062  59.26 6.684298e-05    1.010    0.010
        12  -9.8535     89.2875    199.8050   1.0898267823e+02   2.1491758017e+01    0.2079548    0.1517231  81.10 0.0006869479    1.431    0.301
        13 -11.1367    178.4335    198.5356   8.9165491840e+01   6.4085899009e+00    0.3897932    0.1632838  48.64  0.001483914    2.704    0.630
        14  -9.9890    126.6005    197.5782   1.0030253133e+02   1.5885416895e+01    0.2435388    0.2006583 -29.99  0.001353436    1.475    0.322
        15 -11.2453    173.0016    195.7900   8.9809670545e+01   7.8865458950e+00    0.2833005     0.236662  51.68 0.0008032276    1.300    0.231
        16  -9.7595    173.9956    191.7853   8.8857303374e+01   8.4363543238e+00    0.2116989    0.2064008  34.18 0.0005798316    1.143    0.125
        17  -9.7134     67.3452    195.6650   1.1335717426e+02   2.5523562752e+01    0.1418833   0.08371349  67.34 0.0007049413    1.769    0.435
        18  -9.8118     44.4844    194.4732   1.1822255910e+02   2.8650352316e+01    0.1257407     0.100411  76.46 0.0001418938    1.030    0.029
        19  -9.8208    139.4815    190.4768   9.6227556207e+01   1.5048396020e+01    0.1426499    0.1301544  50.65 0.0001354459    1.053    0.051
        20 -10.2114    157.0850    188.1137   9.1857936260e+01   1.2277797025e+01    0.2775671    0.1874783  43.85  0.001365753    1.396    0.284
        21 -11.4435     97.0424    187.8460   1.0559196058e+02   2.2889498975e+01    0.5381557     0.198701  45.44  0.002078644    2.537    0.606
        22  -9.7654     56.5758    188.1919   1.1493457767e+02   2.8582453220e+01    0.2955609     0.096518  56.82 0.0009620963    4.389    0.772
        23 -10.3052    110.5027    186.9995   1.0232517654e+02   2.0871808278e+01    0.3127728    0.1533245  64.26  0.001049927    3.678    0.728
        24 -10.5518     13.3381    184.8335   1.2403729528e+02   3.3964240102e+01    0.2009992    0.1920914 -52.21  0.001075401    1.454    0.312
        25  -9.8408    212.4767    182.5270   7.9166993791e+01   3.0171325345e+00    0.1407977    0.1208757   3.37 0.0008093769    1.034    0.033
        26  -9.9953    148.4748    181.5176   9.2573599413e+01   1.5214339109e+01     0.144853    0.1357897  42.01 0.0001131817    1.030    0.029
        27 -10.8720     78.1307    176.5799   1.0846822478e+02   2.8317221585e+01    0.5246277     0.170148  51.20  0.001724458    3.786    0.736
        28  -9.7748     13.9838    177.4877   1.2336520684e+02   3.5530114809e+01    0.1748945   0.06439591  53.22 0.0008105468    2.602    0.616
        29  -9.8223    204.4831    176.0239   7.9413038275e+01   5.5878206841e+00    0.2162318    0.1344116 -35.65  0.001034719    1.598    0.374
        30 -10.1528    122.4797    170.5000   9.6660410742e+01   2.2416072464e+01    0.3448277    0.1850564  62.25  0.001254178    2.842    0.648
        31  -9.9510     55.9854    170.4910   1.1301990865e+02   3.2719882845e+01    0.1968023   0.08599925  54.90 0.0008104498    2.556    0.609
        32 -10.1480    100.9615    167.0789   1.0136741246e+02   2.6961561762e+01    0.4080906     0.152229  48.14  0.001428311    2.873    0.652
        33 -10.0366    140.4374    166.1496   9.1485244534e+01   1.9995800182e+01    0.2926659    0.1935055  72.20  0.001187814    2.340    0.573
        34 -10.1635     81.0058    165.2792   1.0609325835e+02   3.0539491865e+01    0.4021718    0.2036263  69.88  0.001403549    3.502    0.714
        35  -9.7276     38.6314    165.2938   1.1660700111e+02   3.5942323290e+01    0.1370624   0.08165125  66.18 0.0007027728    1.721    0.419
        36  -9.9597     93.9943    161.1878   1.0211765920e+02   2.9489352502e+01    0.2486482    0.1511029  61.98  0.001058082    1.981    0.495
        37  -9.5806     10.0070    161.6861   1.2301304555e+02   3.9435236807e+01    0.1910696   0.04406723  48.09 0.0007039373    4.194    0.762
        38  -9.5906     24.0387    160.5205   1.1961676291e+02   3.8506290838e+01    0.1846606   0.07259639  52.66 0.0008098323    2.695    0.629
        39 -10.4580    107.6604    159.0658   9.8235880524e+01   2.7683605117e+01    0.4937833    0.1529641  47.91  0.001482605    3.740    0.733
        40 -10.4575     50.6949    156.0161   1.1247787193e+02   3.6800605514e+01    0.3799558    0.1796423  57.30    0.0016217    2.519    0.603
        41 -10.0212    218.9604    156.1198   7.2338122023e+01   6.3336689207e+00    0.2022838    0.1920065 -54.09 0.0004370982    1.284    0.221
        42 -10.3224     83.3146    155.9521   1.0398791878e+02   3.2417768796e+01     0.445113    0.1853679  53.18  0.001572953    3.083    0.676
        43 -10.0189    146.2486    155.9765   8.7981843967e+01   2.1061939530e+01    0.2759498    0.1645364  71.78 0.0009019154    3.496    0.714
        44 -10.2829     68.8031    154.5061   1.0755761840e+02   3.4865021127e+01    0.3473244    0.1936843  57.65  0.001554494    2.060    0.514
        45 -10.1812    134.9228    154.2394   9.0382101572e+01   2.3703638712e+01    0.3646202    0.2003679  57.60  0.001373974    2.366    0.577
        46  -9.3528     92.2276    152.4204   1.0102101994e+02   3.1865047148e+01    0.2115874    0.1286659  49.47 0.0009514972    1.702    0.412
        47  -9.7225     99.7109    151.7390   9.8917465433e+01   3.0785722840e+01    0.2389493    0.1088033  48.64  0.000894758    2.374    0.579
        48  -9.9124     29.5614    150.9089   1.1724208878e+02   4.0262122706e+01    0.3145292    0.1286477  69.65  0.001096478    4.154    0.759
        49 -10.6363     40.4105    148.4394   1.1414626517e+02   3.9772442323e+01    0.4267924    0.1846349  56.12  0.001758562    2.871    0.652
        50 -11.3112    108.9191    146.3267   9.5409325368e+01   3.0459766870e+01    0.8022592    0.3805866  62.07  0.002282016    4.602    0.783
        51 -11.0652     57.0769    146.5674   1.0945228633e+02   3.8322407431e+01    0.5852981     0.292228  62.43  0.002357394    2.779    0.640
        52 -11.0613    150.2204    146.0165   8.4820446878e+01   2.2419935415e+01    0.4785649    0.3049587  72.68   0.00175134    2.771    0.639
        53  -9.5144     78.9764    147.5002   1.0368365796e+02   3.5114659415e+01     0.207945    0.1066556  57.12  0.000809583    2.496    0.599
        54 -10.2060     14.1446    146.6908   1.2067927462e+02   4.2591371659e+01    0.2236102    0.0885949  35.99  0.001083983    2.612    0.617
        55 -10.7914    126.4772    144.2595   9.0367865466e+01   2.7633442636e+01    0.5414558    0.3100832  63.36  0.001965441    2.675    0.626
        56 -10.5599     89.4967    144.8126   1.0033441498e+02   3.4140430945e+01     0.469431    0.2103055  46.65  0.001815905    2.375    0.579
        57 -10.6851    197.0555    143.3346   7.3731838171e+01   1.3055202290e+01    0.2892547    0.2154412 -26.12 0.0007434436    1.350    0.259
        58 -10.2048    215.0224    141.1788   6.9711207398e+01   9.7545424922e+00    0.2497445    0.2021543 -34.29 0.0006107741    1.169    0.145
        59 -10.8293     24.5655    139.0130   1.1715650197e+02   4.3561249119e+01    0.5224351    0.2087647  55.32  0.002151452    3.194    0.687
        60 -10.3286     40.0344    136.7752   1.1265958704e+02   4.2642999419e+01    0.2732223    0.1601855  45.57  0.001378312    1.836    0.455
        61 -10.5006    114.3109    134.4903   9.1405432075e+01   3.2260173939e+01     0.470722    0.2330271  57.26   0.00159806    2.954    0.661
        62 -11.2824     85.1814    132.6361   9.9129957522e+01   3.7789185314e+01    0.6632621    0.2823521  48.59  0.002417398    2.764    0.638
        63 -10.6351    144.6009    132.7668   8.3088381533e+01   2.6517852593e+01    0.3758447    0.1838037  50.30  0.001370787    2.213    0.548
        64 -10.7624    133.8892    132.8877   8.5840296333e+01   2.8741268795e+01    0.4689904    0.2531808  53.78  0.001775154    2.166    0.538
        65 -10.3923    154.3392    130.4992   8.0139973006e+01   2.4910130512e+01    0.3265443    0.2281454  77.33  0.001297591    2.239    0.553
        66 -10.4189     13.3469    130.1445   1.1914188387e+02   4.6570178328e+01    0.4035183    0.1701527  59.34  0.001732333    3.132    0.681
        67 -10.1132    169.7443    130.7438   7.6589177764e+01   2.1464970469e+01    0.2502875     0.131077  57.41 0.0008929449    2.435    0.589
        68 -11.0066    100.6803    129.1474   9.3972321125e+01   3.6034247172e+01    0.6348308    0.3696252  61.02  0.002465084    2.427    0.588
        69 -10.7883     74.4778    130.2270   1.0172537910e+02   4.0000127307e+01    0.3521043    0.1714522  51.90   0.00137835    2.556    0.609
        70  -9.6265      2.0160    130.4848   1.2220791203e+02   4.7243942907e+01    0.1625126   0.07438073  52.82 0.0008085676    2.459    0.593
        71 -10.6215    120.0718    126.9161   8.8067751622e+01   3.2913937648e+01    0.6408838    0.2774751  56.24  0.001888976    3.819    0.738
        72 -11.2604     60.9431    125.7547   1.0483350143e+02   4.2944493055e+01    0.6096125    0.3286522  64.25  0.002395396    2.911    0.657
        73 -11.3026     45.3379    124.3243   1.0920504485e+02   4.5130814744e+01    0.7428812    0.3673347  63.25  0.002881683    3.256    0.693
        74 -11.4928     29.5442    123.3341   1.1369430522e+02   4.6915377622e+01    0.8106585    0.3601182  69.14  0.002779586    4.508    0.778
        75 -10.1707    181.1888    125.8023   7.2826539420e+01   1.9919668532e+01    0.3440397    0.1239155  53.85  0.001024625    3.474    0.712
        76 -10.3826    160.3680    122.6098   7.6715176083e+01   2.5255994346e+01    0.3123419    0.1442225  59.17 0.0009576944    3.297    0.697
        77 -11.3258    143.4524    120.3416   8.0267880193e+01   2.9503762360e+01    0.5806245    0.3537002  54.78  0.002231369    1.846    0.458
        78 -10.1991     72.3299    120.9688   1.0047437420e+02   4.2575221886e+01    0.3950567    0.2058004  53.92  0.001580326    2.531    0.605
        79 -10.5345    132.5446    120.1179   8.3029763599e+01   3.1905995550e+01    0.4682819    0.2521675  62.23  0.001559998    3.001    0.667
        80 -10.7368      4.0204    118.2368   1.2038293676e+02   5.0000593884e+01    0.4206751    0.1929177  66.04  0.001926143    2.886    0.654
        81  -9.6069    187.6602    117.3213   6.9318141658e+01   2.0127953368e+01    0.1583258    0.1238058 -77.28 0.0007050369    1.718    0.418
        82 -10.9343    110.7571    115.8101   8.7909934598e+01   3.7318715840e+01    0.5840198    0.3784754  72.74  0.002217908    2.601    0.616
        83  -9.4289    195.6645    116.6667   6.7533784712e+01   1.8441716190e+01    0.1603156    0.1196846   7.01 0.0007052165    1.737    0.424
        84 -11.0937     80.9816    114.2132   9.6347321579e+01   4.2918524724e+01    0.6380966    0.3688317  63.70  0.002434291    2.841    0.648
        85 -11.2162     95.1113    113.7603   9.1963515325e+01   4.0684991273e+01    0.8009177    0.3088794  46.34  0.002723609    2.963    0.663
        86 -10.4288    123.5636    113.5802   8.3747447150e+01   3.5261393258e+01    0.3848497    0.2581446  64.71  0.001579202    2.002    0.500
        87  -9.8021    176.5001    113.3042   7.0642618011e+01   2.3476603574e+01     0.286043     0.143248  49.03  0.001078317    2.040    0.510
        88 -10.7568     68.3663    112.0980   9.9774659156e+01   4.5290147459e+01    0.4800034    0.2567208  50.72  0.002022004    2.341    0.573
        89 -10.9153     15.3163    111.5651   1.1623505535e+02   5.0862836268e+01    0.4251934    0.2492305  64.80  0.002171824    2.105    0.525
        90 -10.0004    134.5230    110.5007   7.9975804386e+01   3.3612687701e+01    0.2866087    0.1505221  55.60  0.001031895    2.320    0.569
        91 -11.6808     47.3528    103.9993   1.0476828506e+02   4.9854061122e+01    0.8292298    0.4305425  63.78  0.003059403    3.758    0.734
        92 -11.5757     24.1430    103.6124   1.1225417134e+02   5.2113626350e+01    0.7789347    0.3738096  63.39  0.003089835    3.672    0.728
        93 -10.5599    141.0509    105.6710   7.6956821513e+01   3.3208092329e+01     0.412466    0.2729938  72.01  0.001589755    2.304    0.566
        94 -10.5471    151.2875    104.5268   7.4079802981e+01   3.1112197399e+01     0.355298    0.2627519  88.39  0.001479968    2.003    0.501
        95 -11.0180    130.9258    103.4627   7.8997758811e+01   3.5928318464e+01    0.5678018     0.250839  51.26  0.001951168    2.533    0.605
        96 -10.7697      7.7702    103.9469   1.1749072720e+02   5.3146662945e+01    0.2914424    0.1678887  45.23  0.001635436    2.088    0.521
        97 -11.5336    112.2035    100.9669   8.3531282330e+01   4.0411328084e+01    0.9562997    0.4682053  59.58  0.002977521    3.663    0.727
        98 -10.4432     83.9537    101.2069   9.2209205385e+01   4.5524402007e+01    0.4433551    0.2490093  53.87  0.001791557    2.384    0.580
        99 -10.1141    161.1792    101.8117   7.0978271076e+01   2.9354429370e+01    0.3528203    0.1254343  55.36  0.001020114    3.476    0.712
       100 -11.2486     65.7725     97.4974   9.7179201417e+01   4.9130676860e+01    0.6851979    0.3549057  53.56  0.002694559    2.893    0.654
       101 -10.7708     97.3737     97.9560   8.7128981053e+01   4.3939855717e+01    0.5995959    0.2308483  40.18  0.002100033    2.709    0.631
       102 -10.7530    140.7547     93.3504   7.3526631653e+01   3.5839222944e+01    0.4526431    0.2773525  65.07  0.001739296    2.221    0.550
       103 -10.9853    127.3091     92.3668   7.6785205022e+01   3.9077254166e+01    0.7375733    0.3323465  52.69  0.002566549    2.545    0.607
       104 -10.7103      7.8568     93.0431   1.1586725212e+02   5.5691683349e+01    0.5237412    0.1538237  29.74  0.002260604    3.719    0.731
       105 -11.1492     35.9762     90.8727   1.0583279026e+02   5.4120528086e+01    0.4591322    0.3170568  73.55   0.00238769    2.036    0.509
       106 -11.0381     89.1967     88.3063   8.6953491967e+01   4.7560158637e+01    0.7561859    0.3210358  50.89  0.002540277    3.364    0.703
       107 -11.1876     50.5104     86.1819   9.9591667075e+01   5.3691075994e+01     0.639071    0.3384762  56.66  0.002501046    3.424    0.708
       108 -11.1513    107.7512     85.1539   8.0213751100e+01   4.4726783571e+01     0.712937    0.3649101  56.49  0.002568375    2.743    0.635
       109 -10.3525    142.9968     84.2921   7.0270204765e+01   3.7111632967e+01    0.4302395    0.1966845  57.48  0.001467373    2.619    0.618
       110 -11.0795     26.1560     81.8182   1.0737726639e+02   5.7062494756e+01    0.4951082    0.2901968  50.59  0.002422578    2.372    0.578
       111 -10.7561     11.5404     81.9847   1.1271565758e+02   5.8030550344e+01    0.5124238    0.1399569  35.57  0.002015478    4.357    0.770
       112  -9.9409    121.2498     81.8495   7.5267843850e+01   4.2555644134e+01    0.3049285    0.1843282  60.06  0.001212832    2.113    0.527
       113 -10.2380     75.8244     81.7391   8.9467318382e+01   5.1228471810e+01    0.2689862    0.1931447 -76.54  0.001234631    2.079    0.519
       114  -9.8927    151.7140     81.4479   6.7307975512e+01   3.5569293932e+01    0.3033894    0.1556873  56.75  0.001136224    2.099    0.524
       115  -9.6931      1.5024     81.4904   1.1620019642e+02   5.8669531543e+01    0.1214769   0.09395538 -62.51 0.0008105076    1.023    0.022
       116 -10.5402    130.2100     76.9299   7.1277669668e+01   4.1502744337e+01    0.5003446    0.2570712  56.22  0.001886448    2.219    0.549
       117  -9.9520    142.4251     76.4903   6.8023294954e+01   3.8721794047e+01    0.3312224    0.1527407  51.57  0.001211509    2.169    0.539
       118 -10.9232     84.6938     74.5016   8.4208487698e+01   5.1294626347e+01    0.6069474    0.3611024  60.05  0.002397197    2.829    0.646
       119 -10.1491     43.9670     73.6667   9.8692143343e+01   5.7236651223e+01    0.2689505    0.1986889  49.50  0.001492528    1.769    0.435
       120 -10.1818    107.9512     73.0821   7.6322685439e+01   4.7124559483e+01    0.4502404    0.2000977  51.20   0.00162817    2.577    0.612
       121 -10.4383     96.5424     72.6419   7.9713065824e+01   4.9496211970e+01    0.3872023    0.2979518  78.47  0.001798086    2.019    0.505
       122  -9.8105      7.6746     73.3959   1.1250131763e+02   6.0188399863e+01    0.2779107    0.1146458  37.26  0.001320185    3.131    0.681
       123 -10.8425     52.9206     71.2834   9.4609922167e+01   5.6718502709e+01    0.4333696    0.3210069  60.35  0.002270733    1.994    0.498
       124 -10.8063     17.8017     71.0299   1.0812413196e+02   6.0106931129e+01    0.3420755    0.1708443  38.98  0.001727699    2.585    0.613
       125  -9.9522    123.6790     67.4499   6.9961993877e+01   4.4751730064e+01     0.298451    0.1501224  54.57  0.001141461    2.161    0.537
       126 -10.4935     39.4605     65.6787   9.8180908553e+01   5.9442667246e+01     0.456344    0.2268804  42.64  0.002093369    2.696    0.629
       127  -9.8222    140.3930     67.5724   6.5708271728e+01   4.0810426415e+01    0.3475425    0.1509269  54.96   0.00123689    2.373    0.579
       128 -10.3168    112.3933     65.0298   7.2317655049e+01   4.7695896816e+01    0.4007632    0.2144818  58.45  0.001542464    2.414    0.586
       129 -10.2246    101.8976     61.8912   7.4380496484e+01   5.0476640449e+01    0.3735342    0.2665426 -83.02  0.001531938    2.739    0.635
       130 -10.4954     79.0072     61.4926   8.1811823196e+01   5.4866827828e+01    0.2902601    0.1777043  36.58  0.001367436    1.688    0.408
       131 -10.4906     74.2895     60.6538   8.3200198985e+01   5.5818767277e+01    0.3629003    0.2904975  52.32  0.001691509    1.577    0.366
       132 -10.4152     26.7773     60.4026   1.0182111073e+02   6.1742707456e+01    0.3859094    0.1694393  40.18  0.001738669    3.121    0.680
       133  -9.3762     90.0028     60.5008   7.7701783141e+01   5.3072981687e+01    0.1963433    0.1297382  66.29 0.0008106725    2.594    0.614
       134  -9.8517    132.2422     58.9962   6.4910272691e+01   4.4217991806e+01    0.2804531    0.1976723  67.25 0.0009950296    1.671    0.402
       135 -10.9268      9.4273     58.5206   1.0856542576e+02   6.3347781812e+01    0.4794973    0.2308864  36.68  0.002487142    2.749    0.636
       136 -10.2473    121.4233     57.3521   6.7156666021e+01   4.7017959050e+01    0.4568104    0.2341608  59.97  0.001748854    2.376    0.579
       137  -9.5136    141.4960     57.3383   6.2129918793e+01   4.2254643208e+01    0.2769741    0.1376257  54.68  0.001087161    1.960    0.490
       138 -10.5306     45.7870     56.6376   9.2809117400e+01   6.0621668077e+01    0.4048478    0.2545733  49.43  0.002016701    2.375    0.579
       139 -10.4083     63.7552     55.6126   8.5333252203e+01   5.8432382159e+01    0.3059159    0.2555934  56.43  0.001304228    1.647    0.393
       140 -10.5221     55.2049     55.2815   8.8550678392e+01   5.9706427624e+01    0.3542127    0.2747751 -81.64  0.001832816    2.237    0.553
       141  -9.8239    107.6676     54.9652   7.0187809520e+01   5.0474912717e+01    0.2935679    0.1954464  76.53  0.001174983    2.725    0.633
       142 -10.8230     33.1571     52.8278   9.6844885888e+01   6.2736106188e+01    0.5184699    0.2705967  43.26  0.002485073    2.768    0.639
       143 -10.2092     21.9755     53.4328   1.0185286725e+02   6.3583368134e+01    0.3222705    0.1661836  31.24  0.001711073    2.305    0.566
       144 -10.8010     94.6995     51.8614   7.3039383688e+01   5.3688403225e+01    0.5477818    0.2557092  52.56  0.002141209    2.548    0.608
       145 -10.2688     83.7990     47.9399   7.5176733923e+01   5.6448750144e+01    0.3784977    0.2209071  59.02  0.001582518    2.690    0.628
       146  -9.8039    123.7644     46.8572   6.2873529033e+01   4.8132827645e+01    0.2743533    0.1976236  86.08  0.001230046    2.069    0.517
       147 -10.2367     46.5323     45.6694   8.8638077663e+01   6.2649270244e+01    0.2874533    0.1919644  35.31  0.001610751    1.711    0.416
       148 -10.5859     19.0800     45.6922   1.0078185999e+02   6.5370654553e+01    0.4023061    0.1867828  27.36   0.00210047    2.459    0.593
       149 -10.3896     59.3799     43.6949   8.2590461521e+01   6.1257389331e+01    0.3172753    0.2471756  67.11  0.001668526    2.289    0.563
       150 -10.7307      6.2115     42.9923   1.0589043465e+02   6.6740747249e+01     0.377489    0.2780077  74.55  0.002114491    2.270    0.559
       151  -9.3713    134.9478     44.0000   5.9171499359e+01   4.5871523382e+01    0.2468376   0.08022631  56.61 0.0008011911    2.934    0.659
       152 -10.0754    107.7368     42.5131   6.5600053342e+01   5.2426689227e+01    0.3708754    0.2034234  56.15  0.001606817    1.966    0.491
       153 -10.5123     71.2664     42.7250   7.7621368771e+01   5.9539562226e+01    0.5050088    0.2440727  52.25   0.00201053    3.122    0.680
       154 -10.3571     38.6054     41.8039   9.0624190616e+01   6.4297161063e+01    0.3200079    0.1899434  39.86  0.001703592    2.151    0.535
       155 -10.1267     96.9805     39.2348   6.7516481961e+01   5.5214125789e+01    0.3558318    0.1947704  59.65  0.001498178    2.376    0.579
       156  -9.8559     82.1747     37.8688   7.1769886966e+01   5.8359252421e+01    0.3227956    0.1856556  61.52  0.001327143    2.953    0.661
       157 -10.6769     28.0485     36.7704   9.3541470599e+01   6.6315107856e+01    0.3251267    0.1728462  36.08  0.001726172    2.347    0.574
       158  -9.8957    113.2295     36.1091   6.1688035334e+01   5.2099944661e+01    0.2697681    0.1943045  88.31  0.001240494    2.185    0.542
       159  -9.3578    105.5248     35.4930   6.3553866193e+01   5.3910766584e+01    0.1405495    0.1292503  21.77 0.0003042692    1.036    0.035
       160 -10.6019     62.6402     33.6395   7.7196829910e+01   6.2415037412e+01    0.3855811    0.2293399  50.97  0.001872601    2.326    0.570
       161 -10.5607     51.2499     33.8291   8.1937869083e+01   6.4093166295e+01    0.3394822    0.2246344  48.11   0.00181307    2.135    0.532
       162  -9.8115    121.4940     34.0000   5.8808785774e+01   5.0459386541e+01    0.3176671   0.07680581  56.64 0.0009300071    3.897    0.743
       163 -10.5128     74.7213     32.5311   7.2178287533e+01   6.0525742141e+01    0.4209798    0.2115363  52.29   0.00183707    2.521    0.603
       164 -10.7883     14.5669     31.5629   9.8131296290e+01   6.8411002067e+01    0.2711554    0.2226694  45.81  0.001842222    1.855    0.461
       165  -9.9787    103.1460     30.1643   6.2141699032e+01   5.5138001983e+01    0.2595914    0.1821351  54.31  0.001343859    1.436    0.303
       166 -10.4277     83.1527     28.7151   6.7651967405e+01   5.9477440430e+01    0.3534313    0.2484483  74.51  0.001659435    2.595    0.615
       167 -10.3774      4.7896     28.4595   1.0198447879e+02   6.9626654843e+01    0.2307553    0.1717496  41.48  0.001544571    2.018    0.504
       168 -10.3107     93.7477     27.9359   6.3975297198e+01   5.7437510670e+01    0.3349808     0.228139  69.15  0.001623378    2.098    0.523
       169  -9.5902     40.2271     25.4099   8.3162289780e+01   6.6904434269e+01    0.1569371    0.1112193  35.32 0.0009453509    1.649    0.394
       170  -9.2417    106.3578     23.7064   5.8717193364e+01   5.5210481951e+01    0.1323696     0.108757 -77.07 0.0004081887    1.694    0.410
       171 -10.8601     51.0089     22.3485   7.6976935500e+01   6.5885957781e+01    0.4547969     0.207097  40.59  0.002193304    2.315    0.568
       172 -10.4904     65.1103     21.5507   7.0913668884e+01   6.3737800884e+01     0.337834    0.2295388  52.97   0.00184069    1.904    0.475
       173  -9.7818     20.7704     22.0005   9.1160097210e+01   6.9575315740e+01    0.1647045     0.137238 -66.64  0.001074151    1.989    0.497
       174 -10.5978     75.9031     20.5534   6.6558468694e+01   6.1915317478e+01      0.43215    0.2355155  55.19  0.002049935    2.214    0.548
       175  -9.9414     40.8032     19.0308   7.9962643870e+01   6.7791363355e+01    0.2721703    0.1435442  42.98  0.001397474    2.422    0.587
       176 -10.0681     89.6380     18.2084   6.1129320853e+01   5.9458107767e+01    0.3224436    0.1689217  55.37  0.001515576    1.943    0.485
       177 -10.0766     31.5124     17.0019   8.3440322162e+01   6.9244375076e+01    0.2056107    0.1599369  33.70 0.0009150014    1.633    0.388
       178 -10.0793     98.5580     16.0261   5.7681941853e+01   5.7786253978e+01    0.2537165    0.1878156  72.34  0.001364083    1.698    0.411
       179  -9.5331     18.3871     14.6009   8.9080469873e+01   7.0987716288e+01    0.1931463   0.08829685  38.71 0.0009534047    3.192    0.687
       180 -10.2768    165.6199    248.8149   9.9708302881e+01   4.3015310691e-01    0.1463441    0.1189378 -62.48 0.0009534744    1.717    0.418
       181  -9.6606     85.0001     11.4884   5.9585838611e+01   6.1130642182e+01    0.1984071    0.1180256  51.93 0.0007048128    1.591    0.371
       182 -10.2878    246.3044    247.5701   8.4740650657e+01  -1.1211108732e+01    0.2120173   0.09221519  37.58  0.001141339    2.139    0.533
       183  -9.5834     48.7500     10.5758   7.2262568752e+01   6.7783462387e+01    0.1579827     0.111248  44.34 0.0009481131    1.703    0.413
       184 -10.4654    173.5828    243.7865   9.7478871375e+01  -8.6185779534e-02    0.1488873    0.1217664 -59.35 0.0009562508    1.708    0.415
       185  -9.9832    237.5415    239.7632   8.4986891444e+01  -9.1315594429e+00    0.2542731    0.1125581  25.28 0.0009683563    2.139    0.532
       186  -9.4749     73.6637    229.3208   1.1547731477e+02   1.7737958560e+01    0.1311006    0.0742475  64.21 0.0007050012    1.708    0.414
       187 -10.6025     99.3906    226.0152   1.0998270697e+02   1.4672986326e+01    0.3081654    0.1974229  32.46   0.00170926    1.615    0.381
       188  -9.2825    171.3933    225.5200   9.5177373577e+01   3.0678129919e+00    0.1285098    0.1103602  26.80 2.424854e-05    1.023    0.022
       189 -11.2523    125.9552    220.8304   1.0384013658e+02   1.1462343819e+01    0.2634811    0.2196521  48.92  0.001031351    1.043    0.041
