#   1 NUMBER                 Running object number                                     
#   2 MAG_AUTO               Kron-like elliptical aperture magnitude                    [mag]
#   3 X_IMAGE                Object position along x                                    [pixel]
#   4 Y_IMAGE                Object position along y                                    [pixel]
#   5 X_WORLD                Barycenter position along world x axis                     [deg]
#   6 Y_WORLD                Barycenter position along world y axis                     [deg]
#   7 A_WORLD                Profile RMS along major axis (world units)                 [deg]
#   8 B_WORLD                Profile RMS along minor axis (world units)                 [deg]
#   9 THETA_WORLD            Position angle (CCW/world-x)                               [deg]
#  10 FWHM_WORLD             FWHM assuming a gaussian core                              [deg]
#  11 ELONGATION             A_IMAGE/B_IMAGE                                           
#  12 ELLIPTICITY            1 - B_IMAGE/A_IMAGE                                       
         1 -12.5162     12.7096     51.1688   9.4246036549e+01   6.6340518289e+01     1.224404    0.4757847 -69.78  0.004657913    3.452    0.710
         2 -10.6319     23.0744      7.9843   6.9234341738e+01   7.3315707404e+01    0.3291161    0.2073319  33.30 0.0009615289    1.580    0.367
         3 -11.8776     28.1802      3.0388   6.3083026525e+01   7.3237617927e+01    0.4629436    0.2413688  32.02  0.001002099    1.714    0.417
         4 -10.6905     20.9322     15.6022   7.4913891869e+01   7.2444798360e+01    0.9097295    0.4535713  -2.26  0.003806949    3.238    0.691
         5 -11.5384     19.3126      3.3546   6.8827575341e+01   7.4447120312e+01    0.6872653    0.3077596  17.85  0.003063441    2.879    0.653
         6 -11.0878     12.3765      2.2735   7.2954989113e+01   7.5446683921e+01    0.3443572    0.1997915  -3.08  0.001946831    1.790    0.441
         7 -11.6101    128.8219     18.8693   3.7631916395e+01   5.0129113653e+01    0.3164359     0.257701  -9.55 0.0003627282    1.417    0.294
         8 -11.4872    160.1103     22.1336   3.3870631335e+01   4.2096541121e+01    0.4066701    0.3010453  14.69  0.002198831    1.815    0.449
         9 -10.5574      9.5935     15.9010   8.2658327877e+01   7.3570139152e+01    0.3560531    0.1997054 -12.08  0.001242785    1.819    0.450
        10 -11.9118      3.3886     16.6763   8.7436267088e+01   7.3929272181e+01    0.3796995    0.2736751  36.53   0.00169403    1.872    0.466
        11 -11.9595    237.9530     17.7578   2.5459250087e+01   2.5307042457e+01     0.286574    0.1893734 -72.33 0.0003404769    1.368    0.269
        12 -11.1041     32.8730     16.4943   6.8234900930e+01   7.0735765034e+01    0.6341576    0.2602912  23.77  0.002307061    3.180    0.685
        13 -11.4750     48.4221     15.0525   5.9488159647e+01   6.8421925109e+01    0.7116628    0.3495767  38.59  0.003378074    1.835    0.455
        14  -9.1672     43.7356      8.6710   5.8185539550e+01   7.0024871209e+01    0.3733656    0.2246339 -19.83  0.001475312    1.686    0.407
        15 -12.1967     40.5140     16.3507   6.4048547938e+01   6.9587531665e+01    0.4994553    0.3849133 -49.51  0.001645255    1.878    0.467
        16 -10.7517     39.7147     11.0322   6.1522163514e+01   7.0420944535e+01     0.250944    0.1969253  27.63 0.0005793936    1.165    0.142
        17 -10.2623     74.4847      2.3668   4.3145897288e+01   6.4480901437e+01    0.2515308    0.1985439 -87.16 0.0008408097    1.716    0.417
        18 -10.4455     73.3320      6.2420   4.5384796069e+01   6.4401337617e+01     0.269455    0.2120742 -55.67  0.001573657    1.734    0.423
        19 -11.3191     77.2731     10.9153   4.6416199880e+01   6.3101618191e+01     0.782136    0.2877055  48.82  0.003302732    2.223    0.550
        20 -11.2152     73.6437     16.9081   5.0415773706e+01   6.3261134959e+01    0.4991426    0.2531203  37.25  0.002023371    1.877    0.467
        21 -10.2004     70.5972     13.7482   4.9937183856e+01   6.4250318008e+01    0.2447759    0.2109869  11.83 0.0007988509    1.107    0.097
        22 -11.4061     60.5870     14.0964   5.3787392938e+01   6.6256210721e+01    0.4905583    0.2739919  51.29  0.002111601    1.743    0.426
        23 -10.0515    118.0885      8.3748   3.5785300822e+01   5.3739329924e+01    0.2452483    0.1798895  -9.34 0.0009442496    1.599    0.374
        24 -12.4333    128.5170     11.0618   3.4975726829e+01   5.0943432516e+01    0.4397689    0.3130043 -67.69 0.0005191775    1.605    0.377
        25  -9.9927    157.1647     12.1834   3.1302810499e+01   4.3801769071e+01    0.1905977    0.1400434 -65.99   0.00108249    1.376    0.273
        26  -9.3118     30.9760     12.5017   6.7102301730e+01   7.1582939662e+01    0.1698261    0.1092513  30.81 0.0005503118    1.444    0.308
        27 -11.3027      9.1181      9.1017   7.9405845106e+01   7.4751694622e+01    0.4467861    0.2454257  22.12  0.002107344    1.747    0.427
        28 -10.4245    164.4288      5.2067   2.8465877586e+01   4.2675128065e+01    0.2478287    0.1842927 -74.13 0.0007859897    1.279    0.218
        29 -10.7925    164.4940      9.0349   2.9544085786e+01   4.2319729437e+01    0.2750595    0.2079583 -36.67 0.0008017306    1.387    0.279
        30  -9.9934    240.6767      9.3325   2.3564747342e+01   2.5651836095e+01    0.1243422   0.06232931 -58.95 0.0007050381    1.705    0.413
        31 -12.6743    213.8457      5.9921   2.4529686114e+01   3.1396506443e+01    0.7162895    0.4075059 -66.64  0.004150202    1.610    0.379
        32 -11.0513    202.6411      3.3749   2.4707989860e+01   3.4052623922e+01     0.373996    0.2555996  51.39  0.001898194    1.748    0.428
        33 -10.6627    155.5843      7.1475   2.9996331037e+01   4.4640518061e+01    0.3799465     0.218313  31.49  0.001322792    2.409    0.585
        34  -9.6068    150.5333      5.5526   3.0110768106e+01   4.6007053746e+01    0.1958342    0.1360427 -70.69 4.099618e-05    1.482    0.325
        35 -11.1649    146.4307      7.0222   3.1068832676e+01   4.6885281943e+01    0.3416991    0.2513185  38.24  0.001245369    1.525    0.344
        36 -11.3611    148.8938      1.9990   2.9219672407e+01   4.6698888992e+01    0.3402011    0.1935775  69.04 0.0004122036    1.516    0.340
        37 -11.0589    194.3541      1.8973   2.4961473444e+01   3.6019558975e+01    0.3845651    0.1701345  80.41  0.001890639    2.113    0.527
        38 -11.0108    190.9837      7.4720   2.6599376081e+01   3.6267992479e+01    0.4268506    0.2595118 -38.77  0.002211581    1.572    0.364
        39 -10.4509    187.0295      5.9791   2.6557263365e+01   3.7306806328e+01    0.2300114    0.1600352 -53.45 0.0006823535    1.329    0.248
        40  -9.3855    113.3621      7.4578   3.6299361391e+01   5.4970308999e+01    0.1267757    0.1168645  68.14 2.906811e-06    1.068    0.063
        41 -10.4218     90.1105      6.8364   4.1023221486e+01   6.0568330129e+01    0.4581317    0.1522054  54.29 0.0006658132    2.335    0.572
        42 -12.2014    233.9375      5.6485   2.3200992656e+01   2.7327873366e+01     0.378895    0.2029042  52.82  0.002069237    2.461    0.594
        43 -11.1888    233.6477     10.8699   2.4301559504e+01   2.6864918029e+01    0.1879042    0.1454237  77.19  0.001319634    1.355    0.262
        44 -10.6614    179.2169      4.2518   2.6789783340e+01   3.9265117598e+01      0.23272    0.1806332 -72.76 0.0003525421    1.158    0.136
        45  -9.2778    108.7289      5.6964   3.6496619283e+01   5.6239619231e+01    0.1333779   0.08700094  37.58  0.000367047    1.535    0.348
        46 -10.6070     68.1872      3.8648   4.5829919549e+01   6.5722026986e+01    0.2439459     0.174622 -13.85 0.0009704708    1.496    0.331
        47 -11.2709    223.4517      3.6196   2.3393999529e+01   2.9626866260e+01    0.2324771    0.1721561  71.28 0.0008861015    1.422    0.297
        48 -10.9866    119.3404      3.9098   3.3937730481e+01   5.3796585244e+01      0.36763    0.1750493  75.43  0.001646618    2.073    0.518
        49 -11.0777    242.8554      2.9505   2.2167343877e+01   2.5866349273e+01    0.2014284    0.1336354 -66.90 0.0009425366    1.236    0.191
        50 -10.0732    126.3593      2.7242   3.2415197302e+01   5.2167027640e+01    0.1958978    0.1592813  10.74 0.0004190803    1.452    0.311
        51 -10.5458     98.8283      3.8527   3.7753556812e+01   5.8762462037e+01    0.3178993    0.2569906 -61.45   0.00120222    1.493    0.330
        52  -9.6784    166.7922      1.5601   2.7209478456e+01   4.2420812060e+01    0.1864346     0.105287 -87.89 0.0009517093    1.734    0.423
        53  -9.8982     58.7259    182.0074   1.0078887780e+02   2.9654278850e+01    0.1891997     0.175434 -87.46 0.0008266348    1.068    0.064
        54 -10.2231    247.3017    249.9987   6.9940348585e+01  -7.9278106034e+00    0.1557864    0.1073508  -4.26 0.0008909433    1.048    0.046
        55 -12.3857    226.0062    245.8259   7.2905857811e+01  -5.1373571452e+00    0.5896754    0.2947379  -4.81  0.003100456    2.374    0.579
        56 -11.3088    237.9868    246.0187   7.0878329982e+01  -6.4868314067e+00    0.2129627    0.1347097  29.33  0.001005766    1.650    0.394
        57 -12.2177    232.4852    245.3194   7.1706310851e+01  -5.8014354419e+00    0.5393159    0.1982854 -28.59  0.002723746    2.665    0.625
        58 -11.6691     88.9605    249.4526   1.0072940180e+02   1.1858681382e+01    0.3343594    0.2215078  31.66 0.0008441079    1.263    0.208
        59 -10.1389     72.4747    250.2420   1.0425045954e+02   1.3733215269e+01    0.2113598    0.1429435  12.69 0.0008402028    1.811    0.448
        60 -12.9138     19.0726    237.3240   1.1440667091e+02   2.1887586029e+01    0.6181124    0.4043095  39.63  0.004156629    1.305    0.234
        61 -11.6557      4.9203    235.8973   1.1716521623e+02   2.3429617916e+01    0.3839298    0.2606607  35.01  0.002364502    1.387    0.279
        62 -12.0810     29.1680    247.6079   1.1290250356e+02   1.8965958171e+01    0.5187078    0.2808808  71.99  0.003136646    1.812    0.448
        63 -13.1931      6.6043    244.9651   1.1717996554e+02   2.1565740010e+01    0.8401588    0.5186718  38.09  0.005083181    1.384    0.277
        64 -12.0468     22.2196    249.0328   1.1433797876e+02   1.9380830866e+01    0.4285278    0.2352383  39.17  0.001564646    1.452    0.311
        65 -11.2156     17.2421    247.3699   1.1522977758e+02   2.0158242498e+01    0.3120627    0.1672799  43.65  0.001155933    1.434    0.303
        66  -9.2325      1.5617    180.5081   1.1537683710e+02   3.5473730131e+01    0.1208371    0.1007483  80.02 0.0001370715    1.019    0.019
        67  -9.8904    244.4745    178.4514   5.8202906281e+01   1.6919447902e+00    0.2226196   0.09494112 -26.57  0.000991935    2.272    0.560
        68 -10.7603     46.5443    177.6599   1.0355054030e+02   3.2101004297e+01    0.2953918    0.2514428  84.30  0.001282271    1.115    0.103
        69 -10.7310     34.0486    173.9704   1.0653055485e+02   3.4293231833e+01    0.2049075    0.1712533 -85.39            0    1.112    0.101
        70 -10.8518     18.1040    173.1263   1.1069786537e+02   3.5941393994e+01    0.3393956    0.1934265  58.80  0.001510491    1.702    0.413
        71 -12.9084     49.6855    161.7568   1.0080250097e+02   3.5641835062e+01    0.8722007    0.4707637  32.78  0.004073607    1.819    0.450
        72 -11.2385     35.6572    161.9092   1.0484420744e+02   3.7091823633e+01     0.367193     0.307861   5.49  0.001278845    1.414    0.293
        73  -9.2626    177.2771    168.6889   6.8714022144e+01   1.3730412628e+01    0.1276756    0.1155308 -83.09 0.0002304405    1.559    0.359
        74 -12.0581     36.6342    166.4232   1.0505609683e+02   3.5878464064e+01    0.6747162    0.4399692  80.69  0.003213493    1.602    0.376
        75  -9.6602    185.5029    164.4856   6.6127487928e+01   1.3083923792e+01    0.1425727    0.1249819  -6.72 -4.306968e-05    1.017    0.017
        76  -9.2124     99.2884    164.6721   8.7146932307e+01   2.8086160866e+01    0.1483887    0.1133037  70.43 0.0003190858    1.615    0.381
        77  -9.2148    200.5072    162.4804   6.2731328624e+01   1.0881195976e+01    0.1369633    0.1213517 -13.70 0.0008097052    1.055    0.052
        78 -12.8438     20.9359    157.5527   1.0859481069e+02   3.9507561377e+01    0.6434935    0.4300561  11.48 0.0009843196    1.811    0.448
        79  -9.7177    216.2957    155.0360   5.8288630212e+01   9.5243932080e+00    0.1867258     0.149779 -26.60 0.0003026036    1.094    0.086
        80 -10.6692     10.5270    153.0664   1.1116301256e+02   4.1416429741e+01    0.2823484    0.1725537  33.56 0.0007698218    1.689    0.408
        81  -9.2400    222.7101    152.3106   5.6618838283e+01   8.9282137695e+00     0.121366    0.1009122 -56.60 0.0003863452    1.582    0.368
        82 -10.1511    177.3898    150.7783   6.4907241726e+01   1.7100582751e+01    0.2647004    0.2339819  79.86  0.001429379    1.551    0.355
        83 -10.4300    207.0615    146.6733   5.8172667691e+01   1.2498732258e+01    0.1884622    0.1678811   6.29 0.0005472545    1.111    0.100
        84 -10.9997     11.2342    145.2595   1.1028599762e+02   4.3310016409e+01    0.4902448    0.2214856  41.87  0.002292245    2.219    0.549
        85  -9.1407     41.0052    146.2181   1.0135237120e+02   4.0503297727e+01    0.1648476    0.1131538  25.71            0    1.555    0.357
        86  -9.6569     19.3546    146.1936   1.0795088453e+02   4.2476706624e+01    0.1925066    0.1112983 -88.75  0.000484365    1.701    0.412
        87 -10.0421    220.2832    143.9924   5.5288027214e+01   1.0688641536e+01    0.1928461    0.1532266 -27.46 0.0005797387    1.086    0.079
        88 -10.2623     57.7592    138.6189   9.4932247847e+01   4.0531579950e+01    0.2780297    0.2146062  38.93 0.0008714008    1.327    0.246
        89  -9.5895     44.1930    138.1950   9.9210550202e+01   4.2218138611e+01    0.2291456    0.1074006 -78.94 0.0008712148    2.529    0.605
        90 -11.1512      9.1630    136.6503   1.1012073487e+02   4.5610978333e+01    0.2499516     0.181463 -73.87 0.0003504275    1.191    0.160
        91 -10.4666      2.4949    136.7477   1.1217394605e+02   4.5991460608e+01    0.3180346    0.1030527 -74.04  0.001285705    2.517    0.603
        92  -9.3144    143.5683    137.4659   6.9679330206e+01   2.6299390558e+01    0.1507757    0.1454479 -10.87 0.0001837038    1.030    0.029
        93 -10.2758     17.3504    137.1512   1.0762090275e+02   4.4917767785e+01    0.1947272    0.1778744 -16.51 0.0004032126    1.267    0.211
        94  -9.8489     20.9644    134.9676   1.0623289574e+02   4.5199018668e+01    0.2104904     0.165057  81.40 0.0008670185    1.252    0.201
        95  -9.5469    122.7721    135.0061   7.4544390448e+01   3.0888760190e+01    0.2047366    0.1268881 -47.77 0.0005061378    1.616    0.381
        96  -9.9995    249.1747    134.1205   4.8803021386e+01   7.5943284016e+00    0.1887244    0.1456251 -16.91 0.0004267778    1.191    0.160
        97 -11.7122     54.0807    132.5511   9.5084913116e+01   4.2535841183e+01    0.3900802    0.2693006  43.62  0.001153568    1.516    0.340
        98  -9.8904    112.3028    132.3332   7.6858365097e+01   3.3479440117e+01    0.1598901    0.1199793 -13.85 0.0007036162    1.658    0.397
        99 -11.3696     36.4830    130.3921   1.0056312388e+02   4.5014473687e+01    0.5079476    0.2796778 -42.67  0.001961207    1.926    0.481
       100 -11.1420     73.9909    129.1754   8.7921732999e+01   4.0712839702e+01    0.3243894    0.3108332 -59.59 0.0008561063    1.027    0.026
       101 -11.3950     24.0997    126.0146   1.0409057202e+02   4.7242063026e+01     0.280505     0.221911  24.42 0.0008044081    1.399    0.285
       102 -10.8440     17.6512    125.7025   1.0621364746e+02   4.7813798275e+01    0.2607955     0.186916 -35.84 0.0008809302    1.512    0.339
       103 -11.0484     10.7032    122.9412   1.0821553831e+02   4.8985212903e+01    0.2647017    0.2444924 -88.27   0.00100927    1.081    0.075
       104  -9.6969    220.1415    124.1591   5.1022978306e+01   1.3977297342e+01     0.181835     0.146718 -49.36 0.0004615875    1.304    0.233
       105  -9.3679    243.7137    122.6915   4.7210718335e+01   1.0180500594e+01    0.1236902   0.08930369  -8.15 0.0003505491    1.571    0.364
       106 -10.8092     13.7576    125.6460   1.0750339788e+02   4.8098988600e+01    0.2721612    0.2330164  30.96 0.0006396467    1.306    0.234
       107  -9.7767      1.4152    118.9528   1.1090976035e+02   5.0517159049e+01    0.1948641    0.1081909 -76.04 0.0003317374    1.526    0.345
       108 -10.0562     72.7430    117.6882   8.5861683409e+01   4.3772740742e+01    0.2901887    0.1821863 -82.35 0.0008081282    2.407    0.585
       109  -9.8846     23.2679    117.6269   1.0321588437e+02   4.9459298612e+01    0.1748862    0.1283651  -5.31 0.0004619796    1.616    0.381
       110  -9.5048    179.4483    116.4532   5.6501971797e+01   2.3200327480e+01     0.145882    0.1363891 -24.08 0.0002856133    1.001    0.001
       111  -9.8000     85.6490    116.2106   8.1209150952e+01   4.2077336218e+01    0.2217724    0.1332063 -44.12 0.0005922779    1.650    0.394
       112 -11.1173     16.5406    115.2537   1.0526221646e+02   5.0561204771e+01    0.3797679    0.2132191 -30.46  0.001319039    2.088    0.521
       113  -9.6470    214.0457    115.3110   5.0018398220e+01   1.6552135218e+01    0.1781098    0.1702042  -4.87 0.0004136708    1.108    0.097
       114 -11.0379    249.3538    112.3478   4.4311043038e+01   1.0810961424e+01    0.2324207     0.180563 -43.40 0.0006231305    1.174    0.148
       115 -11.7313     37.0573    110.3090   9.7035844256e+01   5.0113963833e+01    0.4608824      0.30389  68.83  0.002170634    1.967    0.492
       116 -11.5838     55.2296    109.4850   9.0195062118e+01   4.8266715158e+01    0.4478652    0.2680264 -51.81  0.001211761    1.536    0.349
       117 -12.0150     14.1218    109.0575   1.0528963217e+02   5.2299984405e+01    0.5000157    0.3236538  -9.95  0.002617076    1.870    0.465
       118 -10.5466      1.3201    108.3287   1.0983424503e+02   5.3194637080e+01    0.4056965    0.1517686 -81.80  0.001626796    2.590    0.614
       119 -10.1040      2.4829    105.4426   1.0908502636e+02   5.3864744871e+01     0.220347    0.1438566 -85.97 7.032495e-05    1.443    0.307
       120 -11.4287     23.6918    106.2095   1.0130565687e+02   5.2342366959e+01     0.377436    0.2915566  73.87  0.001955258    1.465    0.317
       121 -10.4537     94.7554    112.4750   7.7332892881e+01   4.1381402666e+01    0.2994497    0.2808791 -31.21 0.0009905664    1.041    0.039
       122 -10.8018    120.1279    101.1235   6.6596338056e+01   3.8941609915e+01    0.6890669    0.3124934 -29.18  0.002087116    3.580    0.721
       123 -10.9243     52.0618    103.7659   9.0097092117e+01   5.0097716896e+01     0.259568    0.1963426 -50.67 0.0008374445    1.219    0.180
       124 -10.3634     37.8942    103.7486   9.5464672858e+01   5.1695944609e+01    0.2638571    0.1719826 -51.41  0.000827247    1.374    0.272
       125 -10.0105     77.5398    102.0517   8.0387941449e+01   4.6834163668e+01    0.2073441    0.1366254 -81.10 0.0008041754    2.468    0.595
       126  -9.2003     99.5099    107.3940   7.4495923134e+01   4.1686313406e+01    0.1513512    0.1481181  20.43  0.000119155    1.045    0.043
       127 -11.2166     19.3945    100.9190   1.0207552378e+02   5.4005060210e+01    0.3229721    0.2101282 -31.38 0.0001700212    1.623    0.384
       128  -9.7958     24.1571     99.1293   9.9911585736e+01   5.4098323862e+01    0.1955862    0.1833921  62.78 0.0004591978    1.196    0.164
       129 -11.3600    143.4370     98.6035   5.9772226387e+01   3.4393542699e+01    0.5011049    0.4064923  76.75  0.002422549    1.538    0.350
       130 -11.6003     62.9736     98.6366   8.4776317686e+01   4.9900768017e+01    0.5405711    0.3300548  18.06  0.002373241    1.912    0.477
       131 -10.7937     65.1734     93.8199   8.2691685741e+01   5.0735531401e+01    0.5595101    0.1985921  34.65  0.001957783    2.828    0.646
       132 -10.8809     55.0487     98.7043   8.7783206795e+01   5.0970943325e+01    0.2525703    0.1926747 -46.42  0.000304672    1.217    0.178
       133 -10.0959     51.0667     99.1315   8.9408631640e+01   5.1372214928e+01    0.2173884    0.1801454 -29.51 0.0004031533    1.199    0.166
       134 -10.6647     10.0002     98.4822   1.0533843125e+02   5.5221808253e+01     0.294364    0.1504758  85.86   0.00127415    2.449    0.592
       135 -11.6663    161.9909     95.3247   5.4659502338e+01   3.0873851477e+01    0.8045362    0.3229486 -37.98  0.002902886    2.434    0.589
       136 -12.0322    158.3597     89.8832   5.3944023615e+01   3.2684644600e+01     0.428097    0.2902053 -35.99   0.00158724    1.456    0.313
       137 -11.6798    156.9917     82.9028   5.2280519094e+01   3.4243139020e+01    0.8084883    0.5465856  29.73  0.003631317    1.836    0.455
       138 -12.3950    166.3416     84.3553   5.0779044812e+01   3.1844775915e+01    0.8800919    0.6384357  37.01   0.00429664    1.529    0.346
       139 -11.8395     10.7639     90.9104   1.0386569968e+02   5.7069992628e+01    0.3584977     0.298144  33.93  0.000636853    1.389    0.280
       140  -9.9528      5.1641     98.0695   1.0715081086e+02   5.5583284880e+01    0.2387515    0.1736309  -2.40 0.0008795301    1.593    0.372
       141  -9.3301    205.5040     97.5171   4.7234238255e+01   2.1148456338e+01    0.1383041    0.1245835 -40.99 0.0002286031    1.025    0.024
       142  -9.2610    250.3037     95.6830   4.0726073314e+01   1.3083533882e+01    0.1245155   0.08232076 -56.46 0.0004413129    1.624    0.384
       143 -10.7157     37.4554     94.1400   9.3621442787e+01   5.4146116369e+01    0.4892954    0.2782114 -61.82  0.001436714    1.628    0.386
       144 -11.2707     57.9158     89.9926   8.4449716419e+01   5.2692180381e+01    0.5333101    0.3520863  -1.37  0.002094588    1.966    0.491
       145  -9.2826    113.4362     93.4907   6.6328284026e+01   4.1966049379e+01    0.1562674    0.1454859  -3.23 0.0001626996    1.080    0.074
       146 -10.1685    127.0467     91.4562   6.1909893742e+01   3.9444976947e+01    0.4250318    0.1832799 -54.06  0.001305229    3.383    0.704
       147  -9.3805     46.5332     92.4825   8.9595994212e+01   5.3555122223e+01    0.1418522    0.1320642 -44.54 0.0001281671    1.041    0.039
       148 -10.7273     25.5120     91.2943   9.7882396539e+01   5.5949832100e+01    0.2713386    0.2147588 -58.39  0.001243254    1.121    0.108
       149 -11.7054     22.0855     87.4894   9.8545431018e+01   5.7162274727e+01    0.4792962    0.2586894 -53.09  0.001765497    1.556    0.357
       150 -11.6920     14.4865     97.1877   1.0338618418e+02   5.5276424871e+01    0.5233136    0.2261856 -55.90   0.00236127    1.866    0.464
       151 -10.3185     96.7800     89.2451   7.0214795021e+01   4.6269197659e+01    0.2799435    0.1897115  42.73  0.001268461    1.493    0.330
       152  -9.9220     83.0493     88.6816   7.4698422766e+01   4.8978913470e+01    0.2089037    0.1890586  13.83 0.0005172965    1.100    0.091
       153 -10.4700     78.5175     87.3538   7.5919521084e+01   5.0076268241e+01    0.2920047    0.2579186 -72.86  0.001530864    1.341    0.254
       154 -10.4291     65.1977     87.5148   8.0936573613e+01   5.2213490533e+01    0.2592358    0.2095897 -51.00  0.001053542    1.218    0.179
       155 -10.5212     46.2064     87.1026   8.8383790311e+01   5.4897625653e+01    0.3606049    0.2540277  84.82  0.001666536    2.129    0.530
       156 -11.8151      4.3550     84.2364   1.0545368490e+02   5.9051878809e+01     0.622488    0.2401232 -65.20  0.002765228    2.035    0.509
       157 -10.0963      7.6793     82.6954   1.0378305455e+02   5.9265073228e+01    0.3625337    0.1305891 -55.25  0.001319073    2.093    0.522
       158  -9.6478    120.9658     86.7129   6.2154820774e+01   4.1729922877e+01    0.2130224    0.1964202  37.69 0.0005235184    1.075    0.070
       159 -10.4907    115.2592     83.9350   6.2918174807e+01   4.3530481965e+01    0.2894543     0.215448  37.70 0.0005814814    1.346    0.257
       160  -9.4429     14.9672     84.0606   1.0090090116e+02   5.8506365769e+01    0.1604094    0.1348819 -54.40 0.0005413028    1.023    0.022
       161 -10.7844     67.5248     83.4612   7.8858823483e+01   5.2781659627e+01     0.401673    0.1460657  32.81  0.001391156    2.871    0.652
       162 -11.3309     31.0872     81.3398   9.3335475200e+01   5.7898020768e+01     0.408043    0.2752285 -23.32  0.001395216    1.571    0.363
       163  -9.1193     79.5159     82.4862   7.4077886632e+01   5.0979675289e+01     0.151808    0.1392152 -10.89 0.0002638108    1.048    0.046
       164 -10.3681     62.5402     82.8523   8.0620269672e+01   5.3690280461e+01    0.2513307     0.202115  33.73 0.0003496156    1.297    0.229
       165  -9.8149     42.2434     82.4029   8.8814158446e+01   5.6484124458e+01    0.2318922    0.1730755  35.05 0.0009366128    1.466    0.318
       166 -10.9019      6.6556     41.6861   9.4792148808e+01   6.8774278982e+01    0.7393076    0.1454983 -46.00  0.002723066    3.293    0.696
       167 -11.9975     21.5300     76.8893   9.6519893334e+01   5.9783877865e+01    0.6842598    0.4486471 -55.74  0.003684302    1.312    0.238
       168 -13.1696      5.1736     63.8424   1.0131734360e+02   6.3902203108e+01    0.8290464    0.5997285 -60.37  0.004994349    1.197    0.165
       169 -12.0588     37.0289    243.4841   1.1109213510e+02   1.8940039966e+01    0.5927723     0.297189  85.03  0.002588728    2.261    0.558
       170 -11.7888      6.4960     52.2178   9.7883939990e+01   6.6488892985e+01    0.5693911    0.3364424 -36.86   0.00252376    1.443    0.307
       171 -14.0930     16.6340     67.5337   9.6595505867e+01   6.2358755324e+01    0.5320035    0.3816836 -30.87  0.001228218    1.286    0.222
       172 -11.3571     12.4337     77.5223   1.0074007433e+02   6.0256300734e+01    0.3810934    0.3294848 -21.56  0.001856407    1.174    0.148
       173 -12.1049      8.3653     73.6898   1.0182382449e+02   6.1410331063e+01    0.7989526    0.3777764 -19.04  0.003600951    2.512    0.602
       174  -9.4702    112.4576     79.5563   6.2361139316e+01   4.5003271228e+01    0.1516975    0.1451845  11.39 2.122776e-05    1.014    0.014
       175 -11.0432     60.6104     78.1743   7.9987143473e+01   5.5040439054e+01    0.6379976    0.4320504 -55.53  0.002159395    1.535    0.348
       176 -11.4253     51.2981     62.1889   7.8740445922e+01   5.9878433565e+01    0.6078809    0.4363083  62.10  0.002904324    2.207    0.547
       177 -10.5930     54.1702     74.2441   8.1433385300e+01   5.6855248336e+01    0.2902128    0.2542647  71.64 0.0009831699    1.492    0.330
       178 -12.0722     50.2154     68.6139   8.1356238332e+01   5.8648855601e+01    0.4350256    0.2879472 -49.24 0.0008906986    1.445    0.308
       179 -11.0995     36.1331     68.5938   8.7679804462e+01   6.0375440343e+01    0.6266896    0.3017229  50.40  0.002325581    3.609    0.723
       180 -12.8117     44.6562     75.0601   8.5751409400e+01   5.7917109804e+01    0.3156688    0.2832451  41.02 0.0004419163    1.284    0.221
       181 -10.8416     43.1229     68.3100   8.4407903746e+01   5.9632673837e+01    0.2991259    0.2224548   0.94  0.001592687    1.422    0.297
       182 -10.2457     74.4426     75.3255   7.3677645271e+01   5.3419443760e+01    0.2681276    0.1959548 -24.35 0.0008990352    1.458    0.314
       183 -10.9707     92.6910     74.0701   6.6760855242e+01   5.0241589304e+01    0.4947203    0.2580493  34.93 0.0009962001    2.030    0.507
       184 -10.5437    207.4754     73.3970   4.1126096217e+01   2.4506057791e+01    0.2141272    0.2031475 -50.79  0.000267525    1.060    0.056
       185  -9.7943    145.5316     74.0242   5.2175477490e+01   3.8455945633e+01     0.233132    0.1457594 -36.19   0.00103694    1.608    0.378
       186  -9.4203    137.4771     73.5734   5.3886157532e+01   4.0423444899e+01    0.1483551    0.1432856  29.84 -7.679165e-06    1.031    0.030
       187 -10.0758    101.4384     72.4530   6.3386206085e+01   4.8750898447e+01    0.3515044    0.2462796  85.62  0.001397844    2.648    0.622
       188  -9.5230    152.1857     71.8596   5.0099135717e+01   3.7254491426e+01    0.1989198    0.1709772  22.57 0.0005461244    1.302    0.232
       189 -10.0516    130.1369     69.4430   5.4372802316e+01   4.2858736419e+01    0.4158255    0.2250294 -18.46  0.001481565    2.921    0.658
       190 -11.2509     77.2655     70.0109   7.0846692269e+01   5.4023905374e+01    0.4686581    0.2692778  37.25  0.001136193    1.737    0.424
       191  -9.9794    194.9718     69.9737   4.2052788530e+01   2.7709274361e+01    0.1995866    0.1882798 -51.46 0.0003871408    1.032    0.031
       192 -10.6771    167.8171     69.8624   4.6475123595e+01   3.3904066035e+01    0.2177088    0.1987288  58.29 0.0003255396    1.111    0.100
       193 -11.5422     94.2290     66.4965   6.3674380169e+01   5.1397100064e+01    0.4536569    0.3356393  -4.24 0.0008530269    1.662    0.398
       194  -9.2276    230.3064     68.6961   3.7189917480e+01   2.0555427068e+01    0.1304751   0.08455395 -60.25  0.000360217    1.602    0.376
       195 -12.6068    122.5851     63.9469   5.4501355165e+01   4.5561697543e+01    0.4787187    0.3502504 -53.98 0.0004532918    1.569    0.363
       196 -10.1370    103.9250     67.5538   6.0965628240e+01   4.9139098390e+01     0.213195    0.2009873 -21.95 0.0003855632    1.070    0.066
       197 -10.9962     45.2020     49.8684   7.7061728339e+01   6.3240271646e+01    0.5118202    0.2476992 -41.73  0.002303164    1.936    0.483
       198 -11.5460     52.6928     40.5184   6.9739850807e+01   6.3849118710e+01    0.5802016     0.396088 -12.13   0.00256107    1.597    0.374
       199 -11.8385     44.9326     38.6690   7.2623567247e+01   6.5374943198e+01    0.4391943    0.2642923  41.21  0.001481211    1.843    0.457
       200 -12.9009     57.5714     34.4393   6.4875916268e+01   6.4038205764e+01    0.3307005    0.2723666   2.40 0.0005575001    1.113    0.101
       201 -13.1760     37.4395     49.8389   8.0843056000e+01   6.4262068199e+01    0.8070666    0.6656908  -1.63  0.003081403    1.131    0.116
       202 -11.1368     26.6866     55.9777   8.8392151052e+01   6.4144382159e+01    0.3473411    0.2175078 -41.98 0.0003606872    1.382    0.276
       203 -11.9599     26.6840     49.2084   8.6141690886e+01   6.5589222795e+01    0.5541384    0.3704401 -58.54  0.001888395    1.607    0.378
       204  -9.8863    124.4924     58.0992   5.2073107288e+01   4.6076592623e+01    0.2057828    0.1461579 -32.74 0.0003230243    1.461    0.315
       205 -10.7789    152.1489     63.8686   4.7732566190e+01   3.8556702003e+01    0.4719327    0.1502174  46.52  0.001500997    3.388    0.705
       206  -9.8008    143.9416     64.3071   4.9572116373e+01   4.0448276207e+01    0.2029428    0.1829661  52.34 0.0003896179    1.089    0.082
       207 -10.3205     76.5800     63.4583   6.8813972652e+01   5.5457010080e+01    0.3037665    0.2608959  -4.51  0.001650498    1.150    0.131
       208  -9.4640    202.5258     61.4987   3.8873023916e+01   2.7288570476e+01    0.1316889    0.1218157 -53.18 -3.440272e-05    1.039    0.038
       209  -9.2605    113.1821     61.1396   5.6072658663e+01   4.8207532152e+01    0.1988669    0.1765003 -76.07 0.0007669585    1.341    0.254
       210 -10.4215     84.5231     61.5008   6.5211595582e+01   5.4304489613e+01    0.2749967    0.1306387  32.77  0.001033493    2.406    0.584
       211 -11.8221     59.5226     57.2832   7.3397927259e+01   5.9630446572e+01    0.6841587    0.4314192  -2.96  0.002998035    2.207    0.547
       212  -9.4015    183.5225     60.3965   4.1269070335e+01   3.1695278946e+01    0.1367638    0.1260802 -71.74 0.0001147557    1.042    0.040
       213 -10.0048     98.0072     60.2463   6.0251546942e+01   5.1736921686e+01      0.20582    0.1822123  35.83            0    1.085    0.078
       214 -10.5031     69.6234     59.2076   6.9953934537e+01   5.7544101487e+01    0.2966389    0.1385573 -41.27  0.001208832    2.119    0.528
       215 -10.9309    147.1849     56.8905   4.6608446695e+01   4.0822911920e+01    0.2681865     0.225516 -55.40 0.0003408206    1.244    0.196
       216 -12.9458    105.5166     52.6919   5.5259810723e+01   5.1346594622e+01    0.4706939    0.3343602  52.47 0.0006352811    1.381    0.276
       217  -9.6962    230.8238     55.3397   3.4154609815e+01   2.2256016924e+01    0.1829997    0.1362311 -53.47  0.001131358    1.171    0.146
       218 -10.6034     75.1113     55.9241   6.6595916309e+01   5.7158766273e+01     0.279353    0.1941044 -36.11 0.0003533046    1.437    0.304
       219 -11.6636     34.9896     42.6283   7.9313905814e+01   6.5988496278e+01     0.645091     0.346162   5.79  0.002640286    2.514    0.602
       220 -10.5789    132.4174     54.2366   4.8914025857e+01   4.4787025251e+01    0.4160923    0.1809366  50.91  0.001616911    2.158    0.537
       221 -10.2146     55.7911     53.5241   7.3603902233e+01   6.0959134808e+01    0.2888534    0.1844229  10.04  0.001345193    1.893    0.472
       222  -9.9359    120.3185     52.5739   5.1236360590e+01   4.7930194966e+01    0.2849934    0.1813146  24.46 0.0009307812    2.091    0.522
       223  -9.5786    172.7800     52.5979   4.0793003394e+01   3.5306211627e+01    0.1856304    0.1301291  78.86 0.0006447275    1.539    0.350
       224 -10.1845     87.6766     51.4954   6.0391342998e+01   5.5437889474e+01    0.2902527     0.172446 -32.27  0.001317668    1.750    0.428
       225  -9.9281    237.3845     51.2236   3.2613240926e+01   2.1509841198e+01    0.1814446   0.09017426 -43.22   0.00079897    1.653    0.395
       226 -11.9539    128.9314     49.6233   4.8172179469e+01   4.6313204049e+01    0.5014009    0.3809281  33.27  0.001294212    1.411    0.291
       227 -10.7165    131.4039     42.0816   4.5088884585e+01   4.6770636817e+01    0.3910398    0.2258943 -45.33 0.0007857921    1.891    0.471
       228 -11.8202     78.5025     47.4499   6.2036007381e+01   5.7988661647e+01    0.3965825    0.2375836 -32.10 -0.0001360153    1.719    0.418
       229 -10.4649    200.0907     49.5827   3.6214960414e+01   2.9449526720e+01    0.2176918    0.1769412 -34.48 0.0003151466    1.228    0.185
       230 -10.0639     52.6892     49.9684   7.3616618614e+01   6.2124750366e+01    0.1966369    0.1700593 -22.61 0.0009259584    1.082    0.075
       231  -9.3745     69.4053     48.4517   6.5901750889e+01   5.9565395174e+01    0.1420186     0.125145   1.93 0.0001252005    1.042    0.040
       232 -11.1777     60.0052     47.6093   6.9445482020e+01   6.1380633245e+01    0.4222704    0.1992555  29.80  0.001740001    2.303    0.566
       233 -10.2495    151.4823     46.3053   4.2526421633e+01   4.1294772177e+01    0.2412585    0.1972337 -33.89 0.0006016189    1.268    0.211
       234  -9.9689    104.4909     47.0012   5.3463532453e+01   5.2467078793e+01     0.205613    0.1429159 -30.77 0.0004229742    1.508    0.337
       235 -10.4028    143.1732     45.5931   4.3856953461e+01   4.3419870970e+01    0.2823915    0.2119983 -72.23 0.0005647214    1.575    0.365
       236 -10.1090    139.1922     43.1285   4.3842697734e+01   4.4726940043e+01    0.2088436      0.19044  27.93  0.000419507    1.168    0.144
       237 -10.8708     91.0567     41.7545   5.5478357909e+01   5.6261179143e+01    0.5809988    0.2274807 -44.55   0.00208515    3.164    0.684
       238 -10.2404     83.0294     44.5295   5.9254425141e+01   5.7544013693e+01    0.2082042    0.1810255 -25.27 0.0004918146    1.180    0.152
       239 -11.1159     72.8375     42.9840   6.2335042251e+01   5.9839564728e+01     0.399441    0.2987258 -70.67  0.001773864    2.286    0.562
       240 -11.1845     69.7931     36.8970   6.0926110523e+01   6.1393654365e+01    0.5139045    0.2998983  -6.73  0.002144508    2.588    0.614
       241 -10.2678    107.8981     42.1954   5.0733798353e+01   5.2384935004e+01    0.4271591    0.2028555  36.80  0.001453665    2.473    0.596
       242 -11.2775     96.5192     40.7974   5.3418810258e+01   5.5191673352e+01    0.5223373    0.3432435  -0.47  0.002373693    2.057    0.514
       243  -9.9419     18.3495     42.3032   8.8262063874e+01   6.7795048913e+01    0.3604589    0.1569272 -40.49  0.001116625    1.978    0.495
       244 -11.1409     23.8115     41.5195   8.4908396060e+01   6.7449336352e+01    0.6063848    0.4115022  73.65  0.002669378    3.571    0.720
       245 -12.8979     27.6328     37.9818   8.1393412515e+01   6.7743216605e+01     0.559168    0.3445749 -14.60  0.001475757    1.730    0.422
       246 -10.2875    148.1449     41.2940   4.1572532011e+01   4.2776363756e+01    0.3182943    0.1958441 -17.93  0.001458166    1.998    0.499
       247 -10.8035    112.5515     45.8703   5.0853739929e+01   5.0766453763e+01    0.3659342    0.2141938  43.53  0.001016453    1.649    0.394
       248 -12.3023     30.7613     63.9743   8.8839837784e+01   6.1977873033e+01     0.718372    0.5418383 -39.26  0.004095746    1.158    0.136
       249 -11.1400    225.1160     38.1352   3.0859472680e+01   2.5563494782e+01    0.2478519    0.1867251 -89.34 0.0004016572    1.330    0.248
       250  -9.8713    152.3839     39.0393   4.0136129691e+01   4.2027821335e+01    0.1898757    0.1715949 -41.78 0.0004751791    1.147    0.128
       251  -9.7250     85.9680     38.7782   5.5924055928e+01   5.7802612003e+01    0.1878756    0.1634719  37.13            0    1.076    0.071
       252  -9.9201      1.4423     37.9119   9.6729949930e+01   6.9857988183e+01    0.1793284      0.10056 -55.81 0.0003767578    1.503    0.334
       253  -9.2981     84.7583     34.6705   5.4619941219e+01   5.8650477047e+01    0.1882307    0.1681882   5.86  0.000320155    1.089    0.081
       254 -10.8889     81.4201     36.0005   5.6298824684e+01   5.9172735243e+01    0.5182488    0.2927049 -41.33  0.002400675    1.984    0.496
       255 -11.3881     74.5803     36.1520   5.8793574780e+01   6.0559995836e+01    0.3596511    0.2582931   4.00 0.0004658567    1.574    0.365
       256 -10.3020     79.2064     30.5612   5.4724810050e+01   6.0398955802e+01    0.3444971      0.19269 -16.96  0.001540782    2.183    0.542
       257 -10.0882    171.8551     35.9942   3.6270741178e+01   3.7689898346e+01    0.2034365    0.1694572  41.55 0.0006092626    1.353    0.261
       258  -9.7997    134.4302     35.7500   4.2344347498e+01   4.6848859777e+01    0.2529688    0.1334403 -32.67  0.001126655    1.970    0.493
       259 -10.2198     15.1073     13.8340   7.7791237710e+01   7.3381272356e+01    0.1688937    0.1436306  -7.65 0.0004297475    1.164    0.141
       260 -11.8892     30.4089    234.2253   1.1191541260e+02   2.1395322934e+01    0.5068465    0.1924987  78.17  0.002123888    3.658    0.727
       261 -10.2428    250.1792    246.7877   6.8978745998e+01  -7.8602465208e+00     0.157582   0.09418077  -2.67  0.001071428    1.331    0.249
       262 -11.2600      8.9944     33.1559   9.0488800082e+01   7.0383819695e+01    0.4502936    0.3855246 -28.27  0.002135678    1.105    0.095
       263 -11.3456     17.7998     31.2323   8.4313384764e+01   7.0037058763e+01    0.4274208    0.2574865  26.12  0.002398549    1.730    0.422
       264 -10.2464     72.4848    245.4967   1.0385415277e+02   1.4590222357e+01    0.2397104     0.173259  42.87 0.0009496934    1.125    0.111
       265 -12.9232     75.5775    238.8190   1.0260864638e+02   1.5453212280e+01    0.7803665    0.5009932  40.50  0.004687562    1.280    0.219
       266 -11.5784     74.4949    233.4816   1.0235605067e+02   1.6602944908e+01    0.4910846    0.1546345  36.34  0.002098355    2.446    0.591
       267 -11.3561     22.4348     25.3166   7.8863822461e+01   7.0646751572e+01    0.3304641    0.2167037 -26.83  0.001202396    1.348    0.258
       268 -10.5728     24.3533     21.1719   7.5678801785e+01   7.1133434420e+01    0.2357788    0.1857118 -46.38 0.0009438335    1.546    0.353
       269 -11.1655      7.4266     25.0235   8.8304295046e+01   7.2085324036e+01    0.3852741    0.1613837  17.31  0.001880705    2.422    0.587
       270 -10.9539     14.0632     23.3392   8.3205059278e+01   7.1848617743e+01    0.3403532    0.1935377  -1.02  0.001025652    1.864    0.463
       271  -9.2920    215.2727     35.3664   3.1140260814e+01   2.7939420494e+01    0.1153006   0.09626456  17.53 0.0007001806    1.667    0.400
       272 -10.4578    108.5959     34.3627   4.7606053258e+01   5.3279938171e+01    0.2968667    0.2077632  62.76  0.001188072    1.429    0.300
       273 -11.6400     24.3818     34.8101   8.1921189263e+01   6.8700655969e+01    0.3930293    0.2368644  -2.26 0.0009125158    1.822    0.451
       274 -11.3852    221.7601     32.3704   2.9860946167e+01   2.6934378842e+01        0.265    0.1766367 -43.66 0.0003071843    1.306    0.234
       275  -9.5557    192.6647     34.3249   3.3228554122e+01   3.3031946773e+01    0.1413498   0.08644886 -64.01  0.000705125    1.716    0.417
       276  -9.6000    247.7297     33.0005   2.7919845854e+01   2.1756827126e+01    0.1429145   0.08507681 -37.84 0.0003343932    1.431    0.301
       277 -10.3549    166.5671     32.6776   3.6060727460e+01   3.9355231466e+01    0.2361644    0.1359092 -22.41 0.0009018813    2.013    0.503
       278 -10.5903    205.6145     32.2245   3.1333999575e+01   3.0388396459e+01    0.2112472    0.1619307  79.40 0.0002499195    1.281    0.219
       279  -9.5916    118.6737     32.3333   4.4451688464e+01   5.1119423305e+01    0.1433807      0.10639 -70.58 0.0007051394    1.714    0.417
       280 -10.0780     89.9104     20.6285   4.7067606478e+01   5.9264773185e+01    0.3619982    0.1343651  59.39   0.00137978    2.643    0.622
       281  -9.6099    102.7794     19.0286   4.3055145128e+01   5.6441137132e+01    0.2138169    0.1732502  89.86 0.0008891465    1.460    0.315
       282 -11.3653     99.4947     23.1530   4.5534459266e+01   5.6770982269e+01    0.4277873    0.2564876  47.31  0.001017603    1.483    0.326
       283 -10.4350     94.1939     22.4144   4.6634576960e+01   5.8085047934e+01     0.287226    0.2381249  54.65  0.001031239    1.138    0.122
       284 -10.7213     97.9941     30.7397   4.9001071462e+01   5.6217071971e+01    0.3247609    0.2442677  52.08  0.001149021    1.229    0.186
       285 -11.5652    102.3194     28.5540   4.6967272734e+01   5.5481429275e+01    0.4847978    0.3072395  74.51 0.0007238421    1.987    0.497
       286  -9.6820     48.4819     31.5032   6.7684814278e+01   6.6040084499e+01    0.2659324    0.1851438  12.80 0.0005731684    1.443    0.307
       287 -10.1583     50.0207     27.6780   6.5146417952e+01   6.6385087237e+01    0.3170704    0.1920284  17.20  0.001495947    1.846    0.458
       288  -9.6266     44.2659     31.0029   6.9506241945e+01   6.6785257101e+01    0.1879075     0.150219 -21.55 0.0005493994    1.165    0.142
       289 -11.1287    237.4638     29.3431   2.7921201492e+01   2.4130138518e+01    0.2295807    0.1780464  19.84  0.001439926    2.041    0.510
       290 -10.8076    111.4051     27.9388   4.4487187665e+01   5.3398145983e+01    0.4620415    0.2591238  -5.12  0.001501707    2.629    0.620
       291 -10.6297     69.4123     26.8133   5.6560137761e+01   6.2920613144e+01    0.4875478    0.2689559  25.77  0.002186122    2.122    0.529
       292 -11.1083     60.0534     27.0592   6.0396069751e+01   6.4697937105e+01    0.2128501    0.1848198 -20.37 0.0003548702    1.203    0.168
       293 -10.9218    174.9799     26.8085   3.3308388657e+01   3.8013478430e+01    0.2201558    0.1753036 -46.74 0.0002443698    1.231    0.188
       294  -9.6494    132.6658     26.0288   3.9398177937e+01   4.8425937946e+01    0.2453861    0.2275777   2.54  0.001484258    1.199    0.166
       295  -9.6750    109.2634    242.4498   9.5683569795e+01   1.0467841289e+01    0.1794958   0.09358644  41.08 0.0009334344    1.638    0.390
       296 -10.8117    128.2910     26.6638   4.0437160915e+01   4.9432823869e+01    0.2702307    0.2112146  77.75 0.0002820262    1.292    0.226
       297 -10.8710    128.3234     23.6863   3.9396083510e+01   4.9751472979e+01    0.2831688    0.2141216 -84.64  0.001007581    1.495    0.331
       298 -10.1862    203.9303     25.8316   2.9952705471e+01   3.1486473362e+01    0.2609098    0.1198414 -52.89  0.001231625    2.101    0.524
       299 -11.5442    192.8587     24.1890   3.0627469405e+01   3.4144335353e+01    0.4594093    0.1767516 -45.99   0.00156347    2.400    0.583
       300  -9.2179    143.9734     26.4690   3.7588840568e+01   4.5586789035e+01    0.1965633    0.1108374 -83.38 0.0008092538    2.495    0.599
       301 -10.0107      1.4598     25.9152   9.2644542465e+01   7.2304238206e+01    0.1747486   0.09976637 -51.72 0.0003771628    1.507    0.336
       302 -11.9853    165.1501     22.9618   3.3453679377e+01   4.0787270006e+01    0.2793972     0.228256  75.34  0.001667165    1.129    0.114
       303  -9.5808     98.0476    242.4635   9.8101736659e+01   1.1939009956e+01    0.1974911    0.1031607  31.42 0.0006956312    1.605    0.377
       304 -10.7301    185.7436     22.5957   3.0954643246e+01   3.5949414666e+01    0.2438885    0.1790191 -58.43 0.0007415682    1.282    0.220
       305 -10.3040    106.2932     22.9832   4.3784986670e+01   5.5182844145e+01    0.2331309    0.1863941 -86.60 0.0006278057    1.515    0.340
       306  -9.1658     51.3257     23.2557   6.2376812376e+01   6.6810722132e+01    0.1335441    0.0891858  14.09 0.0001471006    1.551    0.355
       307  -9.6771    226.1861     22.1071   2.7216623801e+01   2.7180891769e+01    0.1609622    0.1534426 -84.81 0.0006672191    1.235    0.190
       308 -10.8994     59.3380     20.6385   5.7583175724e+01   6.5702421276e+01    0.3769351    0.2073273 -17.50  0.001143435    2.094    0.522
       309  -9.3279    120.4558     21.0034   3.9959081224e+01   5.1967292496e+01    0.1803999    0.1362447 -22.82 0.0003892104    1.467    0.318
       310 -10.3619     67.3257     21.1606   5.4690627727e+01   6.4070259246e+01    0.2566645    0.1824468  49.46  0.001416894    1.386    0.278
       311 -10.6958     88.7900    241.3035   9.9982878946e+01   1.3339587880e+01    0.2130789    0.1453327 -30.89  0.001212317    2.043    0.511
       312 -11.2256      6.0327     20.6871   8.7385523438e+01   7.3001944679e+01    0.2499812    0.1662935   2.58 0.0003188362    1.417    0.294
       313 -10.5196     59.9797    241.4734   1.0617659599e+02   1.6809391959e+01    0.1854482   0.09961144  32.79   0.00102992    1.585    0.369
       314  -9.9083    195.4973    238.5410   7.7367722095e+01  -4.9989382542e-01    0.2237422    0.1360799  -2.03   0.00127265    1.700    0.412
       315 -10.3316    173.7863     20.5786   3.1733323296e+01   3.8969304912e+01    0.1926866    0.1139672  88.62  0.000954077    1.765    0.433
       316 -10.8350    244.1412    237.1520   6.8460883597e+01  -6.0980000515e+00    0.1930799    0.1298554 -24.37  0.001195032    1.377    0.274
       317  -9.6520    134.7766    238.2741   8.9695414547e+01   7.7254825859e+00     0.179435   0.09089424 -38.85 0.0007683589    2.376    0.579
       318 -10.1352    159.9756    235.9940   8.4070804798e+01   4.6172914433e+00     0.153058    0.1237415  15.80  0.000397642    1.001    0.001
       319 -10.0050    221.0620    234.7853   7.2054723767e+01  -3.1636708522e+00    0.1984221    0.1066036   6.02 0.0009757433    1.967    0.492
       320  -9.6377    177.3046    235.3321   8.0441089638e+01   2.3564273247e+00    0.1283236   0.08232811  -1.64 0.0007037501    1.659    0.397
       321  -9.6482    139.5229     19.5670   3.6070317135e+01   4.7416745221e+01    0.1346512    0.1206479  69.63 9.910003e-05    1.013    0.013
       322 -10.6522    107.8494     17.8055   4.1403078666e+01   5.5354793114e+01    0.3344491    0.1960302  39.49  0.001625102    1.701    0.412
       323 -10.1754     54.8434     18.9043   5.8615763219e+01   6.6768468337e+01    0.1857248    0.1653028 -84.44  0.001112353    1.779    0.438
       324 -10.3810     86.9659    233.1825   9.9566167254e+01   1.5086644981e+01    0.2231292    0.1110159  50.73  0.001082634    2.027    0.507
       325 -10.1171     38.2368    232.7927   1.1017862870e+02   2.0878437591e+01    0.1708562    0.1302957  59.81 0.0005917322    1.108    0.098
       326 -10.0461     24.0519    232.3613   1.1313469905e+02   2.2385050693e+01    0.1726832    0.1453774 -80.99 0.0006309716    1.295    0.228
       327 -10.7286    152.6921    230.1768   8.4760195450e+01   6.5765659145e+00    0.3467239    0.2281293 -77.49  0.001550904    3.655    0.726
       328  -9.3334    227.4961    231.4962   7.0389863987e+01  -3.5020306034e+00     0.119596   0.08694715  -0.67 0.0008104732    1.031    0.030
       329 -10.1475    194.9849     16.9529   2.8607942042e+01   3.4430835026e+01    0.1815963    0.1569014 -74.11  0.000298067    1.004    0.004
       330  -9.3188    143.2391     16.9857   3.4661805898e+01   4.6756743534e+01    0.1561211    0.1132553 -27.00 0.0003180128    1.517    0.341
       331  -9.2083     82.4743     17.5334   4.7882628200e+01   6.1273822800e+01     0.135061    0.1176664  35.53 0.0008091623    1.009    0.009
       332 -10.3834    184.3407     15.4961   2.9247183598e+01   3.7012209673e+01    0.2081914    0.1581661  12.52   0.00119579    1.859    0.462
       333  -9.5469    170.0184    229.0028   8.0962186367e+01   4.3316747175e+00    0.1550028    0.1268586  10.20  0.000404892    1.016    0.016
       334  -8.9753    114.2640     12.6543   3.8089994038e+01   5.4296278460e+01    0.1310979   0.09739061 -62.30 0.0003388506    1.605    0.377
       335 -11.1703      4.4023    226.5743   1.1690278443e+02   2.5303622854e+01    0.3074503    0.1785025  57.48  0.001951065    1.383    0.277
       336  -9.9006    116.0413     15.4924   3.8805066536e+01   5.3597148099e+01    0.2176891    0.1690432  38.79 0.0007011541    1.271    0.213
       337  -9.1201    118.5001     12.4997   3.7227346805e+01   5.3275910696e+01    0.1351153    0.1181663  56.75  0.000810568    1.025    0.024
       338 -11.1480    120.9501    226.0136   9.1121118560e+01   1.1818772475e+01    0.2049351    0.1752952  26.11  0.000721756    1.012    0.012
       339  -8.9080     84.2586     13.6780   4.5622096521e+01   6.1275466698e+01    0.1214609    0.1020431 -63.10 0.0002338041    1.548    0.354
       340 -10.4563    243.4671     12.5356   2.4048097315e+01   2.4792721037e+01    0.1133911   0.08818618 -60.28 7.752971e-05    1.002    0.002
       341  -9.8021     66.0295    226.4788   1.0359913156e+02   1.9013457345e+01     0.187745    0.1081319  32.27  0.000632546    1.535    0.349
       342  -9.7019     13.3114    221.2934   1.1481761008e+02   2.5606347773e+01    0.1016527   0.08605436 -42.08 0.0002769295    1.591    0.371
       343 -10.2619    175.9739     11.4815   2.9018042737e+01   3.9360051734e+01    0.1977199    0.1138369  75.97 0.0008199755    1.593    0.372
       344  -9.2675    176.3477    219.2997   7.8135906506e+01   4.9888563676e+00    0.1354011    0.0876214   0.83 0.0007037112    1.685    0.406
       345 -11.5467     10.0746    217.1792   1.1530651647e+02   2.6737700313e+01    0.3138025    0.1966555  41.68  0.001734887    1.381    0.276
       346  -9.9271     38.1063    217.5096   1.0916362428e+02   2.4007324023e+01     0.179813    0.1071653  32.66 0.0007723499    1.543    0.352
       347 -11.1029     29.3621    215.9402   1.1101829643e+02   2.5223552245e+01    0.2865677    0.2418122  -2.05  0.001120065    1.574    0.365
       348  -9.6132    136.4072    215.7998   8.6213482125e+01   1.1461204733e+01    0.1769327    0.1188585 -33.10 0.0009353156    1.674    0.403
       349  -9.5689     74.0085    215.9815   1.0074315591e+02   2.0172446068e+01    0.1563408    0.1369233  47.29 0.0005374678    1.001    0.001
       350 -11.3645    235.9193    214.3663   6.6082494270e+01  -2.2493442201e+00    0.2307364    0.1416476 -21.52 0.0006121152    1.377    0.274
       351 -11.4495    238.1827    210.2883   6.4997019031e+01  -1.9754406911e+00    0.3345591    0.2731647  52.54  0.002137105    2.308    0.567
       352 -10.4555     20.9057    212.3900   1.1268527495e+02   2.6782428956e+01    0.3078429    0.1112284  46.61   0.00132471    2.263    0.558
       353  -9.4404    208.5253    211.9345   7.0562471155e+01   1.6289841976e+00    0.1795593    0.1087728 -29.97  0.001011113    1.547    0.354
       354 -11.0926      1.5791    211.2283   1.1685497022e+02   2.8682626581e+01    0.2594598   0.09573513 -78.34  0.001079025    2.485    0.598
       355 -12.1583      5.5243    208.6740   1.1588627079e+02   2.8908047583e+01    0.4456671    0.2821637 -82.14  0.002159543    1.470    0.320
       356 -10.2912     10.7889    208.4161   1.1471431203e+02   2.8526986322e+01    0.2203167     0.166448 -37.11 0.0005320467    1.825    0.452
       357  -9.3941    188.2208    205.0230   7.3308921302e+01   5.5860797037e+00    0.1620156   0.09996614 -35.87 0.0005472441    1.616    0.381
       358 -10.7990     20.2025    199.9561   1.1207759509e+02   2.9553418289e+01    0.2977977    0.1204752 -63.63  0.001413355    2.408    0.585
       359 -10.5588    175.4091    202.5376   7.5511411473e+01   7.9260132486e+00    0.2305522    0.1935971  10.60 0.0004898488    1.032    0.031
       360 -10.3577    243.9060    202.0000   6.2594402004e+01  -1.5522367103e+00    0.1724095   0.06175006  34.65  0.000796646    2.902    0.655
       361  -9.4775    117.3294    201.6906   8.8547133568e+01   1.7081466690e+01    0.1398051    0.1015806  59.57 0.0007040715    1.664    0.399
       362  -9.6083    169.5584    213.4664   7.8597877716e+01   6.9391383602e+00    0.1335201    0.1099368   6.59 0.0001169341    1.047    0.044
       363 -11.4208     16.4532    193.2813   1.1253604808e+02   3.1380905023e+01    0.4118039    0.2569644  27.13  0.002388081    1.665    0.399
       364 -10.5162    247.4904     15.4876   2.4400390929e+01   2.3727835286e+01    0.1124706   0.08848609 -59.00 0.0001946752    1.018    0.018
       365  -9.6686    212.1911    188.3638   6.5628818431e+01   4.7372674839e+00    0.1673663    0.1151402  39.35 0.0005269731    1.658    0.397
       366 -10.1130    244.8033    188.2122   5.9963606498e+01   2.5120601040e-01    0.1707259    0.1145524  -8.49 0.0004459699    1.328    0.247
       367 -10.5165    168.3934    183.8411   7.3616036024e+01   1.2399495550e+01    0.2986786    0.2425699  84.38  0.001522384    2.089    0.521
       368 -10.6950     16.5337    183.5012   1.1186345286e+02   3.3620688036e+01    0.2953193    0.2036884 -81.78   0.00176178    1.324    0.245
       369 -10.1216     15.3134    180.6704   1.1197247834e+02   3.4383761041e+01    0.2379339    0.1893241  32.47 0.0008804633    1.326    0.246
