#   1 NUMBER                 Running object number                                     
#   2 MAG_AUTO               Kron-like elliptical aperture magnitude                    [mag]
#   3 X_IMAGE                Object position along x                                    [pixel]
#   4 Y_IMAGE                Object position along y                                    [pixel]
#   5 X_WORLD                Barycenter position along world x axis                     [deg]
#   6 Y_WORLD                Barycenter position along world y axis                     [deg]
#   7 A_WORLD                Profile RMS along major axis (world units)                 [deg]
#   8 B_WORLD                Profile RMS along minor axis (world units)                 [deg]
#   9 THETA_WORLD            Position angle (CCW/world-x)                               [deg]
#  10 FWHM_WORLD             FWHM assuming a gaussian core                              [deg]
#  11 ELONGATION             A_IMAGE/B_IMAGE                                           
#  12 ELLIPTICITY            1 - B_IMAGE/A_IMAGE                                       
         1 -14.4035    190.0480     62.3286   3.6192025674e+01   2.9942537065e+01     3.063334    0.8928014 -41.46   0.01178981    2.925    0.658
         2 -12.9420    197.7134     40.9175   3.0454363347e+01   3.1294676632e+01    0.8545846    0.3036188 -37.16  0.002731477    2.584    0.613
         3 -13.0869    188.4335     36.5731   3.0436957979e+01   3.3793058735e+01    0.8741421    0.4427729 -58.10  0.004467083    1.900    0.474
         4 -13.1348    173.1425     43.3919   3.3841322024e+01   3.6248958327e+01     1.256426    0.7803554 -17.26  0.006138525    2.505    0.601
         5 -13.0892    161.4694     38.8091   3.4222447602e+01   3.9466866059e+01    0.8666314    0.5911222  47.83  0.001620888    1.703    0.413
         6 -13.0500     58.6279     61.7696   6.7891847243e+01   5.8614434619e+01     1.527745    0.6597908 -49.78  0.006020638    2.628    0.620
         7  99.0000     46.1685     20.0709   5.5881015074e+01   6.7363886679e+01      2.82674     1.124083  43.29   0.01284464    2.165    0.538
         8 -11.4847     78.1362     17.2093   4.3362046431e+01   6.1197760280e+01    0.2871111    0.2137862  83.88 0.0009754371    1.667    0.400
         9 -12.8199     26.7600     35.9384   7.2886603078e+01   6.8106031201e+01    0.5644471    0.4262924  12.09 0.0005368841    1.180    0.152
        10 -13.2998     63.2001     14.1137   4.6578880655e+01   6.4697664153e+01     1.022145    0.7822559  28.29   0.00153282    1.231    0.187
        11 -11.6255     72.8342      8.0288   4.0982570411e+01   6.3214030856e+01    0.5575157    0.4890127 -54.33  0.002280793    1.410    0.291
        12 -12.2904     75.6428     23.4169   4.6634634983e+01   6.1079335490e+01     1.463961    0.5240424  51.87  0.006114101    2.310    0.567
        13 -14.0673      3.9038     54.7294   9.2599797118e+01   6.6673844765e+01     3.808148    0.8422346 -56.73   0.01411527    3.263    0.694
        14 -13.9414     78.9434     59.4060   5.9377137459e+01   5.5222245759e+01     1.936662     1.472827 -59.76  0.009949479    1.662    0.398
        15 -13.4967     51.2162     45.8617   6.5025967528e+01   6.2731600452e+01     1.456452    0.9427362  33.71  0.004607421    1.433    0.302
        16 -13.4117     12.2230     39.4886   8.2710834101e+01   6.9106305460e+01    0.8223718    0.4249842 -40.37  0.002664309    1.725    0.420
        17 -12.6349     18.5998     32.7289   7.6148734040e+01   6.9658338454e+01    0.7692435    0.2813683 -41.53  0.002205462    2.585    0.613
        18 -13.1068     81.8335     40.1842   5.1354434287e+01   5.7635077162e+01    0.7743207    0.5624349 -50.99  0.003513434    1.673    0.402
        19 -11.9913    125.8556     44.9712   4.1908722313e+01   4.6951489266e+01     1.523754     1.150534 -81.42  0.006274073    1.486    0.327
        20 -13.4234     63.5542     33.9044   5.5085164343e+01   6.2276028382e+01     1.134832    0.7313507  27.41  0.005768614    1.610    0.379
        21 -12.0855    162.6790     22.0230   2.9744762493e+01   4.1166101228e+01    0.4085224    0.2541405  51.45  0.001306748    1.809    0.447
        22 -13.1568    153.6209     60.7007   4.1241540627e+01   3.8213219443e+01     1.221922    0.7559814 -17.16  0.004971876    2.565    0.610
        23 -11.1364     30.5527     19.5131   6.3129221775e+01   7.0068963147e+01    0.3913486    0.3268846  38.15  0.002589664    1.356    0.263
        24 -10.1069    125.7602     19.5656   3.4065908982e+01   4.9988873336e+01    0.3593905    0.1493319 -46.72  0.001572104    2.677    0.627
        25 -10.7404     88.8880     12.1516   3.8618584044e+01   5.9276744099e+01    0.1788394    0.1760091  27.21 0.0005523479    1.169    0.145
        26 -10.3284     84.9799     12.9787   3.9869964276e+01   6.0084217400e+01    0.2609732    0.2031182  22.98  0.000774625    1.416    0.294
        27 -11.0949     84.5874      7.7708   3.7904981076e+01   6.0630581417e+01    0.2229208    0.1905835 -35.07 0.0005881872    1.383    0.277
        28 -11.3931    147.9329     10.9914   2.8540303012e+01   4.5654180623e+01    0.3500059      0.18712 -75.41 0.0002955565    2.062    0.515
        29 -10.2619    162.6452     10.4147   2.6811764874e+01   4.2365244987e+01    0.2789232    0.1042317 -43.07  0.001321315    2.466    0.595
        30 -10.2624    140.3665     10.8714   2.9416240820e+01   4.7413745277e+01    0.2293887    0.1724085 -78.74  0.001085041    1.240    0.193
        31 -11.5077    116.4328      9.1335   3.2261668574e+01   5.3161705392e+01    0.4199215    0.2986591 -30.08  0.001730242    1.633    0.388
        32 -10.1244     94.7427     11.7924   3.7183898723e+01   5.7972058062e+01    0.2434798    0.1344715  60.91  0.001274568    1.501    0.334
        33 -10.6041    193.3560      9.0386   2.3850511951e+01   3.5856538775e+01    0.1954306    0.1542721  73.81 0.0008694967    1.324    0.245
        34 -10.2766     47.6684      8.5138   4.9554409271e+01   6.8354367390e+01    0.3869343    0.2456196  21.45  0.002220798    1.628    0.386
        35 -10.0211     52.0081      7.7448   4.7504917379e+01   6.7582159537e+01    0.1907838     0.160489  30.88 0.0005956265    1.050    0.047
        36  -9.5192     26.7099      9.3818   5.9830774096e+01   7.1945484245e+01    0.2496089    0.1401709  11.57   0.00108268    2.168    0.539
        37  -9.4189    216.5381      9.5311   2.2378742374e+01   3.1164299867e+01    0.1133602   0.08268787 -68.79  7.21174e-06    1.028    0.027
        38 -10.4869      3.0955      7.1105   7.3675930466e+01   7.5379133874e+01    0.2683037    0.1576063  30.05  0.001577226    1.668    0.400
        39 -10.3616    100.1203      7.0461   3.4375348418e+01   5.7139429205e+01    0.2381469     0.159269  78.24 0.0006975081    1.420    0.296
        40 -10.1980     94.4750      7.2752   3.5563969151e+01   5.8421893955e+01    0.2287872    0.1412445  64.10  0.001282211    1.350    0.259
        41  -9.8071    145.7371      5.1363   2.7198419490e+01   4.6691517848e+01    0.2011006    0.1659607 -19.15  0.001339962    1.557    0.358
        42  -9.6510    126.0746      4.8048   2.9492235295e+01   5.1274411470e+01    0.1503029    0.1211376  52.71 0.0009701372    1.278    0.217
        43 -10.8650    125.4137      1.3815   2.8540301191e+01   5.1704982879e+01    0.2774692    0.1150052  74.92 0.0005530081    2.091    0.522
        44 -10.9458     55.3990      3.5492   4.4249652002e+01   6.7273881868e+01    0.2532229    0.1784019  24.12  0.000877303    1.398    0.284
        45 -10.3847    155.5706      1.8509   2.5327997980e+01   4.4741154365e+01    0.1839703     0.139918  73.44  0.000679274    1.188    0.158
        46  -9.9608    132.6988      2.0562   2.7830679799e+01   4.9959585713e+01    0.2149909    0.1440598  88.37 0.0008879463    1.324    0.245
        47  -9.2580     95.7217      2.6418   3.3609694240e+01   5.8502331528e+01    0.1270579   0.07956456  39.00  0.000701088    1.661    0.398
        48  -9.7054    138.6785      1.3872   2.6944673722e+01   4.8632251563e+01     0.163178   0.09222403  65.07 0.0004873771    1.508    0.337
        49  -9.3809     88.3236      1.2896   3.4554271556e+01   6.0294544240e+01    0.1291233   0.07573037  43.27 0.0007011585    1.609    0.378
        50  -9.6679     84.8848      1.3771   3.5308731990e+01   6.1066989850e+01    0.2522306   0.07607649  57.80 0.0006558427    2.389    0.581
        51 -11.7818    188.9066     93.0610   4.3459700580e+01   2.5250904401e+01    0.3158066    0.2302893 -61.71 0.0002773265    1.356    0.262
        52 -10.8920    228.9306    249.3565   6.6529533058e+01  -7.5119283691e+00     0.205243     0.125871 -24.14 0.0003886434    1.306    0.235
        53 -10.8088    186.5355    249.7530   7.4399671982e+01  -3.0671242007e+00    0.2626085    0.1261573  15.44  0.001293386    2.167    0.538
        54 -12.9927    179.3250    243.0810   7.4829935343e+01  -1.1599238026e+00    0.6013398     0.362955  11.31  0.003355382    1.588    0.370
        55 -13.1291    163.7703    248.5803   7.8839951425e+01  -1.6388122413e-01    0.9238845     0.366318  23.75  0.004065649    2.448    0.592
        56 -12.3094      3.5299    248.2318   1.1453038255e+02   1.8980141264e+01    0.9006847    0.3799213  89.83  0.004523917    2.405    0.584
        57 -12.6076    187.4536     87.2110   4.2334724456e+01   2.6543573745e+01    0.4155627    0.3296314 -66.97  0.001950523    1.224    0.183
        58 -10.8921    177.6319     94.7075   4.5696101057e+01   2.7273855534e+01    0.2354071    0.2095962 -70.31 0.0003296599    1.078    0.072
        59 -13.4012    114.2047     82.1198   5.6011916417e+01   4.3534263039e+01     1.376736    0.3730092 -43.44  0.003743463    3.741    0.733
        60 -12.3570    127.8192     90.5098   5.4912271517e+01   3.8898362779e+01    0.3995669    0.3528393 -13.51 -0.0001874226    1.305    0.234
        61 -14.0529    124.0922     83.7325   5.3920856221e+01   4.1031127533e+01      1.62483    0.9471289 -20.85  0.006077389    2.862    0.651
        62 -12.3904    122.1151     67.3293   4.9570262788e+01   4.4415426663e+01    0.7040544    0.4829211  61.14  0.002368822    1.455    0.313
        63 -13.0083    116.8565     62.3194   4.9303581003e+01   4.6451143020e+01     1.159264    0.8011535  49.70  0.005806263    1.381    0.276
        64 -10.8965    115.0974     56.5207   4.7908051719e+01   4.7777745867e+01    0.5169224    0.2580294  58.72  0.002196256    1.962    0.490
        65 -10.8448     68.8837     94.9380   7.4395948108e+01   4.9831478220e+01    0.2922236    0.2072067  37.10 0.0004827246    1.418    0.295
        66 -11.9632    214.0418     89.4412   3.9090756175e+01   2.0980625545e+01    0.2663797     0.233189 -30.52  0.001093005    1.296    0.228
        67 -11.9940    110.6746     68.7754   5.2894589451e+01   4.6764812204e+01    0.5355179    0.3184297 -65.94   0.00105882    2.712    0.631
        68 -11.9256     95.3205     89.6107   6.3753445973e+01   4.6049541150e+01    0.4464363    0.3997341 -73.59 0.0006357971    1.260    0.206
        69 -11.2738     56.5924     86.7664   7.6802047093e+01   5.3698197313e+01    0.2261325    0.2044038 -79.79 0.0009831677    1.321    0.243
        70 -11.4711     48.1521     85.6568   7.9952068139e+01   5.5192967750e+01    0.2894215    0.2708212 -81.62 0.0007922159    1.258    0.205
        71 -12.3063     52.8153     89.8741   7.9215096544e+01   5.3546417538e+01    0.4255535    0.3398679  88.95  0.001165812    1.707    0.414
        72 -11.2749     52.6929     86.2857   7.8247055409e+01   5.4395924410e+01    0.2646192    0.2129707  25.64 0.0003867855    1.244    0.196
        73  -9.8527    241.3876     91.0922   3.6211091408e+01   1.5946914416e+01    0.1804332    0.1274731 -63.00  0.001152962    1.335    0.251
        74 -11.5684    224.3954     90.0914   3.7941508236e+01   1.8999764222e+01    0.4012288    0.1597768 -47.93  0.001148855    2.119    0.528
        75 -14.3225    207.1996     70.5598   3.5900630270e+01   2.5231009267e+01     1.132233    0.8189645  72.99  0.006861748    1.467    0.318
        76 -11.4297    135.4534    248.9194   8.4973188875e+01   3.3627679136e+00    0.2871686    0.1843382  54.53  0.001457711    2.247    0.555
        77 -12.0509    162.1182     58.5597   3.9266125978e+01   3.6602117441e+01    0.6598161    0.4043529 -32.82  0.001473104    1.787    0.440
        78 -12.3976     52.5223    250.5365   1.0397917430e+02   1.3470891871e+01    0.3258676     0.314049 -89.24  0.001184611    1.195    0.163
        79 -11.2072    214.7922    246.6860   6.8607511603e+01  -5.7125408588e+00     0.205561    0.1239201 -24.92 0.0008951647    1.403    0.287
        80 -11.5076    182.6784     36.0849   3.0944254915e+01   3.5090104716e+01     0.350391    0.2630731 -69.92 0.0005392167    1.169    0.145
        81 -13.2154    137.9748     71.2906   4.7169308288e+01   4.0107072875e+01     1.673246     1.136079  88.11   0.00768391    1.946    0.486
        82 -13.8804     38.4902    247.0729   1.0687540808e+02   1.5752651503e+01      1.18639    0.7284402  26.33  0.006676352    1.566    0.361
        83 -13.4340    144.2077     58.9482   4.2452475682e+01   4.0647143412e+01     1.221565    0.9340301  65.61  0.006697677    1.249    0.199
        84 -12.4044    153.8259     44.0278   3.6711063275e+01   4.0542425932e+01    0.5741498    0.3964218   9.32  0.001732447    2.648    0.622
        85 -10.3664    140.2924    246.3611   8.3560292661e+01   3.1941487589e+00    0.1337528   0.08914319 -11.96 0.0002651222    1.699    0.412
        86 -12.0779    155.6751     35.9538   3.4271832183e+01   4.1150531855e+01    0.5539426    0.3292684 -67.43  0.002152675    1.864    0.463
        87 -10.0731    166.3633     89.7096   4.6476565423e+01   3.0552478236e+01    0.2505515    0.1671518  69.27 0.0006610666    1.699    0.412
        88 -10.7029     40.2308     90.0181   8.4496598567e+01   5.5206926599e+01    0.2225996    0.1801001 -30.34 0.0003644137    1.182    0.154
        89 -12.0993     38.4702     86.1054   8.4218883824e+01   5.6353783792e+01    0.4793683    0.3384442  18.95  0.001598528    1.456    0.313
        90 -11.7351    138.7347     87.8727   5.1608988848e+01   3.6976432267e+01    0.2943856     0.267319 -61.71            0    1.085    0.079
        91 -11.9335    139.7161     80.6506   4.9411182599e+01   3.8081626154e+01    0.5815627    0.3319245 -45.34  0.001688275    1.741    0.426
        92 -11.4313     24.3807     87.9740   9.0919352215e+01   5.7423650397e+01    0.4239911    0.1973857 -60.39  0.001811321    1.983    0.496
        93 -11.8266    149.0031     85.6964   4.8813113960e+01   3.5086156426e+01    0.5523014    0.3733554  76.47  0.002105158    1.833    0.455
        94 -11.7942    148.6426     81.2427   4.7700495646e+01   3.5964082453e+01    0.4411115    0.3776176 -77.44 0.0003188229    1.197    0.164
        95 -11.6366    130.9778     80.7934   5.1419120751e+01   4.0030795041e+01    0.3736711    0.2645151  46.66 0.0006376698    1.425    0.298
        96 -10.2918     70.5223     88.0123   7.1780973324e+01   5.1121616215e+01     0.239537     0.200237 -77.99  0.001205217    1.505    0.335
        97 -12.8268     66.6939     82.4755   7.1547774400e+01   5.3002853840e+01    0.7541821    0.6089383 -86.49  0.002029881    1.729    0.422
        98 -12.1929      6.2800     85.1713   9.8535210051e+01   5.9502663745e+01    0.4721489    0.2434695 -84.03  0.002021081    2.514    0.602
        99 -11.3905    236.8040     86.3634   3.5787714192e+01   1.7427646809e+01    0.3358063    0.2229068  77.06  0.002036411    1.831    0.454
       100 -11.4876    176.4964     69.8803   3.9885882542e+01   3.1684573160e+01    0.7701112    0.4287529 -73.18  0.003243841    2.615    0.618
       101 -12.2035    162.5036     83.8518   4.5710658241e+01   3.2425839753e+01    0.4773466     0.406296  67.02  0.001556983    1.191    0.161
       102 -12.3161    169.5354     79.8314   4.3458055080e+01   3.1577957382e+01    0.8119563    0.5076959 -44.34  0.004037987    1.504    0.335
       103 -11.1824    164.4720     73.5313   4.2733620469e+01   3.3736737710e+01    0.3559993    0.2334961 -43.70  0.001525284    1.461    0.315
       104 -11.4447    161.3581     66.7449   4.1516076649e+01   3.5521855705e+01    0.5814784    0.2271586 -44.71  0.002030935    2.443    0.591
       105 -11.9957    165.9444     64.4769   4.0179970870e+01   3.4847546169e+01    0.5709938    0.3757696  66.81  0.001464081    1.516    0.340
       106 -10.7972    207.6194     85.1635   3.9009808559e+01   2.2878168592e+01    0.1767803    0.1125573 -32.69 0.0002614504    1.660    0.397
       107 -11.6828    214.4706     82.4229   3.7555021698e+01   2.2013885952e+01    0.1981244    0.1724283 -58.46 0.0005594548    1.064    0.060
       108  -9.6009     81.4033     83.2397   6.6422351789e+01   5.0150422726e+01    0.2013569    0.1433696 -56.44    0.0004494    1.581    0.367
       109 -14.0328    212.0456     60.0413   3.3097326181e+01   2.5822526331e+01     1.866324    0.8328934  67.94  0.009167053    2.432    0.589
       110 -13.5015     54.4424     72.4102   7.3262801212e+01   5.7178665041e+01     1.104153    0.7034692 -55.84  0.004329445    1.776    0.437
       111 -11.3152    227.2973    242.4940   6.5751235795e+01  -6.3952348555e+00    0.1797804    0.1530584  10.92  0.001054096    1.431    0.301
       112 -12.3980     15.8049    238.4155   1.1140192061e+02   1.9920433744e+01    0.5686716    0.3824578 -21.34  0.002349372    2.381    0.580
       113 -11.7608    219.4459    240.2092   6.6767470987e+01  -5.2601449618e+00    0.3370776    0.2275071 -17.44  0.002238468    1.186    0.157
       114 -13.5895     43.6363     74.7252   7.8663351236e+01   5.8280866593e+01     1.131522    0.6807754 -26.68  0.005123065    1.909    0.476
       115 -14.2391      9.1397     68.0553   9.3349673717e+01   6.3370830423e+01      1.25118     0.987123 -39.09  0.007411549    1.079    0.073
       116 -12.7172     26.4749     47.8451   7.7838182560e+01   6.5996683643e+01    0.8889245    0.7100204  54.09  0.005136291    1.793    0.442
       117 -11.5985    110.1718    240.7889   8.9643883205e+01   8.2205617512e+00    0.3454366    0.2303374  66.91  0.001588734    2.230    0.552
       118  -9.4209    203.7058    240.3290   6.9657760616e+01  -3.5685192294e+00   0.09922111   0.09664556  17.87 0.0002720082    1.630    0.386
       119 -12.0840    111.8438    249.3274   9.0315129967e+01   6.3529569937e+00    0.4301409    0.2419913  39.94  0.002217091    1.630    0.387
       120 -12.2566     11.4090    248.6965   1.1289143294e+02   1.8158490515e+01    0.5482005     0.372333 -73.50  0.003490233    1.568    0.362
       121 -13.8540     35.2830     69.1879   8.0756464303e+01   6.0578699888e+01      1.09613    0.7345643  18.51  0.002794862    1.500    0.333
       122 -13.9562     36.5021     58.7652   7.6721323928e+01   6.2595019561e+01     2.187806    0.8772019  26.88  0.003625192    2.563    0.610
       123 -11.2332    159.9603    219.6548   7.5204171143e+01   5.4692716286e+00    0.2253711    0.1833629 -33.95 0.0002923523    1.226    0.184
       124  -9.6494    248.8155    117.8154   4.0448332459e+01   1.0633414515e+01    0.1570243    0.1196686 -60.44 0.0006726226    1.328    0.247
       125 -12.0609     53.7049     54.8632   6.7436233933e+01   6.0737238391e+01    0.5427433    0.4043457  -1.59  0.002884319    1.482    0.325
       126  -9.1971     90.6992    115.7309   7.2432470267e+01   4.1020578868e+01    0.1534814    0.1217412 -10.05   0.00016907    1.526    0.345
       127 -12.8793     54.6269     31.5555   5.7570675926e+01   6.4312591685e+01    0.8506441    0.5174305  44.43  0.003361639    1.505    0.336
       128 -11.9902    132.5606    111.2722   5.9294939602e+01   3.3613380181e+01    0.3912438    0.3370597  80.06 0.0008136102    1.319    0.242
       129 -10.1915    170.5053    112.2139   5.1158236817e+01   2.5488267413e+01    0.3608332    0.2079366  71.28  0.001212336    2.841    0.648
       130 -12.9985     76.1075     41.9954   5.3901055049e+01   5.8587673860e+01    0.6109352    0.4145157  50.59 0.0005659896    1.383    0.277
       131 -10.8845     96.9075    110.2538   6.9040141354e+01   4.1142206364e+01    0.3510655    0.2256639 -36.22 0.0009946761    1.693    0.409
       132 -12.0987     93.6315     60.0409   5.4865950889e+01   5.2029218035e+01    0.3463342    0.2864635  78.13 0.0003926817    1.445    0.308
       133 -11.4647     90.6264     66.8752   5.8090192154e+01   5.1481549750e+01    0.4451491     0.300135  30.07 0.0004749158    1.639    0.390
       134 -12.9405     96.7705     70.3421   5.7332111435e+01   4.9543861311e+01    0.8757463    0.7647336  -1.57  0.004080238    1.282    0.220
       135 -12.0397    103.3626     75.8713   5.7138502290e+01   4.7094874895e+01    0.8176338    0.4995472  16.82  0.001583175    3.066    0.674
       136 -10.1201    100.0159     74.0489   5.7546519051e+01   4.8160465467e+01    0.2002707    0.1754816  88.53  0.001055417    1.329    0.248
       137 -11.0131    232.8672     78.6593   3.4693792765e+01   1.9260914537e+01    0.2178264    0.1832902 -49.31  0.000431788    1.136    0.119
       138 -11.2179    224.0779     78.8279   3.5682143816e+01   2.0797341955e+01    0.1887282    0.1409606 -64.66 0.0003830277    1.209    0.173
       139 -11.4738     23.8909     78.3660   8.8766263127e+01   5.9763180705e+01    0.2758895    0.1940994 -28.47  0.001432555    1.365    0.267
       140 -11.1512      4.4278     78.9702   9.8163349818e+01   6.1114506064e+01    0.2336363    0.1907405  -4.10 0.0003389107    1.262    0.208
       141 -13.1365    176.0986     87.5129   4.4231816273e+01   2.8857958348e+01      0.98882    0.7118552   4.26  0.003257463    2.515    0.602
       142 -11.0538     83.4777     78.1847   6.4124785167e+01   5.0784717115e+01    0.5423732    0.2212532  43.39  0.001994652    2.392    0.582
       143 -11.9098     87.9303     73.1658   6.1025057213e+01   5.0873290287e+01    0.3668878    0.2837346  26.72 0.0004078037    1.364    0.267
       144 -11.4956     79.4163     72.7846   6.3780390665e+01   5.2654667047e+01    0.8178775    0.4227607  46.74  0.003417803    1.948    0.487
       145 -10.3439     66.9396     67.9672   6.6745778341e+01   5.5950653823e+01    0.4251916    0.3037189 -88.48  0.001051479    2.705    0.630
       146 -11.6486     73.0477     75.9795   6.7109166780e+01   5.3231502450e+01    0.5380937    0.4351317  77.27  0.001536622    1.709    0.415
       147 -11.7118     68.3700     74.1894   6.8276675188e+01   5.4451194167e+01    0.5746057    0.2306065  33.51  0.001544432    2.684    0.627
       148 -10.8233    156.3558     76.3797   4.4916284363e+01   3.5073175051e+01    0.3646736    0.3054284  46.57   0.00202794    1.308    0.236
       149 -11.2844     20.1546     75.8140   8.9877880358e+01   6.0705325283e+01    0.2418869    0.1911936 -34.16 0.0003425022    1.123    0.110
       150  -9.6041    151.5996     72.6377   4.4815624744e+01   3.6772504769e+01    0.1984727    0.1660572  19.29 0.0004895141    1.581    0.368
       151 -10.1540    240.4211     70.2677   3.2307848234e+01   1.9179831989e+01    0.2628144    0.1288441 -35.43  0.001397421    1.971    0.493
       152 -11.1705    230.4289     69.0665   3.3044366704e+01   2.1097346668e+01    0.3180652    0.1515218 -53.61  0.001309242    1.823    0.451
       153 -12.1986    221.6721     69.7099   3.4081259865e+01   2.2597413519e+01    0.3264907    0.1971558  89.78  0.001789832    2.009    0.502
       154  -9.8956    216.8978    108.6592   4.2732986916e+01   1.7290690172e+01    0.1724448    0.1571739 -59.40  0.001035081    1.106    0.096
       155  -9.3738    250.4877     62.5131   2.9961351853e+01   1.8571540708e+01    0.1140208   0.08634853 -55.57 0.0001446828    1.031    0.030
       156  99.0000    147.0910     39.4952   3.6512533248e+01   4.2693652918e+01    0.7434565    0.5568888 -83.40  0.004236322    1.333    0.250
       157 -10.9956    221.5794     41.0714   2.8269573792e+01   2.6540824479e+01    0.5397674     0.340524 -84.74  0.003370955    1.541    0.351
       158 -10.0921    228.9245     40.7992   2.7610986006e+01   2.5202256819e+01    0.2985512    0.1663893 -32.58  0.001720251    1.971    0.493
       159 -11.3813    230.1674     51.8566   2.9670094287e+01   2.3536072026e+01    0.6189578    0.2778999 -32.66  0.003076455    2.460    0.594
       160 -11.9594    226.2572     48.6304   2.9375784217e+01   2.4683165036e+01    0.4527828    0.1771736 -40.15  0.002237188    2.135    0.532
       161 -11.7938    230.1221     47.6645   2.8852812832e+01   2.4098801062e+01    0.3495543    0.3069797  39.12  0.002505276    1.745    0.427
       162 -11.6333    101.5151     53.4604   5.0381501281e+01   5.1347294997e+01    0.5316402    0.2380136  47.73 0.0008683358    2.074    0.518
       163 -10.4006    238.4926     51.9197   2.8974046058e+01   2.2038296066e+01    0.2047016     0.151999  81.62  0.001261604    1.423    0.297
       164 -10.5213    212.3787     47.1570   3.0348278013e+01   2.7525330081e+01     0.179042    0.1024401 -42.73 0.0003013017    1.535    0.348
       165 -11.8390    207.8924     45.4030   3.0412482129e+01   2.8643716537e+01    0.4097444    0.2954347 -53.36  0.001375311    1.174    0.149
       166  -9.5666    114.9731     47.9651   4.5199056871e+01   4.9078995323e+01    0.1572601    0.1421033  62.75 0.0003817223    1.018    0.017
       167  -9.2366    240.7477     47.6685   2.7989153125e+01   2.2200317943e+01   0.09600873   0.08425999 -28.24 0.0003949312    1.556    0.358
       168  -9.8648    142.7476     46.1866   3.9111911379e+01   4.2824722497e+01    0.3786795    0.2007637  38.59  0.001365858    2.711    0.631
       169 -10.9988    100.2477     45.2351   4.7908755757e+01   5.2852042131e+01    0.5026004    0.3440408 -34.71  0.002552035    1.594    0.372
       170 -11.1356    214.4988     42.9220   2.9268241487e+01   2.7664719824e+01    0.3957458     0.188705 -42.85  0.001844788    1.774    0.436
       171 -10.9104    211.0986     38.5104   2.8658012691e+01   2.8894149872e+01    0.2567662    0.1794399 -85.32 0.0006154411    1.315    0.239
       172 -10.9753    216.2225     35.0185   2.7495500121e+01   2.8326219871e+01    0.2894785    0.1562961 -32.31 0.0004182993    2.036    0.509
       173 -11.4635    215.5467     31.5336   2.6841734071e+01   2.8882017438e+01     0.486021    0.2400017  52.12  0.001541449    2.814    0.645
       174 -10.0059    109.5351     39.5259   4.3675726112e+01   5.1494992917e+01    0.2393105    0.1642057 -51.41  0.001243156    1.649    0.394
       175 -11.1256    111.9945     32.9987   4.0950774041e+01   5.1740725062e+01    0.3848175    0.2672026 -21.33   0.00123666    1.746    0.427
       176 -11.6207    113.1363     28.3449   3.9166766184e+01   5.2017413215e+01    0.3514645    0.2459078  73.77 0.0009918519    1.371    0.270
       177  -9.6743    237.2225     38.9125   2.6610717025e+01   2.3935692932e+01    0.1467969   0.07322615 -43.21 0.0008586596    1.624    0.384
       178 -10.6550     19.0122     80.7566   9.1656051166e+01   5.9643312936e+01     0.189818    0.1690069 -17.93 0.0003175304    1.076    0.071
       179 -10.8790    132.1492     33.7345   3.7311169507e+01   4.6911034406e+01    0.2700954    0.2043773  75.36 0.0006367937    1.210    0.174
       180 -11.1389     91.9514     33.1128   4.5774231016e+01   5.6338548167e+01    0.3812596    0.3181392   3.83  0.002254027    1.389    0.280
       181 -11.1702     86.6368     28.9016   4.5632650434e+01   5.8038360209e+01    0.3895376    0.2840636  70.08  0.001395039    1.461    0.315
       182  -9.5691    235.4858    107.0176   3.9981011405e+01   1.4420110329e+01    0.1869576   0.09948106 -42.29 0.0004206008    1.503    0.335
       183 -10.5872    113.4979     38.9068   4.2580385977e+01   5.0652266708e+01    0.3296594    0.2362493  60.85 0.0009303333    1.260    0.207
       184 -10.3572    205.9959     31.9406   2.7728030540e+01   3.0722369333e+01    0.2132082    0.1608995 -40.65 0.0009149573    1.377    0.274
       185  -9.9843     74.7794     33.5427   5.1016494451e+01   6.0032775080e+01     0.251275    0.1128385  47.38 0.0008607709    1.945    0.486
       186 -11.8670    140.7110     29.4710   3.4667807999e+01   4.5401353924e+01    0.2682855    0.2044152  75.42  0.000236889    1.167    0.143
       187 -10.9640     98.2445     22.2667   4.0249985808e+01   5.6146763886e+01    0.3113331    0.2353787  55.69  0.000679069    1.143    0.125
       188  -9.7693    102.8383     19.1784   3.8146402788e+01   5.5401575273e+01    0.1852606    0.1609151  79.77 0.0006132159    1.125    0.111
       189 -11.1999    105.6399     28.4249   4.0774629281e+01   5.3759211157e+01    0.3892243    0.2980954  71.90  0.001622587    1.244    0.196
       190  -9.9619    102.5117     23.9863   3.9912119999e+01   5.4977616305e+01     0.243533     0.168783  -0.38  0.001131582    1.979    0.495
       191 -11.3317    147.5693     25.7325   3.2622429431e+01   4.4224483550e+01    0.5241299     0.357152  38.10  0.002867096    1.916    0.478
       192 -10.6752    153.3418     26.5673   3.2075692584e+01   4.2795741678e+01    0.2875523    0.1699855  82.70 0.0009018623    1.638    0.390
       193 -10.5955    198.7877     25.8565   2.7052875003e+01   3.2909762993e+01    0.2484876    0.2254757  26.26  0.001750914    1.661    0.398
       194 -10.8012    132.7255     24.3660   3.4413020791e+01   4.7846406861e+01    0.3386666    0.2412588 -82.94  0.001044306    1.440    0.306
       195 -10.5320    122.9513     25.3593   3.6347047976e+01   5.0040585655e+01    0.2685424    0.2172463 -75.07 0.0008167003    1.277    0.217
       196 -10.1287    119.5276     22.4756   3.6038433833e+01   5.1155752044e+01      0.21372    0.1591914  61.00 0.0005038253    1.182    0.154
       197 -10.8457    190.8874     25.1120   2.7594447857e+01   3.4642581288e+01    0.2430545    0.1391022  82.57 0.0007782177    1.632    0.387
       198  -9.6388    175.2673     25.3509   2.9188228237e+01   3.7985318705e+01    0.1779157    0.1495011 -52.96 0.0007172975    1.204    0.169
       199 -10.3953    215.4123     23.7636   2.5280316718e+01   2.9822407828e+01    0.1453327    0.1036905 -31.96 0.0009519506    1.652    0.395
       200  -9.9507     91.7490    107.0508   6.9823571093e+01   4.2880615671e+01    0.2142582    0.1966477 -42.77  0.000291031    1.081    0.075
       201  -9.9316     90.4538     21.5508   4.1833407027e+01   5.8002457711e+01    0.2190863    0.1948141  -0.93 0.0008726001    1.284    0.221
       202  -9.5683    225.0158     22.5062   2.4349148094e+01   2.8132173090e+01    0.1533476   0.09573144  83.36 0.0006019553    1.516    0.340
       203 -10.0233    184.0548    105.7613   4.7179319451e+01   2.3970275421e+01    0.2125497    0.1768073 -73.11 0.0008288229    1.268    0.211
       204  -9.6091    209.7530    105.5777   4.3095816980e+01   1.9092555407e+01    0.1677477    0.1241479  78.12 0.0009407406    1.666    0.400
       205  -9.6765    121.8272     17.8238   3.4164198960e+01   5.1088737830e+01    0.2617315    0.1524016 -81.08 0.0008677502    2.140    0.533
       206 -10.3033    200.8622     19.3966   2.5494094613e+01   3.3214749168e+01    0.2319192    0.1554277  56.20  0.001346182    1.823    0.451
       207  -9.9848    171.3365     18.0562   2.7828547693e+01   3.9653227086e+01     0.166141    0.1371482 -76.38  0.000521849    1.038    0.036
       208 -10.0738     73.9868    106.0000   7.5558186598e+01   4.6348384772e+01    0.2452715   0.08707407  34.78 0.0003925323    2.849    0.649
       209  -9.8361    139.5315     17.1100   3.1297532535e+01   4.7006571015e+01    0.1648088    0.1237874 -34.58 0.0006297656    1.497    0.332
       210 -10.1325    154.5558     15.8316   2.9070341966e+01   4.3662545770e+01    0.1812007     0.171388 -84.62 0.0004779743    1.194    0.163
       211 -10.1000     87.4341     23.5506   4.3365917812e+01   5.8468986589e+01    0.2334588     0.177776  50.79 -2.066241e-05    1.134    0.118
       212  -9.8674    102.7598     14.9941   3.6686345032e+01   5.5826337954e+01    0.1545205    0.1508936  63.66 0.0003416345    1.146    0.127
       213  -9.1320    134.2845     14.3181   3.1208943343e+01   4.8505659489e+01    0.1220936   0.08777557  43.38 0.0006996748    1.587    0.370
       214 -11.1974    165.6671    102.3359   4.9721081284e+01   2.8379439571e+01    0.4682403     0.219254 -51.68  0.001843401    2.241    0.554
       215 -11.8464    110.4483    102.9526   6.3007683961e+01   4.0063477936e+01    0.4652566    0.2800355 -21.79   0.00138522    2.706    0.630
       216  -9.8343    143.8948    103.4650   5.4575587364e+01   3.2809530034e+01    0.2257813    0.1473375  49.76  0.001025095    1.574    0.365
       217 -11.4817    100.3219    102.1260   6.5782611002e+01   4.2320191778e+01    0.2776424    0.2147709  26.39 0.0009096664    1.406    0.289
       218 -12.1064     52.6368    100.2811   8.2063494128e+01   5.1076696426e+01    0.5082911    0.3029476 -25.01  0.001468241    2.170    0.539
       219 -10.1868    234.0877    101.1483   3.8997048110e+01   1.5586662968e+01    0.1828891    0.1458654 -52.87  0.000451442    1.050    0.047
       220 -10.5512    226.3109     99.4251   3.9601758771e+01   1.7177047672e+01    0.3962756    0.1654263 -40.08  0.001847036    2.010    0.502
       221 -10.0178    174.5620     99.8479   4.7461466455e+01   2.6983461370e+01    0.2728151     0.193257 -21.80  0.001317115    1.822    0.451
       222 -12.8627    173.8749     57.6157   3.7258889688e+01   3.4115696015e+01     1.232697    0.6369148 -80.72  0.002849615    3.248    0.692
       223  -9.5514    129.9665     11.4931   3.0974397216e+01   4.9780911096e+01    0.1851776    0.1067895  71.24 0.0004476178    1.475    0.322
       224 -12.8280    130.9620     95.9749   5.5642916132e+01   3.7125281524e+01    0.4504455    0.3948688  75.04  0.002181989    1.215    0.177
       225 -11.9373     87.3360     97.5956   6.8658387139e+01   4.5888631323e+01     0.556262      0.42279  -4.04  0.002559588    1.688    0.407
       226 -11.0571     81.5027     98.5020   7.0888210567e+01   4.6778548194e+01    0.2969401    0.2307037 -11.81 0.0009162791    1.548    0.354
       227 -10.8254    190.9504     99.0809   4.4511572954e+01   2.3795457206e+01    0.2117387    0.1932438  62.28 0.0003006328    1.214    0.177
       228 -11.4062    170.1440     97.8999   4.7795765708e+01   2.8263747204e+01    0.3357745    0.3010318 -26.03  0.001232036    1.234    0.190
       229 -11.6216    152.2172     97.4861   5.1218308571e+01   3.2180090586e+01    0.4336205    0.3726143  88.22  0.001833338    1.256    0.204
       230 -11.7086    200.1603     96.6252   4.2552479746e+01   2.2419111648e+01     0.322702    0.2340047 -58.83 0.0008582419    1.307    0.235
       231 -10.3248     40.9913     98.5198   8.6313978948e+01   5.3038825478e+01    0.2029448    0.1433781  20.83 0.0004815575    1.475    0.322
       232 -11.0424    139.5137     97.6475   5.4058174992e+01   3.4919967486e+01    0.2547604    0.1403472  50.27 0.0008719785    1.847    0.458
       233 -11.1226    100.3361     96.8980   6.4311925046e+01   4.3467159790e+01    0.2205039    0.1948674 -40.59 0.0006554029    1.138    0.121
       234 -12.6103     62.6331     93.8234   7.6442147906e+01   5.1119892759e+01    0.6009591    0.3554747 -56.12  0.001448132    1.760    0.432
       235 -10.3149     32.5068     97.4664   8.9595852677e+01   5.4267339941e+01    0.1429021    0.1321815 -38.53 5.404165e-05    1.022    0.022
       236 -10.0515     11.7523     97.4130   9.8417137907e+01   5.6098078209e+01    0.1805727    0.1263531  -9.77 0.0005838698    1.548    0.354
       237 -13.3210    106.4566     92.8739   6.1331937852e+01   4.3053301054e+01    0.9763474    0.4670111 -46.65  0.003600358    2.124    0.529
       238  -9.7684    246.7664     94.8030   3.6344514505e+01   1.4516322430e+01    0.1608218    0.1107279 -58.63 0.0003255047    1.301    0.231
       239 -11.9636    210.2630     94.0079   4.0558701573e+01   2.0940388090e+01    0.4084643    0.2108686  53.34  0.002027854    2.222    0.550
       240 -12.2013    194.8634     85.9169   4.0932971934e+01   2.5257132039e+01    0.4316789    0.2577509  79.99  0.001223834    2.256    0.557
