#   1 NUMBER                 Running object number                                     
#   2 MAG_AUTO               Kron-like elliptical aperture magnitude                    [mag]
#   3 X_IMAGE                Object position along x                                    [pixel]
#   4 Y_IMAGE                Object position along y                                    [pixel]
#   5 X_WORLD                Barycenter position along world x axis                     [deg]
#   6 Y_WORLD                Barycenter position along world y axis                     [deg]
#   7 A_WORLD                Profile RMS along major axis (world units)                 [deg]
#   8 B_WORLD                Profile RMS along minor axis (world units)                 [deg]
#   9 THETA_WORLD            Position angle (CCW/world-x)                               [deg]
#  10 FWHM_WORLD             FWHM assuming a gaussian core                              [deg]
#  11 ELONGATION             A_IMAGE/B_IMAGE                                           
#  12 ELLIPTICITY            1 - B_IMAGE/A_IMAGE                                       
         1 -14.1333     68.7618    144.2070   7.9988847445e+01   3.7519198712e+01     4.828277     2.640371  80.29  0.003394225    5.012    0.800
         2 -13.8103     49.4810    151.7168   8.7886260245e+01   3.8104227587e+01     1.696502     0.751216 -53.80  0.001840053    2.091    0.522
         3 -11.6097    250.1256     28.0120   2.0129372184e+01   2.4201972946e+01     1.327664    0.3689343 -33.24   0.00508264    5.986    0.833
         4 -13.1069    209.9212     58.1013   2.8639878935e+01   2.7296445460e+01     1.287627     1.017159  66.17   0.00902674    1.438    0.305
         5 -13.6271    228.2245     46.7069   2.4838629077e+01   2.5555402153e+01    0.9601367    0.6800621  86.19  0.004380538    1.381    0.276
         6 -11.2662      2.3747     12.3194   7.1637378042e+01   7.4302473633e+01    0.4134727    0.1407658 -41.51  0.001951625    2.927    0.658
         7 -11.7373      2.5478      3.4581   6.6720255353e+01   7.5500694862e+01    0.5907952    0.3110007  23.24  0.003508415    1.574    0.365
         8  -9.7595    105.3164      1.9886   2.7920927910e+01   5.5775272400e+01    0.1658332    0.1412035  74.33  0.001099425    1.065    0.061
         9  -9.0177    224.1375    206.9388   5.4357808287e+01   7.0639073923e-01    0.1639994    0.1326082 -31.11  0.001136539    1.177    0.151
        10  -9.9727     57.7702    249.9536   9.7419270148e+01   1.2581470990e+01    0.5084331    0.1285352  39.89  0.001828392    3.154    0.683
        11 -14.2535      8.8143    208.2425   1.0654041192e+02   2.7134989825e+01     2.411396     1.474729  -6.40    0.0085437    2.196    0.545
        12 -12.3006     44.4376    170.0349   9.2313948229e+01   3.3732742056e+01    0.6523235    0.4661942  -8.96  0.001854939    1.670    0.401
        13 -12.0174     51.4489    164.9092   8.9319629183e+01   3.4297046266e+01    0.4077102    0.3235357 -20.28 0.0006412758    1.399    0.285
        14 -11.8751      2.7477    248.6177   1.1024126710e+02   1.8272201697e+01    0.5063031    0.3096573  84.61  0.002955125    1.618    0.382
        15 -12.2030     15.2546    246.5592   1.0728537123e+02   1.7623353229e+01    0.6146505    0.2646806  89.14  0.002776001    2.686    0.628
        16 -15.3599     12.0498    232.7038   1.0724955089e+02   2.1010751365e+01      8.78119     3.071046   9.37   0.02813221    5.146    0.806
        17 -12.6059    242.6816    169.2479   4.5157196319e+01   4.7856520351e+00     1.029357     0.683035 -11.98  0.006381812    1.838    0.456
        18 -12.0639    230.4179    166.8699   4.6515385141e+01   6.6632751770e+00    0.9923556    0.3521191 -49.78  0.004193909    2.883    0.653
        19 -13.1628    235.6699    158.6178   4.4306608230e+01   7.3807953279e+00     1.073547    0.4684087 -39.99  0.005544201    1.812    0.448
        20 -12.4602     77.0067    136.5470   7.5660856229e+01   3.8244928140e+01    0.6290845     0.540596 -74.00 0.0004271702    1.285    0.222
        21 -12.3562     71.5982    151.4344   8.0444823606e+01   3.5200424415e+01     0.650017      0.56253  76.05  0.001152394    1.321    0.243
        22  -9.9914    115.8145    248.5910   8.3280327265e+01   6.0142399716e+00    0.2022928     0.104066  34.70 0.0009629456    1.767    0.434
        23  -9.4807     57.7907    241.5495   9.6648598425e+01   1.4397014926e+01    0.3163865    0.1655294  50.49  0.001471344    1.970    0.492
        24 -11.3702     63.8915    156.3939   8.3869607660e+01   3.4979124958e+01    0.3980894    0.2847692 -37.37 0.0004089863    1.471    0.320
        25 -13.1890     10.0346    193.6435   1.0517366716e+02   3.0731193506e+01    0.5591086    0.4082853 -23.21 0.0007835421    1.664    0.399
        26 -10.2633     89.9787    139.0013   7.2001389415e+01   3.5485541556e+01    0.3428895    0.3295544 -31.73 0.0008275398    1.026    0.025
        27  -9.6067     94.0324    135.9546   7.0065515775e+01   3.5544145550e+01    0.4103759     0.282233 -13.94  0.001698545    2.000    0.500
        28 -10.7006    249.0230    138.6612   3.9084312856e+01   8.9152567749e+00    0.2196218    0.1375014 -29.43  0.001367029    1.611    0.379
        29  -8.5054    197.6728    204.2727   5.8587417564e+01   4.2109050083e+00    0.1075684    0.1029497  84.00 0.0003244724    1.583    0.368
        30 -10.6891    105.2675    129.9474   6.5304750739e+01   3.4971690390e+01    0.4249481    0.3941954 -84.06  0.001385576    1.191    0.160
        31  -8.8091    110.5318    167.1046   7.1721241436e+01   2.5056103683e+01    0.2210444    0.1507165 -54.76 0.0005383904    1.491    0.329
        32 -10.7361     66.9356    127.5976   7.7164714466e+01   4.2106059306e+01    0.4877757    0.3477323 -69.00  0.002212112    1.585    0.369
        33 -11.0997     90.3354    124.6017   6.8609067842e+01   3.8967818760e+01    0.3454083    0.2863596  17.30 0.0006633977    1.271    0.213
        34 -15.9987     22.0860    184.3766   1.0089422289e+02   3.2137201074e+01     8.425544     3.096411 -87.31   0.02421845    3.783    0.736
        35  -8.7369    112.7780    123.4608   6.1612657406e+01   3.5056784353e+01    0.2203317    0.1465421  24.29   0.00094018    1.791    0.442
        36 -10.3253     85.5514    152.5828   7.6215524279e+01   3.2764052813e+01    0.2773342    0.2506612  64.37 0.0002205206    1.222    0.182
        37  -9.7354    102.9612    117.9509   6.3101330222e+01   3.8196687701e+01     0.220297    0.2104195  -5.54            0    1.062    0.058
        38  -9.6573    231.1667    114.1024   3.6903708345e+01   1.5314590888e+01    0.2019151    0.1619654 -47.48 0.0007809711    1.035    0.034
        39  -9.9135    193.4348    195.7322   5.7905771335e+01   6.2946063637e+00    0.5559416     0.294257 -64.40  0.001839118    5.404    0.815
        40  -9.9060    204.9022    110.7048   3.9735373858e+01   2.0089924224e+01    0.2926669    0.2238104  37.78  0.001519713    1.682    0.405
        41 -10.2818    243.5075     94.4988   3.1996432111e+01   1.6483914521e+01    0.1138654   0.08682743 -52.56 -0.0001056296    1.012    0.012
        42 -10.7461     53.3311     91.1662   7.3364944187e+01   5.3033368986e+01    0.4070647    0.2674191 -46.88  0.001235828    1.511    0.338
        43 -10.2749    166.1306     87.1301   4.0741721241e+01   3.1405777721e+01    0.1920024    0.1855716 -14.62 0.0004716635    1.242    0.195
        44  -9.7159     45.8460     85.2902   7.4858970334e+01   5.5451534826e+01    0.2711762    0.2221649  80.10  0.001285464    1.711    0.416
        45  -8.5793    174.7173    149.3158   5.2753872903e+01   1.8071806422e+01    0.1331149    0.1075141 -75.14 0.0002932581    1.579    0.367
        46  -9.0225    184.7248     77.2430   3.5624659060e+01   2.9287908081e+01    0.1549931    0.1501472  11.13 0.0005644531    1.356    0.262
        47  -8.9415     35.8615     75.5085   7.6503985139e+01   5.8952185304e+01    0.2014715    0.1305152  25.36 0.0004799429    1.482    0.325
        48 -10.9787     78.6664    238.7464   9.1146214962e+01   1.2581079805e+01    0.4706283    0.2142752 -52.36  0.002075538    2.328    0.570
        49  -8.9632    169.3221    236.2285   6.9489676865e+01   1.8804971100e+00    0.1630553    0.1129437 -47.70 0.0004813582    1.611    0.379
        50 -11.0616    128.7524    230.5228   7.7730643551e+01   7.9936553472e+00    0.2987777    0.2468443  60.89  0.001676888    1.650    0.394
        51 -13.2806    235.1569     40.6599   2.3233789413e+01   2.5136293723e+01    0.7174659    0.4773203  73.90  0.001466729    1.608    0.378
        52 -10.6107     13.4501     60.0633   8.3213778450e+01   6.4692977922e+01    0.2501702    0.2160439 -31.85 0.0004129299    1.116    0.104
        53 -10.3718      2.5429     50.4220   8.6553860623e+01   6.7557921110e+01    0.2260172    0.1500125 -39.98  0.001308249    1.313    0.238
        54  -8.6352     73.3817     43.1734   5.0002081375e+01   5.8399050042e+01    0.1788806    0.1247763 -48.50 0.0009477825    1.741    0.425
        55  -9.1969     65.1046    188.8945   8.8599316872e+01   2.6230427536e+01     0.234918    0.1913154  64.57 0.0007509651    1.346    0.257
        56 -10.1957    198.0495     23.7927   2.2927465733e+01   3.3795999138e+01    0.1926661    0.1400483 -53.32 0.0008424696    1.238    0.192
        57  -8.9097    189.3227     15.0919   2.1870205888e+01   3.6437522741e+01    0.1565385    0.1165321 -64.22 0.0006862126    1.125    0.111
        58 -11.0505    103.6501    213.1627   8.1421419433e+01   1.5099555933e+01     0.369331     0.188492   9.89  0.001372945    2.711    0.631
        59  -9.0183     99.3519    181.1712   7.7446289949e+01   2.3365826096e+01    0.2535452    0.2009438  13.39 0.0005609451    1.299    0.230
