#   1 NUMBER                 Running object number                                     
#   2 MAG_AUTO               Kron-like elliptical aperture magnitude                    [mag]
#   3 X_IMAGE                Object position along x                                    [pixel]
#   4 Y_IMAGE                Object position along y                                    [pixel]
#   5 X_WORLD                Barycenter position along world x axis                     [deg]
#   6 Y_WORLD                Barycenter position along world y axis                     [deg]
#   7 A_WORLD                Profile RMS along major axis (world units)                 [deg]
#   8 B_WORLD                Profile RMS along minor axis (world units)                 [deg]
#   9 THETA_WORLD            Position angle (CCW/world-x)                               [deg]
#  10 FWHM_WORLD             FWHM assuming a gaussian core                              [deg]
#  11 ELONGATION             A_IMAGE/B_IMAGE                                           
#  12 ELLIPTICITY            1 - B_IMAGE/A_IMAGE                                       
         1 -11.4888     15.0178     73.1653   1.1002268393e+02   5.9642669675e+01    0.7464373    0.6549332  70.25  0.005050424    1.443    0.307
         2  -9.0351     81.6703     45.8893   7.5494730344e+01   5.7219107458e+01    0.4188433    0.3210072 -26.50  0.002306012    1.224    0.183
         3 -10.1559     38.6798      8.7068   7.6249457275e+01   6.9487606576e+01    0.8707811    0.3483427 -22.52   0.00383851    2.833    0.647
         4 -10.6464     39.4884     29.6929   8.5803212895e+01   6.6276414890e+01    0.5360439    0.3297876 -40.73  0.002356491    1.514    0.340
         5 -11.8876     44.5882     21.9873   8.0041594434e+01   6.6846701398e+01    0.9900589    0.8571218 -48.70  0.006356233    1.699    0.411
         6 -12.2775    130.2318     17.0978   5.0924302300e+01   5.0472260907e+01     1.569981      1.37941 -84.46  0.009235684    1.309    0.236
         7 -11.7723    120.8055      4.1935   4.8050105318e+01   5.3912197273e+01     1.817871    0.4024027  61.94  0.006006718    3.599    0.722
         8 -11.2192    131.1772      3.6209   4.5917174950e+01   5.1469055964e+01     1.319543    0.2950178  61.96  0.004468448    3.344    0.701
         9 -12.5473    155.6838     20.6059   4.7479518731e+01   4.3808986200e+01     1.272277    0.9961522  41.74  0.003966596    1.279    0.218
        10 -13.2268    169.3803     17.0846   4.4294313802e+01   4.0735793225e+01     1.681698     1.225419  89.50   0.00594236    1.421    0.296
        11 -13.5211    164.3603      6.2564   4.1723952573e+01   4.3038884368e+01     5.275816    0.9877791  69.24   0.01490843    4.876    0.795
        12 -11.3144     83.9365      4.0309   5.6804600295e+01   6.2147522879e+01     1.034489    0.4566687  49.52  0.004476231    1.921    0.480
        13 -10.5729    116.7416     17.2528   5.3883039185e+01   5.3668046753e+01    0.9445996    0.4025906 -41.24  0.003800086    2.860    0.650
        14 -10.6936    249.2697      5.7492   3.3515720600e+01   2.3156353088e+01     1.071805    0.2842172 -36.00  0.004583012    2.923    0.658
        15  -9.2410     64.8185     16.3562   6.8970271331e+01   6.4490108718e+01    0.3042285     0.257631  73.24  0.001812119    1.996    0.499
        16  -9.0111     68.6803     13.7945   6.6330519721e+01   6.4112172090e+01    0.3309108    0.2783571  87.18  0.001926352    2.131    0.531
        17  -8.9402     20.5033     14.1955   8.8216247976e+01   7.0811122714e+01    0.4489112      0.18221 -29.26  0.002176974    2.335    0.572
        18  -8.4995     52.2497      1.8663   6.6660670101e+01   6.8240739080e+01    0.2786287    0.1450189  33.79  0.001519333    1.701    0.412
        19  -9.3819     60.5448      9.8052   6.7436721842e+01   6.5996467039e+01    0.3866992    0.2378563 -35.49  0.002156262    1.854    0.461
        20  -9.6943     60.5745      2.4613   6.3733019040e+01   6.6763992836e+01    0.6640331    0.4229999  17.99  0.003890499    1.426    0.299
        21 -10.8671    203.5048      3.8470   3.6715866843e+01   3.3655089268e+01    0.3793209    0.3180142  70.57  0.002174523    1.167    0.143
        22  -8.1602     49.8713      6.4261   7.0038641802e+01   6.8128370617e+01    0.2386115    0.1288391   8.15  0.001177742    2.205    0.547
        23  -9.5406     71.1153      5.5520   6.1534724615e+01   6.4537882377e+01    0.4950927    0.2541727  43.61  0.002024767    1.704    0.413
        24  -9.8826    222.1525      3.5567   3.5035956605e+01   2.9330356585e+01    0.4187377     0.164421 -44.91  0.001690761    2.249    0.555
        25 -11.1206     78.5635     13.4777   6.2784642803e+01   6.2293443069e+01    0.9648166    0.5309709 -15.39   0.00484721    1.898    0.473
        26  -8.7308     17.3591      2.1780   8.3822107709e+01   7.2879801314e+01    0.2287613    0.1586462 -46.08  0.001466708    2.033    0.508
        27  -9.5100    104.5770     12.4901   5.4906604506e+01   5.6927710930e+01    0.4274566    0.3485626  24.26  0.002526499    1.125    0.111
        28  -8.4083    138.8804     79.3826   7.0124035688e+01   3.9176112442e+01    0.3444266     0.213632 -27.87  0.001109972    1.762    0.432
        29  -8.3169     77.2964     78.6757   8.8432147430e+01   5.1624552515e+01    0.1373783    0.1158853 -86.50 0.0005124912    1.624    0.384
        30  -9.0198     74.1451     69.5263   8.6647326108e+01   5.4054227756e+01    0.3678759    0.3010103  39.23  0.002030836    1.373    0.272
        31  -7.5834     34.3101     68.3298   1.0136347612e+02   5.9254356446e+01     0.139863    0.0809014 -33.04   0.00061946    1.667    0.400
        32  -8.4755    100.6156     83.8396   8.2367870612e+01   4.6444776464e+01    0.2175749    0.1386622 -52.80 0.0009470269    1.684    0.406
        33  -9.0260     78.2964     65.8628   8.3958372962e+01   5.4129308115e+01    0.2374577      0.19854  42.91  0.001107006    1.371    0.271
        34  -8.7757     83.8112     68.8819   8.3058738791e+01   5.2592614355e+01    0.3261374    0.2076201 -40.51  0.001553203    1.467    0.318
        35  -8.7995     49.8309     61.9432   9.3327901331e+01   5.8987512492e+01    0.3571633    0.1896295 -42.40  0.001736889    1.610    0.379
        36  -9.0907     44.9427     62.5084   9.5448085062e+01   5.9432132182e+01    0.2434509    0.1238025  32.07  0.001168758    2.202    0.546
        37  -8.8753    228.2650     78.8863   5.2648614018e+01   1.8038280605e+01    0.3513616      0.22004 -18.95  0.001590163    1.951    0.487
        38  -7.8827     93.4322     57.2329   7.5775744438e+01   5.3055866400e+01    0.1994704    0.1330468 -46.52 0.0009415185    1.632    0.387
        39  -9.0981    199.0484     55.7400   5.0971126767e+01   2.8425327553e+01    0.3000782    0.2160011 -47.45  0.000954266    1.352    0.260
        40  -8.8643     66.2226     53.7036   8.4107879315e+01   5.8401047330e+01    0.3333712    0.1822731 -55.65  0.001421085    2.504    0.601
        41  -8.4097     35.1786     52.4773   9.6284157032e+01   6.2518449133e+01    0.2434179    0.1550506 -46.35  0.001069748    1.320    0.242
        42  -9.2747     85.9315     48.7825   7.5139227703e+01   5.5950590290e+01    0.4967165     0.346992  52.98  0.002488001    1.757    0.431
        43  -9.9924    174.5209    242.0034   9.7368406749e+01   2.1462133059e-01    0.2124755    0.1393544  35.02  0.001260706    1.249    0.199
        44 -10.2319      3.3098     40.5987   1.0696733963e+02   6.7242346156e+01    0.4190088    0.3806505 -72.20  0.002636454    1.401    0.286
        45  -7.7773    144.3398     42.3047   5.6762378240e+01   4.3990043629e+01    0.1554092    0.1066826  28.12 0.0007040438    1.677    0.404
        46 -10.3562    202.9053    226.3762   8.9462676273e+01  -1.9604884602e+00    0.3380148    0.1376444  39.48  0.001536074    2.190    0.543
        47  -9.5689     52.0373     38.9755   8.4139058689e+01   6.3100001500e+01    0.4901923    0.2842528 -46.01   0.00252192    1.787    0.440
        48  -9.9397     47.9072     34.3560   8.4011608518e+01   6.4440595064e+01    0.3421895    0.3173955 -16.32  0.001996071    1.297    0.229
        49 -10.7740    101.0034    175.9978   1.0316656380e+02   2.4865984578e+01    0.1979003    0.1849205  74.62  0.001162552    1.003    0.003
        50  -8.0760    202.3232     46.3353   4.7948949267e+01   2.8970820362e+01    0.1430406    0.1081488  27.25 0.0007050746    1.711    0.416
        51  -7.7308      1.5095    159.4913   1.2498353055e+02   4.0299531947e+01    0.1185132   0.09033107 -87.82 2.153118e-05    1.014    0.014
        52  -9.1238     96.5166     31.9966   6.5099722278e+01   5.6417053783e+01    0.3577808     0.132534 -30.10  0.001365089    2.737    0.635
        53  -8.7346      6.8040     35.5099   1.0375625358e+02   6.8066985060e+01    0.2362727    0.2311013 -55.52  0.001835076    1.414    0.293
        54  -8.2604     11.6993     36.3508   1.0164700712e+02   6.7609390079e+01    0.1638153    0.1436099  16.86  0.001186406    1.440    0.306
        55  -8.6934     12.2477     32.9807   1.0023025981e+02   6.8218171332e+01    0.2730217    0.1935023  -7.87  0.001290136    1.384    0.278
        56  -8.6576     68.3442     35.7913   7.6283123871e+01   6.1166568184e+01    0.3596493    0.1722526  41.84  0.001641809    2.175    0.540
        57  -9.7474    196.8454     34.7114   4.5556077091e+01   3.1848363232e+01    0.3440385    0.1872283  52.66  0.001571636    1.865    0.464
        58  -9.6503     91.3654     44.7972   7.1795650062e+01   5.5570517967e+01    0.3700905     0.244708  72.92  0.001499948    3.116    0.679
        59 -10.3134    224.8524     29.2754   4.0881055684e+01   2.5847688649e+01    0.5090956     0.392094  56.62  0.002443484    1.422    0.297
        60  -9.7535     90.2522     28.8740   6.5749297427e+01   5.8120678183e+01    0.3196935    0.2555942   0.70  0.001832113    1.187    0.158
        61 -12.5981    241.8035    132.1898   6.3227538945e+01   6.4301550495e+00     1.440879     1.283202  32.61  0.005641794    1.242    0.195
        62 -10.2832     10.9855    141.3323   1.2118691202e+02   4.3835363992e+01    0.2569991    0.2031458  -3.66  0.001686778    1.781    0.439
        63  -9.9167     10.2085    136.4106   1.2089612640e+02   4.5053705686e+01    0.2191436    0.2000179 -13.82  0.001565473    1.451    0.311
        64 -10.2412     11.5669    127.3487   1.1956795586e+02   4.7114344499e+01    0.4472088    0.2139284 -33.27  0.002064489    3.055    0.673
        65  -8.5487     58.2940    125.6887   1.0594418053e+02   4.3147317709e+01    0.2987435    0.1255346 -45.77  0.001168595    2.460    0.594
        66  -8.2233     22.5082    125.5130   1.1630588787e+02   4.6755001466e+01    0.1289251    0.1045356 -73.90 0.0006510227    1.004    0.004
        67  -9.0041     41.0755    142.1564   1.1342143171e+02   4.1024810572e+01    0.2037035    0.1653171 -50.81  0.001228833    1.283    0.220
        68  -8.0350     21.7922     23.9543   9.1926849360e+01   6.9098400636e+01    0.3051007    0.1345349 -54.92  0.001381294    2.999    0.667
        69  -9.2098     16.5057    104.4346   1.1512473241e+02   5.2262000039e+01    0.3912598    0.2545199  76.13  0.002036925    1.818    0.450
        70  -8.5824    110.8138     16.3851   5.4940223009e+01   5.5126977153e+01    0.3161319    0.2037363  45.42  0.001490866    1.367    0.269
        71  -8.9220     69.5070    103.8135   9.7873444296e+01   4.7024904588e+01     0.471924    0.2158865 -27.45  0.001267962    5.708    0.825
        72  -9.4061     66.6249     29.7760   7.4374434097e+01   6.2368727871e+01    0.3169178    0.2120744 -12.70  0.001716904    1.472    0.321
        73  -9.0962     94.4186     17.7589   5.9818653565e+01   5.8600847328e+01    0.3360284    0.3075956  60.88  0.002090437    1.305    0.234
        74  -9.7061     30.1422    102.0106   1.1035558182e+02   5.1819616074e+01    0.3616451    0.1924357 -48.15    0.0018278    1.646    0.392
        75  -9.3963     46.6087    100.9264   1.0472451095e+02   5.0522513136e+01    0.3917807    0.1311336 -56.84   0.00151408    2.381    0.580
        76  -8.8763     64.0147     98.7042   9.8438620078e+01   4.8985213384e+01    0.1983184     0.182418 -32.52  0.001060384    1.081    0.075
        77  -8.0292     83.5666     89.8216   8.9612358101e+01   4.8156153975e+01     0.211777    0.1369229 -59.00 0.0006908601    1.686    0.407
        78 -11.7517     44.3816     82.4767   1.0124435884e+02   5.5094836106e+01     1.338368    0.6643713 -44.09  0.006229322    1.758    0.431
        79 -10.6831     38.6171     82.7335   1.0340385847e+02   5.5612471716e+01    0.5263725    0.4437369  80.39  0.003178267    1.496    0.332
        80  -9.3754    103.2447     26.1561   6.0799059883e+01   5.5727864804e+01    0.3671267    0.1948175  40.13  0.001683776    1.767    0.434
        81  -9.2097      2.5508     87.8837   1.1714936259e+02   5.6945553960e+01    0.6700941    0.2037795 -75.92  0.002567405    3.296    0.697
        82  -8.8773     74.9154     26.3426   6.9805160256e+01   6.1407946839e+01    0.4988995    0.2720846  -7.11  0.002169916    2.479    0.597
        83 -10.0972     25.2314     65.9093   1.0432797947e+02   6.0550297634e+01    0.6123339    0.2439841 -54.98  0.002159807    1.935    0.483
        84  -9.1838      9.1637     80.2041   1.1357218700e+02   5.8379784046e+01    0.2978239    0.2137925 -33.36  0.001511532    1.396    0.283
        85 -10.6726      4.4514     76.1047   1.1453871767e+02   5.9552206425e+01    0.5188477    0.3962913 -34.50  0.002769883    1.304    0.233
        86  -8.5059    168.3417    248.3107   9.9439312696e+01   2.5154681733e-01    0.1235761   0.08400792  11.99 0.0007045394    1.696    0.410
        87  -8.4101    221.2791     79.8256   5.3910281606e+01   1.9446823082e+01     0.243746    0.1674862 -51.40 0.0008134898    1.441    0.306
