#   1 NUMBER                 Running object number                                     
#   2 MAG_AUTO               Kron-like elliptical aperture magnitude                    [mag]
#   3 X_IMAGE                Object position along x                                    [pixel]
#   4 Y_IMAGE                Object position along y                                    [pixel]
#   5 X_WORLD                Barycenter position along world x axis                     [deg]
#   6 Y_WORLD                Barycenter position along world y axis                     [deg]
#   7 A_WORLD                Profile RMS along major axis (world units)                 [deg]
#   8 B_WORLD                Profile RMS along minor axis (world units)                 [deg]
#   9 THETA_WORLD            Position angle (CCW/world-x)                               [deg]
#  10 FWHM_WORLD             FWHM assuming a gaussian core                              [deg]
#  11 ELONGATION             A_IMAGE/B_IMAGE                                           
#  12 ELLIPTICITY            1 - B_IMAGE/A_IMAGE                                       
         1 -13.7092    207.2303     34.0721   5.1689197905e+01   2.8781373607e+01     1.379809     1.129944  -9.16  0.005919846    1.418    0.295
         2 -13.5754      3.6379      7.2048   1.0125599017e+02   7.2715355154e+01     1.509541    0.3635161 -49.52  0.006811354    2.981    0.665
         3 -14.1230    227.0201     17.1477   4.4859777705e+01   2.5863315099e+01     1.112302    0.9606565  25.37  0.001356064    1.448    0.310
         4 -11.0406     97.3598    239.4710   1.1793885047e+02   1.3958178462e+01     0.262912    0.1830316  79.63  0.001193884    1.418    0.295
         5 -11.2692    154.4165    247.3666   1.0884027228e+02   3.9809812743e+00    0.2960178    0.2181163 -47.42  0.002041686    1.763    0.433
         6 -11.6108    149.7751    247.8885   1.0970759348e+02   4.6448935627e+00    0.2994169    0.2505394 -62.36  0.002209025    1.536    0.349
         7 -11.1377    144.0209    249.9969   1.1094307425e+02   5.2561044640e+00    0.2524498    0.1688464  60.95  0.001640537    1.487    0.327
         8 -13.3087    135.6544    244.6273   1.1179430835e+02   7.3390318708e+00    0.8937417    0.7653697  39.35  0.006617555    1.222    0.182
         9 -12.7012    115.2425    249.3201   1.1580382846e+02   9.7700377679e+00     1.094305    0.4058475  51.01  0.005500488    2.194    0.544
        10 -11.9594    122.5079    248.9992   1.1453220663e+02   8.7228505589e+00    0.5007621    0.3424681  41.21  0.002473197    1.297    0.229
        11 -11.6939     99.8655    248.2506   1.1830812686e+02   1.2193895102e+01    0.5981784    0.3150546  44.95  0.003689529    1.512    0.339
        12 -12.5677     90.2664    224.3002   1.1775390140e+02   1.7568314014e+01    0.4950372    0.3795413 -62.80  0.003407606    1.552    0.356
        13 -11.7952     87.7794    248.6278   1.2036175389e+02   1.3845994745e+01    0.5691518    0.2898285  49.24  0.002565737    1.484    0.326
        14 -11.9482     82.2725    243.4467   1.2085766717e+02   1.5441074465e+01    0.7423187    0.2592153 -62.61  0.003843602    3.189    0.686
        15 -12.4922     88.6951    238.8351   1.1937647875e+02   1.5304960948e+01    0.7426593    0.4026994  80.47  0.004211771    2.218    0.549
        16 -14.1361     69.1068    236.7934   1.2254698900e+02   1.8324365356e+01     3.405609     1.719488  28.14   0.01626997    3.738    0.733
        17 -11.6642     98.6477    230.8717   1.1689040126e+02   1.5201168924e+01    0.3295601    0.2092623  22.30  0.001720327    2.862    0.651
        18  -9.7153     56.5509    229.0509   1.2409521229e+02   2.1283567202e+01    0.3378707    0.1372797  82.58  0.001517662    3.536    0.717
        19 -11.1785     74.6369    243.6878   1.2215149275e+02   1.6436212140e+01    0.3738332    0.2219414  69.13  0.002494091    1.454    0.312
        20 -13.7395      3.4959    193.8871   1.3104919373e+02   3.3589910265e+01     2.351655    0.6288456 -85.95   0.01022924    3.621    0.724
        21 -13.1373      2.7779    224.5523   1.3261169693e+02   2.7952299058e+01    0.8721145    0.2923866 -75.72  0.002822407    2.524    0.604
        22 -11.8090    101.4229    220.2399   1.1528906425e+02   1.6630181399e+01    0.2917232    0.2457616  74.07  0.001006367    1.102    0.093
        23 -12.3071     21.6634    226.8495   1.2973727455e+02   2.5679045490e+01    0.2627436    0.1924945  78.46 0.0004288629    1.118    0.106
        24 -11.0296     72.0141    219.6599   1.2062621178e+02   2.0964001495e+01    0.3674728    0.2634403  55.96  0.002524261    1.160    0.138
        25  -9.5317     60.1240    220.2445   1.2280160623e+02   2.2419755430e+01    0.1549352    0.1280516  66.40 0.0003833261    1.185    0.156
        26 -10.3075     50.9906    218.9477   1.2431059684e+02   2.3798860180e+01    0.2144218    0.1258497  68.21  0.001002062    1.397    0.284
        27 -11.4947    116.1582    239.6578   1.1467669297e+02   1.1122861073e+01    0.2490321    0.2344921 -14.18  0.001879073    1.569    0.363
        28 -13.1334    103.5803    237.9482   1.1671136580e+02   1.3293085629e+01    0.5862505    0.4526958  53.51  0.003103357    1.093    0.085
        29 -12.8682    124.3416    240.7553   1.1335365776e+02   9.6901790510e+00    0.5896532    0.3586687  32.22  0.003453904    1.855    0.461
        30  -9.4384    100.0416    210.5546   1.1447792524e+02   1.8598086359e+01    0.1832151   0.07961401  58.43 0.0005136948    2.474    0.596
        31  -9.8719     56.1005    208.8934   1.2259917928e+02   2.5059776780e+01    0.2681905    0.1424366 -67.22  0.001593712    1.870    0.465
        32 -10.2889     64.3476    209.3251   1.2111224392e+02   2.3919955202e+01    0.1495062    0.1173231  36.54  0.001006507    1.581    0.368
        33  -9.9416     65.9678    205.7260   1.2048089628e+02   2.4400051942e+01    0.3959017    0.1083203  47.62  0.001688249    2.959    0.662
        34  -9.7648    106.6773    203.4644   1.1234039061e+02   1.8888548577e+01    0.2107952     0.147596 -64.44 0.0006062125    1.537    0.350
        35 -10.1214    250.3439    200.5802   8.4674339348e+01  -5.6797315578e+00    0.2055553    0.1281632  -3.51 0.0007980547    1.675    0.403
        36  -9.3722     88.4346    201.5029   1.1571007551e+02   2.2071861957e+01      0.12615   0.09984515  70.44  0.000104639    1.057    0.054
        37  -9.9366     53.1438    232.6554   1.2492629686e+02   2.1072170360e+01     0.527092    0.1942511  71.19  0.002065816    3.789    0.736
        38 -10.3695     44.7506    198.0919   1.2381753356e+02   2.8548634405e+01    0.2993464    0.1315202  45.81  0.001651363    1.987    0.497
        39  -9.0685     54.3024    194.6450   1.2169317815e+02   2.8089768534e+01    0.1280272   0.07103051  71.46 0.0007038951    1.709    0.415
        40 -12.1348     48.4167    191.5607   1.2255944033e+02   2.9430661073e+01    0.2747152    0.2436091 -81.31 0.0005668083    1.320    0.242
        41 -10.2575     35.7034    191.7472   1.2502130325e+02   3.0847493378e+01    0.3475307     0.172184  57.29  0.001669115    1.749    0.428
        42 -14.8240      6.6908    244.4696   1.3282788377e+02   2.4171178763e+01     2.432583    0.8869768  38.21   0.01491719    2.735    0.634
        43 -10.2038     19.9936    191.1773   1.2792189862e+02   3.2594047333e+01    0.4016294    0.1482901  80.22  0.001823069    3.111    0.679
        44  -8.7658    109.4082    191.4636   1.1022281850e+02   2.0768521201e+01    0.1306822    0.1107381  69.65 7.351934e-05    1.039    0.038
        45  -9.0999    191.5410    191.5078   9.3606958332e+01   5.8878226975e+00    0.1349218    0.1182808  28.09 8.409747e-05    1.007    0.007
        46  -9.4342    250.3119    188.3577   8.2363635521e+01  -4.1410639546e+00    0.1353706   0.08429784   7.15 0.0007043238    1.740    0.425
        47  -9.1721     67.1115    188.2965   1.1852360056e+02   2.7737080279e+01    0.1887597    0.1287658 -32.33 0.0009635256    2.882    0.653
        48 -12.2621     55.7954    183.9976   1.2037708218e+02   3.0092178442e+01    0.2649252    0.2137066  63.39 0.0004535426    1.149    0.130
        49  -9.3809     23.8144    184.3906   1.2673172437e+02   3.3589832020e+01    0.1317047    0.1071763  29.57 0.0009510776    1.732    0.423
        50 -15.1370     20.3901    219.3902   1.2954654475e+02   2.7154651797e+01     1.299555    0.9285997  72.59   0.01027146    1.047    0.045
        51 -10.1369     37.0663    179.9414   1.2377977466e+02   3.3130335350e+01    0.1833192    0.1651376  65.36  0.000941155    1.313    0.238
        52 -10.0208     45.5704    177.8277   1.2186052294e+02   3.2620670071e+01    0.2063453    0.1592448  72.96 0.0004659846    1.084    0.077
        53  -8.6016     82.4708    176.4700   1.1391079977e+02   2.8066566932e+01    0.1322677    0.1080199  76.75 5.307103e-05    1.063    0.059
        54 -11.2505    248.4675    172.3922   7.9495573206e+01  -1.6959760658e+00     0.407525    0.2469045 -17.19  0.002117319    1.669    0.401
        55 -10.8995     68.4122    172.0621   1.1640145115e+02   3.0998517491e+01    0.2375976     0.197158 -78.61 0.0004087259    1.144    0.126
        56 -11.5947     11.9709    172.0065   1.2814304510e+02   3.7263118540e+01    0.3103367    0.1720442  77.38  0.001949836    1.503    0.335
        57 -10.6073      2.8515    173.0010   1.2997732568e+02   3.7829705148e+01    0.1960395    0.1324298  52.32 0.0006960305    1.451    0.311
        58 -10.8871     52.9788    170.6863   1.1957504796e+02   3.3275213618e+01    0.3074285    0.2415857 -64.71 0.0009756981    1.342    0.255
        59 -10.0975     26.9845    171.7056   1.2511367878e+02   3.5920961918e+01    0.2086142    0.2017503  40.43 0.0007683398    1.496    0.331
        60 -11.1778     19.8407    168.3504   1.2629533838e+02   3.7321523827e+01    0.2186524     0.172685 -62.07 0.0003223672    1.474    0.322
        61 -11.8079     13.4357    167.1195   1.2749921821e+02   3.8161124181e+01    0.2927566    0.1670336  33.15  0.001849602    2.093    0.522
        62 -12.2395     10.3130    163.3210   1.2785166104e+02   3.9234499012e+01    0.5108502    0.2121967 -50.80  0.002477757    3.337    0.700
        63 -12.1101     76.5499    164.1464   1.1357220016e+02   3.1602727458e+01    0.4861147    0.4301879 -88.53  0.002138365    1.082    0.076
        64 -10.8540    245.4266    162.2632   7.7902916546e+01   2.7711795264e-01    0.2553909    0.1213815 -27.77  0.001136204    2.074    0.518
        65 -11.1635    249.6742    161.4705   7.7020628365e+01  -3.7664914041e-01    0.3937438    0.1509637 -32.16  0.001625001    2.469    0.595
        66 -10.3219     23.9766    161.7458   1.2488441167e+02   3.8350949812e+01    0.1552524    0.1266838  80.76 0.0005592467    1.110    0.099
        67  -9.2528     49.7589    161.2259   1.1922431145e+02   3.5735274495e+01    0.1499237     0.130978 -69.20 0.0002500993    1.264    0.209
        68  -9.1036     42.9624    160.9706   1.2070166609e+02   3.6568511200e+01     0.190879    0.1170748  72.88 0.0004540655    1.563    0.360
        69 -13.0454     34.7383    205.6149   1.2622713337e+02   2.8212116404e+01     1.015603    0.5845073  87.40  0.006593375    1.464    0.317
        70 -11.1836     26.2285    155.9544   1.2387112947e+02   3.9401369841e+01      0.28439    0.1988794  51.16 0.0008964103    1.452    0.311
        71 -10.8066     21.6783    156.6746   1.2492641265e+02   3.9668449512e+01    0.2530054    0.1301737 -66.90   0.00109353    1.649    0.394
        72 -11.3601      8.9662    155.9203   1.2757325455e+02   4.0927649483e+01    0.2425438    0.1191093  87.50  0.001378431    1.738    0.425
        73 -10.5829     40.4894    168.2191   1.2198484901e+02   3.5255522550e+01    0.2706332     0.227966 -80.43  0.001901723    1.191    0.160
        74 -10.8261     12.4582    153.3353   1.2662519657e+02   4.1200237361e+01    0.2155898   0.08361015 -71.44  0.001117088    1.993    0.498
        75 -11.0817    249.6205    151.0137   7.4783319694e+01   1.1466608008e+00    0.3358818    0.2353606 -39.97  0.001723538    1.516    0.340
        76 -11.1022     91.7077    149.6515   1.0781194044e+02   3.2569477375e+01    0.3055193     0.278714 -84.13 0.0009530898    1.051    0.048
        77 -10.7091     23.3119    149.7885   1.2392669287e+02   4.1034537227e+01    0.2188545    0.1274969 -61.81  0.001307816    1.587    0.370
        78 -10.5081     79.6517    148.5615   1.1054254404e+02   3.4659356206e+01    0.2349565    0.2092038  85.24 0.0004668129    1.036    0.035
        79  -9.9161     39.0741    148.9169   1.2024058512e+02   3.9681690862e+01    0.1857421    0.1733159 -68.08 0.0006870974    1.304    0.233
        80 -13.2432      3.9802    142.3398   1.2757578185e+02   4.4255531382e+01    0.6417435     0.474627 -52.95  0.004569852    1.587    0.370
        81  -9.6441     95.1981    145.5898   1.0626042690e+02   3.2929817652e+01    0.2266001     0.177506 -75.49 0.0008782846    1.234    0.190
        82 -11.5454     68.3970    143.5078   1.1249546979e+02   3.7404079443e+01    0.5813594    0.3223217  72.94  0.001850049    2.422    0.587
        83 -12.9747    248.3363    134.3818   7.1284770357e+01   3.8842824722e+00     1.386581    0.4830061 -27.15    0.0047386    3.266    0.694
        84 -10.8158    247.7171    144.6343   7.3693592443e+01   2.4506999978e+00    0.2686922    0.1806567   1.48 0.0005388397    1.723    0.420
        85  -9.5177     44.9870    139.7176   1.1769976713e+02   4.1140381969e+01    0.1701469    0.1454424  85.72 0.0003046213    1.081    0.075
        86  -9.1191    236.0066    146.0203   7.5984395162e+01   4.5029397076e+00    0.1696769    0.1502136  -5.88 0.0004574223    1.013    0.013
        87 -10.2869    105.9108    135.3016   1.0164633411e+02   3.3456779973e+01    0.4447626    0.3062191 -10.65  0.001824366    2.833    0.647
        88 -12.6665      2.9027    131.9502   1.2694143638e+02   4.6613363142e+01    0.4988123    0.2364451 -77.67   0.00263545    1.592    0.372
        89 -12.7871      8.1542    126.1735   1.2514461671e+02   4.7533567010e+01    0.5160932    0.1720822 -63.42    0.0025203    2.233    0.552
        90 -12.0286     15.3536    132.5158   1.2404668512e+02   4.5571782691e+01    0.2982311    0.1970556  65.01  0.001090266    1.501    0.334
        91  -9.2170     44.1773    130.1232   1.1658664123e+02   4.3443787739e+01    0.1757113    0.1289847  83.60  0.000488085    1.307    0.235
        92 -12.6586     15.0619    120.3357   1.2278804746e+02   4.8345931082e+01    0.4106313    0.2349122  61.09  0.001039926    1.911    0.477
        93 -11.7209    243.6660    120.6928   6.8861105367e+01   6.9444658469e+00    0.3980319    0.2396592 -48.52  0.001819914    1.893    0.472
        94 -11.4446    239.1800    120.6397   6.9576994059e+01   7.8819576133e+00    0.5847803     0.269196 -16.79  0.001866459    3.817    0.738
        95 -13.1866    248.2233    101.5358   6.3566781097e+01   8.9962132948e+00      1.19497    0.5555987 -27.56  0.004864567    2.130    0.530
        96 -10.6174    249.5490    117.5181   6.7183177191e+01   6.2393084383e+00    0.2720861     0.214608   1.07 0.0007904018    1.348    0.258
        97 -12.3917    247.7922    112.8398   6.6346993314e+01   7.3255762209e+00    0.6184769    0.5092013  37.02  0.003152876    1.299    0.230
        98 -10.0866    232.3882    116.2675   6.9651702619e+01   1.0030548695e+01    0.2100152    0.1260893 -41.21 0.0009370297    1.621    0.383
        99 -13.7167      6.6651    112.2525   1.2404172095e+02   5.0760312737e+01    0.7913971    0.4640122 -62.80  0.004957831    1.373    0.272
       100  -9.7470    162.4677     80.4671   7.3453128313e+01   3.3018263291e+01    0.1558601    0.1535707 -48.59 8.649222e-05    1.023    0.023
       101 -12.4618      3.3420     68.1583   1.1876515714e+02   6.0764808025e+01    0.5150867    0.1348081 -59.83  0.002353507    2.374    0.579
       102 -12.2297    170.4562    247.4899   1.0607026517e+02   1.4066424574e+00    0.5010606    0.2049812  34.01  0.002371566    2.444    0.591
       103 -10.5419    198.0520    245.4599   1.0103232187e+02  -2.7318299090e+00     0.185246   0.09015224  39.64 0.0006087577    1.592    0.372
