#   1 NUMBER                 Running object number                                     
#   2 MAG_AUTO               Kron-like elliptical aperture magnitude                    [mag]
#   3 X_IMAGE                Object position along x                                    [pixel]
#   4 Y_IMAGE                Object position along y                                    [pixel]
#   5 X_WORLD                Barycenter position along world x axis                     [deg]
#   6 Y_WORLD                Barycenter position along world y axis                     [deg]
#   7 A_WORLD                Profile RMS along major axis (world units)                 [deg]
#   8 B_WORLD                Profile RMS along minor axis (world units)                 [deg]
#   9 THETA_WORLD            Position angle (CCW/world-x)                               [deg]
#  10 FWHM_WORLD             FWHM assuming a gaussian core                              [deg]
#  11 ELONGATION             A_IMAGE/B_IMAGE                                           
#  12 ELLIPTICITY            1 - B_IMAGE/A_IMAGE                                       
         1  -8.8562     91.8510     21.2882   8.6611079945e+01   5.9369643077e+01    0.4280435    0.2702052   3.06  0.001940406    1.934    0.483
         2 -10.0925      9.3482     19.6868   1.2076240787e+02   7.1252018926e+01    0.3677475    0.2143017  -1.14 0.0006466668    1.908    0.476
         3 -10.2218     24.4639     16.6022   1.1157073214e+02   7.0511266689e+01     0.305929    0.2488756   2.69 0.0007424649    1.221    0.181
         4  -9.1937     31.3887     11.0484   1.0541563019e+02   7.0618653207e+01    0.4208413    0.2077913 -19.26  0.001700828    2.379    0.580
         5  -9.7455     64.1055     14.2687   9.2752794302e+01   6.5480668579e+01    0.4148422    0.2273596  27.84 0.0007944885    1.917    0.478
         6  -9.1934     74.3593     13.6306   8.8760088349e+01   6.3730669790e+01     0.306053    0.2073722  -0.57  0.001706115    1.526    0.345
         7  -8.7249     80.1975     12.6916   8.6383997434e+01   6.2726214547e+01    0.2636233    0.2080454 -32.58 0.0008529921    1.395    0.283
         8  -8.8319     97.2907     11.9971   8.1026676231e+01   5.9274766274e+01    0.2562812    0.1800399  35.18  0.000446171    1.308    0.235
         9  -8.1891    105.9132     10.5898   7.8205780140e+01   5.7503723495e+01    0.2241526    0.1739038   7.03 0.0006594248    1.326    0.246
        10 -10.6303     20.3086      8.7540   1.0998817634e+02   7.2140050551e+01     0.217729     0.163806  -9.33 0.0002991295    1.126    0.112
        11  -9.3861    234.5490      7.9480   5.9085167106e+01   2.5555155861e+01    0.2843983    0.2325867 -21.89    0.0012227    1.460    0.315
        12  -7.5319     64.8156      9.3773   9.0093387748e+01   6.5948314310e+01    0.1687548    0.1015648  34.26 0.0004422152    1.551    0.355
        13  -8.1444      2.1378      8.1403   1.1992794373e+02   7.3690751136e+01    0.1926083    0.1416657 -31.39  0.001456621    1.020    0.020
        14  -7.7328    137.0000      7.9818   7.0697611012e+01   5.0280176792e+01    0.2082927   0.07942384 -21.38 0.0006181822    2.894    0.654
        15  -8.3635    128.2070      7.9535   7.2306327898e+01   5.2469292961e+01    0.2245349    0.1380198  23.76 0.0008031773    1.908    0.476
        16  -8.6515    119.0270      7.3262   7.3903085911e+01   5.4754472755e+01    0.2532531    0.1713125  24.96 0.0009601341    1.575    0.365
        17  -7.4697     39.3414      8.2716   1.0015862076e+02   7.0014936341e+01    0.1205238    0.0768808   2.03 0.0006992535    1.610    0.379
        18  -8.2309     76.2818      7.0185   8.4965669581e+01   6.4100014412e+01    0.2479971    0.1310917  39.33  0.001263934    1.723    0.420
        19  -7.7901    132.3169      5.9705   7.0797957616e+01   5.1631639615e+01    0.2251363   0.06771669 -42.88 0.0007048357    4.342    0.770
        20  -7.8456     84.3296      6.3303   8.2141556035e+01   6.2575050465e+01    0.1399293   0.08403128  24.35 0.0007051644    1.715    0.417
        21  -9.9011     49.0283      4.6811   9.3936050329e+01   6.9080267621e+01    0.2452615    0.1771665   5.69 0.0004149692    1.226    0.184
        22  -9.3061    110.6646      4.0862   7.4390215701e+01   5.7015957281e+01    0.3771566    0.2473549 -48.57   0.00194465    1.925    0.481
        23  -8.6188    104.3321      2.9641   7.5356857288e+01   5.8567860926e+01    0.4359301    0.2160907  14.56  0.001808727    2.835    0.647
        24  -8.3161     68.8819      3.7509   8.5830555374e+01   6.5829517943e+01    0.2813603    0.1573803  -3.64  0.001392671    2.019    0.505
        25  -8.6401     57.0305      4.3559   9.0497135817e+01   6.7841662870e+01    0.3180382    0.1571286  25.05  0.001113638    2.299    0.565
        26  -8.8567    125.3679      3.8359   7.1280989374e+01   5.3529022210e+01    0.2155493    0.1725268  70.33 0.0005239624    1.222    0.182
        27  -7.7297    206.4872      2.9974   6.0244075344e+01   3.2901609719e+01    0.1673439    0.1101947  22.95 0.0005177645    2.295    0.564
        28  -8.1907    153.8316      3.1737   6.6345936808e+01   4.6420904095e+01    0.1887439    0.1413936  47.54 0.0003517088    1.290    0.225
        29  -7.9749    182.1640      2.1965   6.2472938240e+01   3.9179551724e+01    0.1964871    0.1651418  63.14 0.0003889713    1.150    0.130
        30  -7.7229    143.2010      2.1685   6.7595254313e+01   4.9223317173e+01    0.1793947    0.1497484 -75.80 0.0003002217    1.297    0.229
        31  -7.6974      3.0546      1.1872   1.1608075638e+02   7.4739822235e+01    0.1206727   0.07356747  11.44 0.0003152974    1.702    0.413
        32  -7.9146    195.0726    228.9690   1.1532865904e+02  -1.4470086641e-01    0.1969747    0.1326949  13.32  0.001125214    1.704    0.413
        33  -8.0064    248.9277    250.4684   1.0934652211e+02  -1.0824107684e+01    0.1660188   0.08480395  34.67   0.00102441    1.571    0.363
        34  -9.5572    212.3071    249.9067   1.1538061211e+02  -5.5010068197e+00    0.3004584    0.1841042  52.95  0.001753853    2.111    0.526
        35  -9.6943    200.3733    249.2123   1.1734870455e+02  -3.5966660732e+00    0.3820566    0.1985855  23.45  0.001490902    2.149    0.535
        36  -9.2041    184.5744    250.0000   1.2023403019e+02  -1.2272428465e+00    0.3125281    0.1113054  39.92  0.001431162    2.186    0.543
        37  -8.5438    187.3025    247.6698   1.1943567535e+02  -1.3603633442e+00    0.1101203   0.08407883  60.17 0.0003245972    1.650    0.394
        38  -8.1166    163.6874    250.3388   1.2399788874e+02   2.0402516526e+00    0.1156913   0.08067354  62.48 0.0007046253    1.694    0.410
        39  -8.9230    151.0513    249.3785   1.2615092004e+02   4.1871647028e+00    0.2119255    0.1748942  29.78 0.0009232492    1.242    0.195
        40  -7.9775    123.4641    250.5204   1.3123964053e+02   8.3486653594e+00    0.2408737   0.09221451  41.34  0.001177561    2.065    0.516
        41  -7.6413    133.4481    229.4382   1.2699700746e+02   1.0123603612e+01    0.1249069    0.1012011  49.02 9.324246e-05    1.025    0.024
        42  -7.7337    101.3459    229.3156   1.3311057268e+02   1.5255349262e+01    0.1091139   0.09448747  12.93 0.0007047937    1.719    0.418
        43  -7.3686     31.6019    229.4509   1.4585568275e+02   2.4513637750e+01    0.1075949   0.07894506  72.27 7.945998e-05    1.058    0.055
        44  -8.7599    247.5515    226.3530   1.0572241448e+02  -8.0664464838e+00    0.3329024     0.185873 -30.62  0.001997696    1.899    0.474
        45  -7.8973    229.5687    227.2388   1.0891451022e+02  -5.4649077756e+00    0.1978507    0.1111986 -34.42  0.001137518    2.003    0.501
        46  -8.1739    186.8852    226.7900   1.1650438551e+02   1.5275604759e+00    0.1966775     0.147085  21.73  0.000765816    1.297    0.229
        47  -7.6180    174.9225    228.0000   1.1891773565e+02   3.3738643365e+00    0.2044995   0.05967801  41.89  0.000414436    2.806    0.644
        48  -7.9597    110.9578    227.4872   1.3107914222e+02   1.4087322933e+01    0.1909681    0.1017139  43.23  0.001014424    1.563    0.360
        49  -7.9778    223.2255    225.4340   1.0972204159e+02  -4.2517458685e+00     0.219637    0.1256393  -8.54  0.001122179    2.380    0.580
        50  -7.7166     70.1403    225.8251   1.3865901177e+02   2.0406225582e+01    0.1468352    0.1334138  53.24  0.001077608    1.377    0.274
        51  -7.4423    206.5449    222.4638   1.1221399434e+02  -1.1623222318e+00     0.126255    0.1005549  22.68  7.79453e-05    1.065    0.061
        52  -7.8362     51.9498    221.5086   1.4169007490e+02   2.3591965919e+01    0.1646006   0.09556639  44.46  0.000673381    1.540    0.351
        53  -8.9917    239.6800    219.2076   1.0583747176e+02  -6.0508157007e+00    0.2719239    0.1302247 -25.79  0.001410542    2.264    0.558
        54  -7.7430    217.3794    219.7891   1.0982421194e+02  -2.5889981440e+00    0.1660529    0.1074338 -17.29 0.0009464482    1.754    0.430
        55  -8.1928    182.4044    219.8358   1.1627564417e+02   3.3076481651e+00     0.253181     0.140014  29.20 0.0008533128    1.858    0.462
        56  -7.8563    173.3829    219.7191   1.1797603299e+02   4.8889488043e+00    0.1618617    0.1199743 -27.44  0.000949414    1.667    0.400
        57  -7.6438    130.5171    220.4398   1.2642769333e+02   1.2141040326e+01    0.1276058    0.1060561  48.67 0.0001347039    1.054    0.051
        58  -7.8458     39.7877    220.4254   1.4384112116e+02   2.5266707463e+01    0.1433798    0.1022014  32.66 0.0009568339    1.809    0.447
        59  -7.4707    227.4655    217.4859   1.0765236702e+02  -3.9216948051e+00    0.1243096   0.09892417  17.00 0.0008093242    1.030    0.029
        60  -7.4533    105.4891    217.4913   1.3101032952e+02   1.6754743282e+01    0.1268345    0.1034581  59.63 4.104729e-05    1.013    0.012
        61  -7.5077    203.5448    216.5034   1.1178794339e+02   1.6333700031e-01    0.1278421    0.1048172  23.72 8.843295e-05    1.037    0.036
        62  -8.3743    193.4593    215.5813   1.1351231829e+02   2.0256675536e+00    0.2465522    0.1873918  24.43  0.000909077    1.206    0.171
        63  -7.5614    219.3465    215.2750   1.0871292157e+02  -2.3142825821e+00    0.1286887   0.08273759  15.84 0.0002796157    1.628    0.386
        64  -8.8669    248.7677    213.1616   1.0325821425e+02  -6.7066085667e+00    0.2786351    0.1945184 -29.57 0.0006813633    1.528    0.346
        65  -7.3942     84.3197    214.7087   1.3489349631e+02   2.0506948634e+01    0.1294641   0.07634815  65.72 0.0002727621    1.604    0.376
        66  -8.2361    232.0442    212.3240   1.0596269782e+02  -3.9937336549e+00    0.2313443    0.1508259  -6.58  0.001325758    1.673    0.402
        67  -8.0808    121.8151    213.5068   1.2726238612e+02   1.4835976737e+01    0.2391327    0.1134965  37.57  0.001094652    2.017    0.504
        68  -7.8391    186.1684    210.1667   1.1400810390e+02   4.1189420574e+00    0.2005437    0.1570293  18.99 0.0008884298    1.283    0.220
        69  -7.9368    162.9401    207.9330   1.1819313448e+02   8.6404170431e+00    0.2044024    0.1521122  12.25 0.0007489716    1.722    0.419
        70  -7.7673    246.8490    205.1509   1.0215141967e+02  -5.4268549239e+00    0.1731094    0.1217137   6.29 0.0008656152    1.320    0.242
        71  -8.1960    236.1896    205.0134   1.0394591520e+02  -3.7133449326e+00    0.1906864    0.1403076   3.50 0.0005570051    1.280    0.219
        72  -8.5903    227.6186    202.5246   1.0499867251e+02  -1.9675056299e+00    0.5614017    0.2514482 -15.95  0.001899709    4.905    0.796
        73  -8.0428    215.4703    205.5172   1.0771972465e+02  -3.2285721634e-01     0.219989     0.103787  32.52 0.0009397933    2.048    0.512
        74  -7.9874    118.0082    204.9787   1.2691541120e+02   1.7070598929e+01    0.1902129    0.1588118  13.59 0.0007665248    1.649    0.394
        75  -9.3420    176.4966    202.6961   1.1464863614e+02   7.0547056099e+00    0.2738699    0.2461295 -20.77 0.0007756203    1.246    0.197
        76  -6.9255     86.3068    204.6970   1.3342246022e+02   2.2176235941e+01    0.1321965   0.08094488  67.95 0.0005281456    1.601    0.375
        77  -7.3404    156.7012    203.7048   1.1877974118e+02   1.0494423335e+01    0.1278694    0.1007107  12.94 0.0002311632    1.569    0.363
        78  -7.9909    196.2203    200.4083   1.1041350517e+02   3.8300418405e+00    0.2563825    0.1131235  39.35  0.001124677    2.025    0.506
        79  -7.8627    184.7827    199.9707   1.1255230584e+02   5.9834507017e+00    0.2812172    0.1500406  23.70  0.001165136    2.623    0.619
        80  -7.9009    250.4821    198.9644   1.0041176289e+02  -5.2130484961e+00    0.1788579    0.1093358 -25.04  0.001024245    1.577    0.366
        81  -7.5753    222.1826    199.1703   1.0536078387e+02  -5.7747777024e-01    0.1613976    0.1490741  41.97 0.0004680916    1.312    0.238
        82  -7.6405     99.6069    198.8471   1.2995977567e+02   2.1296468356e+01    0.1740992    0.1160324 -82.00 0.0009406135    1.638    0.390
        83  -7.6843    243.6339    198.1385   1.0141140276e+02  -4.0164659062e+00    0.1740229    0.1040102 -17.56 0.0009380439    1.738    0.425
        84  -8.3024    166.0840    197.3543   1.1583746327e+02   9.8814531312e+00    0.2081311    0.1883134   1.76 0.0008066959    1.232    0.188
        85  -7.4770    237.3125    194.3360   1.0178756048e+02  -2.4706432568e+00    0.1334369   0.08686138   7.38 0.0005196612    1.687    0.407
        86  -8.1610    193.0137    193.9578   1.0987887175e+02   5.4389299906e+00    0.2145602    0.1546787   6.25  0.001120868    1.691    0.408
        87  -7.7111      2.6213    193.7239   1.4909311707e+02   3.4329931536e+01   0.09427065   0.07599571 -58.39 0.0004357353    1.704    0.413
        88  -7.6250     90.5571    192.2008   1.3105080943e+02   2.4080417147e+01    0.1659652     0.117603 -55.49 0.0007099443    1.604    0.376
        89  -7.9837    246.8215    189.8287   9.9309014427e+01  -3.4327462847e+00    0.1930336     0.143799   5.27 0.0007170319    1.236    0.191
        90  -7.5852    161.6201    190.1236   1.1551896817e+02   1.2008227059e+01    0.1796318    0.1301271 -32.44 0.0005496667    1.658    0.397
        91  -8.0933    224.9112    189.1243   1.0299285137e+02   3.9267385369e-01    0.2125826    0.1430764   7.18 0.0008462672    1.690    0.408
        92  -7.9274     64.7533    189.5641   1.3628103557e+02   2.8370962113e+01    0.2145842    0.1172645  35.80 0.0008174831    1.961    0.490
        93  -7.1328    199.3367    188.3079   1.0761131678e+02   5.1734151694e+00    0.1406392   0.09884622  11.93 0.0007042369    1.678    0.404
        94  -7.8458    178.4332    188.1274   1.1171312270e+02   9.1618578850e+00    0.3304662    0.1441487  53.78  0.001235279    2.830    0.647
        95  -7.6259    148.5851    186.1734   1.1758635127e+02   1.5213774062e+01    0.1859444    0.1322955 -35.73 0.0009437402    1.713    0.416
        96  -7.6366    139.3216    185.0027   1.1938312530e+02   1.7179130713e+01    0.2139084    0.1063569 -31.55 0.0007046783    4.261    0.765
        97  -7.7261    165.6576    182.2903   1.1328012648e+02   1.2671308764e+01    0.1410483    0.1072607  71.83 0.0007025085    1.651    0.394
        98  -7.7194    155.8425    181.4036   1.1519822646e+02   1.4740097899e+01    0.2023037    0.1250932  33.85  0.000938269    1.672    0.402
        99  -7.7726    183.4844    180.5128   1.0927046242e+02   9.5168291758e+00      0.13968    0.1279221  35.40 0.0002052153    1.032    0.031
       100  -7.7707     96.3248    178.5473   1.2794418155e+02   2.6069066855e+01    0.1752589    0.1277951  33.52 0.0009374626    1.550    0.355
       101  -7.1890    121.5061    177.4876   1.2207895193e+02   2.1979797324e+01    0.1405377    0.1263454  64.06 1.908281e-05    1.007    0.007
       102  -8.1164    148.5631    174.8278   1.1558361945e+02   1.7434264897e+01    0.2680013    0.1650089  23.73  0.001121352    2.301    0.565
       103  -7.4889    138.3140    175.3313   1.1794194299e+02   1.9307147761e+01    0.1388524    0.1138268  -0.18 0.0007045157    1.679    0.404
       104  -7.8669     47.1993    175.6140   1.3864353425e+02   3.3620885689e+01    0.1527178    0.1185636  27.62 0.0008285271    1.686    0.407
       105  -7.6502    184.2028    171.5828   1.0738111454e+02   1.0962398607e+01    0.2099104    0.1259255  33.76 0.0009468758    1.708    0.415
       106  -7.7821     14.9771    170.0000   1.4515729486e+02   3.8201124347e+01    0.1636917   0.06265494  30.60 0.0008058035    2.966    0.663
       107  -8.4639    176.9751    167.7316   1.0810381458e+02   1.3127194351e+01      0.29957    0.1857103 -14.81  0.001184557    2.741    0.635
       108  -7.8366    169.2982    163.4249   1.0885830136e+02   1.5514869650e+01    0.2731916    0.1343243  39.94  0.001097328    1.997    0.499
       109  -7.7956    122.9553    163.0000   1.1924578852e+02   2.4807556060e+01    0.2417619   0.07832427  41.76  0.000803626    2.951    0.661
       110  -7.7597    160.2570    159.9695   1.1012138850e+02   1.8057237211e+01    0.1837641    0.1285499 -47.25 0.0004337672    1.511    0.338
       111  -7.5292    138.5063    158.4393   1.1474489216e+02   2.2788182290e+01    0.1482568    0.1361029  66.14  0.000214125    1.044    0.042
       112  -7.6038    107.0047    151.7821   1.2104290771e+02   3.0217005983e+01    0.1885306    0.1136513  42.68 0.0004946685    1.637    0.389
       113  -7.8262    133.2611    147.9351   1.1386255940e+02   2.6100096684e+01    0.2134713    0.1965003 -66.53  0.001159409    1.100    0.091
       114  -7.8853    121.2797    147.8552   1.1676097662e+02   2.8467159313e+01     0.315178    0.1822177  20.26  0.001095402    3.385    0.705
       115  -7.5465    188.0204    138.9942   9.9559733637e+01   1.6212808841e+01     0.175477    0.1688171  29.16 0.0009574689    1.018    0.018
       116  -9.4416     67.2377    144.6451   1.2992244592e+02   3.8159055954e+01    0.4963932    0.2842239  65.46   0.00230795    2.056    0.514
       117  -7.6212     40.9733    140.0000   1.3605408989e+02   4.2451566074e+01    0.1869777   0.07218923  30.74 0.0008042744    2.955    0.662
       118  -8.6649    233.6259    130.8956   8.9160069753e+01   7.8628582757e+00    0.2262358    0.1841465  28.66 0.0006717808    1.287    0.223
       119  -8.5349     24.2904    129.6583   1.3913085916e+02   4.6482923209e+01    0.2972975     0.162341 -36.46  0.001464301    2.715    0.632
       120  -7.3218    214.2939    145.6812   9.5943594715e+01   9.3708599104e+00    0.1383654    0.1149819 -72.55 0.0003438592    1.607    0.378
       121  -9.4009     12.2406    120.8835   1.4134434338e+02   4.9467554374e+01    0.3872975     0.112671 -61.74  0.001710162    2.524    0.604
       122  -8.2363     99.4949    119.3076   1.1635983723e+02   3.9070607538e+01    0.3601965    0.2362738   6.40  0.001376797    3.029    0.670
       123  -8.0258    250.6864    113.2149   8.2404883391e+01   7.2243889258e+00    0.1913231    0.1162375 -25.56 0.0002404029    1.620    0.383
       124  -7.4562    184.5232    112.4367   9.3779806611e+01   2.2086454261e+01    0.1517731    0.1510002 -78.58 0.0001210146    1.013    0.013
       125  -8.2602     22.5187    112.5021   1.3741354568e+02   5.0624444221e+01    0.1249017   0.09962058 -70.11 0.0001915927    1.052    0.049
       126  -7.7717    143.0008    111.4975   1.0292344040e+02   3.1964043395e+01    0.2205307    0.1362488  24.60 0.0008096899    2.464    0.594
       127  -8.9302      2.4914    109.4513   1.4277262151e+02   5.2714225206e+01    0.2912416    0.1436202 -41.39  0.001563141    2.401    0.583
       128  -7.9899    133.5975    107.2112   1.0416072651e+02   3.4972260559e+01    0.3064211     0.147833 -48.38  0.001139457    2.090    0.522
       129  -7.9526    124.0271    107.4506   1.0672972518e+02   3.6979237557e+01    0.2147688     0.136381  20.83  0.000807622    2.498    0.600
       130  -9.5823     15.0343    104.9876   1.3857778868e+02   5.2928926012e+01    0.5278151    0.2137839 -37.23  0.002207301    3.683    0.728
       131  -7.4928     66.6374    104.7065   1.2269121667e+02   4.7704257520e+01    0.1394838    0.1027862 -26.76 0.0007029754    1.706    0.414
       132  -7.8310     93.7937    103.3690   1.1416731519e+02   4.3760904041e+01    0.2030136    0.1412374  28.64 0.0009521914    1.695    0.410
       133  -9.6159      7.9874     96.4942   1.3955396667e+02   5.5332240946e+01     0.338704    0.1447704 -33.28  0.001524581    3.419    0.708
       134  -9.8121     20.1319     92.3614   1.3506995740e+02   5.5463097226e+01    0.4442937    0.1718972 -45.09  0.002007384    2.589    0.614
       135  -7.2492     53.3058     92.6895   1.2423801042e+02   5.2209173140e+01    0.1312587   0.09937301  81.21 0.0005416155    1.615    0.381
       136  -8.6508     44.9934     91.7661   1.2677505079e+02   5.3362111965e+01    0.2946149    0.1831435   7.97  0.001471669    2.334    0.572
       137  -7.6988    109.5215     91.4386   1.0634985420e+02   4.3456035698e+01    0.1486649    0.1443645 -32.77  0.000255314    1.033    0.032
       138  -7.9999     96.3894     90.4340   1.0993956121e+02   4.6195920279e+01     0.349004    0.2140901   7.90  0.001209663    3.573    0.720
       139  -8.6096     66.9393     86.0103   1.1809053106e+02   5.1960137409e+01    0.4813207    0.2383575  19.63  0.001840312    3.332    0.700
       140  -9.4352     35.8404     82.1631   1.2778764519e+02   5.6473037620e+01     0.627835    0.2719497 -35.00  0.002552368    3.163    0.684
       141  -8.1556    126.4899     84.0190   9.9437951319e+01   4.1406785717e+01    0.3391289    0.1900164  30.05  0.001248521    2.499    0.600
       142  -9.8526      7.8371     77.6650   1.3671562666e+02   5.9574211746e+01    0.4700092     0.182639 -43.55  0.001998291    2.439    0.590
       143  -7.7106    184.4794     78.0009   8.4435571133e+01   2.8407760636e+01    0.2320794    0.1507797 -36.08 0.0004280192    1.529    0.346
       144  -8.8340     48.9193     76.8848   1.2190054557e+02   5.6291345095e+01    0.3416259    0.2628615  -8.91  0.001661026    1.564    0.361
       145  -8.3977     88.9356     78.6418   1.0881195976e+02   5.0079476604e+01    0.4118193     0.232392  17.47  0.001496491    3.270    0.694
       146  -9.7643     24.0170     73.0017   1.2999649657e+02   5.9531609533e+01    0.7904269      0.30046 -34.01  0.003051927    3.842    0.740
       147  -8.2382     23.4703     69.4986   1.2941410218e+02   6.0342934138e+01    0.2011553    0.1732522 -43.21 2.082223e-05    1.113    0.101
       148  -7.9119     74.9724     74.7918   1.1223235354e+02   5.3221191132e+01    0.2200079    0.1549104  -4.25 0.0006583905    1.982    0.495
       149  -8.5993     42.8098     68.3381   1.2185398132e+02   5.8829580629e+01    0.2866829    0.1942577 -23.91  0.001544251    1.675    0.403
       150  -8.1943     80.4764     68.0142   1.0825725364e+02   5.3738326997e+01    0.2203615    0.1817514 -17.43 0.0003515881    1.271    0.213
       151  -8.6130     84.0539     63.9667   1.0572185832e+02   5.3934577418e+01    0.3566248    0.2332421   4.51  0.001257682    2.380    0.580
       152  -8.7573     62.0000     66.9810   1.1438458628e+02   5.6775063918e+01    0.4319003    0.1618037 -45.52  0.001728368    2.368    0.578
       153  -9.2957     65.7023     61.0661   1.1115450604e+02   5.7459550775e+01    0.3990258    0.2862611 -36.35 0.0001893888    1.277    0.217
       154  -7.4406    106.4405     67.4545   9.9831799979e+01   4.8984617810e+01    0.1464957    0.1390509 -12.02 0.0002249061    1.027    0.027
       155  -9.5339     17.7204     62.2575   1.2994074533e+02   6.2327302255e+01    0.4335463     0.203456 -46.69  0.001667017    1.731    0.422
       156 -10.7420     38.4646     57.6095   1.2046155525e+02   6.1544158054e+01    0.4705629    0.2665766 -21.87            0    2.289    0.563
       157  -8.5676     51.2337     60.2588   1.1629205411e+02   5.9566907603e+01    0.3468044    0.2555865  80.63  0.001665768    2.278    0.561
       158  -7.3046    111.3241     58.3521   9.5294954241e+01   4.9632566580e+01    0.1552529    0.1136758   7.55 0.0007047835    1.757    0.431
       159  -9.5394     17.1788     38.7416   1.2369333616e+02   6.7178069423e+01     0.450662     0.182852 -28.24  0.001981478    3.180    0.686
       160  -9.4525      2.6442     55.3457   1.3439805670e+02   6.4671066060e+01    0.4554606    0.2624583 -50.90  0.002882431    1.321    0.243
       161  -9.9771     10.0034     47.5957   1.2947303393e+02   6.5885693186e+01    0.6105545    0.2457553 -31.23  0.002431448    2.836    0.647
       162  -9.7541    244.4585     56.7343   6.9825336556e+01   1.7114154284e+01    0.2925673    0.2481191  62.13 0.0004365778    1.291    0.225
       163  -8.0029     99.3365     53.8596   9.7258213175e+01   5.2934318700e+01    0.2908258    0.1222527 -44.78  0.001094738    2.496    0.599
       164  -7.9549    118.4469     51.1732   9.0771527515e+01   4.9275902170e+01    0.2727648    0.1958059  73.23  0.001259837    1.818    0.450
       165  -9.0677     75.2355     50.1884   1.0390021040e+02   5.8048468487e+01    0.2519019    0.2146916   5.33 0.0002386829    1.177    0.150
       166 -10.2405     45.3040     49.1259   1.1497625978e+02   6.2499276731e+01    0.2825375    0.2152675 -11.62 0.0007106705    1.366    0.268
       167  -9.6352     24.5327     47.2995   1.2310734206e+02   6.4922091588e+01    0.4756881    0.2328898   4.17  0.002272195    3.029    0.670
       168  -8.9139     31.5511     44.0746   1.1903745014e+02   6.4936582202e+01    0.2560994    0.1690483   0.39  0.001004589    1.776    0.437
       169  -8.2243    106.8879     48.1672   9.2911567362e+01   5.2325530667e+01    0.1942238    0.1937546   4.98 0.0002773466    1.111    0.100
       170  -9.0249      2.2009     45.7954   1.3240201075e+02   6.6669178129e+01    0.2345289    0.1836433 -64.53  0.001201904    1.189    0.159
       171 -10.2568     83.1567     40.1120   9.7262242631e+01   5.8385245913e+01     0.330749    0.2514462  -5.10            0    1.393    0.282
       172  -8.3010     42.8678     44.0868   1.1421339542e+02   6.3747224153e+01    0.2097276    0.1319199 -20.78  0.001130286    1.745    0.427
       173  -8.4299     92.9986     42.3460   9.4915782245e+01   5.6139722184e+01    0.2640245    0.1871274  -3.02  0.001032794    1.681    0.405
       174  -8.6891     37.9652     41.9343   1.1552248249e+02   6.4697715008e+01    0.2518803    0.1541655   2.69  0.001346492    2.077    0.519
       175  -7.5254    122.8612     40.7670   8.5844650380e+01   4.9866034595e+01    0.2552826    0.1436773  21.76 0.0009404169    2.841    0.648
       176  -8.6012      3.6176     40.2314   1.3034281240e+02   6.7720520889e+01    0.2835484   0.07773191 -59.84  0.001201785    2.612    0.617
       177  -8.3037     46.2174     38.8200   1.1084326751e+02   6.4321253683e+01    0.1757658    0.1297617 -14.03 0.0005679696    1.337    0.252
       178  -9.4320     54.7882     36.7069   1.0645711786e+02   6.3566310831e+01    0.2920581    0.2247004   5.07  0.001057091    1.322    0.243
       179  -8.4723    106.3821     36.7413   8.8714541259e+01   5.4200617041e+01    0.3407418    0.1966673  29.99  0.001463095    2.046    0.511
       180  -8.6778     92.2206     36.6343   9.2901828906e+01   5.7184283063e+01    0.2762962    0.2072201  26.62 0.0007846214    1.342    0.255
       181  -9.3137     96.0989     33.2737   9.0344692550e+01   5.6890030107e+01    0.2811647    0.2185134  23.38 0.0002899869    1.283    0.220
       182  -8.9248     70.5815     35.7244   9.9927886498e+01   6.1305782976e+01    0.2805306    0.1487375  27.67  0.001278698    2.224    0.550
       183  -9.1355     38.0649     35.1698   1.1295230729e+02   6.5932408097e+01    0.2785505    0.2022261  -3.00  0.001003369    1.435    0.303
       184  -9.1028      7.0246     34.3283   1.2705165401e+02   6.8694057617e+01    0.3400508    0.2408089 -32.37  0.002386119    1.214    0.176
       185  -7.4388    144.0004     34.0087   7.8613077548e+01   4.5610520733e+01    0.1736702    0.1637755  54.02 0.0003448238    1.003    0.003
       186  -7.8859     77.2392     33.9516   9.6793569602e+01   6.0433371265e+01    0.1756807    0.1050973 -34.36 0.0008774553    1.601    0.375
       187  -8.1859     81.7958     32.1214   9.4455557073e+01   5.9876917469e+01    0.2423805    0.1680727  -8.71 0.0006075022    1.574    0.365
       188  -7.9947     87.7947     31.7881   9.2332514983e+01   5.8777202239e+01    0.1781703    0.1624476 -55.94 0.0007807777    1.369    0.270
       189  -8.6055    127.8714     30.2295   8.0746686607e+01   5.0108942667e+01    0.2238025    0.1967753  14.02 0.0002709526    1.172    0.147
       190  -8.5165    112.4958     30.0196   8.4425287390e+01   5.3763094739e+01    0.3113511    0.1865807  32.75  0.001422088    1.815    0.449
       191  -7.9771    104.8037     31.5799   8.7123425427e+01   5.5273637644e+01    0.1811586    0.1337856  64.22 0.0002157999    1.564    0.361
       192  -8.7387      1.4088     29.8954   1.2840765907e+02   6.9846196319e+01    0.2531166   0.07813749 -57.49  0.001226971    2.356    0.576
       193  -7.5336    153.3371     27.3087   7.4525179481e+01   4.4057806495e+01    0.1538599    0.1029607  34.64 0.0003492862    1.680    0.405
       194 -10.1512     72.3887     25.7106   9.4981901137e+01   6.2514933202e+01    0.3737725    0.2369436  33.80 0.0006209332    1.553    0.356
       195  -8.5284     61.7925     26.9603   9.9524105352e+01   6.4101051375e+01    0.1987767    0.1524617  -0.94 0.0004660389    1.248    0.199
       196  -9.1081     57.4737     25.3901   1.0054503773e+02   6.5006386078e+01    0.3248382    0.2305583  40.57  0.001255719    1.567    0.362
       197  -8.9783     48.1306     25.7635   1.0461694057e+02   6.6287368477e+01    0.3398551    0.1690956  25.86  0.001383468    2.290    0.563
       198  -7.5497    102.5088     25.4344   8.5276619873e+01   5.6585561860e+01    0.1392336    0.1224846  23.18 0.0003116526    1.046    0.044
       199  -8.0957    224.4940    249.4917   1.1324345194e+02  -7.2672877896e+00    0.1146355   0.08660334  24.31 0.0008104786    1.025    0.024
       200  -9.3977     83.3070     22.1821   8.9673520916e+01   6.0970366497e+01    0.5576448    0.2296846  38.72  0.001692177    2.482    0.597
       201  -8.6766     27.4371     22.5356   1.1272549590e+02   6.9243149274e+01     0.337291    0.1421687 -29.25  0.001554789    2.625    0.619
       202  -8.9174     64.6331     23.2693   9.6768917037e+01   6.4184550812e+01    0.2200118    0.1558375  49.35  0.001251628    1.701    0.412
       203  -7.8595    130.9790     21.7762   7.6927769643e+01   5.0367608754e+01    0.2353667    0.1312176  39.13 0.0004806493    1.863    0.463
       204  -7.6326     74.1741    247.5920   1.3969352798e+02   1.6004143017e+01    0.1508697   0.09294783  36.86 0.0009069814    1.730    0.422
       205  -7.8417    116.9034     20.1346   7.9440460403e+01   5.3950090404e+01    0.1935752    0.1483236  29.50 0.0003655638    1.293    0.226
       206  -7.2793    146.7070     19.2959   7.2980644848e+01   4.6682135073e+01      0.14069    0.1054312 -67.64 0.0002436001    1.560    0.359
       207  -7.1949     32.3302    247.3174   1.4671274325e+02   2.1258474201e+01   0.08469794   0.07944405 -81.15 0.0003129448    1.685    0.406
       208  -8.0768     18.5477    247.6927   1.4893432518e+02   2.2701561057e+01      0.17196   0.07207589  41.97  0.001075806    2.021    0.505
       209  -8.0328    127.7296     16.9415   7.5800014590e+01   5.1697851936e+01    0.1824057    0.1764038  40.35 0.0003523323    1.062    0.058
       210  -8.1394    218.7179    245.4720   1.1363168949e+02  -5.9578369677e+00      0.21988    0.1259677 -16.35  0.001265723    2.216    0.549
       211  -8.7400     50.6131     15.0385   9.8547841863e+01   6.7522553258e+01    0.2813875    0.1757114  24.82 0.0009557913    1.597    0.374
       212 -10.0797    192.7948    244.5390   1.1802626970e+02  -1.8307195981e+00    0.3110983    0.2100444  25.79  0.001634023    1.329    0.248
       213  -7.7528    146.6604     14.1105   7.1190218040e+01   4.7238297145e+01    0.1783174    0.1680748  11.22 0.0002873408    1.146    0.128
       214  -7.8320    121.3390     14.3219   7.6156146470e+01   5.3522047046e+01    0.1504224   0.09276007  32.26 7.014838e-05    1.717    0.418
       215  -8.7166    243.0300    244.4994   1.0939291642e+02  -9.3983337925e+00    0.2064894    0.1311153   0.22 0.0009352608    1.578    0.366
       216  -8.3057    134.3614     13.1499   7.3066096986e+01   5.0446837465e+01    0.2146669    0.1661706  20.79 0.0004649945    1.407    0.289
       217  -9.7031    156.8265    245.0488   1.2457670149e+02   3.8825197004e+00    0.2640606    0.1829795  12.94  0.001142746    2.054    0.513
       218  -8.2356     88.2791     13.4147   8.4211883696e+01   6.1027042764e+01    0.2596672    0.1059206  47.62  0.001124288    2.191    0.544
       219  -8.3893    233.8575    243.4438   1.1075533607e+02  -7.9721721943e+00    0.2176516    0.1306471  -3.66  0.001148852    1.923    0.480
       220  -8.8526    176.3094    242.7270   1.2073391310e+02   1.0527761277e+00    0.2127837    0.1379045 -13.90   0.00116929    2.451    0.592
       221  -7.8286     95.8818    243.4971   1.3550904798e+02   1.3631396456e+01    0.1760942   0.09113021  45.04  0.000604999    1.525    0.344
       222  -7.5287    133.6276    242.6835   1.2854049022e+02   7.9661199828e+00    0.1163623   0.08733959  18.65 0.0001621226    1.792    0.442
       223  -7.6599     25.8301    241.3348   1.4746660196e+02   2.3018894249e+01    0.1308918   0.08469471  40.46 0.0005509439    1.661    0.398
       224  -7.9642    121.8322    239.3807   1.3034700595e+02   1.0361407346e+01    0.1726214   0.09673894  36.68 0.0007079552    1.679    0.404
       225  -7.4859    249.6776    238.3089   1.0732674268e+02  -9.6803092118e+00   0.09576844   0.08590945  40.09 0.0007035924    1.647    0.393
       226  -8.7925    242.0097    236.8194   1.0835435339e+02  -8.4283707127e+00     0.286432    0.1818778  14.24  0.001836629    1.421    0.296
       227  -7.8957    224.3263    238.3344   1.1158537188e+02  -5.9797990688e+00     0.122557   0.07509948  13.16 0.0006196145    1.717    0.418
       228  -7.5634     79.5022    238.5276   1.3802225423e+02   1.6825924436e+01    0.1179233   0.08742304  62.01 0.0001087041    1.013    0.013
       229  -8.4203    230.5937    236.8070   1.1027475104e+02  -6.7474350948e+00    0.1358183    0.1072389 -35.99 0.0004168614    1.659    0.397
       230  -7.8244    148.1772    237.6207   1.2523805512e+02   6.3938009659e+00    0.1761534   0.09655976  35.59 0.0006274606    1.656    0.396
       231  -8.7455    170.2288    239.5688   1.2141441032e+02   2.4828569203e+00    0.2317567    0.1564123  21.84 0.0009549989    1.650    0.394
       232  -7.9794    195.6770    236.0419   1.1628361782e+02  -1.1926135273e+00     0.167026    0.1381517  24.71 0.0006701336    1.066    0.062
       233  -9.4373    188.7045    234.3328   1.1729538241e+02   1.7405253169e-01    0.2833349     0.222599  54.69  0.001014438    1.437    0.304
       234  -8.4728    162.0331    234.3299   1.2222254554e+02   4.5997977349e+00    0.2507225    0.1578694  28.75 0.0008916714    1.625    0.385
       235  -7.6167    138.1827    234.6687   1.2674310125e+02   8.4942367419e+00    0.1757591   0.09564371  36.76 0.0006543268    1.667    0.400
       236  -7.8930     15.0223     10.4790   1.1369894257e+02   7.2356290652e+01    0.2159307    0.1024276  23.39   0.00124557    2.289    0.563
       237  -7.4760    129.6428    234.7157   1.2835671277e+02   9.8754567481e+00    0.1163498   0.08938394  21.37 0.0007019743    1.671    0.402
       238  -7.2358     91.5057    234.5463   1.3547385937e+02   1.5805308752e+01    0.1214447   0.09090073  60.73 5.801425e-05    1.037    0.036
       239  -8.0126    248.2016    233.0720   1.0672384112e+02  -8.9082628875e+00    0.1764795    0.1205402  10.50 0.0005142707    1.252    0.202
       240  -8.0092    236.8331    230.0724   1.0813524770e+02  -6.9056918587e+00     0.161852    0.1441153  16.99 0.0004852462    1.287    0.223
       241  -7.2524    204.6906    230.7006   1.1385256881e+02  -1.9534190762e+00    0.1226059   0.08145243  15.31 0.0004143483    1.599    0.375
