#   1 NUMBER                 Running object number                                     
#   2 MAG_AUTO               Kron-like elliptical aperture magnitude                    [mag]
#   3 X_IMAGE                Object position along x                                    [pixel]
#   4 Y_IMAGE                Object position along y                                    [pixel]
#   5 X_WORLD                Barycenter position along world x axis                     [deg]
#   6 Y_WORLD                Barycenter position along world y axis                     [deg]
#   7 A_WORLD                Profile RMS along major axis (world units)                 [deg]
#   8 B_WORLD                Profile RMS along minor axis (world units)                 [deg]
#   9 THETA_WORLD            Position angle (CCW/world-x)                               [deg]
#  10 FWHM_WORLD             FWHM assuming a gaussian core                              [deg]
#  11 ELONGATION             A_IMAGE/B_IMAGE                                           
#  12 ELLIPTICITY            1 - B_IMAGE/A_IMAGE                                       
         1 -14.4626    157.3605     55.9323   7.9623347615e+01   3.8715124297e+01     1.437144     1.139394  57.92  0.000945362    1.180    0.153
         2 -14.7924    170.0586     40.8490   7.3028155287e+01   3.7743480752e+01     1.162382     1.050445  12.13  0.004090874    1.338    0.253
         3 -14.8889    189.8255      8.0517   6.1745953193e+01   3.6735389611e+01     2.213292    0.7813019  63.05  0.007925216    2.298    0.565
         4 -12.2764    119.1424    241.4705   1.2886838966e+02   8.1208578283e+00    0.3689722    0.1925642 -66.72  0.001731842    2.342    0.573
         5 -19.8557     63.1915    167.5736   1.3099447413e+02   3.3115321996e+01     19.24679     6.167013 -65.81   0.06885098    3.020    0.669
         6 -10.3043    110.7417    211.7377   1.2659975956e+02   1.5505993592e+01    0.1749071    0.1359548  80.30 0.0002839885    1.297    0.229
         7  -9.8462    152.1562    210.2070   1.1744920694e+02   8.3086560271e+00    0.1863583    0.1581489  81.79 0.0005283275    1.321    0.243
         8 -12.5860    105.9353    203.7304   1.2647891775e+02   1.8065598465e+01    0.4689574     0.367527 -76.46  0.001406238    1.275    0.216
         9 -11.0601     30.2857    205.1548   1.4256386692e+02   2.8520603684e+01    0.1689992    0.1552493  44.78 0.0005976912    1.461    0.315
        10 -11.4996    157.4259    199.2441   1.1439557714e+02   9.5174738924e+00    0.2777565    0.2436382  64.55 0.0009596894    1.164    0.141
        11 -12.2002    163.1043    202.2451   1.1371035079e+02   7.8138582636e+00    0.3982189    0.2947915  83.67  0.001246085    1.896    0.473
        12 -11.8688    160.4452    197.9374   1.1350147364e+02   9.1981129495e+00    0.3264456    0.2498208 -75.11 0.0008941517    1.634    0.388
        13 -10.1315    153.5107    202.0618   1.1575034317e+02   9.6960030793e+00    0.2101934     0.143726 -54.43  0.001023091    1.584    0.369
        14 -10.0318    138.5636    200.0786   1.1868251266e+02   1.2958371268e+01    0.2311853    0.1779203 -88.35  0.001165509    1.541    0.351
        15 -10.2407    141.3963    198.3005   1.1774876843e+02   1.2798315675e+01    0.2762777    0.2286059 -43.12 0.0007502362    1.343    0.255
        16 -10.5216    112.5326    196.5830   1.2391872909e+02   1.8500701652e+01    0.4141724    0.2859823   4.80  0.001713459    2.941    0.660
        17 -13.0910    165.6801    186.8919   1.1027079441e+02   1.0439253108e+01    0.5018417    0.4222117  21.20  0.002624044    1.306    0.234
        18 -12.1212    169.2392    192.0124   1.1048405267e+02   8.6780099299e+00    0.3614231    0.2489298 -38.43  0.001736111    1.579    0.367
        19 -12.8384    169.4447    182.3504   1.0854942651e+02   1.0625261793e+01    0.6039202    0.3077951  48.27  0.002094947    1.959    0.489
        20 -12.4082    172.6250    188.7997   1.0913112228e+02   8.6582893962e+00    0.3872816    0.3210476 -57.96  0.001577754    1.314    0.239
        21 -12.7493    175.9055    186.1441   1.0790151277e+02   8.5416267905e+00    0.4634888    0.3655306 -67.79  0.001179991    1.525    0.344
        22 -11.5589    153.2272    193.6044   1.1428755111e+02   1.1504071469e+01    0.3297644    0.2729023  64.92 0.0008750982    1.261    0.207
        23 -11.7649    180.6597    193.4303   1.0831433216e+02   6.1438481197e+00    0.3048323    0.2543089 -89.73  0.001436161    1.541    0.351
        24 -10.5255    103.9052    194.1868   1.2549059696e+02   2.0544015935e+01    0.3926929    0.1956218  35.70   0.00165066    2.191    0.544
        25 -11.5368    153.0708    186.0197   1.1290031687e+02   1.3145067824e+01    0.2932155    0.2224329 -61.45 0.0007028275    1.431    0.301
        26 -12.6598    204.5011    176.2180   9.9907920471e+01   4.7785080077e+00    0.5596821    0.4060026 -63.59  0.002539062    1.798    0.444
        27 -12.6548    203.5551    166.6956   9.8079057368e+01   6.8181694129e+00    0.7020302    0.5163072 -32.69  0.002421507    1.378    0.274
        28 -13.2660    142.0986    175.5856   1.1338485650e+02   1.7627550274e+01    0.5949399    0.5584665  46.05   0.00325163    1.074    0.069
        29 -13.4412    137.7501    171.1817   1.1353293058e+02   1.9491532699e+01    0.7688721    0.4091108  42.80  0.002529142    1.848    0.459
        30  -9.9630    139.9142    250.3300   1.2594991418e+02   3.0275498457e+00    0.2106032    0.1306364  55.73  0.001137766    1.529    0.346
        31  -9.8737    131.6183    235.4637   1.2559211301e+02   7.1213756726e+00    0.1323103    0.1114852  62.14 0.0001500222    1.083    0.077
        32 -10.5989    198.8929    178.1400   1.0144407171e+02   5.5226274071e+00    0.2754978    0.2365378 -80.32  0.001028978    1.470    0.320
        33 -13.0173    193.9485    167.0332   1.0011444312e+02   8.7272567249e+00    0.8629715    0.4537715 -55.10  0.001354824    2.348    0.574
        34 -11.4833    190.4512    155.5568   9.8327879550e+01   1.1803761195e+01    0.4841143     0.464563 -34.66  0.002226189    1.031    0.030
        35 -11.2725    129.6536    175.3155   1.1624987730e+02   2.0143065270e+01    0.2383538    0.2049131  82.31    0.0010903    1.201    0.168
        36 -11.8872    125.3682    172.2278   1.1667886465e+02   2.1680996992e+01    0.4619615    0.3322015  67.40  0.001134401    1.567    0.362
        37 -11.8010    230.0860    166.6920   9.2983557791e+01   1.5900240477e+00    0.3352681     0.190815 -52.03  0.001473017    2.042    0.510
        38 -10.9478    141.2903    164.0623   1.1124695309e+02   2.0396903748e+01    0.2157232     0.194569 -66.62 0.0003674929    1.113    0.101
        39 -10.7735    133.5783    249.1217   1.2702095066e+02   4.3071134530e+00     0.268619    0.1218613 -50.60  0.001265819    2.618    0.618
        40 -14.3040    133.6479    145.4246   1.0907620227e+02   2.6261973104e+01     1.586321    0.5639766 -56.52  0.004643294    3.581    0.721
        41 -13.8252    143.3403    143.2551   1.0619680404e+02   2.4723229896e+01     1.232483    0.5593399 -61.45  0.003784043    3.400    0.706
        42 -13.5758    135.8642    127.5250   1.0431039918e+02   2.9897159633e+01     2.103494    0.3538054 -50.07  0.004117392    7.607    0.869
        43 -12.0788    134.6875    108.8600   9.9840324881e+01   3.4264899487e+01     1.123203    0.1947044 -45.01  0.002548577    5.718    0.825
        44 -12.1205     14.6214    151.1465   1.4054747191e+02   4.2303392345e+01    0.2574327    0.1948581 -41.64  0.001127884    1.588    0.370
        45 -11.1617    174.2432    148.5341   1.0022909885e+02   1.6809100262e+01    0.4319519    0.2931338 -64.96  0.001627853    1.830    0.454
        46 -10.3537    219.2640    224.3831   1.0634655343e+02  -6.3146040433e+00    0.1957886    0.1562812 -56.69  0.000642679    1.736    0.424
        47 -12.4430      9.6425    145.4751   1.4109609821e+02   4.4005130286e+01    0.4388829    0.2145571 -76.23  0.001814576    1.673    0.402
        48 -13.1351      5.6075    139.3168   1.4137665694e+02   4.5709374315e+01    0.8374938    0.4556194 -54.93  0.003951435    1.621    0.383
        49 -13.3764      3.1447    126.5397   1.4047256087e+02   4.8771186360e+01     1.759963    0.5432419 -69.87  0.007794502    2.461    0.594
        50 -12.4373      3.4668    112.2568   1.3848291621e+02   5.1948232226e+01    0.3840223    0.3014013 -57.96    0.0017418    1.101    0.092
        51 -12.6788     11.1513    110.7554   1.3607566491e+02   5.1789719205e+01    0.5246279    0.2405527   2.50  0.002340964    3.762    0.734
        52 -10.0834    167.9832    134.4821   9.8330456311e+01   2.1236491524e+01    0.2374338    0.1551772  51.08 0.0007725258    1.555    0.357
        53 -11.8008    160.4418    127.7591   9.8417907335e+01   2.4401115332e+01    0.4397628    0.2965289 -55.76  0.001274546    1.573    0.364
        54 -12.7693    113.9314    118.8548   1.0789973144e+02   3.6379305735e+01    0.4674734    0.3197072 -56.58 0.0008219961    1.490    0.329
        55 -10.2540    138.7684    229.5200   1.2329647160e+02   6.9907770525e+00    0.2568694    0.1695539  61.70 0.0009484323    1.610    0.379
        56 -10.7179    168.1953    113.0423   9.2954305835e+01   2.5728003522e+01    0.3883308    0.2678969 -89.51  0.001551471    2.176    0.541
        57 -11.0594    205.1930    110.7047   8.4878086239e+01   1.7525802765e+01    0.3682829    0.3048593  10.98  0.001097211    1.589    0.371
        58 -13.6654    117.9420    110.0970   1.0456993173e+02   3.7534502483e+01    0.8004518    0.4147205  49.59  0.003165429    2.064    0.515
        59 -10.7099     20.4920    219.4205   1.4555792236e+02   2.6556507896e+01    0.1802762    0.1166646  69.14 0.0005693486    1.246    0.198
        60 -12.0200     16.5565    217.5137   1.4613235225e+02   2.7371733662e+01    0.2343449    0.1757934 -71.59  0.001656853    1.398    0.285
        61  -9.9606    130.9923    214.0121   1.2259609503e+02   1.1448216015e+01    0.1536595    0.1416888 -88.14 0.0009077254    1.114    0.103
        62 -10.4403    147.0276     80.9409   8.9074210849e+01   3.7017515865e+01     0.234554    0.1855688  13.71 0.0005482813    1.607    0.378
        63 -10.7014     16.2353    250.3586   1.4829613400e+02   2.0887328763e+01   0.09473965   0.07052442 -71.33  0.000690628    1.583    0.368
        64 -11.9141    125.0066    247.3165   1.2845522041e+02   6.0672050792e+00     0.285549    0.1652305 -57.57   0.00106991    1.998    0.499
        65 -10.1001    150.7073    247.1448   1.2341776051e+02   1.7344082276e+00     0.159969    0.1150864 -41.18 0.0007519741    1.711    0.415
        66 -10.7343     13.4728     59.6013   1.2489533965e+02   6.2332852478e+01    0.1973701    0.1545568 -40.17 0.0004207276    1.033    0.032
        67 -13.0129    174.2899     33.4099   7.0317452560e+01   3.7660464044e+01    0.3935083    0.3675285  51.00 0.0008600265    1.167    0.143
        68 -10.3127    131.2609     28.8030   7.6769777402e+01   4.8497332831e+01    0.2304699    0.1670199  67.80 0.0006422657    1.391    0.281
