#   1 NUMBER                 Running object number                                     
#   2 MAG_AUTO               Kron-like elliptical aperture magnitude                    [mag]
#   3 X_IMAGE                Object position along x                                    [pixel]
#   4 Y_IMAGE                Object position along y                                    [pixel]
#   5 X_WORLD                Barycenter position along world x axis                     [deg]
#   6 Y_WORLD                Barycenter position along world y axis                     [deg]
#   7 A_WORLD                Profile RMS along major axis (world units)                 [deg]
#   8 B_WORLD                Profile RMS along minor axis (world units)                 [deg]
#   9 THETA_WORLD            Position angle (CCW/world-x)                               [deg]
#  10 FWHM_WORLD             FWHM assuming a gaussian core                              [deg]
#  11 ELONGATION             A_IMAGE/B_IMAGE                                           
#  12 ELLIPTICITY            1 - B_IMAGE/A_IMAGE                                       
         1 -13.9594    213.7080      9.8588   3.9016412741e+01   3.0381101946e+01      1.89857     1.211829  43.34  0.009871492    1.995    0.499
         2 -13.1998    174.7858     54.4006   5.6507213100e+01   3.4439499463e+01     1.802423     1.153263  23.62   0.00545129    2.337    0.572
         3  -9.4993     49.6616      2.3268   6.9297833432e+01   6.8664786201e+01    0.1048605   0.09565169 -49.19 0.0007051644    1.728    0.421
         4 -13.5380    189.9736     40.1112   4.9875904086e+01   3.2628741959e+01     1.140925    0.9721447 -20.84  0.003864373    1.306    0.234
         5 -11.1500     50.3884    224.6642   1.2070652556e+02   2.1875051377e+01    0.2336786    0.1376122  83.96 0.0008759915    1.584    0.369
         6 -12.9329    247.6736    246.7034   8.6536702180e+01  -1.1172348047e+01     1.154779    0.5478972 -30.13  0.006772379    2.191    0.544
         7  -9.5499    184.5555    212.2858   9.2328020731e+01   3.0985860457e+00    0.2257699    0.1295136 -46.56   0.00113013    2.048    0.512
         8  -9.5457     37.5620    211.4745   1.2213417236e+02   2.6023013881e+01    0.1358586   0.09639159 -77.86 0.0006203983    1.333    0.250
         9  -8.4041     43.4754    209.9179   1.2086809078e+02   2.5655712024e+01     0.298476    0.1290493  72.65   0.00116652    2.698    0.629
        10 -10.7711     43.9127    205.4202   1.2041466479e+02   2.6534355575e+01    0.1722372    0.1331346 -84.72 7.068303e-05    1.187    0.157
        11 -10.2081     67.1950    204.4165   1.1558657270e+02   2.3798789446e+01    0.3304829       0.1731 -50.26  0.001074405    2.470    0.595
        12  -7.8501     71.5976    201.3770   1.1434552697e+02   2.3836345035e+01    0.2971714     0.162597  85.54  0.001431374    2.182    0.542
        13  -9.4063    160.4104    205.2507   9.6025584364e+01   8.5374119449e+00    0.1725242    0.1320536 -61.34 0.0009467014    1.604    0.376
        14  -8.8330     93.5350    205.4800   1.1018489843e+02   1.9778688401e+01    0.1792832    0.1627411   2.34 0.0009474036    1.525    0.344
        15 -10.4005     96.4951    201.6374   1.0907263606e+02   2.0114249926e+01    0.3317984    0.2322782 -63.60  0.001677968    1.495    0.331
        16 -10.9813    193.2312    195.3921   8.7612187157e+01   4.3444422158e+00    0.9107001    0.4729971 -61.39  0.002963246    5.169    0.807
        17 -10.3065     57.4041    201.4478   1.1731805132e+02   2.5711834514e+01    0.2647027    0.1999908 -41.12  0.001097894    1.957    0.489
        18 -11.4822     59.7116    195.0795   1.1619650931e+02   2.6778836672e+01    0.3485226    0.2850585 -56.51  0.001780653    1.467    0.318
        19 -10.1999    203.7832    200.4030   8.6475374756e+01   1.6609780331e+00    0.1984246    0.1123647  29.92 0.0009573994    1.722    0.419
        20  -9.8285     82.0235    195.0302   1.1137672696e+02   2.3703154506e+01    0.1934911    0.1688051  75.77 0.0004063554    1.036    0.035
        21 -19.5228     23.0558    146.3593   1.1947170685e+02   4.1990175480e+01     19.33891     4.896368 -74.93   0.06732123    3.742    0.733
        22 -10.7579     95.6195    188.9436   1.0756911461e+02   2.2946995412e+01    0.4177479    0.2975543  81.28  0.002236018    1.514    0.339
        23 -10.3806     98.4908    185.9851   1.0650071338e+02   2.3133987521e+01    0.3536696    0.2150592  84.87  0.001589235    2.238    0.553
        24 -10.7557     99.3247    180.7565   1.0553781091e+02   2.4150782562e+01    0.2928841     0.278286 -22.83 0.0009574944    1.313    0.238
        25 -11.7382    149.3611    187.8472   9.5401143342e+01   1.3824140132e+01    0.4337948    0.3380612  71.33  0.001475506    1.547    0.354
        26 -10.6439    149.9378    178.1073   9.3502519196e+01   1.5667532484e+01    0.3912722    0.2676408 -71.20  0.001791636    1.998    0.500
        27 -11.8120    143.7809    178.2530   9.4909625829e+01   1.6807152453e+01    0.5088969    0.3179721 -52.33  0.001631081    1.708    0.415
        28 -11.0746    139.6474    171.9901   9.4683917211e+01   1.8902768159e+01    0.4223473    0.3045739  54.99  0.001159918    1.420    0.296
        29 -10.2810    188.5489    176.6041   8.4918377306e+01   8.5005571153e+00    0.4070379    0.3350385 -53.50  0.001910299    1.420    0.296
        30 -11.3989    238.6371    174.4551   7.4950715756e+01  -3.1479592832e-01    0.3018053    0.1907147  34.39  0.001598995    1.585    0.369
        31  -8.6294    194.4086    171.8076   8.2743964970e+01   8.2390716014e+00    0.1967943    0.1314616 -26.08  0.000935914    1.618    0.382
        32  -9.2917     74.8629    250.6620   1.1830372965e+02   1.3942971593e+01   0.08991761   0.07049841 -67.45 0.0001969135    1.547    0.353
        33  -9.4480    240.3074    169.3137   7.3600131324e+01   1.9245224846e-01    0.1380419   0.09428272   1.52 0.0002988431    1.625    0.385
        34  -9.8480     43.8983    221.2832   1.2166395721e+02   2.3321160791e+01    0.1515765    0.1077414  76.27 0.0006397645    1.127    0.113
        35  -8.9752    187.4533    163.2041   8.2361212044e+01   1.1202075032e+01    0.2070728    0.1382779 -52.72 0.0008552267    1.745    0.427
        36  -9.6884     61.4392    219.8365   1.1820558970e+02   2.1422212359e+01    0.1479309   0.09971067 -58.08 0.0007639074    1.769    0.435
        37 -10.9521     90.8386    157.6276   1.0388051719e+02   3.0831709517e+01    0.2696176    0.2351405 -57.46 0.0004834246    1.175    0.149
        38 -11.5967     96.5282    151.0215   1.0126021963e+02   3.1464960421e+01    0.6166518    0.5418026 -26.96  0.003380463    1.382    0.276
        39 -10.8428    133.8941    145.7372   9.0728223332e+01   2.5789314071e+01      1.30359    0.3302543 -54.71  0.003028709    5.949    0.832
        40 -10.0321    187.8056    152.0882   7.9853016132e+01   1.3253622956e+01    0.2237794    0.2096024 -73.81 0.0006601057    1.241    0.194
        41  -9.4564    112.9963    150.9600   9.7045233903e+01   2.8598377743e+01    0.2466408    0.1784743  82.02   0.00101458    1.750    0.429
        42  -9.3442    174.8706    149.1284   8.1945661320e+01   1.6546534935e+01    0.2331323    0.2092947 -87.05 0.0007557926    1.325    0.245
        43 -11.1177    108.1609    137.7622   9.5584677658e+01   3.2579126010e+01    0.6802028     0.431123 -46.86  0.003071084    1.580    0.367
        44 -10.9468    105.6234    131.0258   9.4799383803e+01   3.4637658008e+01    0.4936554    0.3926224 -38.57  0.002471989    1.342    0.255
        45 -11.7518     96.3387    137.2018   9.8626606990e+01   3.4797530232e+01    0.3455221    0.2906066 -82.19 0.0004472193    1.214    0.176
        46  -9.6215    136.0000    129.0018   8.6357326558e+01   2.9129149340e+01    0.4215829   0.08780757 -46.90  0.001029985    4.742    0.789
        47 -10.2410    115.0979    128.6694   9.1713781519e+01   3.3418999019e+01    0.3312825    0.2723949   7.43 0.0007464548    1.545    0.353
        48  -9.3893    160.9776    127.9754   8.0059739869e+01   2.3940634458e+01    0.2532198    0.1990598 -84.05  0.001139784    1.688    0.408
        49 -10.5602    102.7253    124.4986   9.4119799435e+01   3.6712805885e+01     0.301869    0.2635861 -11.44 0.0008096537    1.371    0.271
        50 -10.3139    120.5690    122.8009   8.8854451645e+01   3.3708330553e+01    0.4850142    0.3068427 -18.06  0.001764317    2.819    0.645
        51  -9.6604    135.0000    120.8607   8.4598921074e+01   3.1165866132e+01    0.4420337   0.08812623 -46.05  0.001050674    4.928    0.797
        52 -10.0988     56.0440    217.3905   1.1903954127e+02   2.2602182459e+01    0.2666672     0.122699  79.79  0.001220359    2.737    0.635
        53  -9.5441    110.2026    118.0361   9.0505333360e+01   3.6842950818e+01    0.2392111    0.2175584  48.76 0.0003560084    1.140    0.123
        54  -9.9977    231.2434    113.7801   6.2703111871e+01   1.1106197060e+01    0.2700078     0.250384  35.25 0.0007455953    1.175    0.149
        55  -9.2650    167.4312    112.1606   7.4533296382e+01   2.5762766219e+01    0.3239551    0.2404417 -84.17  0.001155398    1.930    0.482
        56  -8.4042    146.4103    113.1626   7.9737774920e+01   3.0359898295e+01    0.2140508    0.1471239 -55.61 0.0004228748    1.575    0.365
        57 -10.1433    134.5861    105.8824   8.0759630864e+01   3.4559911340e+01    0.5198756    0.1508565 -45.80  0.001488662    3.412    0.707
        58 -11.1605    118.5544    110.7393   8.6344111423e+01   3.6875113240e+01    0.5949118    0.3978968  62.75  0.002500087    1.895    0.472
        59  -9.7386    205.4971    110.3696   6.6315750128e+01   1.7317632432e+01    0.3049875    0.2574411  33.60 0.0008606029    1.277    0.217
        60  -9.1733    130.9896     96.7680   7.9142180292e+01   3.7309114347e+01    0.2047217    0.1314653  46.07 0.0003508005    1.592    0.372
        61  -9.7126     64.8822    223.7151   1.1788285671e+02   2.0209555591e+01    0.1472749    0.1005896  81.60 0.0005786708    1.339    0.253
        62  -9.1294    181.3198     81.6698   6.3223492340e+01   2.8277419636e+01    0.1621311    0.1185681 -70.00 0.0007048268    1.690    0.408
        63  -8.2462    184.3515     77.3073   6.1413692915e+01   2.8295093917e+01    0.1584377    0.1196184  21.14 0.0007042924    1.712    0.416
        64  -9.0643     69.9412     72.1333   9.0331127740e+01   5.4142247414e+01     0.191363    0.1804488 -59.04            0    1.185    0.156
        65  -9.6221     55.4794    223.1049   1.1962465796e+02   2.1544220665e+01    0.1458956    0.1061775  86.09 0.0003388596    1.211    0.174
        66 -12.5815    194.8485     34.4179   4.7597108450e+01   3.2149203762e+01    0.5515791    0.5072333 -28.53  0.001219401    1.190    0.159
        67 -10.2017     71.8980    244.9976   1.1837639973e+02   1.5326212700e+01     0.194517     0.141414 -63.44  0.001162592    1.660    0.398
        68 -10.3304    189.9122     15.0064   4.2834413887e+01   3.5675458676e+01    0.2135358    0.1907141 -85.02 0.0007448858    1.013    0.013
        69 -10.1240     58.7685    229.2805   1.1950731519e+02   1.9934146196e+01     0.162985    0.1202698  78.06  0.000343293    1.147    0.128
