#   1 NUMBER                 Running object number                                     
#   2 MAG_AUTO               Kron-like elliptical aperture magnitude                    [mag]
#   3 X_IMAGE                Object position along x                                    [pixel]
#   4 Y_IMAGE                Object position along y                                    [pixel]
#   5 X_WORLD                Barycenter position along world x axis                     [deg]
#   6 Y_WORLD                Barycenter position along world y axis                     [deg]
#   7 A_WORLD                Profile RMS along major axis (world units)                 [deg]
#   8 B_WORLD                Profile RMS along minor axis (world units)                 [deg]
#   9 THETA_WORLD            Position angle (CCW/world-x)                               [deg]
#  10 FWHM_WORLD             FWHM assuming a gaussian core                              [deg]
#  11 ELONGATION             A_IMAGE/B_IMAGE                                           
#  12 ELLIPTICITY            1 - B_IMAGE/A_IMAGE                                       
         1 -12.5583     54.0541    146.5345   1.0479919747e+02   3.8708605218e+01     5.652678     1.004702 -60.67   0.01631942    4.253    0.765
         2 -14.2611     68.6534    144.2943   1.0023316961e+02   3.7363373049e+01     4.787233     2.084903  61.04  0.008964893    5.737    0.826
         3 -13.6171    199.7774     41.4619   4.2363723544e+01   3.0241250748e+01     1.248633     1.161862   5.50  0.005375791    1.365    0.267
         4 -13.7372    210.1632     31.4798   3.8756698888e+01   2.9143889137e+01     1.103978    0.9031039 -12.04  0.001818475    1.636    0.389
         5 -12.8278    235.3751      5.8005   3.0977056730e+01   2.6625689244e+01    0.8075795    0.5775087  89.46  0.004851346    1.225    0.184
         6 -10.7548     17.7937      4.5881   7.8114028500e+01   7.2177392608e+01    0.2251593    0.1385348 -32.31  0.001464568    1.549    0.354
         7  -9.6739    154.4224    228.2422   9.3069688277e+01   4.8582396074e+00    0.1673414     0.130619 -62.76 0.0009541422    1.647    0.393
         8 -10.3832    139.6679    249.6178   9.9130394555e+01   3.4774878822e+00    0.3239245    0.1811852  41.21  0.001746934    1.511    0.338
         9 -13.5305     54.4492    186.5177   1.1015915523e+02   2.8891371263e+01     4.606094     1.988031  76.06    0.0136785    5.382    0.814
        10 -10.8496    192.8131    194.6085   7.9205061898e+01   4.5173231072e+00    0.7328711    0.3689747 -60.04  0.002394998    4.720    0.788
        11 -10.7719    111.6360    204.3610   9.8936487096e+01   1.6518903937e+01    0.3467714    0.2501801  87.55 0.0008803512    1.772    0.436
        12 -17.0264     16.0663    243.1486   1.2281868511e+02   2.1010776403e+01     6.103831      2.53341  28.49   0.02376795    2.895    0.655
        13 -11.1144    202.6963    199.6617   7.8171862721e+01   1.9792979038e+00    0.3723088    0.1583565  29.94  0.001492348    2.607    0.616
        14  -9.5249    121.6518    199.6530   9.5879635680e+01   1.5875422398e+01    0.2619242     0.184226  -3.99 0.0009155815    2.191    0.544
        15 -10.0831    120.9881    195.9538   9.5439490643e+01   1.6783305074e+01    0.3108332    0.2259438 -81.84 0.0005018108    1.771    0.435
        16 -10.9947    107.3142    203.4132   9.9800964348e+01   1.7418392788e+01    0.5051624    0.2381149  49.72  0.001733719    2.196    0.545
        17 -15.4374      2.6029    197.2694   1.2279814252e+02   3.1769235604e+01     17.90385          nan -74.92   0.03610472   13.455    0.926
        18 -10.7453    157.0040    218.7279   9.1029046953e+01   6.1532376641e+00    0.4796967    0.2560683 -65.33  0.001877957    3.531    0.717
        19 -11.4683    183.0384    213.1852   8.4610071553e+01   2.8604898987e+00    0.4121046    0.2735749   9.53   0.00208397    1.743    0.426
        20  -9.4627    147.8635    187.1263   8.7599975075e+01   1.3951520598e+01    0.2275559    0.2005167  70.10  0.001232079    1.321    0.243
        21  -8.6828     79.8355    183.1342   1.0347545011e+02   2.6258686484e+01    0.2138218    0.1751307  70.73 0.0006962073    1.208    0.172
        22  -9.8868     99.4243    180.7328   9.8203215967e+01   2.3800033770e+01     0.268884    0.2431915  51.15 0.0006268125    1.068    0.064
        23  -8.5208     89.5465    180.4846   1.0064532787e+02   2.5423300737e+01    0.1425703     0.131256  75.22 0.0002320761    1.033    0.032
        24  -9.7000    187.9106    176.3287   7.6616263855e+01   8.7825133916e+00    0.3201405    0.2968545 -22.06  0.001297167    1.077    0.071
        25  -8.7842    148.1624    174.9077   8.5190703397e+01   1.6493162848e+01     0.232115    0.1725606 -83.18 0.0007285762    1.983    0.496
        26 -10.7146    125.2100    245.1829   1.0151721401e+02   6.4183033009e+00    0.3714542    0.1556446 -51.81  0.001721053    2.768    0.639
        27 -14.3646     10.4269    206.3319   1.2175568948e+02   2.9103550962e+01    0.8706799    0.7210138  18.42  0.002504339    1.653    0.395
        28 -10.1282    240.2170    169.2103   6.5254621248e+01   1.0390326433e+00    0.1694932    0.1489193 -45.20 0.0004658105    1.335    0.251
        29  -8.7189    185.2018    168.4240   7.5550948839e+01   1.0818508975e+01    0.1963451    0.1381994  50.66 0.0005762388    1.612    0.380
        30  -9.1238    110.8675    168.0902   9.3089051831e+01   2.4842490271e+01     0.228947    0.1980933  79.36 0.0004918161    1.257    0.204
        31  -8.0134     29.2478    164.3162   1.1389377775e+02   3.7020714254e+01    0.1259925   0.08690643 -51.34 0.0001725739    1.521    0.342
        32 -11.3311     73.0115    167.9975   1.0297053427e+02   3.0882290937e+01    0.3804647    0.2891339 -45.60 0.0006858056    1.423    0.297
        33 -14.8449     45.1706    199.1964   1.1368962588e+02   2.7075308285e+01     8.215175     2.930901  65.81   0.02269562    6.563    0.848
        34 -11.5896     88.8136    152.5188   9.6055118176e+01   3.2300865868e+01    0.7189499    0.4715246 -25.96  0.003069427    2.188    0.543
        35 -10.6952    133.8238    144.9766   8.2400031236e+01   2.5952669096e+01     1.098101    0.3180574 -54.81  0.002744083    4.963    0.799
        36  -9.0265    174.8249    148.8532   7.3527539758e+01   1.6793954230e+01    0.2018297    0.1826879 -82.18 0.0004654204    1.321    0.243
        37  -9.5235     38.9470    146.3501   1.0905259158e+02   4.0463129904e+01     0.248974    0.2028741  83.76 0.0006603054    1.202    0.168
        38  -9.4027     33.5198    143.4690   1.1018440982e+02   4.1727118058e+01    0.3695985    0.1720738 -66.20 0.0009979211    1.828    0.453
        39 -10.5467     28.9023    143.7695   1.1152607764e+02   4.2092311004e+01     0.370685    0.3395877 -18.61  0.001939566    1.319    0.242
        40 -10.1614    102.6660    138.4090   8.9313537738e+01   3.3406126462e+01    0.5447409    0.3469987 -19.65  0.002095456    2.546    0.607
        41 -11.6264     89.8851    138.1513   9.2901480868e+01   3.5660222434e+01    0.2933691    0.2625486 -39.83 0.0003545221    1.134    0.118
        42 -10.0710    105.9414    130.7333   8.6659693718e+01   3.4657338522e+01    0.4027413    0.3239593 -62.68  0.001618117    1.291    0.225
        43 -10.3039    135.6822    128.6139   7.8077015680e+01   2.9294581221e+01    0.5755479    0.1426411 -46.77  0.001538488    3.994    0.750
        44  -9.5540    111.5951    129.4483   8.4764237115e+01   3.3905737508e+01    0.3359455    0.2696912  -1.92  0.000972755    1.551    0.355
        45 -11.3821     68.7136    172.6762   1.0478866972e+02   3.0342941382e+01    0.4251115    0.2957457 -30.47  0.002067441    1.974    0.494
        46 -10.0780     30.1875    129.0930   1.0909351040e+02   4.5605826035e+01    0.3933206    0.2381351  53.25   0.00198442    1.926    0.481
        47  -9.2495    160.6172    127.8213   7.1782720733e+01   2.4173977429e+01    0.2301467    0.1426136 -52.82 0.0009526423    1.738    0.425
        48 -10.2049     98.9157    125.2451   8.7402997162e+01   3.7242546430e+01     0.328477    0.2618907  -9.22    0.0015722    1.547    0.354
        49 -10.5558    118.5296    122.9657   8.1262145584e+01   3.4071152927e+01    0.5535612    0.3539185   2.41  0.001943365    3.032    0.670
        50  -8.3805     90.0105    123.2009   8.9566531033e+01   3.9281732184e+01    0.2377493     0.185454  79.30  0.000493069    1.648    0.393
        51  -8.4764     87.3132    120.6883   8.9796179190e+01   4.0339374070e+01     0.250937    0.1794167  62.43  0.000947107    1.771    0.435
        52 -10.8861     34.0099    118.9002   1.0626563116e+02   4.7764419611e+01    0.3430482    0.2322529 -23.87  0.001785861    1.807    0.447
        53  -9.2786    107.9383    118.4752   8.3131743479e+01   3.7173249259e+01    0.2529166      0.20404 -30.85 0.0003609745    1.304    0.233
        54 -10.0332     44.9857    117.7561   1.0253686479e+02   4.6922389030e+01    0.1897545    0.1709022 -56.98 0.0003788473    1.019    0.019
        55 -10.0888    231.2020    113.6885   5.4916545615e+01   1.2111798589e+01    0.2571044    0.2518959 -54.48 0.0007559911    1.116    0.104
        56  -9.2507    134.6945    111.4642   7.3963918803e+01   3.3291471117e+01    0.2940675    0.1406268 -43.89  0.001086285    2.066    0.516
        57  -9.2876    205.4057    110.2519   5.8363651726e+01   1.7951032220e+01    0.2912723    0.2004923  46.93 0.0008809361    1.568    0.362
        58 -10.3062    115.7420    108.6603   7.8355003927e+01   3.7873748808e+01    0.3842917     0.319756  14.21   0.00188549    1.356    0.263
        59 -11.4933     42.6207    104.3985   1.0064274294e+02   5.0425252605e+01    0.5672591    0.2549956  45.32  0.002312775    2.847    0.649
        60  -8.3893    138.7989    105.6415   7.1352968056e+01   3.3638191318e+01    0.2109794    0.1462465  55.70 0.0003879266    1.568    0.362
        61 -12.4327     81.2635    159.3758   9.9358668867e+01   3.1788604554e+01     1.351544    0.7129976  58.54  0.005287983    2.521    0.603
        62 -11.1408     32.1957    108.3819   1.0497474256e+02   5.0500535064e+01    0.3782727    0.2385267  68.44  0.001811629    2.235    0.553
        63 -10.3408    242.0003    102.2894   5.0841001691e+01   1.1956093759e+01    0.1869913    0.1703709 -53.85 0.0006444406    1.079    0.073
        64  -9.6915     34.2276    100.2592   1.0268520866e+02   5.2260484427e+01    0.1743265     0.151018  87.20 0.0005837658    1.317    0.241
        65  -9.3485     34.4841    171.3965   1.1334875930e+02   3.4781716786e+01    0.2319928    0.1869174  68.78 0.0007559872    1.170    0.145
        66  -8.5516    193.8269    171.1904   7.4333493075e+01   8.6796385801e+00    0.2004468    0.1620641  -4.03 0.0009630382    1.287    0.223
        67  -8.7355    126.4765     93.5488   7.1194501576e+01   3.8845654436e+01    0.1513698    0.1496084 -82.41 0.0004362488    1.063    0.059
        68  -9.2305     53.3822     90.7949   9.3675662924e+01   5.2369338245e+01    0.2086397    0.1109371 -44.90 0.0005549793    1.693    0.409
        69  -9.4874    156.0852     88.0152   6.2376704852e+01   3.3208819721e+01    0.4046302    0.2592567 -71.29  0.001570856    2.471    0.595
        70  -9.4695     15.0071     89.5149   1.0742649369e+02   5.6341011032e+01    0.2481668    0.1102007  27.70  0.001189476    2.545    0.607
        71  -8.7223    115.0556     84.2429   7.1605213687e+01   4.3175093480e+01    0.2422617     0.179317  74.79  0.001074994    1.918    0.479
        72  -8.9194    158.7853     82.8085   6.0335414483e+01   3.3533221901e+01    0.2096975    0.1768807 -72.60 0.0007551523    1.325    0.245
        73  -8.2257    184.3494     77.2883   5.3852202916e+01   2.8479289397e+01    0.1455472    0.1135405  23.64  0.000702432    1.662    0.398
        74  -8.6325     55.9961     66.4314   8.5685022228e+01   5.7269923807e+01    0.1884201    0.1293796  27.06  1.47072e-05    1.508    0.337
        75 -12.9983    189.3705     49.2598   4.5739153475e+01   3.1613937338e+01      1.01437    0.7317947  44.78  0.001161131    1.576    0.366
        76  -9.2225     89.7239    211.8393   1.0499143250e+02   1.8311844334e+01    0.2277216    0.1716674  58.29 0.0006237482    1.251    0.200
        77 -10.4820     17.0162     32.7401   9.1095167108e+01   6.7959091168e+01    0.2491332    0.1189195  35.92  0.001275388    2.664    0.625
        78 -13.3961     21.3136    222.2650   1.2059994635e+02   2.4658090904e+01    0.8358594    0.5984828  75.02  0.004216429    1.128    0.113
        79  -9.4547    198.0153     23.5158   3.8186638585e+01   3.2864055153e+01    0.2192342    0.1845952  -3.30 0.0007094846    1.613    0.380
        80  -8.8545    189.6481     14.9365   3.6998504023e+01   3.5751481395e+01    0.1743028    0.1542878 -65.36 0.0007549153    1.116    0.104
        81  -8.2899    168.9697    234.7376   9.1043971402e+01   1.4486430209e+00    0.1598222   0.09819554  32.96 0.0002335943    1.413    0.292
        82  -8.3243     66.5033     51.4821   7.6524234506e+01   5.8486781177e+01    0.1371021    0.1187236  -3.62 6.160485e-05    1.022    0.021
        83 -13.0396     70.0603    154.2840   1.0156661358e+02   3.4678751306e+01    0.6709881    0.5872446 -35.82  0.001439536    1.270    0.213
