#   1 NUMBER                 Running object number                                     
#   2 MAG_AUTO               Kron-like elliptical aperture magnitude                    [mag]
#   3 X_IMAGE                Object position along x                                    [pixel]
#   4 Y_IMAGE                Object position along y                                    [pixel]
#   5 X_WORLD                Barycenter position along world x axis                     [deg]
#   6 Y_WORLD                Barycenter position along world y axis                     [deg]
#   7 A_WORLD                Profile RMS along major axis (world units)                 [deg]
#   8 B_WORLD                Profile RMS along minor axis (world units)                 [deg]
#   9 THETA_WORLD            Position angle (CCW/world-x)                               [deg]
#  10 FWHM_WORLD             FWHM assuming a gaussian core                              [deg]
#  11 ELONGATION             A_IMAGE/B_IMAGE                                           
#  12 ELLIPTICITY            1 - B_IMAGE/A_IMAGE                                       
         1 -13.9080    198.2072     36.3661   1.0290511553e+01   3.1337295634e+01     1.660088     1.083326  50.25  0.004459024    1.730    0.422
         2 -13.1074    234.4485     47.8821   8.8625795766e+00   2.1832938515e+01    0.9879829    0.7928486 -66.80  0.002446038    1.038    0.036
         3 -14.0411    219.7617     56.7833   1.2415921683e+01   2.3711029440e+01     2.059847     1.152348 -44.43  0.005252135    1.619    0.382
         4 -13.9571    244.6894      8.3737   1.7313078756e-01   2.4582339840e+01     1.034197    0.4116681 -77.11  0.004776264    2.928    0.658
         5 -13.1028    222.8922      8.7647   1.7938393714e+00   2.9023731645e+01    0.8909021    0.3885361 -80.07  0.001721566    2.582    0.613
         6 -11.9267    232.9033      3.7954   8.7676616702e-02   2.7449775155e+01    0.8924038    0.2187615 -38.74  0.003972072    3.191    0.687
         7 -12.6577    204.0040     18.6877   5.5600441717e+00   3.2099064138e+01    0.6536115    0.4182347  80.94  0.001202254    1.385    0.278
         8  99.0000     30.7405     21.0406   4.8315976106e+01   6.8688061489e+01     0.920643     0.489961 -38.25  0.005194849    1.914    0.478
         9 -12.3506     69.2048      5.4629   2.5399291832e+01   6.4182443836e+01    0.9097106    0.5462247  51.50  0.005258492    1.493    0.330
        10 -13.1000     57.0801      4.5554   2.9109668641e+01   6.6523033447e+01    0.3910669    0.3413519  27.52 0.0009808718    1.209    0.173
        11 -13.0768     63.7247     35.0931   4.0045251858e+01   6.1859286605e+01     1.570125      1.14787 -37.93  0.009152342    1.561    0.359
        12 -11.2877     50.5028     32.6958   4.4383893801e+01   6.4328079252e+01     1.328039    0.8664791   8.64  0.007439826    1.550    0.355
        13 -10.5865     40.6065     21.8667   4.4010736644e+01   6.7268446372e+01     1.037849    0.5764092 -11.82  0.005448188    2.023    0.506
        14 -12.5645     53.1249     20.7042   3.8082279549e+01   6.5507844587e+01      1.08379    0.6861302  62.54  0.005035029    3.369    0.703
        15 -12.2417     25.2169     40.9104   5.9261175444e+01   6.6170211981e+01     1.345992    0.6961241 -32.48  0.007215432    1.703    0.413
        16 -12.4945     64.1993     15.3509   3.1462477576e+01   6.4191755056e+01     1.540918    0.6329161  52.55  0.006883522    2.576    0.612
        17 -14.2292     11.2122     37.1964   6.4898108749e+01   6.8032319196e+01     1.293356     1.157896 -50.46  0.006129411    1.458    0.314
        18 -13.8089     34.5350     56.4997   6.0417014077e+01   6.2353607444e+01     1.780409     1.052611  11.58  0.008571092    1.804    0.446
        19 -13.1729     48.8807     50.7557   5.2179489014e+01   6.1666300441e+01     1.500952    0.6742922 -27.05  0.006104455    2.799    0.643
        20 -12.9318     73.0174     25.1028   3.2554953195e+01   6.1467270328e+01    0.4361366    0.3925715  17.48 0.0005091734    1.134    0.118
        21 -12.3110     80.2499     22.9758   2.9309448289e+01   6.0300405158e+01    0.5829918     0.368966  24.71  0.002380665    1.580    0.367
        22 -13.6806     58.0650     65.1296   5.3462297703e+01   5.7730332479e+01     1.691692    0.9190757 -36.36  0.008003035    1.758    0.431
        23 -11.6449    219.5949     29.6385   6.4562639220e+00   2.7360973418e+01     4.127859     1.182423  79.36   0.01151566    6.673    0.850
        24 -12.1076    172.9205     44.4980   1.5822242921e+01   3.6285341867e+01     1.019067    0.6205418  22.46  0.001946671    3.090    0.676
        25 -11.3808    177.6970     37.8825   1.3360430814e+01   3.5990331470e+01    0.6820713    0.3413549 -13.93  0.002522994    3.924    0.745
        26 -12.8194    226.0746     22.6935   4.3957369568e+00   2.6794769522e+01    0.4767937    0.3857183 -79.84  0.001568075    1.038    0.037
        27 -11.4836    210.9118     21.3846   5.4927612733e+00   3.0247622965e+01    0.4827393    0.3354904  54.50  0.002883837    1.646    0.393
        28 -13.2925    176.2573     23.5700   9.8491508576e+00   3.8024691586e+01    0.3114544    0.2946041  69.96 0.0007536933    1.173    0.148
        29  99.0000    243.4495     17.8713   2.0546137203e+00   2.3765497802e+01    0.4316057    0.2709807 -79.45  0.002731971    1.386    0.279
        30 -11.3756     93.9968     16.0245   2.2604607570e+01   5.8148743633e+01    0.3506774    0.1722102  40.94 0.0009983329    1.805    0.446
        31 -11.1118    149.9388     13.0486   1.0591828211e+01   4.5421703465e+01    0.2909532    0.1943187 -88.00   0.00127984    1.577    0.366
        32 -10.4146    142.3228     12.1192   1.1467226890e+01   4.7336120780e+01    0.4008645    0.2046649  28.36  0.001704446    3.068    0.674
        33 -11.8842    115.5140     10.4098   1.5639031300e+01   5.3821664015e+01    0.5461878    0.2758439  -5.29  0.002476902    2.897    0.655
        34  -9.5777    192.1762     12.1045   5.2222095846e+00   3.5499328108e+01    0.1601889    0.1160249 -74.95 0.0009706679    1.249    0.199
        35 -10.5309    132.9769     11.4662   1.2781700451e+01   4.9627427417e+01    0.2193088    0.1560089  81.62 0.0003076686    1.405    0.288
        36  99.0000    131.4758      8.4668   1.2095556560e+01   5.0242424590e+01    0.3202566    0.2344694  60.27  0.001916304    1.137    0.120
        37 -10.5782    124.9403     10.0657   1.3737786849e+01   5.1650920264e+01    0.3550459    0.2532275  26.47  0.002045262    1.593    0.372
        38 -10.1537    108.7280      9.9165   1.6863718513e+01   5.5420494647e+01    0.2576452    0.1590797 -29.81  0.001417326    1.869    0.465
        39 -12.0498     78.7487      9.9333   2.4397147040e+01   6.1902810342e+01    0.2635906    0.1920888  39.42 0.0003431392    1.118    0.106
        40 -12.7448    173.3936      6.4984   5.8412534385e+00   4.0426986315e+01    0.3374394    0.2701535  38.55 0.0007536181    1.536    0.349
        41 -12.1855    173.7968      2.9163   4.8991065963e+00   4.0654619646e+01    0.1985917    0.1836541 -33.94 0.0007297008    1.331    0.249
        42  -9.2494     45.7753      9.7808   3.6053568847e+01   6.7930507397e+01    0.3397495    0.1825831  20.93  0.001423595    1.851    0.460
        43 -10.2979     47.4169      5.4720   3.3276457658e+01   6.8100764131e+01    0.1786189    0.1358048  24.53 6.676807e-05    1.067    0.063
        44 -11.1243     47.3210      1.5794   3.1397183702e+01   6.8478711445e+01    0.3527885    0.1537428  38.63  0.001231408    1.866    0.464
        45 -10.5991     26.7299      9.5570   4.4833900903e+01   7.0682734854e+01    0.2798992    0.1692732   8.10  0.001716353    1.518    0.341
        46 -10.1485    165.4521      9.2999   7.4871608775e+00   4.2051736465e+01    0.2282426    0.1319347 -70.16 0.0007329976    1.967    0.492
        47 -11.7434    193.6830      7.4555   3.9968838826e+00   3.5618434717e+01    0.2631163    0.1950898  75.86 0.0006822723    1.178    0.151
        48 -10.5825     12.8446      7.3729   5.1265060812e+01   7.2540328505e+01    0.1536826    0.1148981 -11.65 0.0006324251    1.107    0.097
        49  -8.8684    157.0000      7.4418   8.0499757634e+00   4.4237189333e+01    0.1775919    0.1066524  70.48 0.0003159467    1.395    0.283
        50  -9.5728    101.3568      6.8245   1.7352591695e+01   5.7334638470e+01    0.1590497    0.1105687   9.88 0.0003282307    1.657    0.396
        51 -11.2251      2.7908      5.9253   5.6528020699e+01   7.3656674302e+01    0.2330206    0.1555334  -1.91 0.0009663183    1.186    0.157
        52 -10.3054    146.5809      5.7934   8.9875936557e+00   4.6868843034e+01    0.2074348    0.1415015  55.79 0.0008350933    1.301    0.231
        53  -9.9967     89.9369      6.2638   1.9853287145e+01   5.9877217794e+01    0.1862372    0.1006474  68.43 0.0002712217    2.092    0.522
        54 -10.2382     87.9980     11.8931   2.2585412350e+01   5.9812218042e+01    0.2508693      0.18652  53.32  0.001523683    1.218    0.179
        55 -10.1019    111.3622      4.4103   1.4389761763e+01   5.5261617331e+01    0.2603358     0.154241  56.19  0.001302522    1.356    0.262
        56 -14.3588     10.7081     68.7857   7.4396464701e+01   6.1825551051e+01     1.834988     1.344151 -31.42    0.0117166    1.178    0.151
        57  -9.5203    183.3752      3.7975   4.1347403272e+00   3.8340334512e+01    0.2761174    0.1723998 -71.53 0.0007431534    1.562    0.360
        58  -9.6698    187.4393      2.2811   3.3853063214e+00   3.7541212613e+01    0.3239726    0.1430618 -46.45  0.001626864    2.216    0.549
        59 -10.5164    216.7707      2.3490   9.4486233838e-01   3.0992597128e+01    0.4361025     0.180686  76.57  0.002213181    2.106    0.525
        60 -10.1066    207.0668      3.2287   1.8849867746e+00   3.3022562488e+01    0.1578388    0.1356487  85.89  0.001110714    1.165    0.142
        61  -9.9053     18.7997      3.0394   4.5667954765e+01   7.2425266102e+01    0.1339095   0.07560688 -27.96  0.000496401    1.651    0.394
        62  -9.0579    143.6881      2.7660   8.5157548118e+00   4.7806077647e+01    0.1258186   0.07802495  50.61 0.0001962801    1.494    0.331
        63  -9.3271    135.6005      2.2495   9.5288773667e+00   4.9766437417e+01     0.147645    0.1192977  13.97 0.0005030989    1.519    0.342
        64 -12.1522     85.6099      1.4400   1.9028129250e+01   6.1168375912e+01    0.3876225    0.1072538  56.97  0.001044833    2.758    0.637
        65  -9.6445    250.4072      1.4839   3.5855853477e+02   2.4199317528e+01    0.1117391   0.08179659 -69.81 9.757114e-05    1.018    0.018
        66 -11.1982    113.7039    246.5740   7.3830896657e+01   7.3877254355e+00    0.3589087    0.2557741 -32.75  0.001438688    1.890    0.471
        67 -10.9553     36.2576    248.4939   8.9884614097e+01   1.7567410954e+01    0.2310703      0.11968 -61.51  0.001298535    2.164    0.538
        68 -10.4417    180.7074    243.5685   5.9217846146e+01  -2.4810836882e+00    0.1934429    0.1706805 -78.58  0.001194288    1.768    0.434
        69 -11.6262    197.7786     50.4973   1.3744612703e+01   2.9558826820e+01    0.3827157    0.3062236 -82.60 0.0007406575    1.183    0.154
        70 -12.5724    207.6112     46.4139   1.1517247459e+01   2.7866201883e+01     1.611081     0.615809  76.26  0.005829765    3.505    0.715
        71  -9.6547    218.3705    239.7084   5.1094613280e+01  -7.3593079495e+00    0.1111513   0.09630961  47.00 0.0007024974    1.721    0.419
        72 -10.7950     88.1708    238.8453   7.8412695561e+01   1.2705862378e+01    0.1643657    0.1532317  11.69 0.0004444272    1.312    0.238
        73  -9.7617     15.9967    238.4896   9.3121084104e+01   2.1790309334e+01    0.1254322   0.09968556 -15.38 -0.0001402899    2.236    0.553
        74 -11.6717    215.2028     42.0071   9.6307751578e+00   2.6755857099e+01    0.3432276    0.2320111  81.43 0.0007983721    1.416    0.294
        75 -12.9273    221.9352     38.6653   8.1751880971e+00   2.5717104935e+01     0.931873    0.4894221  87.85  0.001841968    2.136    0.532
        76  -9.6735    236.7195    145.9985   2.9625490214e+01   5.3813289350e+00    0.1914646    0.1543868 -34.36 0.0003645979    1.072    0.067
        77 -10.7281    167.8158     89.9514   2.9032874710e+01   3.0285470390e+01    0.3358033    0.2206128  62.59   0.00062479    1.630    0.387
        78 -11.6698     50.8601     87.9789   6.3148717533e+01   5.3915338460e+01    0.3417824    0.2091483 -32.61  0.001403466    1.643    0.391
        79 -12.0085     48.1721     85.3454   6.3458670187e+01   5.4829508071e+01    0.5881617    0.2823112  14.38  0.002304583    2.814    0.645
        80  -9.3866    152.7100    124.2920   4.1477419183e+01   2.6834203623e+01    0.1545973    0.1265353 -86.45 0.0001852045    1.547    0.353
        81  -9.2176    220.3460    121.3094   2.6968924899e+01   1.2884189050e+01    0.1414504    0.1101099   1.83 0.0007044706    1.704    0.413
        82 -11.0459    181.3821    117.6423   3.3352330503e+01   2.1833050955e+01    0.4275589    0.2754771 -43.05  0.001536165    1.494    0.331
        83  -9.5490     50.0235    116.9765   7.0323975359e+01   4.7151145488e+01    0.1714935    0.1514228 -52.30 0.0003219845    1.019    0.018
        84 -10.3347    203.6622    115.9718   2.8638338388e+01   1.7305184142e+01    0.4374081    0.2092681  65.34  0.001493234    3.458    0.711
        85  -8.9554    242.3102    112.3114   2.1613683815e+01   1.0238585544e+01    0.1281059    0.1020964  -6.23 0.0002616468    1.626    0.385
        86 -12.0834     11.2675     24.8071   6.0137045950e+01   7.0133796609e+01    0.3798872    0.2837266  -7.92  0.001044374    1.101    0.092
        87 -14.4596     45.5577     72.7078   6.0876059165e+01   5.7862445953e+01      1.75724     1.343497 -26.16   0.01011355    1.182    0.154
        88 -13.2093     32.3574     65.9309   6.4332086482e+01   6.0703816745e+01     1.071127    0.5964426 -51.97  0.005531186    1.651    0.394
        89  -9.8901    210.6839    111.8737   2.6444672577e+01   1.6582444511e+01    0.2382793      0.16104  59.39  0.001154772    1.656    0.396
        90 -11.1767    138.4704    112.4323   4.1972084632e+01   3.2561196907e+01    0.3747577    0.2022223  37.31  0.001426092    2.012    0.503
        91 -10.3996     95.2671    111.9353   5.4243209710e+01   4.1539612160e+01    0.3181501    0.1941453 -72.70  0.001158479    2.722    0.633
        92 -13.1145      4.4522     55.0259   7.3697933263e+01   6.5051170465e+01    0.9533015    0.5155259 -52.11  0.003572564    1.464    0.317
        93 -10.3345     38.4697    110.5042   7.2938844353e+01   4.9999899413e+01    0.1385918    0.1214029 -52.02 4.878375e-05    1.010    0.010
        94 -13.4399     79.9112     59.3201   4.3298334858e+01   5.5201353837e+01     1.314169    0.6310602  42.14   0.00567142    2.041    0.510
        95 -13.1268     80.3365     40.9815   3.6395795554e+01   5.8010019099e+01    0.9096149    0.3455821  40.66   0.00298565    2.445    0.591
        96 -10.9839    196.1946    108.1662   2.8135148036e+01   2.0385550038e+01     0.476621    0.3276612 -69.99  0.001696484    1.901    0.474
        97 -11.3621    191.5061    103.1840   2.7784748104e+01   2.2358027692e+01    0.5782918     0.206071 -49.83  0.001829169    3.287    0.696
        98 -13.1748     98.3905     77.9941   4.3403509235e+01   4.8235224175e+01     1.608372    0.9309508 -70.10  0.004670208    5.271    0.810
        99 -12.6777     96.4939     68.9494   4.1070155117e+01   5.0307538520e+01     1.143303    0.4488311 -49.36  0.003855262    3.373    0.704
       100 -10.8316    153.0129    108.2848   3.7247440925e+01   3.0156925760e+01    0.2452033    0.2350916 -50.28 0.0004026628    1.043    0.041
       101 -11.6242    155.9667    105.0338   3.5685233706e+01   3.0142446547e+01    0.4716783     0.309562  27.56  0.001939434    1.987    0.497
       102 -12.6875     81.7706     49.4702   3.9101012954e+01   5.6472609883e+01    0.9067918    0.5001453  24.81  0.003962742    2.172    0.540
       103 -11.3631    237.9112     86.6114   1.6708226521e+01   1.5345425698e+01    0.3684598    0.2563986  73.64  0.001287647    1.634    0.388
       104 -11.7490    231.5492     84.2928   1.7032642913e+01   1.6998891237e+01    0.3801675    0.2664681 -83.17  0.001290574    1.677    0.404
       105 -12.5492    215.4306     83.9796   1.9202729192e+01   2.0440223752e+01    0.5031236     0.312861  81.99  0.002327342    2.097    0.523
       106 -11.4194    222.7704     88.4142   1.9155838442e+01   1.8141272527e+01    0.4026603    0.1894503  64.57  0.001697232    2.526    0.604
       107 -11.0541    225.9844     85.3033   1.8006055734e+01   1.7982069070e+01    0.2650346    0.2255293  -3.64 0.0008647678    1.575    0.365
       108 -11.9195    175.7813     85.8364   2.6346908695e+01   2.9148085782e+01    0.6600969    0.3405977  41.52  0.002038707    2.284    0.562
       109 -11.6336    161.1277     84.0636   2.8834684525e+01   3.2943092842e+01    0.6927653    0.4975789  30.16  0.002894692    1.708    0.414
       110 -12.6707    168.7433     80.0485   2.6178669933e+01   3.1835440131e+01    0.6183558     0.457662 -39.85  0.001511608    1.364    0.267
       111 -12.3762    114.6295     80.6976   3.9364778334e+01   4.4321588190e+01    0.7547707    0.4767253 -27.21  0.003273645    1.824    0.452
       112  -9.4997    112.2918     76.3129   3.8670995529e+01   4.5653000250e+01      0.15132    0.1155176   7.03 0.0002697826    1.591    0.371
       113 -11.7568    147.6622     83.2868   3.1601733190e+01   3.6284249437e+01    0.6695577    0.4193869 -44.13   0.00215868    1.634    0.388
       114 -10.7004     30.7788     85.0482   7.0132904737e+01   5.6726037699e+01    0.2236534     0.211117 -38.10 0.0003412484    1.142    0.124
       115 -11.8091    248.5303     83.1011   1.4663388037e+01   1.3836309035e+01    0.4482747    0.3531353  75.79  0.002793843    1.399    0.285
       116 -11.7381    161.9041    106.6872   3.4763324369e+01   2.8442193854e+01    0.3149153    0.2310546 -46.43  0.001461222    1.357    0.263
       117 -11.1742     83.2125     84.0183   5.0281511419e+01   4.9894897710e+01    0.3082019    0.2072412  30.62 0.0005454359    1.514    0.340
       118 -11.7918    221.7411     79.7003   1.7328793118e+01   1.9783682119e+01    0.3079263     0.230669 -79.34  0.001687465    1.432    0.302
       119 -10.0605    233.9856     79.4734   1.5666893649e+01   1.7271053542e+01    0.1785396    0.1062925 -83.10  0.000807246    2.370    0.578
       120 -10.4695    161.8999     77.4159   2.6837136659e+01   3.3929325536e+01    0.2465371    0.1955647 -54.77 0.0007547805    1.310    0.237
       121 -11.9852     85.5011     73.4927   4.6175099741e+01   5.1585947894e+01    0.6011173    0.4949771  57.93  0.002121758    1.497    0.332
       122 -10.4256    155.9613     76.5490   2.7837679280e+01   3.5504014242e+01    0.3502598    0.2637274  73.18  0.001160479    1.467    0.318
       123 -12.3038     72.6064     74.2021   5.0937471721e+01   5.3703346032e+01    0.5974642    0.5316576  83.23  0.002933691    1.568    0.362
       124 -10.9170     68.4572     74.4955   5.2552172802e+01   5.4314334985e+01    0.2494681    0.1768611  31.97 0.0005550222    1.425    0.298
       125 -10.2669    103.9660     75.7436   4.0959101016e+01   4.7526125267e+01    0.2076204    0.1906065  22.75  0.000691287    1.038    0.036
       126 -12.2387    227.1939     73.0347   1.5116930859e+01   1.9683276482e+01    0.4832758    0.3300614   5.44  0.002113978    3.179    0.685
       127 -11.8344    233.2589     72.3271   1.4208463388e+01   1.8531888075e+01    0.3877644    0.2777274   9.64  0.001605426    2.729    0.634
       128  -9.4647    240.4832     73.4863   1.3596033518e+01   1.6891318485e+01    0.1326983     0.107517 -61.28 0.0008094896    1.063    0.060
       129 -11.0586    103.9166     66.3327   3.7914267384e+01   4.9238491346e+01    0.5058757    0.3118009  11.67  0.001648285    2.627    0.619
       130  -9.9027    139.1013     62.0144   2.7291236235e+01   4.1954970235e+01    0.9164473    0.5126916  43.40  0.003964695    1.800    0.444
       131  -9.1870    145.4800     54.3871   2.3599727710e+01   4.1579964386e+01    0.8807144    0.6617857   4.74  0.003651874    1.794    0.443
       132 -11.5067    135.0308     72.2923   3.1371746056e+01   4.1221224250e+01    0.7546014    0.5864787  85.33  0.002924368    1.641    0.391
       133 -11.9470    144.9876     67.3306   2.7562681845e+01   3.9690901411e+01     1.071221    0.7150458  15.30  0.003331332    2.355    0.575
       134 -11.3904    154.0775     62.2647   2.4149360228e+01   3.8306047935e+01    0.8819796    0.4875129 -47.98   0.00381005    1.970    0.492
       135 -11.5568    123.8571     69.1122   3.3217203153e+01   4.4359726669e+01    0.4757251     0.325419 -89.03  0.001441272    2.559    0.609
       136 -13.7076    116.7474     62.0137   3.2837138316e+01   4.7161085228e+01    0.9489539    0.7250737  28.72   0.00206737    1.360    0.265
       137 -10.7781    105.8785     71.0789   3.8882193237e+01   4.7983283829e+01    0.2619048    0.2445774 -64.57 0.0007779707    1.250    0.200
       138 -10.6490    161.4685     67.0200   2.4026884027e+01   3.5763479032e+01    0.3764556     0.242857 -50.10   0.00101768    1.643    0.391
       139 -11.7684    166.9695     64.5961   2.2303098231e+01   3.4816327489e+01    0.6009545    0.5024453  69.78  0.002699155    1.155    0.134
       140 -13.6672    210.3676     59.6133   1.4240713561e+01   2.5375389213e+01     1.165014    0.7534862 -70.66  0.003052853    1.679    0.404
       141 -11.1459    127.2453     58.2193   2.8910249867e+01   4.5352197234e+01    0.4876947    0.3860668  17.08  0.002508559    1.460    0.315
       142 -10.4974    167.0100     51.9590   1.8818533244e+01   3.6693490457e+01    0.3438781    0.2375547  26.77  0.001286836    2.033    0.508
       143  -9.8629    161.1163     48.8957   1.8996504992e+01   3.8557149919e+01    0.4242077    0.3142136 -17.31   0.00218739    1.682    0.405
       144 -11.0815    161.8240     57.6567   2.1332183433e+01   3.7125990599e+01    0.4642879    0.3221255  32.15   0.00127833    1.815    0.449
       145 -10.9345    158.7520     54.3215   2.0962667779e+01   3.8364208435e+01    0.5573097     0.236195  51.17  0.002201674    2.225    0.551
       146 -10.1294    108.9246     55.5648   3.2848017006e+01   4.9930192601e+01    0.4219871    0.3045847 -55.43  0.002075587    1.772    0.436
       147 -11.2897    100.3503     54.2359   3.4875285350e+01   5.1989031303e+01    0.5819567    0.4866742  38.07  0.001789703    1.110    0.099
       148 -10.6744    174.5381     55.4868   1.8499897610e+01   3.4362609418e+01    0.3505891    0.2081743 -55.90 0.0008035397    1.868    0.465
       149 -10.7310     15.5084    106.4710   8.0144493007e+01   5.2906472424e+01    0.2306604    0.1838052 -57.96 0.0005529732    1.035    0.034
       150 -11.8551     75.9693     52.0123   4.2062295512e+01   5.7144126766e+01    0.2961359    0.2167116 -28.57  0.000318032    1.359    0.264
       151 -10.1662    137.1136     52.7372   2.4890011343e+01   4.3835895255e+01     0.331679    0.2280679  69.59  0.000957465    1.562    0.360
       152 -11.5934     90.4996     51.1293   3.6822184286e+01   5.4506067711e+01    0.2357276    0.2004788  31.74 0.0002862144    1.083    0.076
       153  -9.9825    250.4400     50.2504   7.7940909464e+00   1.8289973939e+01    0.2555937    0.1547317 -40.47  0.001158909    1.509    0.337
       154 -10.9436    245.4199     50.0825   8.2337400920e+00   1.9301417068e+01    0.2485533    0.1750492 -78.47 0.0003441827    1.338    0.253
       155 -13.0496    242.3627     60.5654   1.0684627689e+01   1.8435486136e+01    0.7528366    0.6327869 -85.31  0.001881549    1.150    0.130
       156  -9.6732    167.6326     41.8630   1.5946664123e+01   3.7913755799e+01    0.1899097    0.1699144 -56.34 0.0005157383    1.155    0.134
       157 -10.0336    210.2181    105.5849   2.5057162731e+01   1.7822906666e+01    0.2592872    0.2296479 -84.62  0.001457228    1.205    0.170
       158 -12.0185    145.1009    103.4147   3.7854289791e+01   3.2966794475e+01    0.5970623    0.4363741  56.73  0.001897723    1.444    0.307
       159 -11.3704    181.5085     33.9971   1.1829973173e+01   3.5559560877e+01    0.2686765    0.2402456  66.12 -7.830356e-05    1.148    0.129
       160 -10.4827    169.9170     32.6678   1.3108018352e+01   3.8505515234e+01    0.3434826     0.206873 -88.63  0.001536394    1.933    0.483
       161 -10.0690    163.0578     29.4139   1.3242643203e+01   4.0547571504e+01    0.8370847     0.213242 -44.43  0.002629248    4.344    0.770
       162 -10.2356    131.3555     33.5430   2.0077714255e+01   4.7742597367e+01    0.4259161    0.2609681 -60.94  0.001949441    2.281    0.562
       163 -10.4561    134.5879     46.7507   2.3578091174e+01   4.5284981921e+01    0.3096999    0.1911226 -31.18 0.0009814167    1.773    0.436
       164 -10.7101    134.1852     40.5977   2.1727989189e+01   4.6196803194e+01    0.9727916    0.5115296  62.41  0.004342413    1.818    0.450
       165 -12.0437    144.2005     45.1207   2.1072917239e+01   4.3188957461e+01    0.4824212    0.3055539  31.82  0.001301682    1.975    0.494
       166 -12.6567    149.1247     40.7492   1.8819873603e+01   4.2565029823e+01    0.6781776    0.5089085  77.87  0.002122577    1.351    0.260
       167 -11.6843    161.2201     40.3722   1.6582501623e+01   3.9665931230e+01    0.5403008    0.4021363  62.89  0.002941558    1.220    0.180
       168 -11.5220    161.3787     35.7662   1.5267051712e+01   4.0203067414e+01    0.3762287    0.2415387  52.86   0.00146161    1.478    0.323
       169 -10.5814     99.1575     47.4613   3.2844387713e+01   5.3263361650e+01    0.2602145    0.2113932   5.75  0.001253174    1.287    0.223
       170  -9.7493    121.6406     45.0856   2.6011477343e+01   4.8570809559e+01    0.1842665    0.1749036  17.31 0.0004210616    1.089    0.081
       171 -11.4519    247.4139     42.3249   6.4994159955e+00   1.9950163379e+01    0.3991444     0.217506 -77.59   0.00177154    2.010    0.502
       172 -10.7272    105.3731     43.4530   2.9649936918e+01   5.2483348233e+01    0.2368207    0.2150393  53.06 0.0004581045    1.140    0.123
       173  -9.7279    100.1827     41.5112   3.0414008894e+01   5.3878846245e+01    0.2898552    0.2275956  -5.66  0.001606408    1.381    0.276
       174 -10.7191     94.1115     41.2100   3.2084528012e+01   5.5209828099e+01    0.2529846    0.2031426  15.02 0.0006902161    1.237    0.192
       175 -11.5096    140.9658     96.6429   3.7007659311e+01   3.5286585829e+01    0.4644293    0.3330823 -58.99  0.002079381    1.618    0.382
       176  -9.9628    168.4416     37.1963   1.4549947399e+01   3.8310815334e+01    0.2290381    0.1393435 -23.88  0.001055867    2.015    0.504
       177  -9.7495    113.4016     37.8748   2.5596819377e+01   5.1416270466e+01    0.1766628    0.1103605 -55.76 0.0005621543    2.272    0.560
       178 -10.7804    142.9759     79.4885   3.1601303165e+01   3.8081028120e+01    0.6622235    0.3621848 -15.45 -6.249188e-05    3.752    0.733
       179 -12.2056    122.5727     33.5359   2.1960100300e+01   4.9823375948e+01    0.3586429    0.2306167 -48.33 0.0005549064    1.873    0.466
       180 -10.9972    123.1998     28.1235   2.0024483074e+01   5.0296057676e+01    0.2584625    0.2188165 -77.24 0.0004042302    1.391    0.281
       181 -11.0170     96.4748     36.6191   2.9694626677e+01   5.5318766598e+01    0.2229175    0.1908914  55.26 0.0007941515    1.230    0.187
       182 -11.0075     92.2233     33.7229   2.9856862507e+01   5.6584252904e+01    0.3822492    0.2649833  41.14  0.001288727    1.269    0.212
       183 -10.5372     75.1875     33.6580   3.5290806373e+01   5.9991478293e+01    0.2787774    0.1981746  29.89 0.0008115902    1.253    0.202
       184  -9.1714    152.4256     33.5334   1.6116640849e+01   4.2651517735e+01    0.1356565    0.1217154  71.50 0.0002630951    1.009    0.009
       185  -9.2818    111.7893     32.6109   2.4169378641e+01   5.2427928779e+01    0.4318655    0.1944817  51.99  0.001889028    1.903    0.475
       186  -8.1278    105.6958     31.0081   2.5132774397e+01   5.3991043251e+01    0.3305608    0.1713362  69.95  0.000860364    2.777    0.640
       187 -10.3582    237.8507     30.8264   5.0414056689e+00   2.3351295004e+01     0.257914    0.1644018  89.32  0.001549001    1.473    0.321
       188  -9.7080    241.9824     29.8615   4.5012498177e+00   2.2629662347e+01    0.2815893    0.1727991 -58.58  0.001703624    1.368    0.269
       189  -9.1916     80.6455     30.2652   3.2108772472e+01   5.9369886120e+01     0.184005    0.1549695  13.58  0.000958109    1.083    0.077
       190 -11.4812     86.1903     28.6569   2.9727037058e+01   5.8449323923e+01    0.4186093    0.2200881  42.63  0.001081028    1.656    0.396
       191  -9.6341     90.4742     26.6560   2.7673373480e+01   5.7792802079e+01    0.1312294    0.1100763  40.25 0.0002084883    1.069    0.065
       192 -10.3814    126.8622     25.3892   1.8363220248e+01   4.9727991164e+01    0.4306889    0.2824804 -76.53  0.001525338    2.195    0.544
       193  -9.5252    114.4118     28.2461   2.2025918576e+01   5.2328469802e+01    0.1464012   0.08547708  37.66 0.0003973512    1.714    0.417
       194  -9.7462    168.8173     26.7948   1.1693279764e+01   3.9451921497e+01    0.1862353     0.140611 -71.04 0.0007163605    1.353    0.261
       195  -9.3167    104.4476     27.4382   2.4164858855e+01   5.4676907946e+01    0.1341979    0.1161885  41.57  0.000108814    1.009    0.009
       196 -11.4795    131.9558    101.6940   4.0748428366e+01   3.6292438083e+01     0.424648    0.2861985 -47.23 0.0001660832    1.516    0.340
       197 -10.4322    147.4245     24.9356   1.4444273932e+01   4.4838157805e+01    0.4590452    0.1988287  43.64  0.001880975    2.584    0.613
       198 -10.8830     20.9690     25.0435   5.5058347466e+01   6.9204073489e+01    0.3861534    0.2209788  32.28  0.002272234    1.945    0.486
       199 -11.1631     20.0046     19.7959   5.3251092583e+01   7.0088514474e+01    0.2651354     0.181549 -37.50 0.0004000324    1.514    0.339
       200 -11.1616    234.2604     24.0923   3.9897005874e+00   2.4909827458e+01    0.4143631    0.2806248  51.52  0.002506067    1.928    0.481
       201 -13.9627    131.0194     95.1023   3.9131951988e+01   3.7857814286e+01     1.762518     0.966621  30.67  0.006513971    2.400    0.583
       202 -11.3631    247.1118     22.6320   2.6947087501e+00   2.2479537228e+01    0.2024642    0.1770737 -88.39  0.001029218    1.252    0.201
       203 -11.8016    242.5162     22.6970   3.0554248339e+00   2.3388926774e+01    0.4219625    0.2109612  79.18   0.00210619    1.922    0.480
       204  -9.9008    134.7945     24.8060   1.6634167591e+01   4.7898357922e+01    0.3427388    0.1849294  75.25   0.00154238    2.063    0.515
       205 -10.8102    113.5224     23.7245   2.0662251389e+01   5.3020976406e+01    0.3421909    0.2324009  41.17  0.001294311    1.349    0.259
       206 -10.0844    102.7545     23.0172   2.2982675348e+01   5.5531285384e+01    0.3160554    0.1557072 -24.71  0.001481766    2.295    0.564
       207 -10.5808     98.9948     21.9222   2.3536917286e+01   5.6475352287e+01    0.3101406     0.214733  53.75 0.0007542719    1.284    0.221
       208  -9.4403     87.3065     23.7051   2.7451283700e+01   5.8782757708e+01    0.1175696     0.103418 -85.27 0.0002188985    1.584    0.369
       209  -9.6892    119.5136     21.9913   1.8755522666e+01   5.1810867013e+01    0.1733956    0.1322445 -26.56 0.0004897168    1.493    0.330
       210  -9.6315    123.9059     20.8727   1.7477396030e+01   5.0893348671e+01    0.1666933    0.1458863 -79.59  0.001015151    1.296    0.229
       211  -9.8596    121.6555     17.1532   1.6693596818e+01   5.1784807887e+01    0.2119263    0.1484134 -41.48 0.0007681683    1.663    0.399
       212 -10.8585    130.0084     19.2749   1.5776902656e+01   4.9606546403e+01    0.2828546    0.1874621  63.18 0.0005460968    1.308    0.235
       213  -9.9576     14.8314     19.1966   5.5775886721e+01   7.0689698041e+01    0.2545769    0.1490988 -50.11  0.001469618    2.241    0.554
       214 -10.2729    138.5378     18.1469   1.3902499141e+01   4.7677624812e+01    0.3323099    0.1858275  44.95 0.0009922402    1.759    0.431
       215 -11.7098    121.3036     86.6286   3.9285205446e+01   4.1712840689e+01    0.4345916     0.344492  64.74  0.001484611    1.456    0.313
       216  -9.2103    159.9759     14.0216   9.4570350768e+00   4.2916239285e+01    0.1454165    0.1273831  80.55 0.0003216927    1.038    0.037
       217 -13.4110    125.5042     84.3457   3.7454544711e+01   4.1218585405e+01     1.914203    0.8076882 -29.57  0.003098524    3.471    0.712
       218 -11.0653    132.9711     77.5057   3.3455257954e+01   4.0782179627e+01     0.399079    0.2687983 -44.82 0.0003405862    1.555    0.357
       219 -11.9382    134.4689     83.5682   3.4882068149e+01   3.9320576938e+01    0.6525043    0.4753149  71.77  0.001831647    1.714    0.416
       220 -10.3911    187.2677     13.0025   5.9404901111e+00   3.6544802165e+01    0.2189452    0.1397656 -75.30 0.0005201433    1.534    0.348
       221  -9.2761    166.7033     13.7004   8.4929907416e+00   4.1334753323e+01     0.125918   0.08839516  45.16 0.0006281091    1.574    0.365
       222 -11.6229    136.1940     80.6229   3.3578868911e+01   3.9466298746e+01    0.4583634    0.3175079  69.39  0.001173496    1.777    0.437
       223 -11.9217    128.0974     89.8528   3.8389490818e+01   3.9564159424e+01    0.6206292    0.3029277  41.90  0.002360626    2.074    0.518
       224 -11.6907     75.3889    103.3735   5.8474285059e+01   4.6935340195e+01    0.3570001    0.2397529 -76.58 0.0009445633    2.237    0.553
       225 -11.8391    226.0415     98.9846   2.1058509311e+01   1.5682605286e+01    0.5347867    0.3417947 -48.07   0.00272359    1.412    0.292
       226  -9.1010    212.3013     11.6452   3.2530865111e+00   3.1010907719e+01    0.1317222   0.07282555 -65.25 0.0006374522    1.706    0.414
       227 -12.7029     87.5532     98.5872   5.3097625698e+01   4.5982262366e+01    0.7022957    0.4542941  18.14  0.002741349    1.915    0.478
       228 -10.7346      4.5352    101.9920   8.3212760690e+01   5.4636781652e+01    0.1989032    0.1027098 -67.35 0.0005339078    1.574    0.365
       229 -12.5691    155.4050     97.0043   3.3647880694e+01   3.1867270417e+01    0.9732677    0.6237642  58.87  0.004207785    1.677    0.404
       230 -11.1780     33.8580    100.1478   7.2418485446e+01   5.2941806778e+01    0.2581264      0.17301 -62.98 0.0008756764    1.386    0.279
       231 -10.8709    170.3036     97.4072   3.0494889654e+01   2.8308094671e+01    0.4412555    0.2927053 -54.49  0.001962566    1.626    0.385
       232 -11.9106     73.3141     97.7394   5.7674052286e+01   4.8557245855e+01      0.32785    0.2592061  37.55  0.001699578    1.342    0.255
       233 -12.0111     11.6014     97.4488   7.9966057023e+01   5.5305230804e+01    0.3067451    0.2609984 -28.12  0.001388046    1.206    0.171
       234 -12.0303    107.8117     92.4005   4.4908227401e+01   4.3426981755e+01    0.4973362    0.2354046  38.41  0.001836916    2.172    0.540
       235 -11.6115     95.9197     90.6232   4.8073432407e+01   4.6165807155e+01    0.5688394    0.4310521  47.87  0.001624545    1.412    0.292
       236 -11.9068    106.8148     96.4271   4.6386301868e+01   4.2781294490e+01    0.2987787    0.2787992 -20.95 0.0006980171    1.054    0.051
       237 -11.8487    102.3101     96.3807   4.7751472619e+01   4.3693509040e+01    0.3394894    0.3136995 -66.15 0.0005919369    1.213    0.175
       238 -10.3456    165.1272    102.1496   3.2851535198e+01   2.8597705909e+01    0.2370094    0.2147364   6.72 0.0008527308    1.245    0.197
       239 -12.4455     56.0819     94.2079   6.2864041319e+01   5.1841634898e+01    0.3747875    0.3267843  61.07   0.00156101    1.433    0.302
       240 -12.8810     62.2803     90.5400   5.9611781233e+01   5.1827780731e+01    0.7173317    0.3361861 -57.89  0.002612393    2.375    0.579
       241 -12.8300     58.3216     88.1783   6.0410736209e+01   5.2902975091e+01    0.7391648    0.3164167 -33.14  0.002604231    3.099    0.677
       242 -10.7071     70.9622     87.7581   5.5685566311e+01   5.1145339498e+01    0.3045886    0.2657017   2.03 0.0006235625    1.134    0.118
       243 -12.7200     66.9663     82.8279   5.5675090427e+01   5.2821485874e+01    0.5925287    0.5130737  82.72  0.003222795    1.608    0.378
       244 -10.5585    206.2810     94.8007   2.3164427862e+01   2.0591594926e+01    0.2611828    0.1631485 -43.48 0.0007326645    1.484    0.326
       245 -12.3383     47.8895     94.6211   6.5981671864e+01   5.2760290531e+01    0.5606586    0.2417026  41.72  0.002231991    2.830    0.647
       246 -10.2041    249.5257     93.5167   1.6702111802e+01   1.1999889620e+01    0.2407648    0.1545991 -64.46  0.001277733    1.704    0.413
       247 -12.0364    116.8112     92.7780   4.2374753097e+01   4.1457399287e+01    0.3713846     0.313986  -6.58 0.0007025938    1.316    0.240
       248 -10.7282    200.0520     96.2194   2.4550461941e+01   2.1716797245e+01     0.483962     0.241604 -59.21  0.001769326    2.805    0.643
       249  -9.9866    173.1123     90.8514   2.8193085810e+01   2.8872639742e+01    0.2328001    0.2003764 -78.93 0.0005268627    1.250    0.200
       250 -12.3861    249.5491     72.0863   1.2282270312e+01   1.5327073254e+01     2.199197     0.322766 -38.73  0.006449003    5.195    0.808
       251 -14.3495    193.5411     82.6417   2.2321382824e+01   2.5558286629e+01      2.79122      2.07568 -26.16   0.01408671    1.539    0.350
       252 -12.7602    176.9988     71.3609   2.2298155984e+01   3.1322463927e+01     1.268723    0.4678309 -52.12  0.003823474    3.755    0.734
       253 -13.6097    185.5095     57.8998   1.7367738366e+01   3.1379850416e+01     2.003164    0.9343411  67.75  0.008257318    2.259    0.557
