#   1 NUMBER                 Running object number                                     
#   2 MAG_AUTO               Kron-like elliptical aperture magnitude                    [mag]
#   3 X_IMAGE                Object position along x                                    [pixel]
#   4 Y_IMAGE                Object position along y                                    [pixel]
#   5 X_WORLD                Barycenter position along world x axis                     [deg]
#   6 Y_WORLD                Barycenter position along world y axis                     [deg]
#   7 A_WORLD                Profile RMS along major axis (world units)                 [deg]
#   8 B_WORLD                Profile RMS along minor axis (world units)                 [deg]
#   9 THETA_WORLD            Position angle (CCW/world-x)                               [deg]
#  10 FWHM_WORLD             FWHM assuming a gaussian core                              [deg]
#  11 ELONGATION             A_IMAGE/B_IMAGE                                           
#  12 ELLIPTICITY            1 - B_IMAGE/A_IMAGE                                       
         1  -8.7004     96.5804     13.6332   2.4233429409e+01   5.8850570772e+01    0.4069811    0.1741026 -40.55  0.001609425    2.673    0.626
         2  -8.3753     55.8396     10.0053   3.6787030633e+01   6.8468478655e+01    0.1863649     0.179762 -65.07 0.0006234879    1.361    0.265
         3  -8.3569     90.6907      8.5646   2.3501401368e+01   6.0839805850e+01    0.2274287    0.1599793 -49.37 0.0009914642    1.728    0.421
         4  -8.0821     12.8419      8.6109   6.2917318776e+01   7.5111336303e+01    0.1602436    0.1047929  28.88 0.0005329147    1.635    0.388
         5  -7.7680    101.3504      7.7260   2.0408715705e+01   5.8271209836e+01    0.1391507    0.1044815 -76.36 0.0003090208    1.634    0.388
         6  -8.0636     70.4448      5.9906   2.8579291470e+01   6.5866216444e+01    0.1890965    0.1310288 -23.38 0.0008019606    1.545    0.353
         7  -8.5096     33.2769      4.9138   4.5986709059e+01   7.3178489561e+01    0.2853336    0.1963987 -54.69  0.001513863    2.255    0.557
         8  -8.6578     79.1727      3.7753   2.4498764803e+01   6.4089499896e+01    0.2886624    0.1695897 -40.32  0.001071783    2.003    0.501
         9  -7.5759     44.3504      2.6902   3.8115155653e+01   7.1603256759e+01    0.1176639    0.1055382 -88.09 0.0007044516    1.715    0.417
        10  -8.2597     62.8318      1.4596   2.8907127058e+01   6.8028787124e+01     0.192957    0.1208275  55.15  0.000994165    1.512    0.339
        11  -9.4866    146.8906    246.0885   6.7768952614e+01   6.6954121640e+00    0.2435356    0.1747252  54.94  0.001546347    1.875    0.467
        12  -9.9868    248.6927    241.9907   4.8991612682e+01  -5.2498663311e+00    0.3246941    0.1619582 -34.36  0.001895278    2.347    0.574
        13  -9.0710    248.1890    234.5018   4.7971033721e+01  -4.4521759083e+00    0.2214867    0.1478888 -29.24  0.001332075    1.752    0.429
        14  -9.4860    246.8178    228.2306   4.7243444070e+01  -3.6584870541e+00    0.3506048    0.1507781 -25.78  0.001966905    2.175    0.540
        15  -9.2097    232.6690    246.9709   5.2265075007e+01  -4.0103174487e+00    0.3055607    0.1469054 -36.18   0.00181203    2.532    0.605
        16  -9.2104    211.1078    246.8991   5.5888117787e+01  -1.5341341130e+00    0.2668034     0.185878 -48.80  0.001616807    2.735    0.634
        17  -8.9650    132.6277    248.0578   7.0832875607e+01   8.2914886161e+00    0.3259521    0.1923737  57.95  0.001226684    2.572    0.611
        18  -7.6548    125.2857    250.6543   7.2578237960e+01   8.8739928149e+00    0.1123267   0.07460495  51.25 0.0007019748    1.648    0.393
        19  -7.6575     86.4809    250.4772   8.0411405539e+01   1.3781095439e+01    0.1172209   0.08509548  40.44  0.000161452    1.045    0.043
        20  -9.4437    120.1875    245.3378   7.3061833104e+01   1.0313673197e+01    0.3063277    0.1970357  61.91  0.001804912    2.174    0.540
        21  -8.4937     67.5296    244.9584   8.3871930020e+01   1.6916403679e+01    0.1425601    0.1104679 -80.59   0.00102729    1.580    0.367
        22  -8.4984     50.5146    244.5359   8.7318334679e+01   1.8889714306e+01    0.2208199   0.08036739  80.27 0.0008104718    5.850    0.829
        23  -8.7540      9.7373    243.8890   9.5345244705e+01   2.2994302662e+01    0.2926908   0.06307349  69.97 0.0009621363    7.143    0.860
        24  -8.4455    201.8511    243.0799   5.6990446032e+01   1.0901905809e-02    0.1751037    0.1470561 -32.03 0.0007372444    1.699    0.411
        25  -8.8585    169.1700    243.2923   6.3078447369e+01   4.1414425287e+00    0.1995429    0.1652498  35.37  0.000676618    1.377    0.274
        26  -8.1210    139.6922    244.3678   6.9005044857e+01   7.8864274632e+00    0.1147081   0.07869171  51.97  0.000703627    1.755    0.430
        27  -9.4021     77.8734    242.9431   8.1588441641e+01   1.6030914432e+01    0.2806671    0.1268194  61.60  0.001337891    2.989    0.665
        28  -9.4310    194.1682    240.2156   5.7982190634e+01   1.3052279308e+00    0.3035586    0.1788624 -38.23  0.001490547    2.087    0.521
        29  -7.9506     34.3162    243.6258   9.0530279425e+01   2.0731074468e+01     0.122242   0.05540418  54.79 0.0002488361    1.797    0.443
        30  -9.1130    183.3266    240.1088   5.9973471263e+01   2.7048356036e+00    0.3660934     0.224383  52.48  0.001947471    2.986    0.665
        31  -9.2004    160.1128    239.9938   6.4417462777e+01   5.7748302408e+00    0.2732873    0.2196194  76.64  0.001744367    2.343    0.573
        32  -8.0658    153.5071    241.9901   6.5968957360e+01   6.3828523233e+00    0.1346675    0.1041663  81.43 0.0008102416    2.555    0.609
        33  -8.7599    146.9688    240.2189   6.7056721442e+01   7.5038258768e+00    0.3184313    0.2031881  67.79  0.001531153    3.721    0.731
        34  -7.9991     88.1360    242.1045   7.9384135996e+01   1.4915662476e+01    0.1569398    0.1119489  54.66 0.0007247464    1.350    0.259
        35  -8.3880    240.5049    240.0296   5.0002283350e+01  -4.1711658883e+00    0.1854246   0.08512262 -24.18  0.001141398    2.089    0.521
        36  -8.3528    242.4920    236.0221   4.9097128072e+01  -3.9820385235e+00    0.2283415   0.09958163  13.05 0.0008599653    2.589    0.614
        37  -8.7757    135.8775    238.9568   6.9154605389e+01   9.1780294003e+00    0.1886956    0.1217427  51.01   0.00112182    1.788    0.441
        38  -9.4741    230.8186    236.7751   5.1104891436e+01  -2.7435896793e+00    0.2196799    0.2026879 -45.74  0.001262773    2.263    0.558
        39  -8.2319    209.1608    238.2335   5.5014901334e+01  -3.2961752398e-01    0.1365424    0.1163619  13.71 0.0005065808    1.386    0.279
        40  -7.7351    129.2934    238.6400   7.0470338405e+01   1.0110945179e+01    0.1168213   0.07993993  53.31 0.0007030292    1.699    0.412
        41  -8.8347    216.6962    235.3736   5.3288580794e+01  -9.2252133704e-01    0.1916364    0.1586868  10.83  0.001041556    1.323    0.244
        42  -9.3488    213.6439    231.6311   5.3271179955e+01  -1.2109959055e-01    0.2402748    0.2216666  53.75  0.001335117    2.074    0.518
        43  -9.8180    175.6325    233.0709   6.0478578445e+01   4.6245084205e+00     0.386315    0.2342682 -53.74  0.002188371    2.751    0.637
        44  -8.9202    202.9807    234.1711   5.5532859840e+01   9.1434597046e-01     0.217422    0.1558093 -43.27  0.001039524    2.068    0.516
        45  -7.8968    184.3266    235.3297   5.9132330903e+01   3.1768268142e+00    0.1218473   0.07384624   5.73 0.0007050835    1.706    0.414
        46  -8.3835    170.3795    235.3304   6.1802373427e+01   5.0287414845e+00    0.1280379    0.1138477 -39.62 0.0004680873    1.570    0.363
        47  -9.0974    109.2551    234.4674   7.4214643067e+01   1.3442671394e+01    0.4389329    0.1743789  47.67  0.001653959    2.559    0.609
        48  -8.3003    122.9701    233.9635   7.1261131718e+01   1.1681795238e+01    0.1885782    0.1232043  52.83   0.00091304    1.711    0.416
        49  -8.1080     99.7065    234.1625   7.6217795633e+01   1.4748151168e+01    0.1830178    0.1295083  60.13  0.001152979    1.565    0.361
        50  -8.8231     78.0600    233.7556   8.0816089446e+01   1.7555848340e+01    0.1995361    0.1362671  72.18  0.001257132    1.698    0.411
        51  -9.2815     68.5110    232.2397   8.2743902603e+01   1.8969923092e+01    0.3940374    0.1553646  58.56  0.001718952    3.211    0.689
        52  -8.7353    194.4798    232.6648   5.6864757204e+01   2.1861732437e+00     0.202667    0.1500338  41.27 0.0008419189    1.692    0.409
        53  -8.6018    144.6032    232.7999   6.6626531271e+01   8.8974346278e+00    0.3096996    0.1398946  49.66  0.001362268    3.074    0.675
        54  -8.2014    139.9873    229.9838   6.7228806284e+01   9.9571919852e+00    0.1869658    0.1251774  49.53  0.000639118    1.673    0.402
        55  -8.8380    132.6336    232.4869   6.9065507156e+01   1.0591415589e+01    0.1986952    0.1391517  69.54  0.001125439    2.341    0.573
        56  -9.6864    186.1681    230.2603   5.8072994461e+01   3.5830686890e+00    0.2811937    0.2369455 -72.97  0.001546398    2.424    0.588
        57  -8.4354    157.9741    232.0002   6.3811009776e+01   7.1727452811e+00    0.1750518      0.13106  49.65 0.0006974306    1.665    0.399
        58  -8.4348     92.4486    231.6121   7.7531937268e+01   1.6115010856e+01    0.2442655    0.1323811  59.57 0.0009690241    2.246    0.555
        59  -9.0660    236.0013    229.8540   4.9224427025e+01  -2.6011284548e+00    0.3220562    0.1293625 -29.24  0.001564684    2.442    0.591
        60  -8.6355      2.0931    230.7536   9.6467901217e+01   2.5939844491e+01    0.2690597   0.06201163  51.08  0.001301621    2.711    0.631
        61  -9.4764    148.4614    224.2971   6.4735546842e+01   9.6300519861e+00    0.3383971    0.2256979  56.64  0.001880275    2.149    0.535
        62  -8.0175    229.5355    228.5165   5.0089858065e+01  -1.6972477288e+00     0.111181   0.08127136   7.70 5.474325e-05    1.051    0.048
        63  -8.9344    162.4247    227.6424   6.2334658809e+01   7.1765408958e+00    0.2908948     0.166013  48.97  0.001529393    2.263    0.558
        64  -9.1976    127.9282    227.2607   6.9434129166e+01   1.2058577486e+01    0.3060257    0.1845407  54.36  0.001416518    2.056    0.514
        65  -9.1314    151.4739    228.9743   6.4731008519e+01   8.5089535655e+00    0.2556489    0.1904431  63.79  0.001082138    2.138    0.532
        66  -7.8750    119.9863    227.4975   7.1160711533e+01   1.3120794717e+01     0.179567   0.07807712  47.87 0.0008092444    2.442    0.590
        67  -7.9204     49.7585    226.9828   8.6413935086e+01   2.2053703491e+01    0.2353047   0.06159139  52.14  0.000893886    3.747    0.733
        68  -8.5723    206.0018    225.6137   5.3732154293e+01   1.5620647233e+00    0.1875419    0.1562218 -36.47  0.001149658    1.715    0.417
        69  -8.2669    200.0151    226.0217   5.4879391714e+01   2.2909014663e+00    0.1544867    0.1340513  38.95 0.0005840302    1.643    0.391
        70  -8.9268    180.7548    224.1725   5.8232343731e+01   5.1205461863e+00    0.2658644    0.1825678  49.19 0.0007534676    2.015    0.504
        71  -8.8461     94.1709    223.9371   7.6410982930e+01   1.7214430497e+01    0.3565064    0.1641655  55.43  0.001621209    2.685    0.628
        72  -8.6599    216.4298    223.1162   5.1505220219e+01   5.2957646471e-01    0.1976927    0.1807514 -40.51 0.0009332534    1.873    0.466
        73  -8.7641    104.7876    223.4805   7.4019535205e+01   1.5873323916e+01    0.2975701     0.195007  72.03  0.001635966    2.196    0.545
        74  -7.6891     38.0000    223.9941   8.8770602582e+01   2.3854817164e+01     0.158013   0.06248098 -77.00 0.0004496097    2.835    0.647
        75  -9.4437    192.4301    221.1811   5.5563005194e+01   3.9228489620e+00    0.2634035     0.244459  68.06  0.001065207    1.889    0.471
        76  -8.4093    173.0770    223.0408   5.9569211035e+01   6.3405679142e+00    0.1695271    0.1390581  51.14 0.0005733756    1.691    0.409
        77  -9.1807    160.8289    221.3286   6.1783747696e+01   8.3151582624e+00    0.5759096    0.2263847  48.52  0.002103916    4.294    0.767
        78  -8.3930    140.5494    222.7430   6.6189581162e+01   1.0993781226e+01    0.1376764    0.1238236 -82.29 0.0009278374    1.590    0.371
        79  -7.7043    113.5328    223.5398   7.2106534617e+01   1.4665853729e+01    0.1264417   0.09943001  35.87 0.0001290456    1.040    0.039
        80  -9.3483    239.1954    220.9633   4.7342025283e+01  -2.0068894613e+00    0.2787641    0.1935736 -29.81  0.001464579    1.652    0.395
        81  -9.1087    225.4062    221.4925   4.9710121381e+01  -4.0239873729e-01    0.2115757     0.158118  25.65   0.00132738    1.358    0.264
        82  -9.1931    120.3619    219.0989   7.0086466327e+01   1.4459039085e+01      0.45732    0.2125025  53.64  0.001933282    3.064    0.674
        83  -8.5092     82.7893    220.4654   7.8609654487e+01   1.9313755472e+01    0.2256158    0.1453569  71.64  0.001280024    1.909    0.476
        84  -8.1526     73.7176    221.1454   8.0703330758e+01   2.0330677950e+01    0.2154968   0.09265976  57.42 0.0009519969    2.778    0.640
        85  -7.8227     27.4496    220.7807   9.0872863396e+01   2.5509427334e+01    0.1392781   0.09948714 -67.54 0.0009421097    1.661    0.398
        86  -8.3468    202.5335    219.9955   5.3509614330e+01   2.7168104116e+00    0.1555758    0.1055099 -25.67 0.0004598862    1.521    0.343
        87  -8.4276    210.0595    219.0168   5.1998830229e+01   1.8461040775e+00    0.1741064    0.1369828   7.37 0.0005324162    1.092    0.084
        88  -9.4487    248.2385    217.1936   4.5309951225e+01  -2.6494035416e+00    0.2909403    0.2562815  88.21  0.001779318    3.858    0.741
        89  -8.9200    169.3298    215.7993   5.9262155068e+01   7.9079733414e+00    0.2708398    0.2123243 -68.02  0.001114418    2.258    0.557
        90  -8.5075    142.9462    216.4118   6.4836827484e+01   1.1649420457e+01    0.2032065    0.1789842  82.10 0.0008960686    1.638    0.390
        91  -7.9787    111.8325    217.0053   7.1726533192e+01   1.6020727856e+01    0.1952358    0.1314989  65.29 0.0009619382    1.973    0.493
        92  -8.5697     62.1235    217.0151   8.2968587102e+01   2.2500383713e+01    0.2570384    0.1071711  50.23  0.001234679    2.143    0.533
        93  -8.6371     51.5798    217.0876   8.5349100474e+01   2.3697429572e+01    0.2297856    0.1250499  69.88 0.0009987173    2.019    0.505
        94  -9.0549    232.3799    214.3816   4.7421366524e+01  -4.4166948150e-01    0.2678365    0.1840014 -31.84  0.001196404    1.664    0.399
        95  -9.3625    132.9061    215.8411   6.6927403606e+01   1.3203088001e+01    0.4296441    0.2685018  66.80   0.00193197    3.001    0.667
        96  -8.4908    185.8146    214.3105   5.5779868752e+01   5.7649678477e+00    0.1766738    0.1657473 -14.91 0.0009785498    1.418    0.295
        97  -8.0525    154.4671    214.9871   6.2200045567e+01   1.0190509772e+01    0.1576853    0.1262671 -45.32 0.0007731826    1.571    0.363
        98  -9.2742    214.1138    211.9077   5.0157939776e+01   2.1971861884e+00    0.3300606    0.2890863  56.26   0.00181489    2.069    0.517
        99  -8.8834     92.9166    213.5796   7.5623342504e+01   1.9241760540e+01    0.3542725    0.1577663  51.48  0.001593871    2.413    0.586
       100  -9.3346     72.9794    211.6505   8.0025999077e+01   2.2200762548e+01    0.6907716    0.1979575  50.58  0.002389666    4.100    0.756
       101  -8.7145    161.8556    212.3501   6.0279050701e+01   9.5113182561e+00    0.1939532    0.1823329  87.08  0.001070627    1.585    0.369
       102  -8.0295    106.7863    212.7943   7.2368911152e+01   1.7473569903e+01     0.180074     0.127445  50.44  0.001055089    1.375    0.273
       103  -7.9221    225.1027    212.1469   4.8287355269e+01   7.3650606866e-01    0.1419839    0.1212346  -4.76 0.0005199706    1.332    0.249
       104  -9.0511    204.2663    210.7316   5.1743332167e+01   3.6757769924e+00    0.2182739    0.1826917 -39.60 0.0007825606    1.679    0.405
       105  -8.3127    192.4075    210.1673   5.3868470329e+01   5.4035283811e+00     0.219673    0.1138747 -47.15 0.0009163005    2.730    0.634
       106  -9.4208    175.3562    209.7069   5.7129034445e+01   7.9246726916e+00    0.3496945    0.2561142  61.56  0.001719119    2.422    0.587
       107  -9.0102    147.9109    210.1242   6.2892911182e+01   1.1927071706e+01    0.2890723     0.218452 -81.39  0.001287044    2.363    0.577
       108  -8.8572    116.1769    210.1229   6.9910954637e+01   1.6610723976e+01    0.2942824    0.1963205  65.58  0.001225699    2.083    0.520
       109  -8.4876     85.7841    209.6048   7.6852188568e+01   2.0938255147e+01    0.2423119    0.1431938  67.28  0.001224316    2.181    0.542
       110  -8.0496     47.2916    210.1495   8.5834702872e+01   2.5513545384e+01    0.2974478   0.06062888  45.06    0.0011006    3.473    0.712
       111  -8.0232     32.4772    209.9799   8.9197961455e+01   2.7096497541e+01    0.1702947   0.07298631  67.16 0.0008096879    2.501    0.600
       112  -9.1521    236.4985    207.9962   4.5712342204e+01  -2.1060622848e-01    0.2304703    0.2032777 -50.45  0.001202536    2.172    0.540
       113  -9.3111    246.3996    206.9202   4.3948192839e+01  -1.2986812235e+00    0.2449415    0.1626168 -25.81 0.0006352773    1.461    0.316
       114  -8.5010    139.0343    207.7999   6.4489219305e+01   1.3637091122e+01    0.1954755    0.1695102  81.89 0.0006939835    1.626    0.385
       115  -8.0094    126.3845    208.2074   6.7357154720e+01   1.5453185441e+01    0.1542098    0.1262111 -77.73 0.0004677979    1.682    0.405
       116  -8.1377     96.9743    209.0000   7.4185060053e+01   1.9535442588e+01    0.2142429   0.06170642  32.58 0.0007917213    2.869    0.651
       117  -8.5372      5.6344    207.8660   9.5052921266e+01   2.9939854993e+01    0.1601581   0.08173863  74.80 0.0009405628    1.773    0.436
       118  -9.2871     99.4690    205.8634   7.3242173588e+01   1.9774138755e+01    0.3765245    0.2276523  68.80  0.001479013    2.408    0.585
       119  -7.7894     12.3043    206.6469   9.3546907131e+01   2.9623538677e+01    0.1266419   0.06035604  56.64 0.0007040712    1.709    0.415
       120  -9.4033    194.9050    203.3688   5.2299123315e+01   5.9865299539e+00    0.3368965    0.2879324 -15.73  0.001365016    1.267    0.211
       121  -9.3408    192.4184    197.1463   5.1742990250e+01   7.2317832135e+00    0.3054489    0.2838058 -77.84 0.0008653023    1.801    0.445
       122  -8.6913    131.3249    203.8110   6.5641998531e+01   1.5480330371e+01    0.2765782    0.1991788  68.94  0.001086633    2.079    0.519
       123  -8.2446    109.0702    205.0072   7.0899440404e+01   1.8564177143e+01    0.2014001    0.1397042  59.45 0.0008706141    1.664    0.399
       124  -8.5773     56.2216    204.9522   8.3362852846e+01   2.5535976504e+01    0.2486288    0.1410112  60.61 0.0009096476    1.752    0.429
       125  -9.0217    183.7003    203.6668   5.4516190462e+01   7.5800707597e+00    0.2507049    0.1946429  41.55  0.001091092    1.482    0.325
       126  -9.5799    163.7147    202.8334   5.8445018648e+01   1.0706265065e+01    0.4464282    0.2322964  46.97   0.00122642    2.232    0.552
       127  -9.2841    250.2129    201.5854   4.2474240988e+01  -1.1545088040e+00    0.3373722    0.1326216 -30.65  0.001752072    2.313    0.568
       128  -9.0525    243.2922    200.6292   4.3399868821e+01  -1.9689822804e-01    0.2816145    0.1267342 -31.21   0.00104166    2.071    0.517
       129  -8.6278    210.9107    201.6707   4.9057615399e+01   3.9472311094e+00      0.19931    0.1567528 -46.53 0.0007492448    1.911    0.477
       130  -8.7322    140.5733    200.9509   6.3157482514e+01   1.4564917859e+01    0.3139749    0.2238483  63.79   0.00132142    2.065    0.516
       131  -8.1222    222.1830    201.2323   4.6998248304e+01   2.4625078151e+00    0.1451022    0.1286869 -10.81 0.0005846581    1.389    0.280
       132  -8.5358     79.8559    200.8031   7.7333932677e+01   2.3429703885e+01    0.2421414    0.1442612  67.91  0.001212825    2.088    0.521
       133  -9.5000    149.6342    198.5688   6.0796298694e+01   1.3567496798e+01    0.3953144    0.2782293  66.54  0.001376061    2.402    0.584
       134  -8.9262    124.1411    199.2379   6.6637909541e+01   1.7383344105e+01    0.2949615    0.2198961  78.99  0.001360937    2.008    0.502
       135  -9.1843    113.0953    198.3656   6.9096503096e+01   1.9208308902e+01     0.450395    0.2280239  57.70  0.001840067    2.985    0.665
       136  -9.0696    236.9688    198.1334   4.3997582125e+01   8.9921682636e-01    0.2503275    0.1428134 -38.42  0.001367641    2.056    0.514
       137  -8.6880    177.0741    198.7575   5.5041406855e+01   9.3024434425e+00    0.1874137    0.1757372 -31.64 0.0006049697    1.388    0.280
       138  -9.0999     88.6927    198.3776   7.4934146729e+01   2.2717181939e+01    0.3476775    0.2080021  64.33  0.001442957    2.086    0.521
       139  -8.4753    202.2976    197.7247   4.9970788668e+01   5.7013339012e+00    0.1920797    0.1871336 -34.87 0.0008343272    1.576    0.365
       140  -9.0404     61.0111    196.0063   8.1438438186e+01   2.6785055471e+01    0.4824706    0.2616794  85.93  0.002345777    2.384    0.580
       141  -8.8888     13.1085    197.8839   9.2998752224e+01   3.1316819014e+01    0.2802422    0.1005504  55.18  0.001351821    2.332    0.571
       142  -9.2502    245.7228    193.4248   4.1798878245e+01   3.4458797008e-01    0.2545072    0.2120869 -55.63   0.00167771    2.427    0.588
       143  -8.8642    216.0036    195.3931   4.7088955152e+01   4.0636169644e+00    0.2393771    0.1847214 -49.54  0.001086222    2.058    0.514
       144  -7.9076    133.2148    195.8011   6.4053319238e+01   1.6606556269e+01    0.2036844    0.1298487  65.24 0.0006344938    2.637    0.621
       145  -8.8768    224.5420    193.6195   4.5300369162e+01   3.1111294065e+00    0.2633987    0.1697321 -40.98  0.001047115    1.952    0.488
       146  -7.6274    209.3311    195.6621   4.8329300265e+01   4.9718828876e+00    0.1054461   0.09921005  57.16 0.0007051974    1.738    0.425
       147  -8.8988    185.2236    194.6877   5.2733540029e+01   8.6746230718e+00    0.2191898    0.2011291  57.49 0.0007503349    1.595    0.373
       148  -8.8862    161.0049    194.1519   5.7632913997e+01   1.2519791279e+01    0.2908204    0.2169393  65.71  0.001114998    2.193    0.544
       149  -8.8965     76.9086    193.6953   7.7291998096e+01   2.5251051384e+01     0.223742    0.1802397  81.13 0.0006159862    1.353    0.261
       150  -9.0091     44.2045    193.5349   8.5347350873e+01   2.9223344714e+01    0.3890499    0.1619201  56.35  0.001756306    2.414    0.586
       151  -8.4014    198.9463    191.4407   4.9524618935e+01   7.0771755581e+00    0.2025582     0.169107 -41.33 0.0006586732    1.572    0.364
       152  -8.3882    172.3706    191.2851   5.4762635410e+01   1.1190767351e+01    0.1958248    0.1635492 -43.88 0.0005610856    1.486    0.327
       153  -9.1387    139.6202    190.4019   6.1761347799e+01   1.6562963642e+01    0.3598736    0.2502151  75.54  0.001161713    2.683    0.627
       154  -7.8497    241.3055    191.6813   4.2197966100e+01   1.1181557830e+00    0.0964567   0.08970471 -22.23 0.0003795448    1.631    0.387
       155  -7.9967    205.3726    191.2564   4.8294123782e+01   6.1506218638e+00    0.1575757    0.1107841 -39.00 0.0007197459    1.670    0.401
       156  -8.0713    179.1876    191.2467   5.3358686207e+01   1.0127893253e+01    0.1603925    0.1487875  37.31 0.0006010918    1.357    0.263
       157 -10.2732     92.3553    188.7518   7.2871818153e+01   2.4132611118e+01    0.9703839    0.2284406  43.07  0.003024246    3.757    0.734
       158  -9.2357    156.1021    187.4700   5.7592094703e+01   1.4421482869e+01    0.3089241    0.2329209 -58.38 0.0009931988    1.809    0.447
       159  -8.5925    148.4644    188.9846   5.9534757265e+01   1.5394228648e+01    0.2173377    0.1976511  88.09  0.001330968    1.509    0.337
       160  -9.0325    129.2572    188.3710   6.3846948836e+01   1.8586368888e+01    0.2776887    0.2197824  73.08 0.0008563282    1.726    0.421
       161  -9.5353    120.7089    186.2272   6.5554747164e+01   2.0347060977e+01    0.4397821    0.2803304 -79.23  0.001999201    2.691    0.628
       162  -8.1209    237.0602    188.3006   4.2293867340e+01   2.0901395802e+00    0.1597954    0.1250006   6.70  0.000480351    1.083    0.077
       163  -8.9795    216.5079    187.5905   4.5644283635e+01   5.0328918919e+00    0.2278391    0.2200997  39.99  0.001150373    1.605    0.377
       164  -8.7268    191.6449    187.3603   5.0212075860e+01   8.7827882559e+00    0.2325314    0.2077786  68.79 0.0009439445    1.795    0.443
       165  -9.0522     54.7760    186.6302   8.2129463073e+01   2.9497669471e+01    0.4281507    0.1833264  63.19  0.001709274    3.096    0.677
       166  -8.6951     34.1649    187.9182   8.7408949570e+01   3.1459585727e+01    0.2958078    0.1212285  56.97  0.001342457    2.384    0.581
       167  -8.3649    230.3341    187.0609   4.3181073784e+01   3.1566680171e+00    0.1681323    0.1271378 -16.29 0.0008931264    1.182    0.154
       168  -8.8350    164.7625    186.5862   5.5566352927e+01   1.3168147076e+01     0.221969     0.215599  83.74 0.0006833743    1.404    0.288
       169  -9.2123    109.6650    185.9756   6.8206069281e+01   2.2117066540e+01    0.3629186    0.2351811  64.74    0.0012725    2.084    0.520
       170  -8.9471    249.3383    185.3583   3.9844964370e+01   8.4386723573e-01    0.2407227    0.1675207 -34.91  0.001096739    1.640    0.390
       171  -9.0264    210.1475    184.0420   4.6150074004e+01   6.4517987430e+00    0.2710183     0.160661 -31.08   0.00114907    1.655    0.396
       172  -8.7582    202.8642    184.4194   4.7554982463e+01   7.4938244304e+00    0.2086021    0.1714004 -41.95 0.0007984682    1.576    0.365
       173  -8.7471    183.1201    184.7229   5.1432974659e+01   1.0520528939e+01    0.2250444    0.2034037 -74.32 0.0007738608    1.734    0.423
       174  -9.8052     65.2145    183.2454   7.9123245205e+01   2.8957363447e+01    0.6166925    0.2089906  50.32  0.002273047    3.174    0.685
       175  -8.5117    224.0673    183.3414   4.3577809500e+01   4.5181271173e+00    0.1855482    0.1617217 -36.33 0.0005931486    1.556    0.357
       176  -8.9738    174.1951    183.1592   5.2981662510e+01   1.2201697957e+01     0.263825     0.222599 -59.98 0.0005651043    1.700    0.412
       177  -8.5547    242.9780    183.1877   4.0450964860e+01   1.9359769826e+00     0.153475    0.1370538  56.01 0.0009540918    1.982    0.495
       178  -8.8992     44.6916    182.5002   8.4336998691e+01   3.1530281793e+01    0.3216488    0.1480419  46.53   0.00127337    1.874    0.466
       179  -7.9955      1.7940    183.6005   9.5064401937e+01   3.5188756719e+01    0.1674318   0.08160752  39.75 0.0009432965    1.688    0.408
       180  -9.2625    147.4491    180.2658   5.8309517908e+01   1.7107832262e+01    0.3025498    0.2489806  71.77 0.0008852563    1.716    0.417
       181  -9.4956     25.8517    178.9031   8.8888423874e+01   3.4215408704e+01    0.6435207    0.2168634  68.54  0.002280822    4.183    0.761
       182  -8.6711    137.7008    179.2925   6.0402040742e+01   1.8908294641e+01     0.280595    0.2106146  65.95  0.001158226    1.844    0.458
       183  -8.6222    250.5689    172.6270   3.7394951054e+01   2.2275380970e+00    0.2016384    0.1343526 -23.11  0.000576844    1.275    0.216
       184  -9.2204    248.9038    177.2677   3.8481337950e+01   1.8789747253e+00    0.2615115     0.169401 -33.93  0.001115125    1.583    0.368
       185  -8.6744    247.2970    173.6654   3.8077916632e+01   2.5373391335e+00    0.1954486   0.09121107 -29.66 0.0004993656    1.886    0.470
       186  -9.3183    191.4163    178.2132   4.8617840620e+01   1.0202389646e+01    0.2497531    0.2297312  44.88 0.0005974212    1.426    0.299
       187  -8.4509    205.0449    177.5027   4.5897450254e+01   8.1598527902e+00    0.2241959    0.1680281 -43.87 0.0007281871    1.680    0.405
       188  -8.1543    169.6070    178.3766   5.3094558273e+01   1.3741451208e+01    0.1804283    0.1576393  62.99  0.000644593    1.573    0.364
       189  -8.4859    129.4442    177.3900   6.2052064082e+01   2.0638738300e+01    0.3020897    0.1991138  67.34 0.0009512678    2.429    0.588
       190  -8.2561     97.0586    177.7233   7.0201293911e+01   2.5720209763e+01    0.2214632    0.1535861   1.39  0.001062763    2.014    0.503
       191  -9.0983     35.9247    176.4100   8.6108976193e+01   3.3792490558e+01    0.4929182    0.1826505  69.22  0.001727687    4.121    0.757
       192  -8.4086    231.1529    176.7591   4.1201122372e+01   4.3776644585e+00    0.1950997    0.1428889 -30.46 0.0006565059    1.397    0.284
       193  -8.4905    217.3754    177.0281   4.3591694218e+01   6.3503360247e+00     0.183229    0.1726326  40.87 0.0006963457    1.529    0.346
       194  -9.1445    183.0593    175.9697   4.9867453889e+01   1.1909677117e+01    0.2611142    0.2098802 -48.18 0.0007142334    1.587    0.370
       195  -8.9430     88.8805    176.5842   7.2163341679e+01   2.7173321125e+01    0.2535549    0.1752501  82.26 0.0008008167    1.877    0.467
       196  -9.2306     58.7655    175.5219   7.9995152370e+01   3.1445363256e+01    0.4890979    0.1932479  56.51  0.001835103    3.164    0.684
       197  -9.2229     55.8067    170.4247   8.0249121364e+01   3.2944017535e+01    0.5463534    0.2337756  66.63  0.001920097    3.809    0.737
       198  -8.7995     12.6801    176.1972   9.2069166123e+01   3.5948396680e+01     0.260615    0.1245705  78.88   0.00102756    2.052    0.513
       199  -8.2078    211.5148    176.0136   4.4444613851e+01   7.3782033612e+00    0.1790685    0.1136648 -31.84  0.001013152    1.544    0.352
       200  -9.2486    158.7362    174.8949   5.4826707107e+01   1.6165597359e+01    0.3219964    0.2581995  80.63  0.001018931    2.040    0.510
       201  -9.4854    104.0595    174.3556   6.7906249676e+01   2.5349851994e+01     0.520403    0.2774113  58.27  0.001581864    2.585    0.613
       202 -11.0603     75.9619    169.0701   7.4602982560e+01   3.0649521546e+01     1.353868    0.5295343 -71.92  0.004925697    3.497    0.714
       203  -8.4030    224.2987    174.0738   4.1854506077e+01   5.7284561114e+00    0.1723248     0.135388 -17.39 0.0004709694    1.158    0.137
       204  -9.4570    175.7044    172.1349   5.0667807937e+01   1.3759690622e+01    0.2944009    0.2530395 -34.84 0.0008331921    1.301    0.231
       205  -8.2481    143.1023    172.5368   5.7969901894e+01   1.9262116119e+01    0.2139977    0.1874897  64.07 0.0007426437    1.403    0.287
       206  -8.4364    134.8610    171.3958   5.9727629417e+01   2.0886723312e+01    0.2118919    0.1995346 -88.86 0.0008021655    1.296    0.228
       207  -9.5347    121.2622    170.2407   6.2873334312e+01   2.3411233129e+01    0.3605992    0.2715961 -87.37  0.001039216    1.919    0.479
       208  -8.9992     45.4096    170.8345   8.3107695952e+01   3.4043929845e+01    0.4016556    0.2055625  68.75  0.001631171    2.282    0.562
       209  -8.3694    205.9052    170.3158   4.4399837026e+01   9.0781534338e+00    0.2047138    0.1637315 -34.53  0.000636761    1.381    0.276
       210  -8.4432    237.2732    169.3441   3.8847475939e+01   4.4766349015e+00    0.2028248    0.1456345 -25.63 0.0008814341    1.274    0.215
       211  -8.7968    230.4740    169.5367   3.9981826915e+01   5.4334623908e+00    0.2375805    0.1061145 -32.20  0.001180473    2.067    0.516
       212  -8.5757    198.6907    170.1556   4.5716510458e+01   1.0260555673e+01    0.1875333    0.1636073 -45.98   0.00104592    1.502    0.334
       213  -8.4465    149.9288    169.4437   5.5826662329e+01   1.8660352805e+01     0.227789    0.1999135 -78.84  0.001289664    1.553    0.356
       214  -8.2406    244.6169    169.3283   3.7696952989e+01   3.4474432780e+00    0.1534058    0.1382363 -43.28 0.0004688463    1.659    0.397
       215  -8.5495    218.8301    168.2904   4.1710847865e+01   7.3506606896e+00    0.1964908    0.1564453 -29.34 0.0006127157    1.307    0.235
       216  -9.2488    166.8980    168.4619   5.1851281806e+01   1.5889588038e+01    0.2975805    0.2252206  56.41 0.0009204212    1.710    0.415
       217  -8.1350     88.7846    168.8020   7.1101482853e+01   2.8870084381e+01    0.1972222    0.1475147  57.51 0.0006250844    1.367    0.268
       218  -7.9599    211.5473    167.8065   4.2900786997e+01   8.5526754685e+00     0.165193    0.1145184 -40.82  0.000655652    1.641    0.390
       219  -8.7073    111.8189    167.4458   6.4812299961e+01   2.5549558501e+01    0.3339575    0.2158597  61.83  0.001264777    2.015    0.504
       220  -8.9208    191.9195    166.6228   4.6345645641e+01   1.1923213893e+01    0.2309665     0.183221 -34.76 0.0005362967    1.349    0.259
       221  -8.6400    184.8913    166.1558   4.7649839665e+01   1.3183726925e+01    0.1852471    0.1819158   8.94 0.0004809136    1.292    0.226
       222  -9.5631    137.4431    164.5708   5.7882826288e+01   2.1764897268e+01    0.6414103    0.2586116  50.16  0.002182919    3.313    0.698
       223 -10.0651     94.9186    162.7002   6.8527861935e+01   2.9276037622e+01    0.8116534    0.4046024  65.12  0.002605921    4.264    0.765
       224  -8.4220     20.6846    166.1978   8.9397854920e+01   3.7517424421e+01    0.3191612    0.1035806  41.40   0.00138671    2.474    0.596
       225  -8.2499    234.0917    164.8600   3.8517465010e+01   5.5285662510e+00    0.1725789     0.148158 -18.71 0.0005580736    1.231    0.187
       226  -8.5644    159.4198    164.1574   5.2680945329e+01   1.7960356043e+01    0.2370386    0.2088456  80.97  0.001049634    1.586    0.369
       227  -9.5369     33.4162    163.3352   8.5713025556e+01   3.7005724218e+01    0.6151293    0.2043748  40.98  0.002582161    2.485    0.598
       228  -8.1704    240.0316    164.0225   3.7420654185e+01   4.7766175734e+00    0.1625777    0.1444935 -46.06 0.0005126772    1.638    0.389
       229  -8.7036    212.9296    163.4339   4.1816256617e+01   8.9694565002e+00    0.2213683    0.1668038 -41.52  0.000688175    1.556    0.357
       230  -8.8828    246.0924    162.6674   3.6237432898e+01   4.0901670288e+00    0.2200745    0.1439237 -19.67 0.0005352243    1.299    0.230
       231  -8.6479    204.9780    162.5307   4.3076679204e+01   1.0389676960e+01    0.2221151    0.1718009 -42.20 0.0005705106    1.520    0.342
       232  -8.5857     60.5404    160.0254   7.7741194509e+01   3.4745738974e+01    0.2597897    0.1558639  61.07  0.001240097    1.809    0.447
       233  -9.2058      3.0602    161.9782   9.3847818789e+01   3.9832546225e+01    0.4083922    0.1413377  50.73  0.001866603    2.463    0.594
       234  -9.2328    177.3610    160.3720   4.8064675852e+01   1.5448027603e+01    0.2758641    0.2303988 -55.87 0.0008776703    1.568    0.362
       235  -8.7312    151.6114    160.6364   5.3783002576e+01   1.9999703217e+01    0.2738455    0.2285673 -83.28  0.001109761    1.739    0.425
       236  -8.7809    227.3569    158.9374   3.8480905075e+01   7.3467933725e+00    0.2739435    0.1830404 -49.74  0.001111969    2.141    0.533
       237 -10.3789    249.4077    157.2679   3.4729536208e+01   4.3128253371e+00    0.3939437    0.3162886  34.04  0.001741606    1.446    0.308
       238  -9.8694    242.8374    154.8087   3.5241561904e+01   5.5769739682e+00     0.212824    0.1817636 -50.17 0.0003919237    1.684    0.406
       239  -9.1020    237.3854    150.2058   3.5182442074e+01   7.0060481768e+00    0.1776287    0.1388447 -21.61 0.0004346346    1.127    0.113
       240  -8.6959    196.7886    157.9846   4.3714752259e+01   1.2461051031e+01    0.2784496     0.199119 -58.37  0.000960262    2.189    0.543
       241  -8.3359    128.2127    159.0256   5.9141911008e+01   2.4493657976e+01     0.273055     0.172538  58.15 0.0008256418    2.052    0.513
       242  -9.6086    105.9340    157.8615   6.4750252433e+01   2.8562819758e+01    0.4887855     0.290838  61.06  0.001329176    2.297    0.565
       243  -7.9799    236.9695    158.5217   3.6856724884e+01   5.9503625497e+00    0.1654598    0.1127222  35.23 0.0004867387    1.532    0.347
       244  -8.2604    188.1680    157.8741   4.5369786192e+01   1.3966996961e+01       0.1867    0.1842057 -33.79 0.0005884152    1.306    0.234
       245  -9.2170    167.6057    157.1380   4.9500170299e+01   1.7751276765e+01    0.3230546    0.2632932  76.90  0.001304292    1.887    0.470
       246  -8.5669    217.9827    156.5036   3.9581976662e+01   9.1666620795e+00    0.2271777    0.1641855 -42.83 0.0008524227    1.614    0.380
       247  -8.9722    157.8487    156.2066   5.1483644375e+01   1.9693180869e+01    0.2866172    0.2044981 -61.83  0.001002492    1.971    0.493
       248  -9.7934     50.0599    155.1832   8.0177798412e+01   3.7141636369e+01    0.5417793    0.2094152  54.16   0.00200371    3.073    0.675
       249  -9.2210    119.5411    154.8080   6.0587403883e+01   2.6893062880e+01    0.3962972    0.2798307 -86.52  0.001350246    2.228    0.551
       250  -9.4366     81.7574    154.5072   7.0918991984e+01   3.3119796347e+01    0.5038501    0.2943057  66.96  0.001564777    2.386    0.581
       251  -8.2707    204.8309    155.1447   4.1644830510e+01   1.1536252769e+01    0.1862943    0.1729111 -18.10 0.0006085875    1.219    0.179
       252  -8.7117    144.4731    154.6598   5.4299432112e+01   2.2434851827e+01    0.2760734    0.2089747  63.22 0.0008928237    1.726    0.421
       253  -9.4038     68.3067    153.8901   7.4705071188e+01   3.5165115311e+01    0.4123065    0.2129888  56.59  0.001180148    2.253    0.556
       254  -9.6888    132.6003    152.6259   5.6817907488e+01   2.5009003266e+01    0.4423184    0.3181565  66.31  0.001186019    1.919    0.479
       255  -9.3439    133.4852    148.0125   5.5679343567e+01   2.5785995122e+01    0.3693017    0.2320951 -38.84  0.001476784    1.735    0.424
       256  -7.8408    232.5549    153.5103   3.6584869369e+01   7.2956092260e+00    0.1237613    0.1028204  -9.00 0.0002836874    1.036    0.034
       257  -8.4602    151.8295    152.5820   5.2142697171e+01   2.1478599721e+01    0.2172921    0.1787219 -48.38 0.0006480658    1.369    0.270
       258  -9.5305     29.5782    150.5315   8.5683197504e+01   4.0373818390e+01    0.5061222     0.196964  63.69  0.001884304    3.337    0.700
       259  -8.2997     20.1579    152.2603   8.8556176997e+01   4.0788824959e+01    0.1864949    0.1239448  60.98 0.0008023853    1.390    0.280
       260  -8.8872    243.2527    149.9448   3.4240947306e+01   6.1570258247e+00    0.2472675    0.1379871 -38.72  0.001365306    1.788    0.441
       261  -9.0005    189.5081    149.9763   4.3501437122e+01   1.5022698945e+01    0.2838934     0.224308 -62.84  0.000771917    1.868    0.465
       262  -8.0260    182.5258    150.7652   4.5061202668e+01   1.6150035234e+01    0.1764192    0.1304397 -48.11 0.0006665516    1.596    0.373
       263  -8.0937    162.7469    150.7440   4.9274970010e+01   1.9793312331e+01    0.1853868     0.168354  67.49  0.001043157    1.383    0.277
       264  -8.8078     98.3193    150.6494   6.5590006520e+01   3.1411648549e+01    0.3044568    0.2215802  68.21  0.001008978    1.682    0.406
       265  -9.3941    248.9223    149.0512   3.3234042968e+01   5.4394118060e+00    0.2763562    0.1478098 -29.88 0.0007762285    1.602    0.376
       266  -8.3726    212.9693    149.5727   3.9065941723e+01   1.1008853617e+01     0.192953    0.1567839 -17.90 0.0003605726    1.112    0.100
       267  -9.6240     40.0099    148.0075   8.2342737818e+01   3.9952717476e+01    0.5354568      0.21285  54.63   0.00200082    2.870    0.652
       268  -8.6010    198.8485    148.7161   4.1447343015e+01   1.3567521416e+01    0.2365386    0.1823259 -37.57 0.0004731022    1.359    0.264
       269  -9.3109    233.3107    147.5088   3.5284233493e+01   8.0040425812e+00      0.22757    0.1447925 -28.59 0.0006182465    1.393    0.282
       270 -10.4873     55.0540    144.6758   7.7391469316e+01   3.9057318280e+01    0.8123471    0.3596772  64.01  0.002770563    3.690    0.729
       271  -8.2733    223.1792    146.8356   3.6778422267e+01   9.7192792072e+00     0.177286    0.1570999 -18.80 0.0003625514    1.159    0.137
       272 -10.3527    148.8907    144.9695   5.1268602936e+01   2.3492441864e+01    0.5627527    0.4099959  82.30  0.001602908    2.423    0.587
       273 -10.2351    106.8520    144.1875   6.2015589069e+01   3.1413478443e+01     0.774506    0.4972166  76.04  0.002615718    2.672    0.626
       274  -8.8068     77.8343    146.7291   7.0838923402e+01   3.5504005841e+01    0.2707629    0.1974107 -86.26 0.0007197154    1.605    0.377
       275  -9.0401    240.4725    145.0685   3.3703216456e+01   7.2274925187e+00    0.2413818    0.1487616 -24.78 0.0006690904    1.418    0.295
       276  -8.1843    206.4306    146.2585   3.9547295652e+01   1.2626958169e+01     0.175392    0.1187467 -41.83 0.0004467355    1.588    0.370
       277  -8.2584    175.5113    145.9396   4.5505835635e+01   1.8270369519e+01    0.2002929    0.1355911 -40.52 0.0006701566    1.537    0.350
       278  -9.6913    139.0510    144.9150   5.3650941264e+01   2.5371526355e+01    0.3381187    0.2649657 -78.04  0.001266407    1.812    0.448
       279  -8.9301     13.5152    145.8850   9.0015967200e+01   4.2816919672e+01    0.3199453    0.1531612  51.23  0.001417478    1.950    0.487
       280  -9.8623    124.9644    142.1293   5.6682555740e+01   2.8592370911e+01    0.6321472    0.3886064 -68.62  0.002103004    2.484    0.597
       281  -9.0032    247.0449    143.7914   3.2484583451e+01   6.4029135796e+00    0.2039371     0.145574 -25.05 0.0005125444    1.189    0.159
       282  -9.9647     89.3636    146.2010   6.7370257486e+01   3.3867602820e+01    0.6572384    0.3748645  85.77  0.002302154    3.571    0.720
       283  -8.8403    165.5594    143.8588   4.7208746850e+01   2.0520594042e+01    0.2510834    0.2220861  71.54 0.0006678906    1.461    0.315
       284 -10.0952    243.0000    142.9945   3.2918054438e+01   7.1192774961e+00    0.4478614    0.1572037 -27.72  0.001858872    2.869    0.651
       285  -8.5099    182.0072    141.5121   4.3220005592e+01   1.7818679242e+01    0.2509535    0.1920837 -53.55 0.0008361888    1.628    0.386
       286 -10.7433     69.5741    140.6816   7.2364323825e+01   3.8121766512e+01    0.4899244    0.3278688  85.39  0.002060096    1.864    0.464
       287  -9.1185      3.2730    141.7243   9.2746874574e+01   4.4499712166e+01    0.3186702    0.1540525  61.70  0.001469575    1.968    0.492
       288  -8.5237    250.4902    140.4951   3.1348326314e+01   6.3205383745e+00    0.1943056    0.0949798 -39.00  0.000699477    1.961    0.490
       289  -9.9086     22.9770    137.8075   8.6515625544e+01   4.4015396286e+01    0.5396624    0.2239076  52.13  0.002313004    2.458    0.593
       290  -8.7218    172.2009    137.8488   4.4467724230e+01   2.0329486406e+01    0.2947633    0.2182908 -61.41 0.0007855526    1.868    0.465
       291  -9.3191    139.3321    137.6303   5.2035844034e+01   2.6787698261e+01     0.407508    0.2492733 -10.55  0.001489255    3.036    0.671
       292  -7.8205    218.5404    138.5082   3.5840745424e+01   1.1709032011e+01    0.1291145    0.1133889 -11.61 0.0001291396    1.052    0.049
       293  -8.3650    207.6117    137.7806   3.7562560391e+01   1.3727632122e+01    0.2397377    0.1894505 -55.90 0.0009448851    1.686    0.407
       294  -8.6653    197.5975    137.4324   3.9305442321e+01   1.5595334903e+01      0.24041    0.1951618 -59.59 0.0008559885    1.664    0.399
       295  -8.8459    150.7715    136.1329   4.8918114806e+01   2.4844747112e+01    0.6019514    0.3142551  24.56   0.00221095    2.716    0.632
       296  -8.9872    248.5241    134.9754   3.0534897412e+01   7.3405259485e+00    0.2606564    0.1553582 -34.57 0.0008230794    1.489    0.328
       297  -8.5354    247.0980    129.8981   2.9717257311e+01   8.2337193920e+00    0.2173994    0.1439498 -41.26 0.0005731587    1.546    0.353
       298  -7.5113    192.6448    136.3360   4.0003613083e+01   1.6692013630e+01    0.1334881    0.1122041 -80.59 0.0007042877    1.800    0.444
       299  -8.2249    162.5420    136.1876   4.6214026833e+01   2.2516326759e+01    0.2233092    0.1976448  69.51  0.000736813    1.402    0.287
       300  -9.2588     39.0022    136.0151   8.1290266398e+01   4.2968851075e+01    0.2765058    0.1719318  60.81 0.0007515024    1.683    0.406
       301  -8.0403     95.7060    135.1394   6.3470730801e+01   3.5381325810e+01    0.2244813    0.1837013  88.73 0.0007282595    1.449    0.310
       302 -10.4241     83.5530    133.0326   6.6740608537e+01   3.7867710582e+01    0.5207753    0.3636918 -87.46  0.001373254    1.859    0.462
       303  -8.2039    237.5895    133.7428   3.1861747696e+01   9.2227109131e+00    0.1775158    0.1015505 -39.67 0.0009462814    1.708    0.414
       304  -7.8553    231.3796    134.1443   3.2881185464e+01   1.0179662707e+01    0.1699817    0.1045199 -38.71 0.0004063023    1.578    0.366
       305  -8.7386    179.4851    133.7789   4.2046625841e+01   1.9633931348e+01    0.2535796    0.2226652 -77.19 0.0007941073    1.545    0.353
       306  -9.1011    112.8756    133.2422   5.8121125514e+01   3.2761306591e+01    0.3608218     0.257351  70.57 0.0009650095    1.934    0.483
       307  -9.2904    143.1707    131.7092   4.9772593483e+01   2.7224411962e+01    0.3131874    0.2596976 -87.38 0.0008186422    1.643    0.391
       308 -10.1540    132.3262    131.3166   5.2433613182e+01   2.9453790359e+01    0.5376752     0.391293  80.34  0.001554357    2.178    0.541
       309  -8.6986    211.9956    129.7138   3.5076357733e+01   1.4180241879e+01    0.3894969    0.1591661 -44.48   0.00155881    2.762    0.638
       310  -8.6478    250.8059    129.7696   2.9181720017e+01   7.6757968173e+00    0.3486196   0.08382136 -31.26  0.001235479    3.833    0.739
       311  -9.6111     12.9470    129.0192   8.8910999374e+01   4.6920301449e+01    0.4715219    0.2160993  66.44  0.001617648    2.392    0.582
       312  -7.9739    220.5034    129.9997   3.3728120893e+01   1.2625804008e+01    0.1696344    0.1036726 -52.68 0.0005571925    2.277    0.561
       313  -8.2126    204.8320    130.1802   3.6419006085e+01   1.5415655985e+01    0.1951353    0.1773462 -48.43 0.0005575006    1.300    0.231
       314  -8.0555    192.6309    129.8409   3.8579148921e+01   1.7764399247e+01    0.1914174    0.1224916 -44.94  0.000503793    1.685    0.407
       315  -9.4372    168.3112    129.4156   4.3419869406e+01   2.2615836834e+01    0.2810395    0.2409235 -78.43 0.0005669595    1.574    0.365
       316  -9.7564    152.9912    127.6523   4.6477476934e+01   2.6043827576e+01    0.7770961    0.2269033 -44.93  0.002402404    3.632    0.725
       317 -10.1736     99.2723    127.6448   6.0885221189e+01   3.6490489891e+01    0.6151142    0.4041052  85.40  0.001738521    2.589    0.614
       318  -9.9669     73.3910    129.2648   6.9236025459e+01   4.0324793279e+01    0.3870273    0.2618512  67.21  0.000909929    1.810    0.448
       319  -7.9352      1.9511    130.4523   9.2477095863e+01   4.7263966049e+01     0.182858   0.06844411  44.91 0.0006977245    2.477    0.596
       320 -11.0058     44.8146    123.9312   7.7783997371e+01   4.5339843774e+01     1.109231    0.5647534  68.75  0.003465261    2.816    0.645
       321 -10.6605     60.1440    124.9393   7.2796903933e+01   4.3233239937e+01     0.766602    0.4179533  70.90  0.002623064    2.880    0.653
       322  -9.8421    117.9542    125.1510   5.4921587498e+01   3.3578628731e+01    0.5455863    0.3598186  70.34  0.001337959    2.397    0.583
       323  -7.9721    228.3951    125.1570   3.1460301810e+01   1.1959911908e+01    0.1823455    0.1056414 -40.76 0.0005338772    1.695    0.410
       324  -9.0270    179.2799    124.5381   3.9997383886e+01   2.1281963114e+01    0.2683085    0.2341959 -68.84 0.0005769124    1.461    0.316
       325 -10.3507     28.5498    122.1945   8.3075109681e+01   4.7385658715e+01    0.7839278    0.3279798  66.83  0.002775232    3.602    0.722
       326  -7.7149    188.4834    123.5432   3.7950728952e+01   1.9618308037e+01    0.1376114     0.131386  -9.66 0.0003178537    1.077    0.071
       327  -9.7993    158.7694    121.5518   4.3709266143e+01   2.6020740351e+01    0.3818288    0.2857865 -78.83   0.00121282    2.108    0.526
       328  -8.4028     83.9037    122.7739   6.4624796922e+01   4.0250982659e+01     0.227292    0.2031761  -7.17  0.000714711    1.248    0.199
       329  -7.8632    195.3573    122.1757   3.6346076953e+01   1.8494874757e+01      0.19527    0.1203562 -44.13 0.0005405194    1.701    0.412
       330  -8.8632    171.9633    121.4442   4.0791021700e+01   2.3313785534e+01    0.2577137    0.1986994 -52.74 0.0005504654    1.495    0.331
       331 -10.0091    130.9858    118.6235   4.9839511757e+01   3.2370471335e+01    0.5279124    0.3626707  81.92  0.002073983    2.622    0.619
       332  -9.6199     71.0723    119.7041   6.8200681907e+01   4.2989871931e+01    0.4120542    0.2583651  75.31  0.001306266    2.354    0.575
       333  -9.7690    141.7161    118.5107   4.7049510870e+01   3.0170266230e+01    0.4558664    0.3345841 -81.62  0.001371497    2.166    0.538
       334  -9.6628      3.0079    117.0643   9.1234157304e+01   5.0452268407e+01    0.5334176    0.2146232  65.55  0.002234735    2.792    0.642
       335  -7.8172    231.5045    117.4814   2.9361187103e+01   1.2513883518e+01     0.126875    0.1108077 -25.66  0.000809196    1.077    0.072
       336  -8.0141    185.6060    115.7833   3.6701520701e+01   2.1502664314e+01      0.19478    0.1277954 -45.65 0.0003203899    1.615    0.381
       337  -9.9878    109.4220    114.0715   5.4786358753e+01   3.7682468700e+01    0.5181686    0.3679885 -80.16  0.001495961    2.076    0.518
       338  -8.7876    108.8257    107.7556   5.3406779850e+01   3.9203457443e+01    0.3925878     0.253539   6.09  0.001355156    2.695    0.629
       339 -10.2188     92.7587    112.4069   5.9525182373e+01   4.1182287678e+01    0.5957951    0.3595303 -70.04  0.001448674    2.255    0.557
       340  -9.8646     79.1753    112.5514   6.4010621209e+01   4.3466195238e+01    0.5829893    0.3666144  72.11  0.001750209    2.494    0.599
       341  -8.6301     59.6826    114.9104   7.1171421126e+01   4.5772647618e+01    0.3526752     0.194542   5.81  0.001315287    2.994    0.666
       342  -8.1169    167.2273    114.1808   4.0059951444e+01   2.5610344963e+01    0.1940469    0.1758998 -75.54 0.0004487587    1.328    0.247
       343  -9.7798    133.4232    108.7706   4.6747730733e+01   3.3896548795e+01    0.5316074    0.3012173 -46.47  0.001925615    1.849    0.459
       344  -9.5299    121.8656    112.2957   5.0768912983e+01   3.5580007935e+01    0.3786102    0.2923689  77.57 0.0005275693    1.754    0.430
       345  -8.5501    174.8470    111.7389   3.7866510592e+01   2.4434478227e+01     0.260442     0.183051 -62.31 0.0006488423    1.953    0.488
       346  -9.1478    159.4517    111.7190   4.1163504514e+01   2.7721077303e+01    0.2774912    0.2377966 -61.52 0.0008196976    1.360    0.265
       347 -10.1404     66.5732    109.6751   6.7727275108e+01   4.6102422566e+01    0.5788423     0.331717 -63.64  0.002338572    1.810    0.447
       348  -9.8973     14.0562    110.6393   8.6839162707e+01   5.1381734634e+01    0.4390241    0.2077473  69.10  0.001829952    2.516    0.603
       349 -11.2165    248.7153    106.8690   2.4772027804e+01   1.1035202670e+01    0.7490629    0.2699188 -27.42  0.003128726    2.753    0.637
       350  -8.2986     43.5178    109.0000   7.5897516731e+01   4.9216497238e+01    0.3060043   0.07895055  24.95 0.0009457808    4.024    0.752
       351  -9.7995    118.7637    105.4329   4.9900152099e+01   3.7688607513e+01    0.3734584    0.3240814  63.82  0.001621421    1.262    0.208
       352 -10.6954    108.6145     98.4157   5.1034508553e+01   4.1298675211e+01      1.03427    0.5532076  63.94 0.0009340433    3.591    0.722
       353  -9.0843    107.3825     92.7343   4.9849407776e+01   4.2782462720e+01    0.5436792    0.3222711  22.19   0.00204431    2.431    0.589
       354 -10.4597     45.8728    102.3082   7.3832577469e+01   5.0627180889e+01     0.840441    0.4032208  62.38  0.002919742    3.537    0.717
       355 -10.7410     22.6522    102.3865   8.2688501473e+01   5.2831918223e+01    0.7286183    0.3539403  65.34  0.002288299    2.711    0.631
       356  -9.6642    150.5475    102.8577   4.0952166089e+01   3.1331383575e+01    0.4321512    0.2922793 -59.25  0.001122059    1.883    0.469
       357  -9.6947    140.0180    103.5786   4.3704569165e+01   3.3513505762e+01    0.5790518    0.3219482 -48.24  0.001449257    1.943    0.485
       358  -8.6320     78.3131    104.8814   6.2571835986e+01   4.5444644340e+01    0.2855312    0.1970121  -2.85  0.001218839    2.111    0.526
       359  -8.4628    166.7655    103.9143   3.7600698781e+01   2.7560308263e+01    0.2617287    0.1955954 -56.70 0.0005904276    1.575    0.365
       360  -8.2023    192.8989    115.1068   3.5169472232e+01   2.0137927983e+01    0.2039543    0.1823783 -51.57 0.0004808215    1.253    0.202
       361  -9.8770    128.5150    101.9915   4.6284515700e+01   3.6340721327e+01    0.3728533    0.2840871  78.33  0.001069934    1.804    0.446
       362  -8.7713      6.9011    103.0791   8.8682579557e+01   5.3689724974e+01    0.2070663    0.1526014  64.03   0.00102783    1.369    0.270
       363  -7.8686    175.6010    101.7774   3.5243326159e+01   2.6005821563e+01    0.1999821    0.1320334 -46.67 0.0004412494    1.596    0.374
       364  -8.3935    159.8365    100.7510   3.8284960633e+01   2.9661291127e+01    0.2600523     0.184227 -62.86 0.0004344323    1.858    0.462
       365  -9.2846     82.2793     99.9182   6.0003586095e+01   4.5952838509e+01    0.3420185    0.2621384  87.39 0.0009310612    1.716    0.417
       366 -10.0875     63.9048     95.6777   6.5607451494e+01   4.9908218787e+01     0.562265    0.3546109  80.79  0.001659642    2.623    0.619
       367  -9.2995     94.9769     96.6337   5.4869987962e+01   4.4397552018e+01    0.3207776    0.2423249 -62.37 0.0006226965    1.487    0.327
       368  -8.6896    151.2203     94.7955   3.8649144030e+01   3.2694516445e+01    0.2118417    0.1773907  13.72 0.0007560099    1.339    0.253
       369  -8.0807    164.6313     93.8324   3.5431600178e+01   2.9825882220e+01    0.2050492    0.1343255 -46.72 0.0003860307    1.604    0.377
       370  -8.1778    189.3101    107.5459   3.4037527830e+01   2.2115432012e+01    0.2350497    0.1237582 -35.84 0.0002259162    1.832    0.454
       371  -7.9705    176.3083     92.8420   3.2817834382e+01   2.7371104818e+01    0.2283901    0.1719817 -51.88  0.000550902    1.442    0.306
       372  -9.4765    139.0253     91.5842   4.0699650845e+01   3.6075859574e+01    0.5140927    0.3152275 -52.75  0.001469546    1.890    0.471
       373  -9.3299    120.4132     92.9981   4.6066924109e+01   3.9952025810e+01    0.3966049    0.2338302  48.97  0.001655652    1.688    0.408
       374  -9.9749    124.5868     90.5924   4.4216906730e+01   3.9523974972e+01    0.4595077    0.3353724 -61.44  0.001019614    1.667    0.400
       375  -9.3695     46.0460     92.1781   7.1758323792e+01   5.3127437900e+01    0.4162527    0.2259523   7.52   0.00168738    2.586    0.613
       376  -9.5731     34.9107     89.8055   7.5798913958e+01   5.4915284116e+01    0.4658531    0.2727692  82.87  0.001475031    2.351    0.575
       377  -9.4173      5.3163     91.7620   8.8141493552e+01   5.6576500373e+01    0.2776253    0.1723713  58.14  0.001098609    1.739    0.425
       378  -8.0541    157.8479     91.3770   3.6228777620e+01   3.1806213449e+01    0.2061749     0.184318 -50.17 0.0005236526    1.170    0.145
       379  -9.0139     23.0294     89.9546   8.0718308998e+01   5.5917329722e+01     0.336317    0.1931779   4.99  0.001609342    2.100    0.524
       380  -7.9822    151.0211     88.9485   3.7090811820e+01   3.3815534710e+01    0.2328708    0.1827825 -72.36 0.0005712399    1.630    0.386
       381 -10.1328     86.4632     86.0654   5.4845438524e+01   4.8390963162e+01    0.5731727    0.4064434 -74.96   0.00169299    1.952    0.488
       382  -8.0098    164.3480     87.1663   3.3700060268e+01   3.1052589814e+01    0.2121354    0.1312522 -45.95 0.0004375135    1.685    0.407
       383  -8.6978     66.0106     86.8432   6.2616985387e+01   5.1711612617e+01    0.3529367     0.199618   6.18  0.001243895    3.203    0.688
       384  -9.7578     48.4848     84.1014   6.8963123218e+01   5.4816312056e+01    0.5455664    0.3234798  66.07  0.001685522    2.625    0.619
       385  -7.6389    179.3777     85.2281   3.0248998524e+01   2.7939879081e+01    0.2071674     0.127064 -44.57 0.0004969401    1.650    0.394
       386  -8.4328    157.9509     83.5480   3.4049140851e+01   3.3165972363e+01    0.2746538    0.1972646 -51.38 0.0005617578    1.515    0.340
       387  -9.9660    104.7426     82.0226   4.7554481916e+01   4.5609539406e+01    0.7321204    0.3347131 -45.77  0.002016352    2.263    0.558
       388  -9.0005    140.8988     82.5575   3.7660036206e+01   3.7343266761e+01    0.3303702    0.2157305 -44.39 0.0009671966    1.588    0.370
       389  -8.0312     64.1301     82.2079   6.2121133525e+01   5.3095818199e+01    0.1980736    0.1720769  76.39 0.0004896658    1.346    0.257
       390  -9.6174     24.6707     80.5976   7.8416979825e+01   5.8115015067e+01    0.4189174    0.2468106  76.03  0.001278516    2.275    0.560
       391  -9.2338     10.0067     80.7811   8.4850510940e+01   5.9053978743e+01    0.3687336    0.1623671  50.31  0.001384157    2.770    0.639
       392  -8.5317    150.1986     80.1080   3.4774759588e+01   3.5594151531e+01     0.318479    0.1850146 -52.20  0.001068296    2.027    0.507
       393  -8.8913    119.4243     80.1639   4.2592614542e+01   4.2761697463e+01    0.3359208    0.2391683 -67.15 0.0008060379    1.900    0.474
       394  -8.6989     74.9201     80.4194   5.7431660245e+01   5.1747286449e+01    0.2823697    0.2120198 -72.66  0.001061314    1.657    0.396
       395  -7.8290    188.7678     93.0366   3.0563190862e+01   2.4596301607e+01    0.1926031    0.1133616 -35.29 0.0008777292    1.633    0.388
       396  -8.1335    166.9737     79.3676   3.1029109408e+01   3.1761692210e+01    0.2033166    0.1870418  52.79 0.0004834791    1.087    0.080
       397  -8.0894    184.2286     78.0098   2.7482021373e+01   2.7986150087e+01     0.188224    0.1148265 -33.63 0.0004056438    1.600    0.375
       398  -7.5327    174.7732     77.9962   2.9163620918e+01   3.0164287984e+01    0.1904617    0.1179007 -34.34 0.0004431059    1.599    0.375
       399  -9.3669    127.9747     74.9769   3.8658647721e+01   4.1782714198e+01    0.4033684    0.2707132 -61.45 0.0007901384    1.952    0.488
       400  -8.1850    140.2249     75.1614   3.5633016914e+01   3.8844904876e+01    0.2094514    0.1784357 -70.76 0.0005709414    1.354    0.261
       401  -9.9065     63.2816     73.5278   6.0006100999e+01   5.5241875490e+01    0.4602373    0.3084745 -69.77  0.001389562    1.883    0.469
       402  -8.5407    163.5271     73.0723   2.9941520073e+01   3.3613293920e+01    0.3167989    0.1315663 -40.81  0.001003058    2.384    0.581
       403  -9.6688     82.5725     72.5841   5.2182304843e+01   5.2093344718e+01    0.3962658    0.2976396 -81.01 0.0008860084    1.930    0.482
       404  -7.9941    151.3802     73.2039   3.2499541530e+01   3.6508134249e+01    0.2066092    0.1369268 -46.67  0.000344679    1.585    0.369
       405  -8.3620    115.6647     72.8972   4.1409657583e+01   4.5031321129e+01    0.2149379    0.1941873 -42.68 0.0006168744    1.152    0.132
       406  -8.1504     42.7344     72.5976   6.8599088842e+01   5.8285151118e+01    0.2406241    0.1718879 -88.24  0.001076097    1.820    0.451
       407  -7.9878    156.9823     76.1803   3.2166272928e+01   3.4660273763e+01    0.2190797    0.1565915 -56.04 0.0005575698    1.595    0.373
       408  -9.0677    105.8626     71.6144   4.3944274248e+01   4.7484647473e+01    0.2910672    0.2213011 -54.90 0.0007685897    1.475    0.322
       409  -9.2810     95.1819     70.9695   4.7204564037e+01   4.9911370812e+01     0.385067    0.2565919 -61.60 0.0008382982    1.944    0.485
       410  -9.4991     51.6444     69.7134   6.3846436879e+01   5.7831608432e+01     0.442042    0.2961558 -83.61  0.001387381    2.213    0.548
       411  -9.0556     16.7882     69.4441   7.9925050568e+01   6.1431809749e+01    0.4275204    0.1876648 -78.62  0.001772438    2.541    0.606
       412  -7.6955    156.7336     69.3645   3.0236521508e+01   3.5854478082e+01    0.1533163    0.1127183 -64.92 0.0006735797    1.650    0.394
       413  -8.6509    147.0908     68.1464   3.1927710060e+01   3.8401566075e+01    0.3097317    0.2084697 -41.80 0.0006527803    1.520    0.342
       414  -8.8252    121.5538     65.7021   3.7428143360e+01   4.4999924191e+01    0.3148805    0.2313987 -73.05 0.0009570871    1.886    0.470
       415  -8.7777     64.1735     63.5300   5.6505340662e+01   5.7333907520e+01    0.4067788    0.2090958 -23.97  0.001323434    3.746    0.733
       416  -8.6874     37.4444     64.1693   6.8805933550e+01   6.0882316559e+01    0.3040045    0.2164785  82.56  0.001084735    1.975    0.494
       417  -8.8219    110.2924     63.5775   3.9926472159e+01   4.8024396053e+01    0.3040667    0.2421567 -81.98 0.0006628179    1.672    0.402
       418  -8.1965    158.4474     61.9169   2.7686623458e+01   3.6625103611e+01    0.2144937    0.1432723 -36.18 0.0004926763    1.510    0.338
       419  -9.2661     30.4024     69.6199   7.3526495942e+01   6.0302002513e+01    0.5268847    0.2327385 -14.20  0.001602894    5.090    0.804
       420  -9.2483     97.7115     60.4966   4.2807136763e+01   5.1436134375e+01    0.3111449    0.2505581  56.46 0.0008912937    1.302    0.232
       421  -9.6780     73.3825     59.2452   5.1240424188e+01   5.6630835550e+01    0.4288948    0.2603887 -55.36  0.001061699    1.914    0.478
       422  -8.9037    138.6420     65.9799   3.3187683451e+01   4.0829067321e+01    0.3060395    0.2145321 -56.72 0.0006808219    1.672    0.402
       423  -8.0282     89.1284     59.1740   4.5272296458e+01   5.3532782715e+01    0.2022161    0.1817858 -80.50 0.0005444869    1.341    0.254
       424  -8.3713    130.7126     57.4032   3.2322420978e+01   4.4213309807e+01     0.260606    0.1772211 -47.53 0.0005134539    1.589    0.371
       425  -9.7539     23.4787     56.2188   7.3656529164e+01   6.4099316414e+01    0.4586034    0.2797371  78.22  0.002049425    2.609    0.617
       426  -9.5494      7.4655     56.8477   8.2174462776e+01   6.5003719843e+01    0.3180586    0.1998677  77.14   0.00131381    1.987    0.497
       427  -9.1250    119.2972     55.2525   3.4516315113e+01   4.7365677226e+01    0.4788713    0.2532421 -51.33  0.001432566    2.358    0.576
       428  -8.2782    139.9180     56.0959   2.9745042589e+01   4.2139184521e+01    0.2300658    0.1979479 -71.86 0.0005047928    1.289    0.224
       429  -8.9637     43.9673     54.7541   6.2808014577e+01   6.2253060047e+01    0.4100799    0.1932444 -60.17  0.001684918    2.359    0.576
       430  -9.4483     62.8209     53.7681   5.3695031775e+01   5.9635644427e+01    0.5482612    0.2109033 -52.36  0.001584062    2.935    0.659
       431  -8.9844     54.0354     53.5561   5.7584564346e+01   6.1094555078e+01    0.3907878    0.2041209 -61.04  0.001301297    2.482    0.597
       432  -8.4811    105.8335     53.0507   3.7573324243e+01   5.0949443779e+01     0.227862    0.2024044 -78.66 0.0005882417    1.326    0.246
       433  -9.3907     92.4343     50.3442   4.0869865531e+01   5.4470624868e+01    0.4165489    0.2442691 -50.41  0.001153992    2.018    0.504
       434  -8.0471     75.3985     51.3709   4.7543059228e+01   5.7822613196e+01    0.2932851    0.1237238  30.54 0.0009520428    3.289    0.696
       435  -8.2971    144.6632     48.8057   2.6365464658e+01   4.2060376472e+01     0.208429    0.1300656 -42.41 0.0004863665    1.657    0.396
       436  -8.2013    129.9060     49.0971   2.9713548971e+01   4.5740243796e+01     0.227268    0.2015777 -71.35  0.000539883    1.238    0.192
       437  -8.3426    120.5517     47.0561   3.1301444838e+01   4.8389875880e+01    0.2189863     0.148886 -33.82  0.001012984    1.549    0.354
       438  -8.3524    112.1790     46.6736   3.3397716664e+01   5.0504116247e+01    0.2540102    0.1966154 -47.67 0.0007113395    1.414    0.293
       439  -8.8660     82.2643     46.3494   4.2944961140e+01   5.7374361017e+01    0.2999245    0.2427902 -56.55  0.000768541    1.469    0.319
       440  -8.5351     45.0299     44.5041   5.8650584864e+01   6.4316817213e+01    0.2429391    0.1918755 -67.63 0.0006204165    1.584    0.369
       441  -9.1968     16.8882     44.6075   7.4135522258e+01   6.7292101004e+01    0.2401813    0.1792206 -71.31 0.0006988007    1.417    0.294
       442  -8.3838    132.7632     42.8237   2.6897819669e+01   4.5956108486e+01    0.2058516     0.170154 -66.24 0.0004419405    1.354    0.262
       443  -8.6221     58.1020     42.4713   5.1464149368e+01   6.2701759549e+01    0.2569345     0.199007 -62.09  0.001090796    1.646    0.393
       444  -9.4986      5.3389     42.1251   8.0264030239e+01   6.8548651060e+01     0.286356    0.2113189  82.95  0.001282805    1.643    0.391
       445  -8.3540     92.8280     42.3976   3.7645340105e+01   5.5753111183e+01    0.2200873     0.127607  39.69 0.0009455517    1.706    0.414
       446  -7.6503    140.4884     41.4408   2.4786014675e+01   4.4180584860e+01    0.1472964    0.1380942  77.69 4.652365e-05    1.042    0.040
       447  -8.6461    105.9343     41.1572   3.3088867239e+01   5.2884731992e+01    0.2229401    0.2012885 -82.15 0.0005983374    1.274    0.215
       448  -8.4872     36.9580     40.6894   6.1466428548e+01   6.6178179109e+01     0.220676    0.1890796  89.11 0.0007226057    1.602    0.376
       449  -7.7104    176.7296     40.3634   1.8251516612e+01   3.5157243389e+01    0.1487946   0.09746122 -59.36 0.0006997849    1.656    0.396
       450  -8.0044    160.5424     39.4971   2.0481593906e+01   3.9320553030e+01     0.260635    0.1141838 -41.79 0.0008924823    2.282    0.562
       451  -8.7079     95.3165     37.7420   3.4958525711e+01   5.5931402546e+01    0.2637131    0.1741651 -46.78 0.0007264152    1.727    0.421
       452  -8.1795     80.6018     36.3327   3.9440472090e+01   5.9453062510e+01    0.2584325    0.1354939 -41.48 0.0006316288    2.040    0.510
       453  -9.2591     69.7268     41.4888   4.5923414769e+01   6.0777937129e+01    0.3344763    0.2713241 -72.54  0.001086302    1.737    0.424
       454  -9.2975     26.1848     35.3507   6.5620073641e+01   6.8518782539e+01    0.2812866    0.2241255 -71.56 0.0007911074    1.543    0.352
       455  -8.0489    125.9714     35.3305   2.5761411260e+01   4.8740542938e+01    0.2061698    0.1800332  59.73  0.000428959    1.071    0.066
       456  -8.4982    111.7435     34.1671   2.8781989093e+01   5.2495383238e+01    0.2315203    0.1775108 -55.69  0.000700334    1.522    0.343
       457  -8.0144     88.9783     34.4855   3.5685428932e+01   5.7895039461e+01    0.1901853    0.1298698  79.28 0.0006241422    2.287    0.563
       458  -8.8143     48.5429     33.1456   5.2166776892e+01   6.6045206797e+01     0.226696    0.2077598  61.16 0.0005659093    1.402    0.287
       459  -8.3702    119.2022     33.1704   2.6535321598e+01   5.0757794778e+01    0.2012056    0.1694649 -67.41 0.0005454536    1.350    0.259
       460  -8.6667     60.8707     32.5734   4.5921356226e+01   6.4036872368e+01    0.2498494    0.1997606 -45.53 0.0007391159    1.393    0.282
       461  -9.0022     72.1913     30.5845   4.0156779593e+01   6.2156141954e+01    0.3670782    0.2182906 -51.35  0.001000172    2.215    0.548
       462  -8.9495     12.9013     29.9704   7.2042170404e+01   7.0815477958e+01    0.3220454    0.1813321 -75.67  0.001558373    2.349    0.574
       463  -8.3589    101.6744     29.3266   2.9585531588e+01   5.5650748235e+01    0.2196286     0.168329 -73.95 0.0006707136    1.730    0.422
       464  -8.9076     81.6260     27.3561   3.5113343382e+01   6.0624092697e+01    0.3025209    0.2325993 -54.98 0.0008732869    1.640    0.390
       465  -8.5723      3.8202     27.3485   7.7314616506e+01   7.1926367374e+01    0.1965286    0.1586614 -72.09 0.0007545896    1.336    0.251
       466  -8.7495     91.9211     26.2503   3.1183411525e+01   5.8415171304e+01    0.2881816    0.1918521 -47.80 0.0006657113    1.788    0.441
       467  -8.0545    120.8512     21.7940   2.1827001308e+01   5.1770715871e+01    0.1910329    0.1631416 -71.23 0.0004191053    1.290    0.225
       468  -8.1384    104.4779     22.5353   2.5997358776e+01   5.5845983861e+01    0.1434041    0.1332566  61.31 0.0001146171    1.066    0.062
       469  -8.9941     63.6192     20.7668   3.9039540174e+01   6.5414127759e+01     0.278326    0.2320886 -49.64 0.0008484127    1.477    0.323
       470  -8.6180     48.5479     21.3875   4.6546106410e+01   6.8118668241e+01    0.2085035    0.1896861 -57.19 0.0006555386    1.436    0.304
       471  -8.0402     34.4560     22.5377   5.5075230933e+01   7.0078372920e+01    0.1290449    0.1161891  -6.00 0.0008066304    1.078    0.072
       472  -7.9904     19.5399     21.0370   6.4028455460e+01   7.2104221134e+01    0.1613748    0.1140204 -85.36 0.0005472457    2.535    0.606
       473  -8.9267     74.0268     19.1498   3.4027047799e+01   6.3459456018e+01    0.2904353    0.1969218 -40.02 0.0007287684    1.654    0.395
       474  -8.2944     88.0032     17.5108   2.8469402206e+01   6.0478719331e+01    0.2474028    0.1897162 -47.24 0.0006611308    1.535    0.349
       475  -8.1378     38.6312     18.2665   5.0412803386e+01   7.0235132199e+01      0.17716    0.1131448 -30.08 0.0003795692    1.539    0.350
       476  -7.5782    112.5813     16.5418   2.1561725421e+01   5.4495066321e+01    0.1415539    0.1299392  59.07  0.000104502    1.020    0.020
       477  -8.1059     30.2155     16.1063   5.4453025120e+01   7.1801572153e+01    0.1570036    0.1542861 -37.64 0.0005112828    1.350    0.259
       478  -8.1117    191.7675    249.6051   5.9682825213e+01   4.9707349969e-01     0.153494   0.08110524  35.80 0.0004915151    1.668    0.400
       479  -7.9479     17.3940     14.1809   6.2312074518e+01   7.3637318143e+01    0.1619518    0.1155957 -59.06  0.000373598    1.669    0.401
       480  -7.8407     83.6602     11.2800   2.6859916628e+01   6.2238478679e+01     0.133776    0.1080777 -80.07 0.0002813028    1.623    0.384
       481  -9.2852    175.5777    247.5284   6.2402490345e+01   2.7769253934e+00     0.243462    0.2029179  56.91  0.001617738    1.963    0.491
       482  -7.8402     47.6945     10.3054   4.0955332132e+01   6.9969846852e+01    0.1174373    0.1077909 -86.88 0.0002453738    1.603    0.376
       483  -8.2662    113.4330    248.4879   7.4753306270e+01   1.0717389184e+01    0.1641036    0.1129083 -84.36  0.001018142    2.342    0.573
       484  -8.2986     93.4472    248.9276   7.8866446951e+01   1.3171034901e+01    0.2238002    0.1281667  61.62  0.001290103    2.152    0.535
       485  -9.0149    243.0477    246.1912   5.0483240570e+01  -5.0602876725e+00    0.3256993    0.1341989 -22.59  0.001915712    2.433    0.589
       486  -8.9273    218.6353    247.1015   5.4623391770e+01  -2.4365714920e+00     0.272199    0.1150147 -34.94  0.001582538    2.657    0.624
       487  -8.6235    156.3257    247.9972   6.6143697248e+01   5.2023037584e+00    0.2001833    0.1302129  42.43 0.0007140944    1.556    0.357
       488  -9.0909    103.7655    246.3798   7.6527957211e+01   1.2272851896e+01    0.3353814    0.2056769 -89.91  0.001883459    2.834    0.647
       489  -9.9948    223.8803    243.7300   5.3263950298e+01  -2.6837236989e+00    0.3559374    0.2014371 -38.91   0.00223006    2.402    0.584
