#   1 NUMBER                 Running object number                                     
#   2 MAG_AUTO               Kron-like elliptical aperture magnitude                    [mag]
#   3 X_IMAGE                Object position along x                                    [pixel]
#   4 Y_IMAGE                Object position along y                                    [pixel]
#   5 X_WORLD                Barycenter position along world x axis                     [deg]
#   6 Y_WORLD                Barycenter position along world y axis                     [deg]
#   7 A_WORLD                Profile RMS along major axis (world units)                 [deg]
#   8 B_WORLD                Profile RMS along minor axis (world units)                 [deg]
#   9 THETA_WORLD            Position angle (CCW/world-x)                               [deg]
#  10 FWHM_WORLD             FWHM assuming a gaussian core                              [deg]
#  11 ELONGATION             A_IMAGE/B_IMAGE                                           
#  12 ELLIPTICITY            1 - B_IMAGE/A_IMAGE                                       
         1 -12.8481    198.6839     35.7604   5.7337126033e+01   3.0869588392e+01     1.258467    0.8828505  40.05  0.005974661    1.547    0.354
         2 -13.8463    213.6655     19.3429   5.0557208906e+01   2.8886505480e+01     1.630254     1.076322  25.84  0.007576161    1.951    0.487
         3 -10.6477      2.2541      4.5143   1.0833847051e+02   7.4142110067e+01    0.3856948     0.106552 -60.05  0.001675558    3.148    0.682
         4 -11.1190    150.0206    229.0123   1.0899452501e+02   1.0327296194e+01    0.2538275    0.1272153  43.34  0.001477817    1.509    0.337
         5 -11.3621    180.9835    249.7547   1.0619993030e+02   3.1038248257e+00    0.3984496   0.09055234  40.70  0.001675223    3.240    0.691
         6 -12.8699    159.5971    249.0300   1.0959896985e+02   6.3576771987e+00    0.9633679     0.228166  38.92  0.003893511    3.612    0.723
         7 -12.6590    126.5965    247.9770   1.1491928317e+02   1.1300420765e+01    0.4786174    0.3781591  74.14  0.003831695    1.383    0.277
         8 -14.3522     32.4600    246.9736   1.2989093598e+02   2.3243742890e+01     9.047006     3.114596  29.73   0.03405623    7.832    0.872
         9 -11.1652     89.1362    245.3735   1.2085421264e+02   1.6795972429e+01    0.1851487    0.1314034  78.42  0.001450414    1.390    0.281
        10 -15.5671      9.9269    207.8241   1.3189807094e+02   3.1758671164e+01     9.159992     1.545647 -80.51   0.02777016    5.516    0.819
        11 -11.1467     91.6251    221.8023   1.1855897942e+02   2.0023789319e+01     0.382899   0.09886014  47.09  0.001714688    2.836    0.647
        12 -10.1548    223.3808    196.6071   9.1584443088e+01   2.4021613304e+00    0.2721419    0.2047791 -52.13  0.001289966    2.118    0.528
        13  -9.6560    220.0233    190.7246   9.1151887700e+01   3.6705007601e+00    0.2883941     0.183941 -57.33  0.001409049    3.230    0.690
        14 -12.7997      7.5231    247.7850   1.3361365580e+02   2.5584417678e+01    0.9821584    0.3470142  54.57   0.00694627    1.756    0.431
        15 -11.6083     58.7810    190.4877   1.2199670033e+02   2.9726477805e+01    0.3066522    0.2369766 -45.21  0.001762763    1.982    0.495
        16 -11.5782     64.8091    183.4333   1.2018799925e+02   3.0308585715e+01    0.2385031    0.2077889 -63.11 0.0008029347    1.458    0.314
        17 -10.8591     75.0973    172.1448   1.1692008631e+02   3.1155749945e+01    0.2161498    0.1901977  76.02  0.000362443    1.121    0.108
        18 -13.2029     61.8254    169.2810   1.1944199152e+02   3.3448231933e+01    0.4179762    0.2548087 -49.64  0.001871354    2.179    0.541
        19 -11.1187     95.1251    245.5043   1.1988534947e+02   1.5987668373e+01    0.1543142    0.1321535  48.46  0.001292229    1.331    0.249
        20 -11.9747     83.0862    163.8963   1.1422274529e+02   3.1692511389e+01    0.8113323    0.4477175  58.94  0.004260091    1.771    0.435
        21 -12.6205     67.6261    144.2765   1.1525508462e+02   3.7901018770e+01    0.7937598    0.4744892  76.94  0.003480126    1.859    0.462
        22 -11.9047     56.9353    129.5970   1.1592615336e+02   4.2442986766e+01     1.627538    0.5096186 -78.37  0.003904231    8.680    0.885
        23  -9.8057     96.4325    148.6677   1.0906865439e+02   3.2814038671e+01    0.3207868      0.24851 -44.83  0.001027567    1.557    0.358
        24  -9.1344     99.8849    144.7680   1.0763894942e+02   3.3076322497e+01    0.2470054    0.1720868 -35.62  0.001264957    2.006    0.501
        25 -11.9420     84.8210    147.5262   1.1162231243e+02   3.4821171229e+01    0.2575196    0.2198935 -61.55 0.0004380505    1.264    0.209
        26 -13.6555     13.9190    239.6224   1.3241616060e+02   2.6212510232e+01     1.428561    0.6029229  70.27  0.009307782    1.818    0.450
        27 -12.8410     30.4880    222.0663   1.2909410338e+02   2.7356010779e+01    0.3168234    0.2737914  58.26 0.0007798618    1.423    0.297
        28  -9.6021    108.5049    135.1497   1.0390782813e+02   3.3655617059e+01     0.299979    0.2329678 -14.23  0.001446014    1.995    0.499
        29 -10.4443     95.6756    131.8038   1.0646169157e+02   3.6511221992e+01      0.23153    0.2214493  -6.65 0.0005335059    1.306    0.234
        30  -9.3445    106.0580    122.3138   1.0204557892e+02   3.6816718934e+01    0.1864965    0.1650479  56.61 0.0003327374    1.104    0.094
        31 -10.1487    167.9359    113.0424   8.5190333916e+01   2.6113313734e+01    0.3784552    0.2905046 -83.38  0.001309471    1.821    0.451
        32  -9.1808    203.6339    111.6719   7.7691163078e+01   1.8274969519e+01    0.2382487    0.1678623  15.49 0.0008568881    1.727    0.421
        33 -14.5508     37.8107    213.5070   1.2741605836e+02   2.8017831760e+01     1.553074     1.195986  29.13  0.007994065    1.834    0.455
        34  -9.8644    244.6523    102.6774   6.8654937370e+01   1.0637579005e+01    0.1472902   0.09907931  16.22  6.40493e-05    1.741    0.426
        35 -11.8496    103.9917    240.0431   1.1798060455e+02   1.5564731356e+01    0.3129775    0.1463898 -60.66   0.00193121    2.690    0.628
        36  -9.8389     53.5688    231.7358   1.2579721162e+02   2.3257732074e+01     0.162229   0.08646481 -72.98 0.0008444828    2.024    0.506
        37 -10.3537     85.0278    249.5338   1.2181263047e+02   1.6735591576e+01    0.1616122   0.07355215  44.53  0.000660996    1.599    0.375
        38 -12.8170    138.5280    249.2468   1.1307676820e+02   9.4211825692e+00    0.7313833    0.2281602  45.07  0.003702957    2.285    0.562
        39  -9.9719    189.8073     15.4368   5.2233126086e+01   3.5609805097e+01    0.2335071    0.1803524 -13.17 0.0008413494    1.405    0.288
