#   1 NUMBER                 Running object number                                     
#   2 MAG_AUTO               Kron-like elliptical aperture magnitude                    [mag]
#   3 X_IMAGE                Object position along x                                    [pixel]
#   4 Y_IMAGE                Object position along y                                    [pixel]
#   5 X_WORLD                Barycenter position along world x axis                     [deg]
#   6 Y_WORLD                Barycenter position along world y axis                     [deg]
#   7 A_WORLD                Profile RMS along major axis (world units)                 [deg]
#   8 B_WORLD                Profile RMS along minor axis (world units)                 [deg]
#   9 THETA_WORLD            Position angle (CCW/world-x)                               [deg]
#  10 FWHM_WORLD             FWHM assuming a gaussian core                              [deg]
#  11 ELONGATION             A_IMAGE/B_IMAGE                                           
#  12 ELLIPTICITY            1 - B_IMAGE/A_IMAGE                                       
         1 -14.3572    223.1777      8.3878   3.4114934201e+01   2.9184893861e+01     1.239247     1.045927  45.98  0.004495366    1.488    0.328
         2 -15.1050    196.1998     39.0867   4.4471335248e+01   3.1844931069e+01     2.753906     1.646951  26.39   0.01171212    2.820    0.645
         3 -10.5776    189.8923     14.8505   3.8877119607e+01   3.6145337815e+01    0.2133119    0.1867985 -38.45 0.0007926938    1.224    0.183
         4 -11.8316     74.7921     13.2770   6.1163222347e+01   6.2834264322e+01    0.4504015    0.2586911  64.25  0.002019716    2.708    0.631
         5 -10.9456     65.9905    207.1408   1.1278810043e+02   2.2995461979e+01    0.2335507    0.1930482  88.07 0.0006275936    1.123    0.110
         6 -13.2107    248.0501    247.3636   8.1640339708e+01  -1.0567550758e+01     1.176344    0.3006389 -35.64  0.004984799    3.945    0.747
         7 -19.4685     14.2491    149.7767   1.1908059139e+02   4.1615087743e+01     19.14733     5.463988 -78.82   0.06912107    3.511    0.715
         8  -9.6635     57.4934    211.4962   1.1504585232e+02   2.3126089901e+01    0.2410617    0.1843885  84.57 0.0007152922    1.196    0.164
         9  -9.7677     55.5026    207.0104   1.1504186198e+02   2.4324063946e+01    0.3118644    0.1821448  89.24  0.001338654    1.801    0.445
        10  -9.1554     70.8500    210.7617   1.1211639086e+02   2.1594840778e+01    0.1705195    0.1218666  65.13 0.0004575593    1.318    0.242
        11 -10.8868     41.5452    207.8588   1.1807120231e+02   2.5750238421e+01    0.2390574    0.1464765  71.19 0.0009077109    1.536    0.349
        12 -16.5021     69.8766    144.4228   1.0330216225e+02   3.7182941478e+01     13.18674      6.49024  75.47   0.03209327    7.534    0.867
        13  -8.9009    224.2652    206.6907   7.8833413388e+01  -1.8557961035e+00    0.1083893    0.1039321 -43.94   0.00022065    1.535    0.349
        14  -9.6546     93.7232    205.4206   1.0644156154e+02   1.9555136667e+01    0.2490107    0.2004022   3.70 0.0009815454    1.670    0.401
        15 -10.5199     96.3083    202.3275   1.0545095349e+02   1.9833383308e+01    0.2304182    0.1807754 -52.70 0.0009096001    1.382    0.277
        16 -12.0439    193.5141    196.0320   8.2854334964e+01   4.8413425609e+00     1.456527     0.794212 -60.74   0.00517761    4.233    0.764
        17 -12.0792    203.9483    200.2925   8.1553733019e+01   2.3725047632e+00    0.4894189    0.2004258  31.62  0.001982974    2.522    0.603
        18 -11.7634     63.7263    201.6919   1.1270825640e+02   2.4465012439e+01      0.22808    0.2073205 -63.60  0.000401956    1.241    0.194
        19  -9.8604     67.6521    196.5415   1.1125620034e+02   2.5100356386e+01    0.3330591    0.2194722 -72.04  0.001840453    1.478    0.324
        20 -11.2311     39.1834    199.8867   1.1789089109e+02   2.7733075715e+01    0.2054196    0.1446899  50.93 0.0004587278    1.312    0.238
        21 -13.3646     52.8106    196.3811   1.1458133568e+02   2.6971850540e+01    0.5301452    0.2909232 -44.61  0.002578116    2.461    0.594
        22 -13.6234     64.0361    183.1914   1.1051349254e+02   2.8598043156e+01    0.8965408    0.6973283 -37.74  0.005123542    1.609    0.379
        23 -11.6494    163.0929    217.6704   9.3029315383e+01   6.1270746103e+00    0.2529213      0.19483 -30.56  0.001124166    1.410    0.291
        24 -11.4184     62.2418    250.4271   1.1741080761e+02   1.4915264645e+01    0.3374756    0.1340195  36.58  0.001735784    2.202    0.546
        25  -9.9396     82.2353    194.9117   1.0770776560e+02   2.3493326456e+01    0.2487438    0.2097323 -47.02  0.001479442    1.352    0.260
        26  -8.5061     79.4801    192.0023   1.0797401779e+02   2.4529272574e+01    0.2842152    0.1762322  71.04 0.0008309415    1.919    0.479
        27 -10.0214     63.2223    214.1477   1.1409044541e+02   2.1859588464e+01    0.1843815    0.1492585  55.14 0.0002745857    1.104    0.095
        28 -11.3806    151.8262    192.6864   9.1228084996e+01   1.2732021214e+01    0.4277409    0.2779176 -66.34  0.001759531    2.198    0.545
        29 -12.6223    147.9433    187.0084   9.1082256384e+01   1.4567002016e+01    0.5733424    0.3427549 -56.86  0.002584564    1.963    0.491
        30 -10.7329    210.4866    188.4846   7.7982387988e+01   3.2682334320e+00    0.1388383    0.1188133  -1.43 0.0002813269    1.005    0.004
        31 -10.4555     92.2298    184.4208   1.0388916653e+02   2.4405469750e+01     0.280032    0.2488228  19.97 0.0006012034    1.274    0.215
        32 -10.2093     58.0190    227.6050   1.1638442135e+02   1.9754813293e+01    0.1796796    0.1341584  77.48 0.0004902753    1.207    0.171
        33 -12.1104     99.0322    180.9981   1.0171162015e+02   2.4146504077e+01    0.4110273    0.3054496  22.28  0.001524117    1.551    0.355
        34 -10.1016     59.5086    220.3990   1.1545083016e+02   2.1026469109e+01    0.3053721    0.2034612 -48.88  0.001786462    1.912    0.477
        35 -12.4469    240.9202    178.0635   7.0234368963e+01   1.0911153831e-02     0.442304    0.2189298  39.75  0.002121118    2.173    0.540
        36 -11.3590    187.2245    175.7379   8.0152443023e+01   9.6451816799e+00    0.3927853       0.3352 -45.76  0.001152798    1.300    0.231
        37 -11.0450    185.1098    168.7062   7.9135079143e+01   1.1381802448e+01    0.3608813    0.2572498 -54.14 0.0009978929    1.686    0.407
        38 -10.7955    148.5349    175.5233   8.8771006705e+01   1.6853350111e+01    0.2718017    0.2366857 -75.47  0.000554632    1.381    0.276
        39 -11.3832    146.6605    172.1129   8.8541728668e+01   1.7924328778e+01    0.3260404     0.273887 -65.57  0.001256161    1.373    0.272
        40 -11.1961     47.7439    172.8534   1.1321152328e+02   3.2967639315e+01    0.4061095    0.3487888 -31.59   0.00193828    1.472    0.321
        41 -11.5196     53.0621    172.0540   1.1181052773e+02   3.2550470051e+01    0.9490898    0.2647287 -56.18  0.001473537    3.171    0.685
        42 -11.1027     84.3454    173.7437   1.0423075835e+02   2.8046375929e+01    0.2503828    0.2268811 -33.11 0.0002022775    1.267    0.211
        43 -12.6619    241.5383    170.3036   6.8543548776e+01   1.1465815650e+00    0.3656316    0.3280911 -52.58  0.002265787    1.511    0.338
        44  -9.9344    193.5702    170.6317   7.7755728735e+01   9.4376973686e+00    0.2387051    0.2252945 -35.91 0.0007271646    1.194    0.163
        45 -10.9092    137.4627    168.0937   8.9954622867e+01   2.0495914904e+01    0.3447541    0.2542179  46.45  0.001218816    1.376    0.273
        46 -11.0196     71.7927    186.1144   1.0903116957e+02   2.6914484328e+01    0.2254933    0.2011515  80.61 0.0003381272    1.016    0.015
        47 -11.0936    231.2102    169.8018   7.0265827458e+01   2.9232165022e+00    0.2096798    0.1561774 -75.07 0.0009601363    2.858    0.650
        48 -12.7322     93.8986    150.9174   9.7838479600e+01   3.2065926144e+01    0.7300274    0.6264312 -17.32  0.003037271    1.364    0.267
        49 -11.3594    133.0000    140.9651   8.5280706326e+01   2.7454515511e+01    0.5924391    0.2100452 -50.34  0.001739666    2.891    0.654
        50 -10.6405    112.2710    150.6372   9.2840224187e+01   2.9054285596e+01    0.4547928    0.2929146  69.68  0.001823252    2.384    0.581
        51 -10.4788    174.7160    149.1993   7.7116998861e+01   1.7293931798e+01    0.2521117    0.2234389  31.07  0.000658781    1.134    0.118
        52 -10.5109    143.5923    145.3949   8.3603812655e+01   2.4369683295e+01    0.3092391    0.1416369 -59.57 0.0009582171    3.389    0.705
        53 -11.7169    134.2800    147.5247   8.6431799447e+01   2.5711857280e+01    0.9039418    0.2691374 -52.25  0.002584223    3.781    0.736
        54 -11.4118    105.8269    137.6718   9.1846552918e+01   3.3275325667e+01    0.5523332    0.3381121 -31.19  0.002264717    2.068    0.516
        55 -11.3723    106.0415    130.8958   9.0268611935e+01   3.4858655214e+01    0.4372405    0.3366303 -63.24  0.001210089    1.369    0.270
        56 -12.3557     93.6661    137.1312   9.5152570198e+01   3.5455269564e+01    0.2918438    0.2606783 -37.82 0.0003863524    1.130    0.115
        57 -11.4867    135.9944    128.7446   8.1593920612e+01   2.9629098069e+01    0.6510409    0.1812012 -48.16  0.001826705    3.653    0.726
        58  -9.3248     96.9819    128.9815   9.2428228227e+01   3.6884109491e+01    0.1730133    0.1680782 -43.19 0.0009485735    1.022    0.022
        59 -10.1179    160.7938    127.8868   7.5222218744e+01   2.4630365747e+01    0.2999181     0.222104 -60.29  0.001349623    1.605    0.377
        60 -11.1796    101.1656    124.6766   9.0221446034e+01   3.7201269763e+01    0.2883275     0.240384 -15.65 0.0004867423    1.355    0.262
        61 -11.4495    120.0174    122.9943   8.4457348468e+01   3.4118039864e+01    0.4556828     0.323199  -9.67  0.001922086    1.984    0.496
        62 -11.2183    113.7313    128.8028   8.7618525679e+01   3.3958437355e+01    0.3559484    0.3020346  -1.56 0.0007484289    1.347    0.258
        63 -10.1553    109.2711    118.0588   8.6258762078e+01   3.7304252467e+01    0.2359618    0.2159795  30.66  0.000331502    1.131    0.116
        64  -9.5756     75.7205    220.9333   1.1214350369e+02   1.8843197150e+01    0.1683089    0.1659863  -9.02  0.000635874    1.294    0.227
        65 -10.8553    231.3074    113.8083   5.7845997631e+01   1.2470215300e+01    0.2951427    0.2539697 -29.40 0.0007851272    1.042    0.041
        66  -9.8570    167.6592    112.6083   6.9715234851e+01   2.6290595693e+01    0.3193056    0.2312398 -78.44   0.00132616    2.138    0.532
        67 -10.5782    134.6751    106.4848   7.6133939990e+01   3.4809906510e+01    0.3958829    0.1465674 -43.74  0.001290601    2.640    0.621
        68 -12.1807    118.3836    109.8685   8.1519247880e+01   3.7428289884e+01    0.6408196    0.5207368  83.74  0.002848688    1.654    0.395
        69 -10.4224    205.4885    110.3233   6.1422862547e+01   1.8399652221e+01    0.2960874    0.2471769  31.07  0.000870795    1.307    0.235
        70  -8.9281    143.7166    110.6940   7.4939555139e+01   3.1965382792e+01    0.1571715    0.1231053  -3.22 0.0002746994    1.561    0.359
        71 -10.5220     63.1952     99.9866   9.6190197493e+01   4.8944821838e+01    0.3317501    0.2047926  13.40  0.001515417    2.070    0.517
        72 -10.1400     53.0703    220.0000   1.1672939068e+02   2.1885789448e+01    0.2070628     0.118139  43.10  0.001183972    1.559    0.359
        73 -11.4083    184.5113    212.3225   8.7672254595e+01   3.5435977561e+00    0.2870499    0.2494794 -33.45  0.001764245    1.273    0.214
        74 -11.8920     49.1653    216.5556   1.1723125170e+02   2.3054876518e+01    0.3371633    0.2460764  73.29  0.001459264    1.200    0.166
        75  -9.4348    156.4634     82.5291   6.3901153958e+01   3.4674703575e+01    0.1513979    0.1484137 -10.57 7.947788e-05    1.001    0.001
        76 -10.9654     89.8465    212.2790   1.0815537610e+02   1.8674627226e+01    0.2424433    0.1980629  80.20 0.0005552177    1.225    0.183
        77 -12.3547     49.0574    248.1749   1.1966243740e+02   1.6895622930e+01    0.1982141    0.1464584  89.37  0.001419951    1.288    0.224
        78 -13.4896    180.4808     53.0060   5.0623948959e+01   3.3726140817e+01    0.7844692    0.7155805  16.69 0.0007564332    1.236    0.191
        79 -11.6611     71.9477    245.7169   1.1521251102e+02   1.4555511010e+01    0.3499001    0.1669802 -70.00  0.001903179    2.302    0.566
        80  -9.4499     62.1595    210.6445   1.1397158926e+02   2.2731302089e+01     0.270101    0.1693881  10.24 0.0009795742    2.788    0.641
        81  -9.9162    167.7752    231.6388   9.4254675960e+01   3.0127072239e+00    0.2297346    0.1724663  -2.05  0.001071101    1.484    0.326
