#   1 NUMBER                 Running object number                                     
#   2 MAG_AUTO               Kron-like elliptical aperture magnitude                    [mag]
#   3 X_IMAGE                Object position along x                                    [pixel]
#   4 Y_IMAGE                Object position along y                                    [pixel]
#   5 X_WORLD                Barycenter position along world x axis                     [deg]
#   6 Y_WORLD                Barycenter position along world y axis                     [deg]
#   7 A_WORLD                Profile RMS along major axis (world units)                 [deg]
#   8 B_WORLD                Profile RMS along minor axis (world units)                 [deg]
#   9 THETA_WORLD            Position angle (CCW/world-x)                               [deg]
#  10 FWHM_WORLD             FWHM assuming a gaussian core                              [deg]
#  11 ELONGATION             A_IMAGE/B_IMAGE                                           
#  12 ELLIPTICITY            1 - B_IMAGE/A_IMAGE                                       
         1  -8.5864     55.7989     10.2262   8.3613350809e+01   6.7420712579e+01    0.2115199    0.1497431 -39.43 0.0007479269    1.382    0.277
         2  -7.8947     47.5182     10.0569   8.7005141042e+01   6.8673417972e+01    0.1875986    0.1046141 -38.43  0.001010509    1.557    0.358
         3  -8.0660     28.0483     10.3024   9.6253282193e+01   7.1040692227e+01    0.1597655    0.1310108 -31.08 0.0005892426    1.067    0.063
         4  -8.1884     91.0083      9.0973   7.0882203580e+01   6.1123470168e+01    0.2082134    0.1593872 -56.59 0.0008630158    1.723    0.420
         5  -7.6095    101.4799      8.4104   6.7684994277e+01   5.8944944429e+01    0.1355785    0.1256396   7.33 0.0001155315    1.039    0.037
         6  -7.7664     12.5273      8.5172   1.0354645565e+02   7.2787920831e+01    0.1142531   0.08774821 -41.43 2.134854e-05    1.049    0.047
         7  -8.8245      5.6263      8.2153   1.0724280948e+02   7.3341574684e+01    0.1658234   0.07334598 -47.94  0.000597458    1.618    0.382
         8  -8.5144     33.4524      5.1385   9.0894679108e+01   7.1284501272e+01    0.2943945    0.1707927 -58.00  0.001438223    2.895    0.655
         9  -8.5834     79.0150      3.6305   7.1748183378e+01   6.4203628201e+01    0.2593988    0.1566128 -38.18  0.001035353    1.740    0.425
        10  -7.9154     44.6960      3.3240   8.4603483346e+01   7.0082407648e+01    0.1120621   0.09186807 -52.16 0.0004830771    1.640    0.390
        11  -7.5506    115.4517      2.5143   6.1658942226e+01   5.6334971813e+01    0.1357409    0.1309485  -7.44 0.0008067939    1.094    0.086
        12  -8.3725     62.2761      1.4952   7.6354241025e+01   6.7553149777e+01    0.1901896    0.1258398  52.56 0.0003149596    1.821    0.451
        13  -9.1806    120.3049    245.5490   1.1752769333e+02   1.2931064344e+01    0.2968595    0.1645494  71.92   0.00182528    2.353    0.575
        14  -8.9582    235.5094    249.4592   1.0022242079e+02  -4.1640959939e+00    0.2120644    0.1246367  31.74  0.001277272    1.215    0.177
        15  -8.4266    232.6478    247.3194   1.0035974040e+02  -3.5867313494e+00    0.1638879    0.1275554  38.41 0.0007087089    1.323    0.244
        16  -8.1881    191.7641    249.8475   1.0680950359e+02   2.0525088679e+00    0.1373884    0.1015607  51.98  0.000578295    1.389    0.280
        17  -8.7884     93.6598    249.2736   1.2199276983e+02   1.6037857800e+01    0.2512318    0.1214975  67.10   0.00139368    2.198    0.545
        18  -7.6253     86.2973    250.6606   1.2322184725e+02   1.6796302545e+01    0.1041593   0.05469248  64.29 0.0005149408    1.660    0.397
        19  -9.7619     10.8391    245.3750   1.3413830043e+02   2.5987528420e+01    0.4135417   0.09243788  62.93  0.002162039    3.457    0.711
        20  -8.0817    139.5707    244.7671   1.1440427491e+02   1.0283179198e+01    0.1223954   0.09365997  87.70  0.000934174    1.651    0.394
        21  -9.4761    248.5976    242.3818   9.7367727784e+01  -5.3929294200e+00    0.2086063    0.1889159 -32.90  0.001381867    1.830    0.453
        22  -8.8642    201.9320    242.9780   1.0441888805e+02   1.2458403189e+00    0.2157566    0.1426122 -44.56  0.001108885    2.182    0.542
        23  -8.7080    169.0247    243.4377   1.0960266480e+02   6.1003478321e+00    0.1659651    0.1369448  75.97 0.0006491642    1.575    0.365
        24  -9.4129     77.7483    243.2016   1.2403392721e+02   1.8926418638e+01    0.2371645    0.1231259 -87.35  0.001582232    2.248    0.555
        25  -7.8043     34.5063    244.4940   1.3067720621e+02   2.3741989961e+01   0.09767114   0.06175418  63.92 -1.167117e-06    1.042    0.040
        26  -9.1602    194.4342    240.5363   1.0527440614e+02   2.6115033153e+00    0.2799273    0.1801165 -48.12  0.001170209    2.279    0.561
        27  -8.0047     49.6744    242.9864   1.2833596734e+02   2.2306094315e+01     0.151167   0.05355909  78.76 0.0007040805    4.230    0.764
        28  -9.3647    183.0598    240.1704   1.0701103606e+02   4.3604979202e+00    0.3443582    0.2009218  63.85  0.001945037    2.743    0.635
        29  -9.3346    160.1813    240.3718   1.1066413601e+02   7.7802735228e+00    0.2449122    0.1748583 -81.71  0.001339301    2.242    0.554
        30  -7.9201    153.5017    241.9988   1.1190608275e+02   8.5802358801e+00     0.124343    0.1071621 -63.79 0.0006609884    1.550    0.355
        31  -8.2349     88.3563    242.2199   1.2230328009e+02   1.7712445512e+01    0.1280304   0.08129469  86.79 0.0007182846    1.679    0.404
        32  -9.4830    241.5807    238.6337   9.7868979755e+01  -4.1062993482e+00    0.4950318    0.2322611  -2.71  0.002440526    3.918    0.745
        33  -9.2759    247.9056    234.9735   9.6423740285e+01  -4.6877742170e+00    0.2061426    0.1736676   3.43  0.001044575    1.329    0.247
        34  -9.6165    246.4867    229.5085   9.5839861815e+01  -4.0196907100e+00     0.347755     0.178318 -22.34  0.001936046    2.207    0.547
        35  -7.9734    214.2833    241.6328   1.0235875500e+02  -4.4282509886e-01    0.0925931    0.0765618  59.77 0.0007017225    1.693    0.409
        36  -8.4547    146.9547    240.4099   1.1278535206e+02   9.7461829916e+00    0.2311718    0.1380692  69.65  0.001400023    2.331    0.571
        37  -9.2245    231.0508    237.6460   9.9294264449e+01  -2.5166139700e+00     0.260414    0.1827554  57.72  0.001535841    2.135    0.532
        38  -8.7036    209.1328    238.4414   1.0273056176e+02   6.2741366562e-01    0.1530642    0.1302167  44.62 0.0006351323    1.335    0.251
        39  -8.6308    135.7523    239.0612   1.1445009282e+02   1.1567443516e+01    0.1660542    0.1129616  61.10 0.0008392055    1.361    0.265
        40  -8.2484    129.2269    238.8924   1.1548688474e+02   1.2539443714e+01    0.2065781    0.1263377  67.62   0.00126755    1.812    0.448
        41  -8.5788     67.5634    245.2891   1.2574123128e+02   1.9878515401e+01    0.1563086   0.08452141 -83.06  0.001122894    1.990    0.497
        42  -8.3217     13.1924    238.3781   1.3356654457e+02   2.6811438087e+01    0.1344808   0.05238973  50.97 0.0006084195    1.707    0.414
        43  -8.1601     25.3884    236.5856   1.3169465020e+02   2.5880305858e+01    0.1807757    0.0594277  83.17 0.0009527751    3.449    0.710
        44  -8.9797    217.0038    235.5252   1.0113344757e+02  -2.5878294877e-01    0.2212355    0.1469944  46.64  0.001003306    1.438    0.305
        45 -10.2389    213.6555    231.6925   1.0112897248e+02   6.2084219481e-01    0.3910553    0.2438228 -40.28   0.00265771    2.184    0.542
        46  -9.2299    203.1867    234.0304   1.0307494120e+02   1.9684329207e+00    0.2904573     0.175491 -42.42  0.001728284    2.270    0.559
        47  -9.7077    175.7492    233.4097   1.0735727023e+02   6.2389111130e+00    0.3499371    0.2038381 -58.70  0.002119184    2.819    0.645
        48  -8.2901    170.3575    236.1252   1.0854981657e+02   6.7459913340e+00    0.1231588    0.1013744 -71.31  0.000602591    1.733    0.423
        49  -9.2828    109.0622    234.6219   1.1836590513e+02   1.6000586855e+01    0.4195619    0.1553912  54.98  0.001382703    2.470    0.595
        50  -8.0818     57.7948    236.7923   1.2674157451e+02   2.2298224885e+01    0.1640103   0.04364871  48.24 0.0008690683    2.489    0.598
        51  -7.7417    153.2824    235.6471   1.1125288763e+02   9.3963134410e+00    0.1050188   0.07210062  66.12 0.0007016556    1.657    0.397
        52  -8.2484    123.0757    234.2648   1.1604084177e+02   1.4055878115e+01    0.1917755    0.1161818  74.55   0.00093304    2.067    0.516
        53  -8.4537     99.6133    234.5952   1.1990329093e+02   1.7309627594e+01     0.205981    0.1075096  66.03   0.00100353    1.951    0.487
        54  -9.1040     79.0450    234.6489   1.2323336502e+02   2.0017647626e+01    0.2614068    0.1164871  60.82   0.00114711    1.968    0.492
        55  -9.4378      8.8413    234.0312   1.3405612598e+02   2.7889518730e+01    0.1919009    0.0879778 -60.98  0.001265471    3.272    0.694
        56  -9.7322     68.4766    232.4719   1.2477822412e+02   2.1671391474e+01    0.4011196    0.1745641  74.56  0.002205446    2.814    0.645
        57  -8.6828    194.5336    232.1636   1.0419469954e+02   3.4888063701e+00     0.221975    0.1444905 -19.84  0.001093037    2.087    0.521
        58  -8.7900    140.2520    230.1716   1.1279209244e+02   1.2074260991e+01    0.3078701    0.1308083  58.24  0.001196621    2.895    0.655
        59  -8.3466    132.8882    232.9242   1.1429677127e+02   1.2803216178e+01    0.1723691    0.1053984  64.00 0.0007387302    1.697    0.411
        60  -8.5308     92.9906    232.1387   1.2078108491e+02   1.8565757274e+01    0.3024894    0.1276608  65.61  0.001363702    3.000    0.667
        61  -9.6483    236.2268    230.2714   9.7479862197e+01  -2.6028806820e+00    0.3189464    0.1696797 -22.72  0.000888719    2.201    0.546
        62  -9.3921    186.4570    230.7067   1.0529654074e+02   4.8969940373e+00    0.2596844     0.201553 -87.89  0.001258836    2.221    0.550
        63  -8.0965    157.8594    232.1219   1.1010993461e+02   9.1428113239e+00    0.1644147      0.12221  58.02 0.0005777345    1.293    0.227
        64  -8.6481      1.8699    231.1427   1.3498858564e+02   2.8977656771e+01    0.1508945   0.07630451  64.71 0.0006262962    1.301    0.232
        65 -10.2550    149.0496    225.9576   1.1085810188e+02   1.1295678377e+01    0.4686106    0.2942181  80.87  0.002639515    2.733    0.634
        66  -7.9910    229.7895    228.8489   9.8249378884e+01  -1.5223005804e+00    0.1327745    0.1142527  37.34 0.0006324066    1.358    0.264
        67  -8.6871    162.2398    227.9544   1.0890093611e+02   8.9919490008e+00    0.2434754    0.1600961  74.07  0.001092404    2.339    0.573
        68  -8.8360    127.9922    227.3766   1.1453922900e+02   1.4294996888e+01    0.2434686    0.1551512  66.65  0.001063051    1.639    0.390
        69  -8.2099    119.9873    227.7690   1.1591867529e+02   1.5418246089e+01    0.1809083    0.1263655  84.89  0.001258882    1.672    0.402
        70  -8.6328      8.3086    228.6397   1.3395250253e+02   2.8779855339e+01    0.1041838    0.0422578  64.58 0.0007040828    1.738    0.425
        71  -8.1471    223.4362    226.4878   9.8885320914e+01  -3.4182458097e-01    0.1881121    0.1041239 -28.32 0.0007935293    2.166    0.538
        72  -8.7988    206.0827    225.6876   1.0149046776e+02   2.4029845475e+00    0.2223932    0.1604674 -42.42  0.001114566    1.886    0.470
        73  -8.5374    200.0914    226.4758   1.0255276486e+02   3.2495485130e+00    0.1897442    0.1468653 -39.94  0.001103672    1.708    0.415
        74  -7.8303    177.4392    227.2249   1.0631370574e+02   6.7080264392e+00    0.1249531    0.1081899 -70.10 0.0006954418    1.614    0.380
        75  -8.2401     49.4022    227.2606   1.2750977369e+02   2.4745986176e+01    0.1839088   0.07993196  57.91  0.001177493    1.729    0.422
        76  -8.9907     94.5060    224.5725   1.1989714474e+02   1.9500704224e+01    0.3506863    0.1549458  67.54  0.001736277    3.020    0.669
        77  -8.8473    180.7351    224.3754   1.0540728135e+02   6.5307196955e+00    0.2338311    0.1587814  63.34  0.001206723    1.873    0.466
        78  -8.8846    104.7672    223.7380   1.1809289321e+02   1.8200273856e+01    0.2795542     0.163177  81.37  0.001678267    2.143    0.533
        79  -7.7599     78.3138    225.6202   1.2268459794e+02   2.1490165566e+01    0.1147488   0.05930072  66.93 0.0007025477    1.806    0.446
        80  -7.9838     38.6114    225.2742   1.2912240262e+02   2.6263721298e+01    0.1705537   0.07584018  65.28  0.001103205    1.802    0.445
        81  -9.0985    216.5812    223.2331   9.9485856748e+01   1.0344762372e+00    0.2332148    0.1810008 -35.14  0.001382816    1.681    0.405
        82  -8.5339    173.0363    223.3340   1.0654223186e+02   7.8760263145e+00    0.1791768    0.1443365  73.19 0.0007586636    1.587    0.370
        83  -7.9469    113.6538    223.8621   1.1660079885e+02   1.6909112422e+01    0.1335761   0.09389836 -86.19 0.0004575647    1.646    0.393
        84  -9.3509    192.4053    221.3090   1.0308715598e+02   5.0414474457e+00    0.2539609    0.2128409 -82.44  0.001078603    1.880    0.468
        85  -8.4435    140.5547    222.8128   1.1192920142e+02   1.3033501668e+01    0.1354874     0.102194 -85.25  0.000798976    1.694    0.410
        86  -9.0951    238.8414    221.5438   9.5800244584e+01  -2.1827933108e+00    0.1738079     0.156238  36.07 0.0006514128    1.447    0.309
        87  -9.1115    225.6288    221.8294   9.7869177082e+01  -2.1398982021e-01    0.2130038    0.1679377  48.49  0.001100456    1.475    0.322
        88  -8.9093    159.8753    220.9899   1.0844673335e+02   1.0261425783e+01    0.3641923    0.1762117  59.34  0.001428946    2.711    0.631
        89  -9.1442    120.6976    219.5129   1.1495915745e+02   1.6520010625e+01    0.4282162    0.1986085  64.97  0.001971903    3.121    0.680
        90  -8.7908     82.7615    220.6559   1.2154897717e+02   2.1690408280e+01    0.2726178    0.1146855  63.47  0.001416884    2.562    0.610
        91  -8.1423     73.0170    220.9997   1.2321824895e+02   2.2898023588e+01    0.1745386   0.09278829  67.02 0.0006757889    1.687    0.407
        92  -8.2978     27.5119    221.0510   1.3067699080e+02   2.8118696259e+01    0.1392884   0.07754264 -86.59  0.001034064    1.594    0.373
        93  -8.1512    202.8113    220.1670   1.0123979512e+02   3.5189759736e+00    0.1606958    0.1311325  42.20 0.0005877213    1.189    0.159
        94  -9.0317    248.9573    217.9336   9.3726377463e+01  -3.3483310788e+00    0.3073118    0.2420519 -70.23  0.001843691    3.450    0.710
        95  -8.4487    210.2825    219.0696   9.9882807208e+01   2.4583543913e+00    0.1829073    0.1380765  53.04 0.0004846454    1.510    0.338
        96  -8.7635    179.3047    217.4669   1.0472705624e+02   7.6037987260e+00    0.1649744    0.1364271 -89.16 0.0007866211    1.754    0.430
        97  -9.3161    133.0616    216.1959   1.1246239087e+02   1.5133707619e+01    0.4114488    0.2227199  71.47  0.002027188    2.998    0.666
        98  -8.7323     51.5257    217.3950   1.2656263708e+02   2.6096345212e+01    0.2214041    0.1056532  67.99 0.0006772694    1.839    0.456
        99  -8.7540    169.2085    216.3117   1.0627166957e+02   9.3818027860e+00    0.2389273    0.1851663 -86.44 0.0009389248    1.911    0.477
       100  -8.6754    142.8475    216.5480   1.1081121884e+02   1.3558308638e+01    0.1917922    0.1574849  89.24 0.0007938247    1.442    0.306
       101  -8.5876     62.0819    217.2274   1.2478262698e+02   2.4869970692e+01    0.2078417    0.1001675  57.96 0.0008723615    1.630    0.387
       102  -8.1393     18.5167    216.0240   1.3188206302e+02   2.9846018228e+01     0.142428   0.07479988 -89.37  0.001035163    1.607    0.378
       103  -8.6578    232.1779    214.6974   9.5778686145e+01  -5.0771341526e-01    0.1815583    0.1744109 -77.16 0.0009051925    1.706    0.414
       104  -8.1112    154.2234    215.1571   1.0868139640e+02   1.1948718269e+01    0.1549469    0.1183741  65.73 0.0005765463    1.394    0.283
       105  -9.0941     93.3332    214.2560   1.1917982848e+02   2.1281609388e+01    0.3231076    0.1397104  58.53  0.001717154    2.199    0.545
       106  -7.9247     41.3463    215.6750   1.2814845453e+02   2.7532370267e+01        0.113   0.05226551  64.34 0.0007050056    1.744    0.427
       107  -9.4322    213.9934    212.4024   9.8300426554e+01   2.5970398394e+00    0.3057483    0.2248641  66.36   0.00142217    2.150    0.535
       108  -9.5144     73.5335    212.3008   1.2245354112e+02   2.4250347564e+01    0.5511766    0.1657084  58.37  0.002272984    3.902    0.744
       109  -8.3940    224.6781    212.8826   9.6671919765e+01   8.4751717444e-01    0.1496735      0.12737  15.93 0.0009260056    1.150    0.130
       110  -8.8380    161.7583    212.4863   1.0704098811e+02   1.1099531963e+01    0.2069982    0.1557008  66.27 0.0007060543    1.497    0.332
       111  -8.0568    106.4682    212.9964   1.1676143704e+02   1.9616764322e+01     0.145097    0.1041593 -77.98 0.0008682552    1.546    0.353
       112  -7.7927    242.6723    212.3219   9.3795351453e+01  -1.8822228657e+00   0.09575838    0.0863148  56.19   0.00034101    1.689    0.408
       113  -9.0396    204.2879    210.8924   9.9649471183e+01   4.3363349360e+00    0.2145393    0.1937132 -63.74  0.000737045    1.617    0.382
       114  -9.3383    175.6229    210.2136   1.0435377944e+02   9.1317338150e+00    0.3354553    0.2167693  69.85  0.001394077    2.430    0.588
       115  -9.1390      5.9211    208.0810   1.3357811138e+02   3.2360133955e+01    0.3697003    0.1005363  75.44  0.001676248    4.100    0.756
       116  -8.2223    192.4116    210.6231   1.0157516028e+02   6.3126462431e+00    0.1797531    0.1126703 -45.57 0.0007235263    2.079    0.519
       117  -8.7990    147.8869    210.6284   1.0921098361e+02   1.3605026338e+01    0.2548943    0.1641812  70.59  0.001478705    2.016    0.504
       118  -8.9996    116.1745    210.3363   1.1477075167e+02   1.8600599627e+01    0.2651927    0.1685155  80.14 0.0009701027    1.918    0.479
       119  -8.5144     32.5065    210.4126   1.2932189561e+02   2.9370330527e+01    0.2617756   0.09498526  83.64   0.00132831    3.145    0.682
       120  -9.1369    236.5411    208.4606   9.4123821822e+01  -5.5695767705e-01    0.2472802    0.2212259 -74.23  0.001194981    2.022    0.505
       121  -8.6004     85.7949    209.8899   1.2010415214e+02   2.3029150776e+01    0.2136844     0.126676  78.05  0.001337203    1.757    0.431
       122  -9.4335    246.4052    207.4413   9.2446246691e+01  -1.9789960593e+00     0.222198    0.1809242 -15.30 0.0006282205    1.377    0.274
       123  -8.3890    139.2259    208.2113   1.1043501549e+02   1.5348244940e+01    0.2230171    0.1391805  69.49 0.0008030725    1.991    0.498
       124 -10.2338    124.2292    206.2146   1.1287049731e+02   1.8016930788e+01    0.2550561    0.1613678  69.88            0    1.769    0.435
       125  -8.5221    185.8270    214.8764   1.0328161440e+02   6.8679530721e+00    0.1800878    0.1553893  78.81 0.0009519189    1.571    0.363
       126  -7.6719    182.2247    208.2896   1.0295537732e+02   8.2890787359e+00    0.1048762    0.0802552  16.56 0.0002005148    1.445    0.308
       127  -7.9898    156.4156    208.1949   1.0740319711e+02   1.2568286861e+01    0.1417893    0.1109249 -73.51 0.0009399085    1.675    0.403
       128  -9.2573     99.3075    205.9979   1.1732653341e+02   2.1784036181e+01    0.3256698    0.1879717  83.04  0.001616045    2.162    0.537
       129  -8.6871     11.8543    207.1537   1.3257757226e+02   3.1974516936e+01    0.1221961    0.0963601  86.56 0.0004938561    1.322    0.244
       130  -8.2023    109.4294    205.4898   1.1545147118e+02   2.0385155245e+01    0.2056725    0.1246093  67.49  0.000715996    1.691    0.409
       131  -8.5959     56.7195    205.6469   1.2487475519e+02   2.7467311328e+01    0.2897224    0.1091501  62.91  0.001453966    2.692    0.629
       132  -9.4583    195.2510    203.9802   1.0010956418e+02   6.6607210960e+00    0.3342077    0.2813823  73.84  0.001597718    1.638    0.389
       133  -9.1810    192.3724    197.5351   9.9604172372e+01   7.9683231108e+00    0.2909228    0.2426952  86.87 0.0009126772    1.777    0.437
       134  -9.1403    184.0622    203.4027   1.0192714629e+02   8.6160769339e+00    0.3363429    0.2526931 -38.50  0.001304603    1.616    0.381
       135  -8.8350    131.5868    204.4978   1.1134339103e+02   1.7130385225e+01    0.2878925    0.1540093  67.16  0.001087558    2.599    0.615
       136  -9.4879    250.1057    202.0433   9.0997380111e+01  -2.0204401469e+00    0.2906097    0.1566502 -25.20  0.001275721    1.963    0.491
       137  -9.5262    163.6845    202.8547   1.0539735217e+02   1.2120991112e+01    0.3186541    0.2230695  61.51 0.0009449857    1.541    0.351
       138  -9.2895    243.1698    200.9642   9.1876625478e+01  -8.3466800174e-01    0.2541905    0.1823394 -33.09  0.001024289    1.720    0.418
       139  -8.0655    222.0713    201.9684   9.5367313941e+01   2.4455081076e+00    0.1608023    0.1405535  69.33 0.0007819491    1.707    0.414
       140  -8.2854    210.9483    202.0041   9.7185172705e+01   4.2767806900e+00    0.1614632    0.1400508  72.29 0.0005153323    1.668    0.401
       141  -8.9197    140.5878    201.1892   1.0930186006e+02   1.6193746645e+01    0.3149065    0.1950538  73.79  0.001069395    2.285    0.562
       142  -8.4997     80.1865    201.4748   1.2034410803e+02   2.5210328390e+01    0.2752693     0.123024  71.73  0.001272296    3.134    0.681
       143  -8.4012     10.2802    202.5811   1.3264258331e+02   3.2906703724e+01    0.1734444   0.07009237  43.36 0.0008916768    2.033    0.508
       144  -9.5685    149.6310    198.8061   1.0734743652e+02   1.5065588773e+01    0.3692978    0.2392837  80.61  0.001254333    2.465    0.594
       145  -9.3775    236.9142    198.7669   9.2481676127e+01   3.8628213330e-01    0.2120115    0.1798232 -35.60 0.0008500197    1.587    0.370
       146  -8.9783    124.0271    199.4155   1.1209718579e+02   1.9132818346e+01     0.252248    0.1662323  84.56  0.001107666    1.946    0.486
       147  -9.2520    112.9144    198.6473   1.1405130514e+02   2.0985266885e+01    0.3890061    0.2106209  71.43  0.001791006    2.492    0.599
       148  -9.2417     88.7927    198.8842   1.1852478217e+02   2.4479131855e+01    0.3185236    0.1758908  75.30  0.001474834    2.070    0.517
       149  -8.5668    176.9044    199.0815   1.0252503693e+02   1.0409904351e+01    0.1770359     0.147367  62.60 0.0005113876    1.334    0.250
       150  -8.4348    202.4551    198.0875   9.7976603652e+01   6.1772534396e+00    0.1809076      0.15073  51.53 0.0007138531    1.312    0.238
       151  -8.6886    133.0031    196.4733   1.1007515785e+02   1.8169899238e+01    0.2457084    0.1501074 -63.49   0.00142289    1.991    0.498
       152  -9.4493     61.3963    196.9269   1.2336827243e+02   2.8429861782e+01    0.3773075    0.1577892  68.66  0.001627789    2.795    0.642
       153  -8.7145    216.0211    195.8891   9.5359528077e+01   4.1471930539e+00    0.2049801     0.168256 -60.31 0.0008526777    1.911    0.477
       154  -8.7536     12.6399    197.4387   1.3201789372e+02   3.3589171827e+01    0.2532022   0.08560249  81.22  0.001303836    2.934    0.659
       155  -9.4419    245.7764    193.7411   9.0251232274e+01  -5.0585572464e-01    0.2818098    0.2294898  65.16  0.001228488    2.014    0.504
       156  -8.8942    224.3340    194.1041   9.3703533257e+01   2.9600061937e+00    0.2515829    0.1863607 -49.90    0.0011688    2.022    0.505
       157  -7.5582    209.2875    195.6788   9.6441381763e+01   5.3118273560e+00      0.10628   0.09299764  71.58 0.0005217716    1.599    0.375
       158  -8.8977    185.2954    194.5988   1.0036986087e+02   9.5775569045e+00    0.2370476    0.2008906 -78.87 0.0009779378    1.664    0.399
       159  -8.9708     43.7931    193.3241   1.2629665969e+02   3.1148350714e+01    0.3631748    0.1418967  67.41  0.001833001    2.684    0.627
       160  -8.0652    230.6320    193.8445   9.2645887804e+01   1.9430013116e+00    0.1482318    0.1060341 -36.51 0.0009429837    1.722    0.419
       161  -8.7396     76.9745    193.8284   1.2022348229e+02   2.6984260039e+01     0.185556    0.1380834  83.32 0.0004908104    1.196    0.164
       162  -8.1232    198.9889    191.9597   9.7575095599e+01   7.5493559655e+00    0.1699595    0.1456482  77.35 0.0005795153    1.629    0.386
       163  -8.8141    160.9423    194.4163   1.0467765355e+02   1.3810780387e+01    0.2395606    0.1732022  64.57 0.0008806468    1.538    0.350
       164  -8.6306    172.4263    191.8581   1.0222296621e+02   1.2199167590e+01    0.2275528    0.1714191  63.82 0.0008544374    1.506    0.336
       165  -9.0259    139.4675    190.6762   1.0809641861e+02   1.8037030790e+01    0.2926386    0.1944394  72.88  0.001062262    1.877    0.467
       166 -10.4310     92.4067    188.8553   1.1680056852e+02   2.5732692062e+01    0.8469427    0.2129814  51.53  0.003087989    4.039    0.752
       167  -8.9720      6.5096    190.5587   1.3275994252e+02   3.5369883419e+01    0.2030829   0.07691336 -82.38  0.001218143    2.190    0.543
       168  -8.3209    148.5004    189.4651   1.0623964224e+02   1.6701930663e+01    0.2038362    0.1478915  73.22 0.0008963686    1.644    0.392
       169  -8.9942    129.3116    188.7073   1.0973952447e+02   2.0045986155e+01     0.269848    0.1786795  77.53 0.0008989493    1.898    0.473
       170  -8.5109    237.1543    188.4374   9.0674946321e+01   1.4637787556e+00    0.1976272    0.1521137 -11.79 0.0005790187    1.301    0.231
       171  -8.9582    216.7496    188.0619   9.3919615964e+01   4.9606404775e+00    0.2352275    0.2178676  86.54 0.0008897778    1.575    0.365
       172  -9.3602    156.0015    187.7343   1.0459092321e+02   1.5680078183e+01    0.2901554    0.1947188 -63.41 0.0009537998    1.943    0.485
       173  -9.7849    120.9249    186.8308   1.1108898411e+02   2.1728958089e+01    0.4482272    0.2507175 -80.10  0.002158521    2.789    0.641
       174  -8.6292     34.4404    188.3932   1.2766474430e+02   3.3067491536e+01      0.24713    0.1000998  65.83 0.0008344142    2.297    0.565
       175  -7.6840    242.4863    188.4763   8.9844231004e+01   5.8218067731e-01    0.1189202   0.09539756  19.26 0.0001780093    1.024    0.024
       176  -8.3050    230.5612    187.2872   9.1525240846e+01   2.6951780243e+00    0.1972854    0.1112352 -33.89   0.00078922    1.986    0.497
       177  -8.8768    191.4308    187.6509   9.8176607084e+01   9.4469207779e+00    0.2441005    0.1944811  77.14   0.00100143    1.801    0.445
       178  -9.1977     54.8208    187.0698   1.2378009947e+02   3.1021649898e+01    0.3669076    0.1559609  67.58  0.001692596    2.562    0.610
       179  -8.7087    164.9454    187.0116   1.0283050016e+02   1.4226028049e+01    0.2295864    0.1734244  71.91 0.0009864647    1.630    0.387
       180  -9.1141    109.5881    186.1698   1.1318505262e+02   2.3637647889e+01    0.3267132    0.1912888  70.40  0.001146761    1.999    0.500
       181  -8.8887    249.4654    185.7394   8.8278777207e+01  -2.6104672396e-01    0.1887457    0.1857215  20.53 0.0009923067    1.510    0.338
       182  -8.7538    210.1526    184.4816   9.4408284328e+01   6.5558267460e+00     0.200672    0.1713816 -32.40 0.0005084833    1.374    0.272
       183  -8.7550    202.7471    184.7749   9.5724655838e+01   7.8264738176e+00    0.2089305    0.1696885 -45.88 0.0007187915    1.548    0.354
       184  -8.8319    182.9367    184.7063   9.9195892257e+01   1.1368875485e+01    0.2159935    0.1824715 -55.15 0.0008332411    1.476    0.322
       185  -8.9882     66.5960    184.4558   1.2130778850e+02   3.0053760841e+01    0.3091466    0.1636254  82.04  0.001215578    2.060    0.514
       186  -7.7752     12.3708    185.6708   1.3149888776e+02   3.5735040902e+01    0.1159124   0.05034766  64.48 0.0007030813    1.825    0.452
       187  -8.6813    224.1502    183.6705   9.1929818818e+01   4.2132719117e+00    0.1874244    0.1587211 -28.81 0.0005642772    1.379    0.275
       188  -8.3201    196.9866    183.7577   9.6549922334e+01   8.9873232217e+00    0.1943464    0.1632828 -58.36 0.0009139695    1.599    0.375
       189  -8.7613    174.2748    183.6491   1.0058848474e+02   1.3073165821e+01    0.2378575     0.187932  75.85 0.0009078209    1.637    0.389
       190  -8.3686      1.7717    183.7648   1.3329215308e+02   3.7010530776e+01    0.1460231   0.07878744  64.43  0.001048454    1.368    0.269
       191  -8.7418    240.8766    181.5589   8.8860575471e+01   1.6084634178e+00    0.2705409    0.1746805 -48.47  0.001485621    2.478    0.596
       192  -9.0405     44.4916    182.3808   1.2536067321e+02   3.3095681319e+01    0.3117403    0.1505376  67.99  0.001155295    1.915    0.478
       193  -8.5133     19.7371    183.1385   1.3003168082e+02   3.5518432491e+01    0.1947138   0.06549251  65.72 0.0009558275    2.862    0.651
       194  -9.1288    147.5380    180.6789   1.0511341437e+02   1.8286026077e+01    0.2983458    0.2061896  75.97   0.00107741    1.899    0.474
       195  -9.4616     25.6962    179.1458   1.2868614815e+02   3.5690587806e+01    0.5340589    0.1793654  77.16   0.00224276    3.983    0.749
       196  -8.0755    235.4236    181.0605   8.9635233052e+01   2.5860961476e+00    0.1732175    0.1115693 -24.03 0.0007390031    1.615    0.381
       197  -8.7376    137.4403    179.3684   1.0685923812e+02   2.0257333867e+01     0.259366    0.1810887  73.05 0.0007785793    1.683    0.406
       198  -9.4600    191.5502    178.4109   9.6587460557e+01   1.0707802498e+01     0.268203    0.2233269  69.34 0.0005817676    1.507    0.336
       199  -8.2229    169.4889    178.8323   1.0067907905e+02   1.4663156942e+01    0.2288786    0.1539427  74.68  0.001104053    2.299    0.565
       200  -9.4608    248.4531    176.6871   8.6784423707e+01   8.8204355219e-01    0.3636964     0.252174 -43.23  0.002177044    2.004    0.501
       201  -8.6500    250.5140    172.9244   8.5762311557e+01   9.5309318272e-01    0.1721682    0.1506084   6.06 0.0006013604    1.160    0.138
       202  -8.7286    231.1508    177.0190   8.9585317308e+01   3.7945292161e+00    0.2155395    0.1659778 -30.40 0.0007395716    1.455    0.313
       203  -8.7348    217.5251    177.1845   9.1866108847e+01   6.1761736828e+00    0.2445787    0.1910559 -57.14  0.001076363    1.919    0.479
       204  -8.8472    204.9771    177.3312   9.4035170696e+01   8.4145070125e+00    0.2473396    0.1719762 -45.03 0.0009823709    1.773    0.436
       205  -8.6965    129.2604    177.5347   1.0818644352e+02   2.1968201560e+01    0.2675339    0.1801606  75.22  0.001101804    1.795    0.443
       206  -9.1858     35.5034    176.3746   1.2662902507e+02   3.5218233929e+01    0.4563463    0.1648445  81.64  0.001894854    3.916    0.745
       207  -9.1047    183.1015    176.2114   9.7728217431e+01   1.2572361481e+01    0.2258395    0.2033814 -63.84 0.0004898719    1.373    0.272
       208  -9.3426    158.9216    175.2469   1.0207744614e+02   1.7145308043e+01    0.3729925    0.2408202  75.83  0.001371129    2.481    0.597
       209  -9.4886    104.5947    174.9813   1.1274219073e+02   2.6441909405e+01    0.4800696    0.2280637  65.23  0.002052803    2.944    0.660
       210  -7.9076     98.0234    177.2728   1.1435191990e+02   2.7022088290e+01    0.1739882     0.137675  57.59  0.000492391    1.099    0.090
       211  -9.0883     89.1000    177.1726   1.1612312690e+02   2.8358524443e+01    0.2315081    0.1326663  60.78 0.0008463682    1.636    0.389
       212 -10.0635     57.2693    173.3476   1.2209524627e+02   3.3335879277e+01    0.6903718    0.2808233  77.69  0.002685357    4.201    0.762
       213  -8.7987     12.8344    176.7215   1.3094649805e+02   3.7361812616e+01    0.2075969   0.08899979  72.32 0.0007628645    1.998    0.499
       214 -10.7649     75.7608    170.1802   1.1801942403e+02   3.1573824954e+01     1.002478    0.3708186 -78.62  0.003631765    4.577    0.781
       215  -8.4247     79.2208    158.5825   1.1590344906e+02   3.3402906203e+01    0.2760018    0.1568938  28.55  0.001377836    2.491    0.599
       216  -8.3729    224.5221    174.3055   9.0170037413e+01   5.2910303724e+00    0.2033574    0.1170697 -35.28 0.0005615014    1.912    0.477
       217  -8.8478    245.9866    163.0087   8.4553442746e+01   2.8607584257e+00    0.2036808    0.1644452 -11.92 0.0005326291    1.183    0.155
       218  -9.5644    242.1444    160.6262   8.4686017114e+01   3.8232963795e+00    0.2366077    0.2106793  -4.40 0.0005539075    1.159    0.137
       219  -9.4152    241.0154    165.1217   8.5748372863e+01   3.4846336810e+00    0.3838421    0.2832993 -80.92  0.001391694    3.410    0.707
       220  -8.8754    244.4642    169.4868   8.6047534951e+01   2.3709493755e+00    0.2918904    0.2175503  12.96  0.001269356    1.195    0.163
       221  -9.3096    175.8764    172.3475   9.8386532736e+01   1.4490316559e+01    0.3112227    0.2454323 -56.15  0.001073367    1.541    0.351
       222  -8.4710    143.1075    172.6663   1.0472276244e+02   2.0414707953e+01    0.2534357    0.1852082  85.28 0.0007876051    1.759    0.431
       223  -8.2512    194.4906    172.4649   9.5006504393e+01   1.1012328805e+01    0.1300757    0.1108751  28.58 0.0007228918    1.049    0.046
       224  -8.3984    134.7945    171.9018   1.0624656079e+02   2.2009249160e+01    0.2263276    0.1687463 -87.00 0.0008583601    1.620    0.383
       225  -9.6394    121.3717    170.3609   1.0870831275e+02   2.4581932484e+01    0.3620633    0.2338578 -77.96  0.001111268    1.933    0.483
       226  -9.1040     45.0530    171.0840   1.2433506145e+02   3.5206394220e+01    0.3216137    0.1563826  78.71  0.001175984    2.118    0.528
       227  -9.1796    230.5760    170.1210   8.8389453194e+01   4.7304587907e+00     0.221553    0.1867894 -33.58  0.001054397    1.405    0.288
       228  -8.4478    205.9163    170.4340   9.2614111041e+01   9.1776206411e+00    0.2209228    0.1749636 -51.35 0.0007469088    1.638    0.389
       229  -7.7606     68.6856    171.3258   1.1958938190e+02   3.2292332045e+01    0.1257684    0.0733735  70.50 0.0006218342    1.667    0.400
       230  -8.3750    237.2049    169.6815   8.7234260300e+01   3.6114309574e+00    0.1933289    0.1605535 -27.76 0.0009097268    1.357    0.263
       231  -8.3591    198.3189    170.1258   9.3896157884e+01   1.0633001980e+01     0.167709    0.1591379  15.81   0.00057835    1.119    0.106
       232  -9.1289    167.2725    168.7731   9.9383871775e+01   1.6656090350e+01    0.3183906    0.2142695  69.98  0.001142685    2.028    0.507
       233  -8.7842    149.6269    169.5979   1.0294370047e+02   1.9770528249e+01    0.2485295    0.1896348  75.54 0.0008759605    1.540    0.351
       234  -8.8820    111.9083    167.8869   1.1027918706e+02   2.6605603099e+01    0.3566845    0.1930301  73.80  0.001395423    2.941    0.660
       235  -8.2691     88.9004    168.9038   1.1516335942e+02   2.9968536117e+01    0.2008096      0.12503  73.24  0.001113139    1.688    0.408
       236  -8.3752    218.8362    168.2334   8.9980619116e+01   7.0908278472e+00    0.1777655    0.1671993  38.46 0.0005910216    1.235    0.190
       237  -8.9584    191.9031    166.5193   9.4381873733e+01   1.2361330290e+01    0.2544356    0.1849368 -42.57 0.0007818106    1.566    0.361
       238  -8.9919    185.0103    166.5815   9.5656338839e+01   1.3658364660e+01    0.2264416    0.1809047 -59.70 0.0006775909    1.596    0.374
       239  -9.9055    136.9766    164.6421   1.0465036845e+02   2.2918274980e+01    0.6077964    0.2673082  58.74  0.002348612    3.071    0.674
       240 -10.1226     94.9540    162.8174   1.1310453831e+02   3.0254750061e+01     0.753759    0.3843223  79.34   0.00299064    3.561    0.719
       241  -9.1077     20.5850    166.1204   1.2882277450e+02   3.8696988343e+01    0.3000057    0.1067293  58.53   0.00125595    2.506    0.601
       242  -8.5419    233.8716    165.0910   8.6886967198e+01   4.7599339156e+00    0.1758389     0.167466  -8.09 0.0006068336    1.272    0.214
       243  -8.8042    159.4275    164.4744   1.0014462993e+02   1.8831423387e+01    0.2604692    0.2101079  85.83 0.0008098662    1.535    0.349
       244  -8.5878     56.9917    164.2151   1.2125970860e+02   3.5174653207e+01    0.2953865    0.1941343   8.88  0.001461507    3.627    0.724
       245  -9.1974     33.2938    163.3030   1.2606546301e+02   3.8011327099e+01    0.4227149    0.1404494  57.65  0.001962428    2.961    0.662
       246  -8.4678    212.8560    163.7719   9.0146027276e+01   8.7944673162e+00    0.2165937     0.178483 -24.69 0.0006733841    1.283    0.220
       247  -9.5760    210.7348    159.1556   8.9611301321e+01   9.8326254286e+00    0.2418682    0.2304787 -32.03 0.0004648541    1.238    0.192
       248  -8.5266    205.0062    163.0038   9.1367467279e+01   1.0382879168e+01    0.1925288    0.1796276  34.79  0.000555521    1.132    0.117
       249  -9.4791      3.4754    162.4048   1.3195754008e+02   4.0911944346e+01    0.3473722    0.1218844  55.22  0.001960111    2.323    0.570
       250  -9.2242    177.5034    160.8920   9.6004189519e+01   1.5979460945e+01    0.2660208    0.2330664 -73.73  0.001087396    1.405    0.288
       251  -8.9912    151.8983    161.2469   1.0106457091e+02   2.0792635888e+01    0.3107523    0.2212863  80.49  0.001074129    1.923    0.480
       252  -7.6133    222.2956    161.6950   8.8133161291e+01   7.3086551743e+00    0.1143164    0.1041122 -83.24 0.0002331167    1.582    0.368
       253  -8.7401     60.5999    160.3214   1.2009316212e+02   3.5516267565e+01    0.3249295    0.1579093  72.33  0.001342062    2.453    0.592
       254  -8.5138    227.5156    159.3047   8.6789329217e+01   6.6509019679e+00    0.2475938    0.1940009 -60.64  0.001056961    1.982    0.495
       255  -9.7744    250.1697    157.9176   8.2895174371e+01   2.7242612759e+00    0.2931865    0.1656939 -24.49 0.0008125615    1.718    0.418
       256  -9.2181    167.7046    157.5915   9.7271290067e+01   1.8410839820e+01    0.3390135    0.2534647 -89.12  0.001239096    1.953    0.488
       257  -8.2146    128.0396    159.0051   1.0556014724e+02   2.5541199649e+01    0.2088577    0.1483115  79.62 0.0005341518    1.692    0.409
       258  -9.6642    105.6643    157.8613   1.1011499096e+02   2.9549625059e+01    0.4107308    0.2656665 -89.52  0.001291927    1.889    0.471
       259  -9.0104    241.4960    171.0489   8.6812118947e+01   2.7024846765e+00    0.4072361    0.1616281 -28.33  0.001480912    2.612    0.617
       260  -8.4614    196.6543    158.0297   9.1894920384e+01   1.2709401241e+01    0.2170871    0.1757945  55.68 0.0006871725    1.324    0.245
       261  -8.6485    188.0975    157.5334   9.3370385499e+01   1.4451399698e+01    0.2729543    0.1725226 -43.56 0.0008924611    1.767    0.434
       262  -8.4993    217.9982    156.5604   8.7840772920e+01   8.8050805698e+00    0.2330085    0.1740743 -45.90 0.0007779776    1.646    0.393
       263  -8.9270    157.5211    156.0557   9.8999514035e+01   2.0633464730e+01    0.3038481    0.2153567 -66.38  0.001122945    1.796    0.443
       264  -9.5685    119.5683    155.2066   1.0672261524e+02   2.7743292819e+01    0.4196584    0.2594409 -79.29   0.00179558    2.185    0.542
       265  -8.4404    144.7409    155.1944   1.0143755541e+02   2.3207753052e+01    0.2499875    0.1885698  76.50  0.001071964    1.568    0.362
       266  -9.3452     81.6167    154.7523   1.1488430444e+02   3.3842452422e+01     0.382158    0.2161661  81.06  0.001282373    2.216    0.549
       267  -9.1562     49.6138    155.2445   1.2190936429e+02   3.7872266668e+01    0.3252829    0.1679732  68.29  0.001663486    1.959    0.489
       268  -9.1652    242.8188    154.8838   8.3426755265e+01   4.3998319171e+00      0.22908    0.2009491 -88.29 0.0003681098    1.826    0.452
       269  -7.8462    204.5418    155.5076   8.9976275531e+01   1.1546273271e+01       0.1315    0.1199685  26.76 0.0001215725    1.049    0.047
       270  -9.6592    132.7467    153.0004   1.0354793477e+02   2.5828283273e+01     0.440826    0.2824344  74.84  0.001397573    2.151    0.535
       271  -8.9996    133.4871    148.4902   1.0258391012e+02   2.6548890812e+01    0.2710768    0.2110455 -44.52  0.001107055    1.425    0.298
       272  -9.5340     67.9071    153.8289   1.1777067166e+02   3.5911373571e+01     0.386028    0.2108809  73.13  0.001307418    2.066    0.516
       273  -8.1028    232.6948    154.0933   8.4887991555e+01   6.3601485807e+00    0.1886076    0.1529692 -38.16 0.0006549172    1.441    0.306
       274  -8.4611    151.7865    152.9914   9.9589602069e+01   2.2272013924e+01    0.2105747    0.1516182 -79.91  0.000706276    1.917    0.478
       275  -9.1395     20.0333    152.9397   1.2801006369e+02   4.1386308225e+01    0.1775744   0.09640641  69.01 0.0006387917    1.584    0.369
       276  -9.0945     97.7476    150.8107   1.1076968236e+02   3.2223599748e+01    0.3401768    0.2076247  58.29  0.001235283    1.608    0.378
       277  -9.6333     29.3085    150.6198   1.2585276498e+02   4.0989117299e+01    0.4405472    0.1721194  70.60  0.001985625    3.079    0.675
       278  -8.9476      2.9207    150.5037   1.3140775963e+02   4.3314304481e+01    0.2827888     0.110969  87.52  0.001539027    2.161    0.537
       279  -9.7102    248.8434    149.4674   8.1377550287e+01   3.9686881014e+00    0.3203098    0.1879061 -24.65 0.0007903091    1.637    0.389
       280  -8.9758    247.0102    143.8402   8.0481992509e+01   4.9950050467e+00    0.2590101    0.1663648 -19.62 0.0006341331    1.491    0.330
       281  -9.8617    242.7153    150.0963   8.2461298689e+01   5.0096939946e+00    0.2991693    0.2479744  57.56  0.001634158    1.534    0.348
       282  -8.7619    189.4409    149.9756   9.1615507230e+01   1.5364868608e+01    0.2774206    0.2119505 -62.96 0.0009498447    1.756    0.431
       283  -8.1331    182.4369    151.2794   9.3200950925e+01   1.6554887426e+01    0.1750411    0.1297669 -52.19 0.0006323679    1.584    0.369
       284  -8.4676    162.3051    150.4771   9.6981051736e+01   2.0676872703e+01    0.2206758    0.1638564 -70.84 0.0008463648    1.763    0.433
       285  -8.8798    237.2708    150.3356   8.3375779760e+01   5.9879430495e+00    0.1612299    0.1581965 -49.08  0.000384232    1.355    0.262
       286  -9.1936    233.5273    147.9649   8.3486570557e+01   6.9975433260e+00    0.2541536    0.2220161 -38.86  0.001014155    1.367    0.268
       287  -8.2624    212.8829    150.0591   8.7397614253e+01   1.0699499280e+01    0.1830629    0.1796587 -39.02 0.0004065553    1.232    0.188
       288  -9.6570     40.0583    148.2145   1.2328717640e+02   4.0391849580e+01    0.4811316    0.1776151  60.00  0.002123777    3.083    0.676
       289  -8.5277    198.8471    149.0498   8.9689279627e+01   1.3627576389e+01    0.1943938    0.1819644 -85.64 0.0005308651    1.325    0.245
       290  -9.9888     89.2066    146.3379   1.1200143842e+02   3.4460964067e+01    0.6228939    0.3271035  84.72   0.00248313    3.309    0.698
       291 -10.2036    106.8038    144.2496   1.0769631557e+02   3.2091406984e+01     0.718906    0.4275255  84.87  0.002122665    2.579    0.612
       292 -10.3747     54.4884    144.0311   1.1959453787e+02   3.9645710246e+01    0.8000528    0.3606476  79.37  0.002952465    3.397    0.706
       293  -9.4124     56.7458    135.5741   1.1801750814e+02   4.1186712142e+01    0.2895599    0.1867527  14.27  0.001483887    2.811    0.644
       294  -8.3485    223.4527    147.0565   8.4961632815e+01   9.0539825936e+00    0.1891215    0.1851325  69.18 0.0004128379    1.292    0.226
       295 -10.2709    148.9451    145.0101   9.8654478848e+01   2.4270369908e+01    0.4725417    0.3226166  86.89  0.001657493    2.263    0.558
       296  -9.8380    139.1912    145.0491   1.0072482812e+02   2.6136923472e+01    0.4524937    0.2870379 -74.75  0.001196145    2.303    0.566
       297  -9.3894    139.6176    137.5730   9.9173406149e+01   2.7485113919e+01    0.4419982    0.2938798  10.84  0.001815731    2.983    0.665
       298  -9.1244     77.9206    146.7175   1.1461103208e+02   3.6029550238e+01    0.2508599     0.148427 -87.54 0.0007992098    1.897    0.473
       299  -9.2835     13.3917    146.3304   1.2893715792e+02   4.3319785374e+01    0.3254222    0.1242908  59.22  0.001327576    2.446    0.591
       300  -8.2496    206.6575    146.2715   8.7704264707e+01   1.2481882633e+01    0.1912461    0.1658134 -43.03  0.001126193    1.316    0.240
       301  -8.1187    175.2431    146.1820   9.3559425536e+01   1.8835758908e+01    0.1819633    0.1604699  88.82 0.0005930986    1.356    0.262
       302  -8.8684    240.4452    145.4707   8.1852916422e+01   6.0138048323e+00    0.2167878    0.1753798  17.92 0.0006511185    1.109    0.098
       303 -10.7812    242.6847    143.3369   8.1048228414e+01   5.8646253567e+00    0.6533206    0.2384454 -31.18  0.002716557    2.640    0.621
       304  -8.9825    165.5386    144.1298   9.5068533062e+01   2.1142621831e+01    0.2741337    0.2304186 -88.46 0.0006576378    1.449    0.310
       305  -9.9063    124.8038    142.6044   1.0339172002e+02   2.9282976449e+01    0.4836758    0.3061613 -83.54  0.001472052    2.351    0.575
       306 -10.9364     69.0287    140.3079   1.1576369465e+02   3.8604794085e+01    0.8320559    0.3671385 -63.91  0.003944388    2.080    0.519
       307  -7.9259    194.2769    143.6604   8.9404495740e+01   1.5380634922e+01    0.1306104    0.1094577 -76.99 0.0002726555    1.617    0.381
       308  -9.3961      2.7192    141.8079   1.3092317800e+02   4.5095904052e+01    0.3225869    0.1218172  67.80  0.001668119    2.535    0.606
       309  -8.7631    230.2327    141.3077   8.2611777346e+01   8.5144398368e+00    0.3871895    0.1405045 -34.18  0.001549549    2.712    0.631
       310  -8.2185    182.0338    141.8128   9.1331808806e+01   1.8183007512e+01    0.2039452    0.1814016  73.97 0.0005041247    1.291    0.226
       311  -8.3075    250.4945    140.9678   7.9337832738e+01   4.7062045286e+00    0.1842153    0.1162381 -26.53 0.0005062373    1.503    0.335
       312  -9.9121     23.5221    138.3540   1.2606271468e+02   4.4100103375e+01    0.4728025    0.1974344  68.37  0.001948854    2.628    0.620
       313  -8.8524    172.3001    138.5986   9.2561298921e+01   2.0728937564e+01    0.2802028    0.2225371 -86.93 0.0009553625    1.690    0.408
       314  -7.6020    218.6741    138.7270   8.3989217851e+01   1.1164738059e+01    0.1393632   0.09667297  18.66 0.0002192812    1.581    0.368
       315  -8.2661    207.3182    137.6791   8.5743089118e+01   1.3629360573e+01    0.2340036    0.1601264 -43.88 0.0005969219    1.631    0.387
       316  -8.6039    197.4656    137.7411   8.7542826793e+01   1.5653769989e+01    0.2429862    0.2124411 -78.98 0.0007007845    1.483    0.326
       317 -10.3696     83.2297    133.1446   1.1132821868e+02   3.8146849358e+01      0.55901    0.3093232 -64.69   0.00175323    1.721    0.419
       318  -8.9578    150.8151    136.1531   9.6474234307e+01   2.5546854735e+01    0.3605568    0.2153301  25.84  0.001495734    2.515    0.602
       319  -9.3497     39.1358    136.0668   1.2223373146e+02   4.3066740057e+01     0.297489    0.1620627  74.47 0.0009124491    1.869    0.465
       320  -8.9541    250.6735    129.5020   7.6814934360e+01   6.1059502408e+00    0.5253266    0.1196939 -28.91  0.001562724    4.231    0.764
       321  -9.0712    248.3283    135.3672   7.8459454958e+01   5.8098895605e+00    0.2831263    0.2003972 -29.86 0.0007943785    1.388    0.279
       322  -8.4801    246.8749    130.3177   7.7569843739e+01   6.7305260375e+00     0.220781    0.1625759 -32.01 0.0005753725    1.364    0.267
       323  -7.9692    162.6570    136.3822   9.4044685303e+01   2.3102568752e+01    0.2062878    0.1633006  88.01 0.0006221121    1.626    0.385
       324  -8.6737    179.4037    133.9940   9.0158438149e+01   2.0040619896e+01     0.278658    0.2028792 -57.64  0.000960351    1.671    0.402
       325  -8.8204    237.4500    133.7707   7.9801617451e+01   8.1118937853e+00    0.2421373    0.1178974 -34.84 0.0008388312    2.026    0.506
       326  -8.1948    231.4864    134.0551   8.0823255767e+01   9.2512389209e+00    0.1966514    0.1260128 -26.69 0.0004344967    1.522    0.343
       327  -9.2176    112.8818    133.3290   1.0435613577e+02   3.3293803549e+01    0.3476722      0.24561  84.95  0.001249374    1.719    0.418
       328  -9.1699    143.1483    131.7869   9.7213213754e+01   2.7908078959e+01    0.2982414    0.2318094 -77.95 0.0008324489    1.539    0.350
       329  -9.8895    132.1267    131.2780   9.9552343596e+01   3.0163847254e+01    0.4553954    0.2955563 -82.74  0.001289548    2.373    0.579
       330 -10.3357     98.0269    130.2844   1.0729102819e+02   3.6455568170e+01    0.6331248    0.2790164 -59.55   0.00168606    2.265    0.558
       331  -8.4696     98.7963    120.8011   1.0531010277e+02   3.8360922796e+01    0.3121122    0.2065443 -20.19  0.001160634    3.109    0.678
       332  -9.3543    152.9734    129.0920   9.4505909556e+01   2.6433559981e+01    0.4025622    0.2256281 -51.98 0.0006551335    1.955    0.489
       333  -8.2677    153.4919    124.0116   9.3262792012e+01   2.7284314983e+01    0.2505257    0.1665282   6.56 0.0009822618    2.879    0.653
       334  -9.8941     73.0829    129.1113   1.1314038578e+02   4.0474192865e+01    0.4828801    0.2721074 -87.00  0.001644285    2.178    0.541
       335  -8.1460    220.6175    129.8248   8.1679677232e+01   1.2046992301e+01    0.1860406    0.1236762 -38.40 0.0005895557    1.569    0.363
       336  -7.7610    204.5267    130.4880   8.4641404582e+01   1.5306709204e+01    0.1371713    0.1321833  16.58 0.0002692509    1.073    0.068
       337  -8.2560    192.8297    130.0979   8.6706310365e+01   1.7847139066e+01    0.2063936    0.1908965 -69.12 0.0005184011    1.269    0.212
       338  -9.1881    168.3302    129.4249   9.1363724517e+01   2.3169464657e+01    0.3010719    0.2353743 -66.69 0.0008162289    1.563    0.360
       339  -9.9175     12.4798    128.8374   1.2778630142e+02   4.7060208144e+01    0.3950877    0.1845316  73.46   0.00179221    2.084    0.520
       340  -8.0412      1.6570    130.3290   1.3040008839e+02   4.7553955558e+01    0.1747508   0.09029615  68.86 0.0006712584    1.697    0.411
       341  -8.2492    211.4444    129.2001   8.3118911328e+01   1.4047827140e+01    0.1935563    0.1256587 -44.94 0.0008771117    1.735    0.424
       342 -10.7428     44.8718    123.6319   1.1935020859e+02   4.5166386220e+01     1.011038    0.4486498  78.05  0.003924289    3.746    0.733
       343 -10.0968    117.8257    125.3021   1.0161710080e+02   3.4068052484e+01     0.570489    0.3971667 -76.56  0.001811706    1.710    0.415
       344 -10.3763     59.8347    125.0428   1.1579828473e+02   4.3108982971e+01    0.6184433    0.3200459  79.60  0.002338109    2.735    0.634
       345  -8.1457    228.4836    125.9023   7.9476949918e+01   1.0986383697e+01    0.2035755     0.128393 -29.60 0.0008202056    1.538    0.350
       346  -9.0116    179.2642    124.9130   8.8135987074e+01   2.1625855064e+01    0.2614349    0.2318615  75.17 0.0007264898    1.277    0.217
       347 -10.1097     28.3848    122.2909   1.2330733235e+02   4.7117214060e+01    0.7225514    0.2988967  79.60  0.002996269    3.413    0.707
       348  -8.9358     27.0828    114.0000   1.2268375868e+02   4.9061915119e+01    0.1750009    0.1442862  24.47  0.001134386    1.627    0.385
       349  -8.0526    187.6425    135.7901   8.8958444854e+01   1.8013137414e+01    0.1867253    0.1287998 -46.36 0.0003977704    1.596    0.373
       350  -8.0185    188.6066    123.8910   8.6079606373e+01   1.9775333187e+01    0.2039713    0.1296525 -48.52 0.0009342789    1.772    0.436
       351  -8.7354     85.2916    122.7279   1.0903653897e+02   4.0097353817e+01    0.4504441    0.2561088  21.36  0.001861764    3.298    0.697
       352  -9.4572     71.7837    120.6177   1.1207709282e+02   4.2520626590e+01     0.503599    0.2647918  73.64  0.002082124    2.976    0.664
       353  -7.8534    202.9686    122.1981   8.3007937826e+01   1.6932368675e+01    0.1986265     0.149976 -53.04  0.000482422    1.580    0.367
       354  -7.8149    195.1156    122.1679   8.4444603260e+01   1.8643187634e+01    0.1895681    0.1667673 -61.36 0.0004096489    1.333    0.250
       355  -8.4311    172.1001    121.8252   8.8854429663e+01   2.3717344454e+01    0.2107441    0.1927037  89.70 0.0004736705    1.227    0.185
       356  -8.9328    158.4598    121.4105   9.1600406271e+01   2.6725426147e+01    0.2884324    0.2259043 -83.18 0.0007657213    1.645    0.392
       357 -10.0320    131.1922    118.8845   9.7103648659e+01   3.2836025265e+01    0.5141933    0.3317957  82.17  0.001730305    2.520    0.603
       358 -10.1240    141.5802    118.6592   9.4671004781e+01   3.0787070849e+01    0.4448942    0.2804721 -64.43   0.00124993    2.014    0.503
       359  -9.6509      3.0255    117.6142   1.2912560959e+02   5.0156571374e+01    0.4190742     0.166038  69.63  0.002072706    2.705    0.630
       360  -7.4001    231.3832    117.6958   7.7101802839e+01   1.1537839709e+01     0.136546    0.1095265 -69.62 0.0007021439    1.788    0.441
       361 -10.1273    109.2265    114.1810   1.0134591834e+02   3.7972499226e+01    0.5215407    0.3164188 -75.57  0.001321102    2.280    0.561
       362  -8.4789     58.1846    116.0679   1.1483911571e+02   4.5306467340e+01     0.266499    0.1722573 -34.12  0.001357692    2.383    0.580
       363  -7.8752    219.4336    116.5079   7.8780075037e+01   1.4242276096e+01    0.1410739    0.1294463   1.33 4.930418e-05    1.009    0.009
       364  -8.4920    185.6774    116.1571   8.4801491684e+01   2.1719155699e+01       0.2244     0.174909 -51.01 0.0005263427    1.413    0.292
       365  -7.9754    193.1790    115.2142   8.3140086690e+01   2.0208043692e+01    0.1947556    0.1674869 -60.60 0.0004484457    1.353    0.261
       366 -10.3189     92.7871    111.3416   1.0491363147e+02   4.1409895681e+01     0.857237     0.333055 -56.33  0.002501873    2.448    0.591
       367 -10.1123     78.7029    112.2991   1.0878492465e+02   4.3382025935e+01    0.6731843    0.3730605 -84.58  0.002840031    2.649    0.622
       368  -8.6555     78.0896    105.4281   1.0759049892e+02   4.5002288844e+01     0.281482    0.2078542 -21.00  0.001106759    2.109    0.526
       369  -7.9222    167.0558    114.5273   8.8149068160e+01   2.6132988734e+01     0.219397    0.1420443  50.26 0.0005025466    1.524    0.344
       370  -8.7539    174.8355    112.0668   8.5945565934e+01   2.4847397883e+01    0.2975976    0.2006971 -57.50 0.0005146051    1.813    0.448
       371 -10.1237    133.4799    109.3124   9.4335937469e+01   3.4314427341e+01    0.5874522    0.3266507 -58.64   0.00190286    2.118    0.528
       372  -9.9680    121.9807    112.7208   9.7889245993e+01   3.5901211707e+01    0.3818826    0.2991573 -84.37    0.0006664    1.473    0.321
       373 -10.1653    119.8891    106.1074   9.6847534517e+01   3.7684496627e+01    0.4369723    0.4131932 -47.38  0.002530342    1.099    0.090
       374  -9.7879     14.3279    111.2252   1.2568806180e+02   5.0729980010e+01    0.4161664    0.2013271  82.72  0.001528371    2.055    0.513
       375  -8.5747    159.1825    111.7545   8.9136770763e+01   2.8374641046e+01    0.2499881    0.1936066 -55.17 0.0005158989    1.385    0.278
       376 -10.2057     66.5072    109.9560   1.1159134520e+02   4.5611129608e+01    0.5758091    0.2791499 -67.16  0.002180474    1.948    0.487
       377  -8.0963    149.6431    110.2310   9.0851066509e+01   3.0736468238e+01     0.205218    0.1373159 -33.12  0.000303633    1.647    0.393
       378 -10.3965    248.9863    107.8346   7.2085902758e+01   9.2423423438e+00    0.5397094    0.2650288 -36.54   0.00176703    1.944    0.486
       379 -10.3623    249.1744    103.2133   7.0955442803e+01   9.8126431872e+00    0.4104664    0.3414133   9.87  0.002392763    1.172    0.147
       380  -8.9646     43.5225    109.4616   1.1771194072e+02   4.8468997891e+01    0.2291583    0.1226521  32.35  0.001219365    2.213    0.548
       381  -8.2338    189.1466    107.9371   8.2096889045e+01   2.2326477895e+01     0.269768    0.1608367 -41.79 0.0007756477    1.707    0.414
       382  -9.4322    139.9508    104.7053   9.1680299786e+01   3.3889838621e+01    0.3781564    0.2781209 -78.96  0.001000598    1.796    0.443
       383 -10.5053     45.4591    102.2480   1.1604226587e+02   4.9886556483e+01    0.7172973    0.3609393  77.19  0.003034069    3.108    0.678
       384  -8.9140     45.6392     92.8362   1.1435025330e+02   5.1996308475e+01    0.3428451    0.2224027 -19.63   0.00172161    2.704    0.630
       385 -10.6395     22.8685    102.7352   1.2241979893e+02   5.1930978694e+01    0.7029502    0.3149064  75.78  0.002867548    3.042    0.671
       386  -8.5526    166.8077    104.5387   8.5696266450e+01   2.8008240679e+01    0.2830541    0.1869232 -55.68 0.0006469912    1.768    0.434
       387  -9.4929    150.5974    103.1910   8.8862364779e+01   3.1884805376e+01    0.4382787    0.2777869 -63.01  0.001257756    2.078    0.519
       388 -10.8805    109.1566     99.0830   9.7859290652e+01   4.1208520070e+01    0.8599335    0.4922542  72.39  0.001609691    3.253    0.693
       389  -8.9703    107.6661     92.6501   9.6622878378e+01   4.2855673060e+01    0.4949142    0.2659229  29.23   0.00191547    2.847    0.649
       390  -9.1193      6.7705    103.2376   1.2686465293e+02   5.3024937372e+01    0.2650773    0.1484856  71.72  0.001004003    1.737    0.424
       391  -8.6290    250.0934    115.1435   7.3640553134e+01   8.0630930043e+00    0.2142193    0.1663741  16.17  0.001159152    1.275    0.215
       392 -10.0638    128.5679    102.2485   9.3766746179e+01   3.6754557102e+01    0.3558618     0.270612 -87.78 0.0008615128    1.669    0.401
       393  -7.8004    175.5471    102.4615   8.3359023624e+01   2.6384483936e+01    0.1465681    0.1446289 -66.52 0.0001156504    1.054    0.052
       394  -8.2677    159.8336    101.1257   8.6292279898e+01   3.0215176917e+01    0.2303686    0.1965926 -68.86 0.0005684849    1.313    0.239
       395  -9.0997     82.0400    100.0280   1.0536630136e+02   4.5611150491e+01    0.3240338    0.2197687 -81.89 0.0008460288    1.717    0.418
       396 -10.4029     64.0277     96.5264   1.0969880924e+02   4.8960373724e+01    0.7057115    0.3616653 -77.38  0.002296447    2.518    0.603
       397  -8.9018     67.0403     87.1235   1.0677710138e+02   5.0670093443e+01    0.5483818    0.2642486  19.72  0.001926609    4.674    0.786
       398  -9.2501     94.8743     97.1664   1.0119203011e+02   4.4166447860e+01    0.3110729    0.2069456 -57.20 0.0005483271    1.410    0.291
       399  -8.7053    151.3825     95.8296   8.6742524841e+01   3.3118119430e+01    0.2902859    0.1997685  13.74  0.001199576    2.269    0.559
       400  -8.2158    164.5604     94.0182   8.3376481820e+01   3.0439715175e+01    0.2285785    0.1457425 -39.34 0.0005854933    1.552    0.356
       401  -9.3702    139.1686     92.3836   8.8620375054e+01   3.6493922031e+01     0.412164    0.2859746 -75.29 0.0008319054    2.056    0.514
       402  -7.8173    133.9734     93.9370   9.0285580488e+01   3.7307509631e+01    0.1803046    0.1622524 -47.38 0.0003979295    1.088    0.081
       403 -10.7485    124.1521     91.0028   9.1912573903e+01   3.9958536497e+01    0.7373246    0.5956814 -23.74  0.001629134    1.438    0.305
       404  -7.3990    188.3258     93.6805   7.8528092187e+01   2.4906006487e+01     0.153463    0.1181257 -70.46 0.0006415321    1.679    0.404
       405  -8.2107    176.3678     93.2031   8.0723232219e+01   2.7816805809e+01    0.2175137    0.1337019 -46.11 0.0004365341    1.695    0.410
       406  -9.6746      5.5159     92.0802   1.2602174326e+02   5.5562997828e+01    0.3341913    0.1699896  71.81  0.001398974    2.111    0.526
       407  -8.0921    157.8261     91.6086   8.4160602054e+01   3.2442005742e+01    0.2433067    0.1754624 -44.88 0.0004071975    1.385    0.278
       408  -9.6580     34.8715     90.1559   1.1708826980e+02   5.3696052066e+01    0.4559407    0.2256771 -87.38  0.001815063    2.514    0.602
       409  -9.1673     22.9563     90.4394   1.2069981305e+02   5.4678944520e+01    0.2414978    0.2244134  12.90  0.001529934    1.443    0.307
       410  -8.1545    151.1079     89.1759   8.4970416533e+01   3.4440449698e+01    0.2083087    0.1776706 -73.40 0.0004169117    1.326    0.246
       411 -10.0767     86.4657     85.8618   1.0074668491e+02   4.8038019185e+01      0.66294    0.3521135 -55.07  0.001983938    1.742    0.426
       412  -8.8698    227.6997     86.5355   6.9939041728e+01   1.6776632747e+01    0.2679855    0.2200234  21.76  0.000659879    1.283    0.221
       413  -7.9790    164.1119     87.1723   8.1566224563e+01   3.1782656809e+01    0.2105285    0.1779539 -65.91 0.0004738271    1.327    0.246
       414  -9.8411     48.5103     83.8144   1.1171036416e+02   5.3719446103e+01    0.5861636    0.3365097 -79.79  0.002345632    1.954    0.488
       415  -7.7220    179.2678     85.6272   7.8047019539e+01   2.8428738931e+01    0.1575705    0.1152906 -61.98 0.0006611947    1.671    0.402
       416  -9.8513    104.9652     83.3569   9.4854112490e+01   4.5327061377e+01    0.4764362    0.3155303 -73.32  0.001097998    2.056    0.514
       417  -8.4464    157.8550     84.0886   8.2025745457e+01   3.3817122361e+01    0.2332108     0.200953 -65.17 0.0003910824    1.271    0.213
       418  -9.1586    140.9161     82.5724   8.5427622378e+01   3.8009772818e+01    0.3962256    0.2075638 -47.92 0.0009543654    1.960    0.490
       419  -9.6700     24.6062     80.4911   1.1860812705e+02   5.6780798934e+01    0.4166164    0.2209672  86.41  0.001328125    2.303    0.566
       420  -9.2863      9.8712     81.1325   1.2334617620e+02   5.7713331232e+01    0.2933691    0.1566211  64.12  0.001335965    2.199    0.545
       421  -8.7089    150.3309     80.5579   8.2660852750e+01   3.6228798263e+01    0.3154248    0.2440667 -63.15 0.0008326032    1.488    0.328
       422  -8.9310     74.4549     80.3130   1.0288021768e+02   5.1126202974e+01    0.3402668    0.2074333 -73.26  0.001027579    2.021    0.505
       423  -8.3347    166.8295     79.6716   7.8833691718e+01   3.2462603045e+01    0.2550096    0.2013383 -24.36 0.0005129969    1.314    0.239
       424  -8.0983    184.1999     78.0614   7.4941155931e+01   2.8490082702e+01    0.2112576    0.1190516 -31.32 0.0006340082    1.755    0.430
       425 -10.0350     63.7337     74.7099   1.0477785252e+02   5.3878244248e+01     0.660803    0.2948033 -68.80  0.002457911    3.193    0.687
       426  -8.8207    119.4246     80.5570   9.0178552272e+01   4.3054145702e+01    0.2995024    0.2309874 -70.38 0.0007477619    1.519    0.341
       427  -9.6589    128.0684     74.7908   8.6232600966e+01   4.2360788137e+01    0.5672215    0.2705537 -42.94    0.0017997    2.014    0.503
       428  -8.7461    140.3619     75.4284   8.3423566831e+01   3.9488646599e+01    0.2897646    0.1794499 -43.07 0.0006715579    1.574    0.365
       429  -9.2315    115.0508     73.7194   8.9289945974e+01   4.5325742839e+01     0.507468    0.2643576 -34.93  0.002050305    2.077    0.518
       430  -8.1000    163.5383     73.3203   7.7621224088e+01   3.4366518942e+01     0.290805    0.1410003 -39.96 0.0008090103    2.003    0.501
       431  -9.7470     82.3272     72.7704   9.8423349304e+01   5.1542416268e+01    0.3775136    0.2736575 -79.44  0.001158287    1.753    0.430
       432  -8.2046    151.4849     73.5221   8.0282130085e+01   3.7239827115e+01    0.1524011    0.1472795 -56.20  0.000809658    1.046    0.044
       433  -9.5418    105.8963     71.2677   9.1047599794e+01   4.7646971917e+01     0.454798    0.1977105 -50.28    0.0011298    2.322    0.569
       434  -9.3989     95.1344     71.0928   9.4084298769e+01   4.9702271768e+01    0.4045102    0.2189867 -58.67 0.0009709295    2.109    0.526
       435  -8.1482     42.6674     73.0956   1.1126020891e+02   5.6760732149e+01    0.2021433    0.1379247 -80.57 0.0007620237    1.520    0.342
       436  -7.7530    175.4790     72.5270   7.4977422682e+01   3.1558144927e+01    0.1519549    0.1487799 -19.15 4.531145e-06    1.001    0.001
       437  -9.4176     51.4464     69.5650   1.0748404000e+02   5.6566251179e+01    0.4719138    0.2422709 -74.96  0.001554729    2.660    0.624
       438  -9.1829     29.1954     70.4213   1.1521140181e+02   5.8650975245e+01    0.4459521    0.2145161 -28.90  0.001856187    3.889    0.743
       439  -9.4611     16.8856     68.7605   1.1908909202e+02   5.9992498764e+01    0.6966156     0.162513 -63.02  0.002862946    2.824    0.646
       440  -8.0410    157.0000     69.9436   7.7968254248e+01   3.6545975502e+01     0.248971   0.08607626 -34.96 0.0004448843    2.836    0.647
       441  -8.7742    147.0525     68.3469   7.9665722036e+01   3.9221400382e+01     0.288711    0.2128275 -46.97 0.0006001778    1.369    0.270
       442  -7.9381    171.4969     67.0456   7.4089810094e+01   3.3454716494e+01    0.2256277    0.1372148  -3.03 0.0008090459    2.671    0.626
       443  -8.8554    138.7319     66.1180   8.0885298504e+01   4.1580760820e+01    0.3150198    0.1894564 -47.53 0.0008817305    1.712    0.416
       444  -8.8576    121.6143     66.0946   8.5143703086e+01   4.5432493202e+01     0.321306    0.2294346 -63.14 0.0007276635    1.696    0.410
       445  -9.1542    110.2610     63.3999   8.7316358590e+01   4.8336246164e+01    0.4668408    0.2424794 -47.00  0.001395964    1.874    0.467
       446  -8.8549     64.3633     63.7874   1.0157306781e+02   5.6168132660e+01    0.4386638    0.2670104 -12.37  0.001774711    3.448    0.710
       447  -8.7451     37.3759     64.1012   1.1096892118e+02   5.9296146794e+01    0.3014822    0.1797211 -84.71 0.0009631991    2.166    0.538
       448  -7.9882     85.9249     64.0000   9.4670010741e+01   5.2786312078e+01    0.2125409    0.0810179  42.43 0.0007962998    2.900    0.655
       449  -8.0297    158.1926     62.1203   7.5239280349e+01   3.7588069028e+01    0.2128092     0.176615 -61.46 0.0004430317    1.332    0.249
       450  -7.7080     51.4607     62.4997   1.0561579030e+02   5.8111767115e+01     0.131608    0.1081295 -49.19 0.0004450875    1.078    0.073
       451  -9.3309     97.5304     60.5960   9.0038313179e+01   5.1386975238e+01    0.2907699    0.2578284  61.78 0.0009781262    1.267    0.210
       452  -9.7110     73.2755     59.3825   9.7258304177e+01   5.5794426590e+01    0.4191579     0.224088 -57.58  0.001081078    1.929    0.482
       453  -7.8140    164.4566     60.4106   7.3402893192e+01   3.6305061288e+01       0.1516    0.1472912  12.73 9.618128e-05    1.039    0.038
       454  -9.2389    146.5239     58.4300   7.6560569501e+01   4.1074790175e+01    0.3345167    0.2443816  65.82  0.001558624    1.521    0.342
       455  -7.8304     88.8822     59.3657   9.2250707484e+01   5.3214134270e+01    0.1982611    0.1585241 -52.52 0.0004506437    1.199    0.166
       456  -9.8745     23.5163     56.6865   1.1423542927e+02   6.2159542906e+01    0.4520689    0.2440642 -88.28  0.002148311    2.640    0.621
       457  -8.6350    130.7216     57.8827   8.0091492776e+01   4.4910343539e+01    0.2801303    0.1930168 -52.23 0.0007126335    1.575    0.365
       458  -9.1654    127.2860     53.6367   7.9477041235e+01   4.6444528590e+01    0.2766446    0.2482381 -44.04 0.0002064524    1.104    0.094
       459  -9.7357      7.4767     56.9018   1.2025104899e+02   6.3215375935e+01    0.3867091    0.1905791 -81.38  0.001966293    1.978    0.495
       460  -9.4825     54.2799     55.6556   1.0263875163e+02   5.9233567066e+01    0.3317576     0.198181 -63.84  0.001091303    1.723    0.419
       461  -8.7593    139.8656     56.1559   7.7312752140e+01   4.3065995656e+01     0.228166    0.2020791 -58.79 0.0003940155    1.202    0.168
       462  -9.2888    119.0058     55.1004   8.2120674156e+01   4.8039069269e+01    0.4640331    0.2099403 -47.12  0.001476192    2.341    0.573
       463  -8.8852     44.0719     55.2655   1.0622798529e+02   6.0521403461e+01    0.3074786    0.1808239 -71.53 0.0009581476    1.952    0.488
       464  -7.7294     99.6672     55.7075   8.7740531977e+01   5.1928165689e+01    0.1433167    0.1113862   0.25 0.0003567012    1.634    0.388
       465  -8.8398    105.5626     53.2178   8.5151226699e+01   5.1224829542e+01    0.3052517    0.2409996 -63.15 0.0009120351    1.477    0.323
       466  -7.6313    153.2987     53.6466   7.3481730438e+01   4.0197212466e+01    0.1610461    0.1161725 -62.67 0.0007036208    1.696    0.410
       467  -9.5185     92.4470     50.6094   8.8112238601e+01   5.4273463892e+01    0.4983639    0.2162629 -49.56  0.001477579    2.430    0.588
       468  -8.3868     92.7196     42.6134   8.5042125019e+01   5.5693939241e+01    0.2909515    0.1997136 -19.78  0.001418858    1.637    0.389
       469  -7.9679     74.2863     52.3575   9.4596921895e+01   5.7069966742e+01    0.1398717   0.09917127 -21.81 0.0007022368    1.677    0.404
       470  -8.0900    144.8425     48.8717   7.3669982137e+01   4.3061495820e+01    0.2162543    0.1695801 -50.72 0.0006943507    1.350    0.259
       471  -8.2504    129.9724     49.2699   7.7263902563e+01   4.6570073291e+01    0.2036197    0.2004646 -38.36 0.0004856294    1.047    0.045
       472  -8.7922    120.9461     47.4634   7.8876806425e+01   4.8946548725e+01    0.2821053    0.2100949 -33.21 0.0005648651    1.286    0.222
       473  -8.4624    112.1698     46.9312   8.1014800597e+01   5.0971261899e+01     0.220035    0.1894671 -56.39 0.0004558015    1.260    0.206
       474  -9.0529     82.2291     46.1140   8.9717731362e+01   5.6967021702e+01    0.4426813    0.2081616 -45.96  0.001650643    1.969    0.492
       475  -8.5157     45.0830     44.6708   1.0258234283e+02   6.2634134417e+01    0.2188922    0.1501527 -60.07 0.0005840199    1.378    0.274
       476  -8.9862     16.6890     44.9137   1.1403009460e+02   6.5217311090e+01    0.2126932    0.1525861 -87.54  0.000682661    1.582    0.368
       477  -8.8948    132.8456     43.5125   7.4485252741e+01   4.6830308479e+01    0.2940884    0.2204039 -56.59 0.0009282187    1.535    0.349
       478  -8.9753     58.2264     42.4754   9.6801739095e+01   6.1415225428e+01    0.3816972    0.2134842 -63.61  0.001720872    2.421    0.587
       479  -9.4350      5.2141     42.2597   1.1811442430e+02   6.6505478641e+01    0.3341031    0.1689425 -84.91  0.001380415    2.369    0.578
       480  -9.3463     69.7334     41.8612   9.2383424945e+01   5.9840842093e+01    0.3529076    0.2425158 -66.59  0.001057734    1.992    0.498
       481  -8.9301    106.0190     41.4104   8.0634775261e+01   5.3228818322e+01    0.3184355    0.1808006 -43.05  0.001024248    1.725    0.420
       482  -8.7733    222.9588     37.7452   5.7161094534e+01   2.4493237395e+01    0.3451988    0.1972645 -27.16  0.001024084    1.643    0.391
       483  -8.8017     95.4281     37.9052   8.2360340224e+01   5.5988432518e+01    0.3131858    0.1941085 -45.89  0.001072574    1.634    0.388
       484  -8.4193     80.5375     36.5959   8.6586543945e+01   5.9008439574e+01    0.2777826    0.1226545 -40.67 0.0006792675    2.044    0.511
       485  -9.5600     26.2144     35.5098   1.0729362944e+02   6.6430224840e+01    0.3184423    0.1823275 -66.99 0.0008103236    1.810    0.448
       486  -7.6406    133.3143     36.3174   7.1691908358e+01   4.7822446863e+01    0.1556605    0.1123264  19.90 0.0005785348    1.648    0.393
       487  -8.1554    125.9705     35.7254   7.3191567622e+01   4.9671464837e+01    0.1965718    0.1910534  24.83 0.0003512392    1.049    0.047
       488  -8.6954    111.6930     34.5469   7.6361505495e+01   5.3122238950e+01    0.2802071    0.1966821 -54.08 0.0006541711    1.693    0.409
       489  -8.6496     36.7993     40.7534   1.0458111411e+02   6.4343833885e+01    0.2419019    0.1497772 -62.74  0.000716069    1.571    0.363
       490  -8.1283     88.4318     34.2690   8.3054898889e+01   5.7962895052e+01    0.2037553    0.1208484 -45.17 0.0009548951    1.687    0.407
       491  -9.0382     48.4956     33.4711   9.7196906245e+01   6.4451016843e+01    0.2349681    0.1990671 -60.64 0.0005978509    1.310    0.237
       492  -8.3727    119.0450     33.0686   7.3857941328e+01   5.1687807003e+01    0.2279852    0.1721583 -60.59 0.0004912167    1.640    0.390
       493  -8.8481     60.6342     32.6816   9.2109261107e+01   6.2940238167e+01     0.249375    0.1823496 -56.65  0.000699993    1.530    0.346
       494  -9.0122     72.2265     31.0958   8.7176135545e+01   6.1402433363e+01    0.3262549    0.1841886 -44.39  0.001586568    1.664    0.399
       495  -7.4417    139.3071     31.6904   6.8610796728e+01   4.7010256940e+01    0.1518294    0.1137075 -61.94 0.0004457781    1.615    0.381
       496  -9.1108     12.8935     30.5469   1.1164080906e+02   6.8485724287e+01    0.2636545    0.1469778 -70.08   0.00146017    1.783    0.439
       497  -7.1680    196.2917     30.7161   5.8471262042e+01   3.2230037060e+01     0.151609    0.1079429 -59.48 0.0006953412    1.535    0.349
       498  -8.0710     42.0096     29.9728   9.8506100037e+01   6.5909566264e+01    0.1518135    0.1238784 -38.40 0.0004314298    1.001    0.001
       499  -8.2890    101.2391     29.2358   7.7073655111e+01   5.6203178939e+01    0.1899262    0.1618761 -54.17  0.001043037    1.343    0.255
       500  -8.8403     81.4897     27.4716   8.2420567594e+01   6.0385524199e+01    0.2706985    0.2099515 -62.15 0.0008936543    1.717    0.417
       501  -8.8326      3.6460     27.7598   1.1511086239e+02   6.9623475104e+01     0.213643    0.1435345 -68.92 0.0009090516    1.309    0.236
       502  -8.9995     91.7925     26.1635   7.8552838022e+01   5.8614397033e+01    0.4126197    0.1739627 -39.00  0.001380233    2.240    0.554
       503  -7.5324    145.3878     25.7021   6.5092679358e+01   4.6270415636e+01    0.1577237    0.1120284 -66.21 0.0002690146    1.783    0.439
       504  -8.4077     34.7468     23.1769   9.8914061877e+01   6.8011772416e+01    0.1768999    0.1288939  87.29 0.0009367924    2.690    0.628
       505  -8.0707    104.4542     22.5820   7.3317646471e+01   5.6486978615e+01    0.1398096    0.1294615  -1.80 9.655719e-05    1.010    0.010
       506  -8.9651     63.4807     21.0285   8.5917645472e+01   6.4527276395e+01    0.2858202    0.1912619 -48.58  0.000991132    1.626    0.385
       507  -8.9588     48.2756     21.8362   9.2400840162e+01   6.6618311693e+01    0.2269659    0.1915959 -51.52 0.0005376353    1.322    0.244
       508  -7.9439    120.7605     21.0347   6.8522930951e+01   5.2968103862e+01    0.1928875    0.1173057 -26.48 0.0008770241    1.596    0.373
       509  -8.2985     19.7123     21.5681   1.0531591767e+02   6.9759840051e+01    0.1297264    0.1114113  35.82 0.0006046779    1.518    0.341
       510  -8.8533     73.9671     19.3665   8.1302498412e+01   6.3020352150e+01     0.282972    0.1655582 -45.70 0.0007720431    1.856    0.461
       511  -8.1965     87.9245     17.9309   7.6024091125e+01   6.0596815325e+01    0.2061347     0.156687 -53.56 0.0004943404    1.640    0.390
       512  -7.9662     38.8646     18.0774   9.4804550973e+01   6.8467846235e+01    0.1897405    0.1287996 -61.63 0.0008542576    1.967    0.492
       513  -8.0298    112.5475     17.0164   6.8784134504e+01   5.5404569058e+01    0.2116886    0.1341446 -23.87 0.0004899176    1.529    0.346
       514  -8.1190     30.1428     16.2063   9.8017718082e+01   6.9780306352e+01    0.1545136    0.1300438 -55.72 0.0004819342    1.355    0.262
       515  -8.4305      7.7924     15.8180   1.0911731388e+02   7.1757571510e+01    0.1464815    0.1179655 -68.45 0.0004633363    1.361    0.265
       516  -8.1048     17.0436     14.2960   1.0369693328e+02   7.1361098560e+01    0.1548597    0.1285814 -36.79 0.0006334487    1.097    0.088
       517  -7.6371     83.6516     11.2939   7.4176221969e+01   6.2343495151e+01     0.128229    0.1042705 -61.30  0.000505115    1.673    0.402
       518  -8.5208    248.8960    248.9938   9.8228333608e+01  -5.9562291129e+00    0.2040242    0.1271383  15.80   0.00154564    1.383    0.277
       519  -9.2039    175.6545    247.7789   1.0905302958e+02   4.6341956590e+00    0.2360155    0.1776289  73.90   0.00119597    1.905    0.475
       520  -8.6047    156.1598    248.3814   1.1215675285e+02   7.4305516810e+00    0.1995188    0.1285662  65.52 0.0008649096    1.867    0.464
       521  -8.7054    132.2825    247.9172   1.1585541245e+02   1.0934865645e+01    0.2074174    0.1295136  68.63 0.0007017463    1.815    0.449
       522  -8.2138    113.0219    248.7134   1.1894250860e+02   1.3523624587e+01     0.162691    0.1122235  84.83 0.0009979685    1.670    0.401
       523  -9.1558    103.9566    247.2294   1.2023799755e+02   1.4952202898e+01    0.3151382    0.1632425 -84.84  0.001918432    2.886    0.653
       524  -8.9664    243.0331    246.5299   9.8740044770e+01  -4.9628884542e+00     0.277107    0.1429778 -10.54  0.001692189    2.485    0.598
       525  -8.6889    218.5890    247.3204   1.0244298043e+02  -1.5940463550e+00    0.2194199   0.09952927 -31.28  0.001366321    2.844    0.648
       526 -10.0950    224.1451    243.9733   1.0117866476e+02  -2.0895476335e+00    0.3462168    0.2167156 -36.54  0.002229469    2.185    0.542
       527  -9.3924    210.9407    246.2545   1.0345739920e+02  -3.9232464560e-01    0.1679635    0.1546414 -41.70 0.0007862241    1.632    0.387
       528  -9.1483    146.9883    246.0364   1.1335748018e+02   9.0481610919e+00    0.2480701    0.1566537  69.96  0.001553846    2.051    0.512
