#   1 NUMBER                 Running object number                                     
#   2 MAG_AUTO               Kron-like elliptical aperture magnitude                    [mag]
#   3 X_IMAGE                Object position along x                                    [pixel]
#   4 Y_IMAGE                Object position along y                                    [pixel]
#   5 X_WORLD                Barycenter position along world x axis                     [deg]
#   6 Y_WORLD                Barycenter position along world y axis                     [deg]
#   7 A_WORLD                Profile RMS along major axis (world units)                 [deg]
#   8 B_WORLD                Profile RMS along minor axis (world units)                 [deg]
#   9 THETA_WORLD            Position angle (CCW/world-x)                               [deg]
#  10 FWHM_WORLD             FWHM assuming a gaussian core                              [deg]
#  11 ELONGATION             A_IMAGE/B_IMAGE                                           
#  12 ELLIPTICITY            1 - B_IMAGE/A_IMAGE                                       
         1  -8.4277     80.4685     12.9065   9.0280645121e+01   6.2699290830e+01    0.2603263    0.1967844 -44.49 0.0009881817    1.640    0.390
         2  -9.8801     12.2046     10.2281   1.1879039958e+02   7.2320469736e+01    0.3300909    0.1888177  19.83 0.0005998295    1.956    0.489
         3  -7.9859     23.0237      8.2728   1.1215645593e+02   7.1695331478e+01     0.153312    0.1183306 -10.70 0.0003843762    1.121    0.108
         4  -9.3602     11.1363      4.4181   1.1667695800e+02   7.3338964046e+01    0.3344484    0.1765539  11.52  0.002061473    2.143    0.533
         5  -8.3219     33.5295      2.1637   1.0369891101e+02   7.1420759732e+01    0.1858776    0.1735531 -16.01 0.0007083677    1.461    0.316
         6  -8.8238    157.9865    245.4851   1.2729344658e+02   4.5796287379e+00    0.1873817   0.09074362  42.74 0.0007185609    1.579    0.367
         7  -9.3462    225.8610    240.5659   1.1493351254e+02  -5.6823120755e+00    0.2706954    0.1625535   7.12  0.001584172    2.024    0.506
         8  -9.7763    240.0774    239.2206   1.1238270471e+02  -7.6880914034e+00    0.2984112     0.175538 -11.66  0.001843653    1.954    0.488
         9 -10.7091    233.4446    245.6959   1.1444386773e+02  -7.3684122151e+00    0.6527731      0.37786  -7.52  0.003939902    2.168    0.539
        10 -10.9091    212.2516    247.7259   1.1824921970e+02  -4.3680272194e+00    0.7459066    0.4176801  34.74  0.004636549    1.373    0.271
        11  -9.6930    243.0928    246.1746   1.1294969052e+02  -8.8293504131e+00    0.3527087    0.2375568  -0.64   0.00247122    1.483    0.326
        12  -9.9050    247.8170    250.2629   1.1280409981e+02  -9.8958321190e+00    0.8528627    0.1629599  40.87  0.003333143    4.072    0.754
        13  -8.9879    249.0962    245.1521   1.1183350412e+02  -9.5901448062e+00    0.2578268    0.1668019  20.66  0.001077341    1.216    0.178
        14 -10.2630    194.7228    245.3845   1.2089947419e+02  -1.3395217137e+00    0.4622572    0.2054495  36.44  0.002451173    1.830    0.453
        15 -10.3962    185.3785    250.0971   1.2312496548e+02  -4.1863567529e-01    0.6760646     0.184021  40.05  0.002840116    2.896    0.655
        16 -10.0878    166.6917    250.1528   1.2634290387e+02   2.5574107602e+00    0.4411759    0.1267041  40.44  0.001881035    2.774    0.640
        17  -9.3529    249.8771    232.9790   1.0981219710e+02  -8.4936819619e+00    0.3675581    0.1897209 -17.98  0.001677952    2.189    0.543
        18  -9.5835    203.8796    249.5608   1.1991119655e+02  -3.2724991966e+00    0.3476012    0.2425219  39.29  0.002402654    1.139    0.122
        19  -7.8429    184.3333    237.3109   1.2160165872e+02   1.3586762615e+00     0.120096     0.080403  20.57  0.000704361    1.676    0.404
        20  -9.2919    243.8501    235.6536   1.1121327836e+02  -7.8796727409e+00    0.1876252     0.130912  -1.44 0.0006043618    1.396    0.284
        21  -9.2436    231.5125    234.1992   1.1302068749e+02  -5.8573780541e+00    0.2668483    0.1599745   2.14  0.001323889    2.044    0.511
        22 -10.6355    224.4545    248.2730   1.1629696421e+02  -6.2905416765e+00    0.6152509    0.3235428  40.60  0.003764729    1.518    0.341
        23  -9.4113    187.4090    233.2688   1.2049256375e+02   1.3771666282e+00     0.311637    0.1777777  55.10  0.001088879    1.966    0.491
        24  -8.8671    244.9756    229.9787   1.1012795617e+02  -7.4530584176e+00    0.1827923    0.1331716  19.02 0.0005914911    1.073    0.068
        25  -8.2185    236.9753    226.8090   1.1093870200e+02  -5.8859890510e+00    0.1993489    0.1051293  21.14 0.0009171251    1.999    0.500
        26  -9.4553    248.6675    224.7979   1.0868077458e+02  -7.4558715798e+00    0.2993979    0.1589019 -14.78  0.001671493    2.182    0.542
        27  -8.2982    238.7552    219.4640   1.0943495963e+02  -5.3340665034e+00    0.2377687    0.1313838 -14.27  0.001288104    2.182    0.542
        28  -9.1607    248.6779    213.8198   1.0682864500e+02  -6.2461559043e+00    0.3837563    0.1452463 -28.42  0.001811959    2.879    0.653
        29  -8.1365    185.4877    193.9925   1.1467157312e+02   7.4207396908e+00    0.1972665    0.1563548  38.55 2.231549e-05    1.094    0.086
        30  -7.7529      8.3225    170.6732   1.4860088036e+02   3.8846641731e+01    0.1192257   0.06022092  68.56 0.0007048385    1.689    0.408
        31 -11.7941    237.7180    147.8382   9.5821846380e+01   4.4704697508e+00    0.8904129    0.5096925  32.51  0.004175027    1.882    0.469
        32  -8.5770     67.0447    144.3055   1.3265415956e+02   3.8307129650e+01    0.3822407    0.1765719  60.01  0.001589689    2.716    0.632
        33  -8.7908    131.2038    140.2070   1.1606180676e+02   2.8399734685e+01    0.2455104    0.1705145  -4.74 0.0009611871    2.859    0.650
        34  -8.7650    134.2851    127.2040   1.1245675940e+02   3.0576635813e+01    0.2855177    0.1916898  -3.47  0.001032393    3.182    0.686
        35  -8.5621    143.0002    126.0000   1.1006635134e+02   2.8988297444e+01    0.2555653   0.08509437  46.09 0.0008032044    2.948    0.661
        36  -8.1171    145.0000    122.9727   1.0886706935e+02   2.9193840823e+01    0.2532987   0.08710142 -45.34 0.0005061741    2.955    0.662
        37  -9.4614    240.9811    121.8537   8.9414573050e+01   7.8063366255e+00    0.2611193    0.2243919  55.55 0.0005050785    1.294    0.227
        38  -7.4782     70.2690    118.3240   1.2744490514e+02   4.3863087188e+01     0.132271   0.09827759 -39.23 0.0002242511    1.570    0.363
        39 -10.9082    243.2417     97.5355   8.3274760075e+01   1.1096161799e+01    0.7966469    0.5781757 -68.35  0.003937201    1.783    0.439
        40 -11.3115    186.5429     92.8528   9.1794149234e+01   2.5317781849e+01    0.7354595    0.3354418  48.68  0.002708694    2.183    0.542
        41 -12.4852    197.5904     76.4284   8.5164359438e+01   2.5382122322e+01     1.112436    0.9188166  37.28  0.005563815    1.309    0.236
        42 -12.3147    208.8074     65.8134   8.0336555988e+01   2.4233565079e+01     1.711832    0.8102915 -38.12  0.006776915    1.998    0.499
        43  -9.8945    241.3273     84.7164   8.0410376488e+01   1.3486438035e+01    0.4373927    0.2081678  57.25  0.001833773    2.226    0.551
        44  -8.4976    102.2020     69.9242   1.0560306295e+02   4.9272696772e+01    0.2160364    0.1948733 -67.66 0.0004780933    1.227    0.185
        45 -11.7772    167.7219     56.5217   8.4860294069e+01   3.6333030473e+01       1.1111    0.4978359 -39.25  0.004147861    2.209    0.547
        46  -8.6003      3.8615     58.8725   1.3730310429e+02   6.3464486947e+01    0.3210294    0.1221962 -74.79  0.001490616    2.643    0.622
        47 -10.2859    184.3789     77.9329   8.8032435583e+01   2.8490166586e+01    0.3766209    0.3109443  15.14  0.001057153    1.449    0.310
        48  -8.8463    250.4230     78.2160   7.7578343059e+01   1.2422453918e+01    0.2134445    0.1143367 -41.79 0.0006300131    1.696    0.410
        49  -8.9179     95.1805     52.4750   1.0181881582e+02   5.3927945229e+01    0.2578453    0.1891217 -37.36 0.0005764026    1.305    0.234
        50 -11.6264    177.5872     49.0173   8.0665914355e+01   3.4892423328e+01    0.7892289    0.4850165  82.45  0.003223902    2.068    0.516
        51  -8.1692     47.9435     47.2903   1.1679220927e+02   6.2244436001e+01    0.1667477    0.1458411 -25.90 0.0003695095    1.063    0.060
        52  -9.4314     96.2097     45.9619   9.9095977093e+01   5.4861614731e+01    0.2455327    0.2037484  39.99 0.0007437991    1.232    0.188
        53  -8.2405    144.3105     50.6790   8.7918132287e+01   4.3233624227e+01    0.1545624    0.1177443 -70.07  0.000703648    1.648    0.393
        54  -7.7920     23.3389     42.3063   1.2530806188e+02   6.5634783263e+01    0.1247692   0.07162096 -32.14 0.0007041605    1.679    0.404
        55  -8.1837     10.9647     42.2998   1.3061262018e+02   6.6494202868e+01     0.150339    0.1206496 -39.62  0.000293174    1.111    0.100
        56  -9.7262    249.2435     46.2804   6.9928848997e+01   1.7181223466e+01    0.2865724    0.2381384 -29.12 0.0007490608    1.225    0.184
        57  -8.0738     92.0274     36.7041   9.6822604275e+01   5.7185823405e+01     0.193235    0.1709193  13.34 0.0005420303    1.076    0.071
        58  -8.8308      1.5750     31.2687   1.3174672522e+02   6.9170126410e+01    0.1787701    0.1117691 -54.95 0.0005905628    1.208    0.172
        59  -7.4991      9.6501     28.7215   1.2716919138e+02   6.9213937392e+01     0.117375   0.06419299 -32.48 0.0002965634    1.642    0.391
        60  -7.9972    143.9658     25.5678   7.9211757850e+01   4.6823833973e+01    0.2079654    0.1919774 -18.13 3.378548e-05    1.140    0.123
        61  -8.6762     71.5102     28.1008   1.0022891648e+02   6.2234932803e+01    0.2020644    0.1177043 -33.90  0.001035552    1.598    0.374
        62  -8.6103     84.5966     21.4995   9.2828057612e+01   6.0825047054e+01    0.2288494    0.1961527 -12.49 0.0005377937    1.095    0.087
        63  -7.8959      6.1865     16.5708   1.2460711353e+02   7.1646704915e+01    0.2155358   0.07232139 -57.18  0.001022791    2.696    0.629
        64  -9.8242    247.5780    239.1438   1.1115422683e+02  -8.7821454478e+00    0.3354753    0.2296469   1.77  0.001791484    1.384    0.278
        65  -8.8246    154.5967    248.5758   1.2825004279e+02   4.7026202340e+00    0.2089531    0.1147225 -47.94  0.001243836    2.408    0.585
        66  -7.3010    150.3021    249.3561   1.2908527849e+02   5.2811013540e+00    0.1090325   0.08200419  19.61 0.0004222322    1.711    0.415
        67  -7.9986     64.9300    246.7894   1.4342146472e+02   1.8233141863e+01     0.139083   0.06803787  44.47 0.0005000863    1.671    0.402
