#   1 NUMBER                 Running object number                                     
#   2 MAG_AUTO               Kron-like elliptical aperture magnitude                    [mag]
#   3 X_IMAGE                Object position along x                                    [pixel]
#   4 Y_IMAGE                Object position along y                                    [pixel]
#   5 X_WORLD                Barycenter position along world x axis                     [deg]
#   6 Y_WORLD                Barycenter position along world y axis                     [deg]
#   7 A_WORLD                Profile RMS along major axis (world units)                 [deg]
#   8 B_WORLD                Profile RMS along minor axis (world units)                 [deg]
#   9 THETA_WORLD            Position angle (CCW/world-x)                               [deg]
#  10 FWHM_WORLD             FWHM assuming a gaussian core                              [deg]
#  11 ELONGATION             A_IMAGE/B_IMAGE                                           
#  12 ELLIPTICITY            1 - B_IMAGE/A_IMAGE                                       
         1 -15.3332     68.7275    144.5257   9.2267403807e+01   3.7315165843e+01      4.94009     2.659246  77.89  0.002938255    4.171    0.760
         2 -14.1681    220.1796     32.8203   3.0966498509e+01   2.7282151648e+01    0.9388965     0.761224  38.29  0.006117838    1.782    0.439
         3 -14.0586    207.1137     43.8973   3.4679496931e+01   2.8600726707e+01     1.289041     1.057727  30.59  0.006806972    1.737    0.424
         4 -13.1588    245.6632     10.2960   2.4657306711e+01   2.4909784533e+01    0.7061934    0.3975586 -65.88  0.004622096    1.457    0.314
         5 -12.3731    247.6474      4.0682   2.3398333760e+01   2.5196839079e+01    0.4967357    0.2483846 -80.25  0.003072039    1.849    0.459
         6 -11.1393     49.3172      3.0524   5.2483668721e+01   6.8873306245e+01    0.2339243    0.1650771  50.39 0.0007352201    1.369    0.269
         7  -9.9153     43.9601      1.0000   5.3580616417e+01   7.0062759813e+01    0.2000939   0.05937024  50.79 0.0008044565    2.956    0.662
         8 -10.2372    157.9438    192.6746   7.7312723804e+01   1.1356702777e+01    0.2462165    0.1998686 -49.44 0.0004636999    1.363    0.266
         9 -12.2383    139.8855    248.6173   9.0071314660e+01   3.6780801985e+00    0.4178559    0.3105637 -42.10  0.002596985    1.541    0.351
        10 -12.8022    125.5648    244.9990   9.2691672840e+01   6.2552875418e+00    0.5099646    0.3362785   4.27  0.002724297    1.840    0.456
        11 -11.0679    102.0000    249.0529   9.8315814136e+01   8.7075577916e+00    0.2275489    0.1892827 -74.95 0.0007979049    1.470    0.319
        12 -12.7234    101.4070    243.6360   9.7845916592e+01   9.7909562478e+00    0.7320673    0.3994836 -61.33  0.002807703    2.186    0.543
        13 -12.9949     64.3857    168.9784   9.7600081728e+01   3.1617529956e+01     1.178176    0.5611042 -28.99  0.003472186    4.860    0.794
        14 -15.2145      6.1596    185.8891   1.1519437945e+02   3.3478740710e+01      4.75621       1.0138 -80.11  0.006553985    4.663    0.786
        15 -16.0177     35.8375    194.4421   1.0837513830e+02   2.8678478367e+01     7.573684     2.839051  79.70   0.01067326    5.985    0.833
        16 -10.8332    116.0361    186.5113   8.6336613411e+01   1.9571410834e+01     0.271384    0.2125272 -80.39  0.001060897    1.611    0.379
        17  -9.6715    145.4817    183.5202   7.8510183940e+01   1.5310833972e+01    0.1447361    0.1363528   8.28  0.000172351    1.035    0.034
        18 -10.2714     99.4093    180.8968   8.9737593880e+01   2.3543440172e+01      0.26871    0.2121116  22.85  0.000595395    1.299    0.230
        19 -10.0458    109.2878    199.3323   9.0129514869e+01   1.7762240394e+01    0.1432072     0.108075 -17.53 0.0003318315    1.623    0.384
        20 -11.5947    234.0070    173.9891   5.8813254053e+01   2.9669625820e+00    0.2499194    0.1531901   4.96  0.001272319    2.164    0.538
        21 -13.8101     76.5694    157.6515   9.2219240644e+01   3.2799228687e+01     1.872785     1.040377  68.85 0.0004900108    3.078    0.675
        22 -13.4818     63.9505    153.4382   9.5304434468e+01   3.5667600358e+01    0.5400854    0.3992383 -25.66   0.00104745    1.647    0.393
        23 -12.0147    115.4592    246.4613   9.5078578138e+01   7.3721953943e+00    0.4813677    0.2065259 -58.37  0.002205634    2.872    0.652
        24 -12.3039    240.6485    169.6454   5.6920525638e+01   2.7389154718e+00    0.3017995    0.2237027 -48.39  0.001305976    1.551    0.355
        25 -10.2562    192.2362    167.7474   6.5123474966e+01   1.0495029609e+01    0.2711219    0.2141709 -27.28 0.0008452578    1.151    0.131
        26  -9.4370    110.8184    167.7952   8.4342124232e+01   2.4798662603e+01    0.2060374    0.1787446  80.91 0.0004897154    1.345    0.256
        27  -9.9980     42.9925    164.3260   1.0316877432e+02   3.5419826608e+01     0.236031    0.1939544   2.43  0.001156048    1.457    0.314
        28 -14.6880     54.9466    232.5433   1.0716778484e+02   1.7936644799e+01     1.645483    0.6931354 -85.35  0.005638691    3.442    0.709
        29 -12.2965     84.1748    151.6219   8.8855220040e+01   3.3176488682e+01    0.6344975    0.4553793 -22.52   0.00286317    1.768    0.434
        30  -9.9763    126.4484    151.1028   7.6762306650e+01   2.5949993095e+01    0.3162326    0.2527061  60.64  0.001488926    1.469    0.319
        31 -11.3582    133.8053    145.0338   7.3498202714e+01   2.5952744813e+01     1.206133    0.3196335 -54.37  0.002759259    5.985    0.833
        32 -14.4730     45.0631    185.5707   1.0508106423e+02   2.9827462648e+01     1.885952     1.227548  76.53  0.009468062    1.651    0.394
        33  -9.8796    174.8625    149.1397   6.4758937707e+01   1.7197031370e+01    0.2200017    0.2030207 -68.71 0.0006540476    1.273    0.215
        34 -12.1126     54.6021    147.5164   9.7229776869e+01   3.8424573520e+01    0.6380651    0.3753608 -56.02   0.00289369    1.592    0.372
        35 -11.2731     29.8921    143.4623   1.0445950645e+02   4.2192852495e+01    0.4304892    0.3601398   0.74  0.001668809    1.398    0.285
        36 -11.0615     99.5197    137.9981   8.1459247536e+01   3.4027244950e+01    0.5706135    0.3659766 -20.62  0.002223523    2.303    0.566
        37 -12.5181     86.3840    137.2663   8.5297382190e+01   3.6459789952e+01    0.3177257    0.2748223 -45.07 0.0004985395    1.140    0.123
        38 -12.1573     47.2151    169.9479   1.0265911747e+02   3.3501700873e+01    0.5780477    0.4197574  -3.88  0.001961841    1.819    0.450
        39 -11.2209    107.2730    130.2589   7.7393208321e+01   3.4496995237e+01    0.6091793    0.4016751  15.80  0.002486169    2.020    0.505
        40 -10.4561     44.0068    129.4985   9.7673399105e+01   4.4405040633e+01    0.2122808    0.1442928  25.55 0.0007853795    1.578    0.366
        41 -10.4790     96.9142    124.6691   7.9178042300e+01   3.7764252983e+01    0.3092233    0.2397498  -3.98  0.001412188    1.606    0.377
        42 -10.6962    135.6879    129.4977   6.9380327318e+01   2.9088974219e+01    0.2918394    0.1398804 -45.78   0.00108799    2.048    0.512
        43  -9.9632    162.4950    119.9808   6.0659998863e+01   2.5567060026e+01    0.3603393    0.2236366 -64.88  0.001428652    2.349    0.574
        44  -9.6093    159.5246    116.0089   6.0330867679e+01   2.6995739813e+01    0.2437555    0.1854672 -65.18 0.0004624638    1.558    0.358
        45  -9.4110     82.6037    129.2754   8.4753033645e+01   3.9097575938e+01    0.2079437    0.1396582 -46.29 0.0002989624    1.461    0.315
        46 -15.6054      9.2177    207.8529   1.1580825150e+02   2.8096904007e+01     1.379581     1.208019 -52.86  0.004986388    1.395    0.283
        47  -9.9287    106.5498    118.0695   7.4616965449e+01   3.7532552592e+01    0.2159562    0.2069601  18.71 0.0002925935    1.048    0.046
        48 -10.5490    231.3655    113.7977   4.7094021302e+01   1.3322869134e+01    0.2340495    0.2095556 -39.31 0.0008168801    1.069    0.065
        49  -9.8963     78.6328    113.4756   8.2361806649e+01   4.3690058693e+01     0.404383    0.2280904  61.40  0.001040654    3.029    0.670
        50  -9.9065    205.5605    110.2170   5.0185945259e+01   1.8662747331e+01    0.2237233    0.1963649  55.31 0.0005724161    1.280    0.219
        51  -9.3454    115.1825    109.1993   6.9767045264e+01   3.7840226002e+01    0.2728618    0.1760307  -4.37 0.0009566008    2.905    0.656
        52 -17.4327     11.6400    241.7696   1.1705273856e+02   2.0628371926e+01     7.997782     5.876191  26.84   0.01780644    1.490    0.329
        53  -9.2030    161.2899     84.3125   5.1718355792e+01   3.2652348953e+01    0.1424455    0.1163884   9.82 0.0002831594    1.586    0.370
        54 -10.9559     13.4992     60.0504   9.5191633167e+01   6.4289335246e+01     0.240548    0.2045574 -41.08 0.0004270649    1.070    0.066
        55 -10.1269    155.3221    225.3173   8.3404906405e+01   5.5686807604e+00    0.1372152   0.09369753  -4.59 0.0004125088    1.665    0.399
        56 -12.9637    197.6092     50.4922   3.7302389659e+01   2.9762661297e+01    0.5967391     0.437727  54.64 0.0008866909    1.517    0.341
        57 -11.0664    132.9775    209.4854   8.5971491769e+01   1.1939652046e+01     0.219967    0.1267329  32.50 0.0005923664    1.590    0.371
        58  -9.7701      9.4531     51.5125   9.4868571836e+01   6.6426857272e+01    0.1279454    0.1052219 -32.96 4.600679e-05    1.015    0.015
        59  -9.4976    198.0321     23.9020   3.0973181183e+01   3.2989544748e+01    0.1714281    0.1456876  33.21 0.0006336597    1.632    0.387
        60 -10.3461     87.0615    206.2459   9.6688872160e+01   1.9503282968e+01    0.2174675    0.1945895 -72.35 0.0003985073    1.191    0.161
        61 -11.0449    124.0649    202.3701   8.6964233104e+01   1.4802869267e+01    0.2477144    0.2080458 -65.57 0.0004297187    1.384    0.278
        62  -9.6302    189.5098     14.9986   2.9665850777e+01   3.5832427129e+01    0.1741182    0.1131668 -36.68 0.0007166193    1.561    0.359
        63 -11.9253    193.0679    194.9246   7.0241356070e+01   5.4012959215e+00    0.9823559     0.521832 -62.83  0.002834749    6.944    0.856
