#   1 NUMBER                 Running object number                                     
#   2 MAG_AUTO               Kron-like elliptical aperture magnitude                    [mag]
#   3 X_IMAGE                Object position along x                                    [pixel]
#   4 Y_IMAGE                Object position along y                                    [pixel]
#   5 X_WORLD                Barycenter position along world x axis                     [deg]
#   6 Y_WORLD                Barycenter position along world y axis                     [deg]
#   7 A_WORLD                Profile RMS along major axis (world units)                 [deg]
#   8 B_WORLD                Profile RMS along minor axis (world units)                 [deg]
#   9 THETA_WORLD            Position angle (CCW/world-x)                               [deg]
#  10 FWHM_WORLD             FWHM assuming a gaussian core                              [deg]
#  11 ELONGATION             A_IMAGE/B_IMAGE                                           
#  12 ELLIPTICITY            1 - B_IMAGE/A_IMAGE                                       
         1 -16.4085    133.2470     26.8835   7.9456430169e+01   4.8494378865e+01     9.013999     4.873507 -51.83   0.03927308    2.592    0.614
         2 -18.7259    235.5956     53.5630   7.0213585723e+01   2.0010235912e+01     5.988822     3.533793 -34.52   0.02645675    1.739    0.425
         3 -11.0215    203.1382     20.4776   6.6280413403e+01   3.2218447187e+01    0.3165596    0.2248419   3.08  0.001423537    2.213    0.548
         4 -11.8610    201.2680     28.4903   6.8524386025e+01   3.1714776801e+01     0.594236    0.2937919 -14.30  0.002213331    3.734    0.732
         5 -11.3603    222.8486      8.5946   6.1346305870e+01   2.8835372566e+01    0.2107008   0.09460101  48.26 0.0008959766    2.917    0.657
         6 -10.3633    227.6056      6.6497   6.0471339595e+01   2.7940129670e+01    0.1214647    0.1016813  70.20 0.0006296369    1.246    0.198
         7 -10.9793    168.6291    188.1337   1.1392791777e+02   9.9227806541e+00    0.5044499    0.2544949  64.57  0.001605322    3.932    0.746
         8 -12.8959    246.7585    248.1448   1.0963057078e+02  -1.3371016014e+01    0.8194318    0.5599825  29.02  0.005413197    1.224    0.183
         9 -11.5265    237.5255    249.6288   1.1148393605e+02  -1.2180452555e+01    0.3075496    0.2063638  35.92  0.001439411    1.318    0.242
        10 -13.8018     16.9781    153.3183   1.4285001949e+02   4.1390441269e+01     2.715636     1.107469  78.30   0.01020025    4.242    0.764
        11 -12.4492     36.1316    161.1432   1.3945452908e+02   3.7782155691e+01    0.7726914    0.4612691 -88.49  0.004272779    1.589    0.371
        12 -10.3635    193.7261    172.3793   1.0550707492e+02   7.8819552630e+00    0.5021016    0.2864428  66.34   0.00182256    3.029    0.670
        13  -9.4100    188.8909    169.9466   1.0599554074e+02   9.3652192753e+00    0.2977188    0.2220488  71.21 0.0006457283    1.736    0.424
        14 -12.8856      6.5315    171.2240   1.4677993348e+02   3.8322305228e+01    0.4166934    0.3130291  74.87  0.003020328    1.194    0.163
        15 -11.8169    246.1577    168.2675   9.4643511084e+01  -1.7349984644e+00    0.5843151    0.2319064  44.10  0.002239091    2.634    0.620
        16 -10.5189    213.3779    169.1035   1.0087666572e+02   4.4661057335e+00    0.5706381    0.2062176  47.21  0.002018813    2.821    0.645
        17  -9.1158    179.8807    165.0000   1.0684609325e+02   1.2261875263e+01    0.2401642    0.0841992  45.55 0.0007801342    2.790    0.642
        18  -8.7284    146.5857    157.5732   1.1268590382e+02   2.0902956368e+01    0.1555785    0.1389634  84.40 0.0001781724    1.159    0.137
        19  -9.5503    239.4740    155.5214   9.3090102758e+01   1.7087904685e+00    0.2114458    0.1387218  59.43 0.0008522313    1.937    0.484
        20 -12.3388     57.6270    151.5102   1.3310839528e+02   3.7531898041e+01    0.4301085    0.3794966  86.18 0.0008462446    1.089    0.082
        21 -14.3243     68.5219    144.8633   1.2933408335e+02   3.7665408057e+01     1.611568     1.269692 -30.48  0.003306762    1.641    0.391
        22 -12.3716     30.9150    164.4511   1.4099860808e+02   3.7571962987e+01    0.7050025    0.2959512 -81.71   0.00284501    2.467    0.595
        23 -10.5831    239.7456    145.6332   9.0872015599e+01   3.3975449703e+00    0.4518668    0.2258677  53.30  0.001900095    2.303    0.566
        24  -9.5176    199.9781    144.1310   9.7989232092e+01   1.2096389643e+01    0.2132724    0.1941981 -84.70  0.001113071    1.225    0.184
        25 -13.6585    175.6744    202.5435   1.1512400886e+02   5.7667747425e+00    0.8313358    0.6285854 -74.96  0.001851185    1.789    0.441
        26 -11.5053    158.6756    114.9069   9.9783535505e+01   2.7579786605e+01    0.5490754    0.3548629 -72.94 0.0008892139    2.391    0.582
        27 -12.5011    186.1524    121.9590   9.5517571774e+01   1.9705854056e+01     1.025753    0.7780588  62.47  0.004796267    1.417    0.294
        28 -11.4293    176.2976    116.2207   9.6170037729e+01   2.3189286967e+01    0.7200641    0.4633599 -80.72  0.002365128    2.750    0.636
        29 -12.2933    167.7866    113.9395   9.7457766159e+01   2.5660654055e+01    0.6867667    0.5684572  18.30  0.001150291    1.466    0.318
        30  -9.5092    188.2503    137.9986   9.8969030094e+01   1.5955482422e+01     0.289845    0.2019073  31.54  0.001272462    1.672    0.402
        31  -9.1401     98.5652    113.8534   1.1489495458e+02   4.0238681548e+01    0.2070512    0.1345148 -63.92 0.0009301993    1.693    0.409
        32 -12.3589    125.0685    109.1798   1.0657434348e+02   3.6209266507e+01    0.7464631    0.6054049 -34.72  0.002540604    1.273    0.214
        33 -12.8832    121.4449    100.3700   1.0517220211e+02   3.8845156149e+01    0.9451761     0.437003 -56.60   0.00136356    2.837    0.647
        34  -9.4381    139.9729    107.4860   1.0232748036e+02   3.3382705420e+01    0.2203176    0.1374276  71.87 0.0008098477    2.504    0.601
        35 -11.5036    112.3485    104.6214   1.0876420112e+02   3.9747480744e+01    0.4574746    0.3521985  74.72  0.002188558    1.680    0.405
        36  -9.9712     85.5126    105.8793   1.1661716771e+02   4.4209325792e+01    0.2591187    0.1328088 -56.62  0.001004218    1.931    0.482
        37 -10.5164     83.2012     99.2605   1.1562571611e+02   4.6034227845e+01    0.4449371    0.1957468 -59.72   0.00164509    2.767    0.639
        38 -10.1606    170.8122    105.0825   9.4474402736e+01   2.6747617862e+01    0.3113866    0.2497649 -78.72 0.0004080815    1.478    0.323
        39 -12.5406    165.2310     95.2481   9.3060765280e+01   3.0028369898e+01    0.8388922    0.6052229 -62.74  0.002420411    1.616    0.381
        40 -11.0127    169.9921     90.2740   9.0663553797e+01   2.9833839407e+01    0.2937056    0.2793336  37.61 0.0003438871    1.098    0.089
        41 -10.2927    143.3606    104.2112   1.0061270122e+02   3.3316499248e+01    0.3737017     0.218285  42.51  0.001206872    1.773    0.436
        42 -11.6738    152.7343     99.6821   9.7127290179e+01   3.2103102879e+01    0.6333532    0.4965815  46.79  0.003042206    1.283    0.221
        43  -9.9179     34.8335     98.1541   1.2990204085e+02   5.2259610951e+01    0.1850607    0.1497379 -73.62 0.0005681875    1.233    0.189
        44 -10.3247     38.0395    108.8384   1.3104756574e+02   4.9584582247e+01    0.1885424    0.1532479 -82.88 0.0005452278    1.268    0.212
        45  -9.1921     33.4685     94.2567   1.2951696242e+02   5.3233712882e+01    0.1676231    0.1057578 -69.65  0.000538729    1.556    0.357
        46 -11.8018    148.8097     91.4621   9.5776967204e+01   3.4652011838e+01    0.3650416    0.2941954 -46.21 0.0007838145    1.245    0.197
        47 -12.3227    111.1839     83.6097   1.0321317398e+02   4.4340680179e+01    0.4441136    0.3005745 -54.96  0.001585157    1.649    0.394
        48 -12.4219    229.8268    172.8822   9.8552869335e+01   5.4544769578e-01     1.019027    0.3996338  52.22  0.003658871    3.223    0.690
        49  -9.4085    135.9597    131.9909   1.0949616913e+02   2.8869248804e+01    0.2841164    0.1781523 -53.34 0.0009666261    1.605    0.377
        50 -10.7799    135.5512    125.2527   1.0797437763e+02   3.0466053345e+01    0.7103798    0.3174882 -59.11  0.002241927    3.129    0.680
        51  -9.7710    132.6416    136.3653   1.1133704086e+02   2.8570182309e+01    0.2827048    0.1834096 -48.34 0.0005589342    1.518    0.341
        52  -9.8555    135.0000    120.0006   1.0680989872e+02   3.1749603794e+01    0.3090404    0.1881848 -51.41  0.001044629    1.647    0.393
        53 -11.1772    104.5151     50.5152   9.4584114274e+01   5.1512436277e+01    0.2500532    0.2098104   6.05 0.0008210618    1.184    0.155
        54  -9.9581    174.7162     48.6714   7.8038805137e+01   3.5637277013e+01    0.2254554    0.2028448  47.68 0.0005250783    1.136    0.119
        55 -10.3609    160.8384    128.3620   1.0267391560e+02   2.4218734141e+01    0.3907394     0.323861 -75.96  0.001457947    1.369    0.270
        56  -9.1223    192.2965     39.7520   7.2705470561e+01   3.2484017553e+01    0.1388546    0.1008628 -77.51 0.0003594044    1.486    0.327
        57 -15.1111    216.1124     72.7673   7.7550785424e+01   2.1620644456e+01     1.408622    0.6848133 -60.00  0.004204824    2.842    0.648
        58 -14.7549    211.4675    186.4978   1.0485609649e+02   1.7053369160e+00      5.42413     3.323661  -3.38   0.02152237    2.893    0.654
        59 -13.5058    193.4392    195.4975   1.1020331933e+02   3.6043891452e+00     1.441724    0.8131621 -55.95  0.006234565    2.358    0.576
        60 -12.5739    196.9671     30.3524   6.9575109755e+01   3.2544680176e+01    0.3391994    0.2493543 -18.48  0.001107859    1.713    0.416
        61  -9.5892    167.8105     28.9917   7.3601534946e+01   3.9951619308e+01    0.1767011    0.1538434  11.38 0.0003253915    1.360    0.265
        62 -11.0427    169.1907     23.9955   7.1943953956e+01   4.0194235952e+01    0.3580368    0.2232817 -14.29  0.001372762    2.096    0.523
        63 -10.1631    154.2765    126.6476   1.0378002809e+02   2.6068161842e+01    0.5002617    0.3246408  32.59  0.002075211    1.843    0.457
        64  -9.1028    177.4753     25.6668   7.1127162737e+01   3.7951253638e+01    0.1380416    0.1159836  65.59 0.0001532058    1.078    0.072
        65 -11.3875    161.3969     21.8469   7.2588551950e+01   4.2349216686e+01    0.2767932    0.2262183  38.39 0.0005780545    1.277    0.217
        66  -9.9746    233.0221    131.9384   8.8955655844e+01   7.2413433860e+00    0.2131768    0.2007808 -55.52 0.0004337707    1.086    0.079
        67 -10.0564    154.2343    123.1988   1.0293264902e+02   2.6824356366e+01     0.301585    0.2510447  61.64 0.0004487523    1.250    0.200
        68 -12.4044      7.1900    209.3950   1.4949554086e+02   3.0255327531e+01    0.3010012    0.2263262  61.62  0.002307435    1.298    0.230
        69  -9.2802    181.9326    153.2032   1.0381952214e+02   1.4239177846e+01    0.2350739    0.1660249  73.59  0.001001126    1.929    0.482
