#   1 NUMBER                 Running object number                                     
#   2 MAG_AUTO               Kron-like elliptical aperture magnitude                    [mag]
#   3 X_IMAGE                Object position along x                                    [pixel]
#   4 Y_IMAGE                Object position along y                                    [pixel]
#   5 X_WORLD                Barycenter position along world x axis                     [deg]
#   6 Y_WORLD                Barycenter position along world y axis                     [deg]
#   7 A_WORLD                Profile RMS along major axis (world units)                 [deg]
#   8 B_WORLD                Profile RMS along minor axis (world units)                 [deg]
#   9 THETA_WORLD            Position angle (CCW/world-x)                               [deg]
#  10 FWHM_WORLD             FWHM assuming a gaussian core                              [deg]
#  11 ELONGATION             A_IMAGE/B_IMAGE                                           
#  12 ELLIPTICITY            1 - B_IMAGE/A_IMAGE                                       
         1  -9.3399     61.4743     27.3637   6.7419203559e+01   6.2958996190e+01    0.4029062    0.2171619  -1.76  0.001641601    2.849    0.649
         2  -9.0202     46.0225     21.1490   7.0924827022e+01   6.6240057305e+01    0.3853019    0.2053017 -25.82   0.00206396    1.822    0.451
         3  -9.2541     27.6169     21.5062   7.9612044086e+01   6.8641965857e+01      0.55559    0.2897405 -17.51  0.002884082    2.074    0.518
         4  -9.7915     77.5083     13.1244   5.5850502344e+01   6.1645262729e+01    0.6887769    0.2187856  48.08   0.00287361    2.564    0.610
         5  -9.2482     64.0856     14.0319   6.0638985808e+01   6.4092246719e+01    0.3888063    0.2013642  21.69  0.001504896    2.235    0.553
         6  -9.1646    106.9233     10.7129   4.7301326728e+01   5.5664275146e+01    0.2901756    0.1645785  68.09  0.001461047    1.830    0.453
         7  -9.1887     31.4570     11.2410   7.2876462855e+01   6.9562910727e+01     0.315848    0.1840896   3.47 0.0002700098    1.789    0.441
         8  -9.3046     31.6232      6.2173   7.0270797959e+01   7.0144936149e+01     0.323476    0.1838687  14.69 0.0004644514    1.704    0.413
         9  -7.7319    156.0124     11.6699   3.9111472799e+01   4.4237657225e+01    0.1968276    0.1306485 -26.69 0.0007481007    1.702    0.413
        10  -8.2606     96.9740     11.7939   5.0002632434e+01   5.7745675111e+01    0.2084947     0.143234  34.44  0.000868467    1.329    0.248
        11  -8.8804    125.2377     10.3694   4.3547619209e+01   5.1540836777e+01    0.2325667    0.1673756  37.13 0.0003727408    1.379    0.275
        12  -8.1455     13.8680     10.8583   8.1855902227e+01   7.1660361923e+01    0.2127832    0.1333649  35.20 0.0007287147    2.030    0.507
        13  -9.8107     20.4038      8.6079   7.7175410729e+01   7.1265875233e+01    0.3675246    0.2057332  17.00 0.0008733579    1.652    0.395
        14  -7.4560    142.7088      9.6940   4.0446020521e+01   4.7534850485e+01    0.1287564    0.0858975  39.69 0.0002301597    1.576    0.365
        15  -8.1107     71.4306      8.7423   5.5845420039e+01   6.3248412299e+01    0.1608789    0.1081828   0.25 0.0004765331    1.538    0.350
        16  -8.8896      3.9948      6.6283   8.5505001323e+01   7.3168032100e+01    0.3423384    0.1776046 -10.30  0.001993287    1.911    0.477
        17  -7.6654    156.0000      6.9664   3.7784823042e+01   4.4663565364e+01    0.1781418   0.07240092 -24.12 0.0003324822    2.822    0.646
        18  -7.9284    119.4960      7.0197   4.3473143376e+01   5.3142095921e+01    0.1690792   0.09450545  23.06 0.0005242977    2.301    0.565
        19  -9.2358     76.6659      6.9889   5.3492402027e+01   6.2383853299e+01     0.294219    0.1522743  51.06  0.001123543    1.672    0.402
        20  -8.8240     41.3766      5.6105   6.5513421165e+01   6.8790572878e+01     0.275319    0.1696557   8.18  0.001638062    1.567    0.362
        21 -10.2141     13.6195      4.5013   7.8794623636e+01   7.2547227941e+01    0.3035491    0.1877746  11.64  0.002000372    1.402    0.287
        22  -9.5587     84.8382      5.4082   5.0551201748e+01   6.0861649351e+01    0.2343665     0.201828  21.03 0.0004965455    1.103    0.093
        23  -7.7552    131.4932      5.4651   4.0887930239e+01   5.0506628413e+01    0.1261623     0.109477  66.30 8.963569e-05    1.037    0.036
        24  -8.0043     91.2575      5.6400   4.9005292504e+01   5.9498040117e+01    0.1836135   0.09309032  49.23 0.0006866134    1.607    0.378
        25  -8.5946    125.4889      3.5849   4.1269689930e+01   5.2043273486e+01    0.2108042    0.1849797  56.28 0.0005516448    1.032    0.031
        26  -8.8109    110.5262      3.0763   4.3806487393e+01   5.5485906494e+01    0.2921879    0.1663789 -26.52  0.001585053    1.978    0.495
        27  -9.1579     57.8236      3.3328   5.7930972806e+01   6.6270057411e+01    0.2607327     0.180424  23.86 0.0006289681    1.213    0.176
        28  -8.8736    166.6529      2.5673   3.5293683549e+01   4.2566589869e+01    0.2406948    0.2014752  72.45 0.0008015503    1.064    0.060
        29  -7.2984    153.6871      3.2666   3.7039990792e+01   4.5517494077e+01    0.1232228   0.08577846 -74.63 0.0002504699    1.544    0.352
        30  -7.6185    134.3316      3.2715   3.9749850688e+01   5.0024026782e+01     0.130703   0.07951531  44.08 0.0005788516    1.590    0.371
        31  -7.3909    159.7566      1.3178   3.5753547320e+01   4.4267161715e+01    0.1617028   0.09452444  64.44 0.0002176715    1.455    0.313
        32  -7.7171    105.0260      1.5856   4.4365862744e+01   5.6824711456e+01    0.1995571    0.1039314  60.48 0.0006123203    1.626    0.385
        33  -7.8802      2.8146      1.3276   8.3532905661e+01   7.4008802782e+01    0.1479355   0.08152717   9.46 0.0005018592    1.651    0.394
        34  -8.0375     28.9732    111.4855   1.0551052177e+02   5.0029966527e+01    0.1861718   0.09523891  49.15 0.0008103741    2.598    0.615
        35 -10.4079    198.1967    248.8129   8.6239142120e+01  -4.4150755657e+00    0.3882772    0.2868409  33.64 0.0009865389    1.369    0.270
        36  -8.3737    133.9582    107.0801   7.1626872905e+01   3.4739715428e+01    0.5338441    0.1882804 -40.50  0.001710336    2.867    0.651
        37  -7.6897     39.0000    109.9870   1.0185407108e+02   4.9471208901e+01    0.2336097   0.06954309 -61.78 0.0008020059    2.939    0.660
        38  -8.4575      1.4989    109.5447   1.1424532736e+02   5.2358771307e+01    0.2480283   0.06989776 -59.79  0.001032493    2.388    0.581
        39  -8.0343     77.8278    105.5261   8.7782523380e+01   4.5599781796e+01    0.5890645    0.2879539 -20.96  0.001425613    6.741    0.852
        40  -7.6524    124.7318    106.3273   7.3874507331e+01   3.6826607384e+01    0.2468391    0.1250856 -33.11 0.0008929107    2.301    0.565
        41  -8.2317     66.0803    105.1045   9.1576470734e+01   4.7427091721e+01    0.3351445    0.1585197 -32.71  0.001208681    2.819    0.645
        42  -9.3118     14.4188    105.3975   1.0936035741e+02   5.2601851958e+01    0.3616413    0.1542278 -36.69  0.001578799    2.533    0.605
        43  -8.6122    249.2372    103.6283   4.8940414106e+01   1.1428219937e+01    0.1651332     0.120183  41.43 0.0009520689    1.695    0.410
        44  -8.0666     94.1304    103.1341   8.1936794393e+01   4.3431964709e+01    0.2710656    0.1755892  27.24 0.0009459009    1.701    0.412
        45  -7.4841     64.4891    101.4571   9.1209553492e+01   4.8502614583e+01    0.1448925    0.1302626 -34.52 0.0008089957    1.010    0.010
        46  -8.5789    188.2406     96.6826   5.6842667334e+01   2.4837104247e+01    0.3646535    0.1804131 -34.10  0.001052714    2.045    0.511
        47  -7.3749    130.0243     97.0000   6.9867238669e+01   3.7662068576e+01    0.2492577    0.0871642  45.63 0.0007956856    2.896    0.655
        48 -10.0349     11.5730     94.1591   1.0842743496e+02   5.5451659878e+01    0.4973372    0.2138914 -29.83  0.001828407    2.764    0.638
        49  -8.1149     83.5675     93.9179   8.2766201949e+01   4.7302789954e+01    0.3378844    0.2166289  12.52  0.001454684    2.063    0.515
        50  -9.4530     92.8805     92.3925   7.9317316014e+01   4.6014194678e+01    0.3206443    0.2625455  33.21 0.0005500945    1.250    0.200
        51  -7.8910     97.6660     89.6408   7.7008202949e+01   4.5717283366e+01     0.337565    0.2243652  -3.40  0.001108733    2.223    0.550
        52  -8.7951     43.6893     91.8754   9.6199592069e+01   5.3287187836e+01    0.3780155    0.2576801 -12.24  0.001942724    1.698    0.411
        53  -7.9388     56.4160     91.7605   9.1547348464e+01   5.1809395641e+01    0.2025313     0.114706 -42.52 0.0003135713    1.602    0.376
        54  -8.8695     65.9566     83.9807   8.5965747809e+01   5.2229749339e+01    0.3408355    0.2125359 -32.07  0.000369925    1.617    0.382
        55 -10.3328     37.2088     81.1506   9.5943219175e+01   5.6395593064e+01    0.7199107    0.3635939 -16.44   0.00289141    3.021    0.669
        56  -8.3999     20.8620     84.5464   1.0306879309e+02   5.7054984552e+01    0.2222787    0.1368835 -49.64 0.0003649272    1.311    0.237
        57  -8.0886    126.6749     83.7277   6.6896500889e+01   4.0993932754e+01    0.3220197    0.1688012  22.08 0.0009573566    4.143    0.759
        58  -8.6737    242.6260     82.8031   4.5350125854e+01   1.5906885406e+01    0.1936126   0.09867883 -45.85 0.0009464914    1.687    0.407
        59  -9.7729      8.4419     77.0956   1.0631220315e+02   5.9554728615e+01     0.660549    0.2115726 -34.00  0.002529484    3.484    0.713
        60  -8.9511     88.2405     78.8342   7.6733444868e+01   4.9661746427e+01    0.5710313    0.2917582  19.74  0.001962077    3.347    0.701
        61  -7.8274    184.0565     78.0711   5.2834275925e+01   2.8978235078e+01    0.2233632    0.1675178 -75.87 0.0007619757    1.604    0.377
        62  -9.1254     49.5689     77.1385   9.0065552051e+01   5.5898267538e+01    0.4966234    0.2574018   1.65  0.001879576    3.330    0.700
        63  -9.0057     23.8114     73.4886   9.9295529785e+01   5.9302457118e+01    0.5278023    0.1843066 -44.72  0.001996192    2.308    0.567
        64  -8.9209     28.3577     69.3279   9.6330289333e+01   5.9815162648e+01    0.4009661      0.16645 -28.77  0.001562387    3.097    0.677
        65  -7.9958     23.4182     69.2118   9.8349091630e+01   6.0261764709e+01    0.2272656     0.156008 -38.21 0.0004738292    1.208    0.172
        66  -8.2528     74.8861     74.3324   7.9849511977e+01   5.2858850917e+01    0.2623207    0.1924984 -31.91 0.0003697133    1.290    0.225
        67  -7.7176    140.4934     71.2046   5.9721717839e+01   4.0156121085e+01    0.2812693    0.1469628 -28.95  0.001123006    2.176    0.541
        68  -8.3613     47.8616     70.6339   8.8803313953e+01   5.7479370538e+01    0.2509857    0.1588154 -38.42  0.000895373    1.399    0.285
        69  -7.7089    128.8309     69.3836   6.1978215376e+01   4.3106093007e+01    0.2175671    0.1287678  39.38 0.0009420368    1.743    0.426
        70  -7.8858    105.4855     68.0192   6.7884824387e+01   4.8370471823e+01    0.3018811      0.17236  13.78  0.001038379    3.387    0.705
        71  -8.9178     83.2693     65.0633   7.3907330381e+01   5.3195433848e+01    0.5402495    0.3150516   1.50  0.001946213    3.176    0.685
        72  -8.7072     16.3244     63.9996   9.9970500463e+01   6.1913827319e+01    0.3678441   0.04792078 -50.78  0.001232016    3.790    0.736
        73  -8.7141     19.5122     61.0034   9.7774125944e+01   6.2305572738e+01    0.2811409    0.1431564 -32.08  0.001381362    1.825    0.452
        74  -9.9172     62.1706     61.2391   8.0184541428e+01   5.7394321401e+01    0.5111411    0.2536202  26.36 0.0003519932    2.226    0.551
        75  -9.4431     36.3984     59.3779   8.9988932778e+01   6.1078820960e+01    0.3673008    0.2011258   0.38  0.001696721    2.394    0.582
        76  -8.3774     25.7987     60.7188   9.4958483819e+01   6.1843937346e+01     0.300283    0.1368963 -40.96   0.00144644    1.835    0.455
        77  -7.1929    121.6989     61.7049   6.1363559702e+01   4.5973123864e+01    0.1461852    0.1091583  16.47 0.0006992265    1.574    0.365
        78  -8.9026     11.3861     60.8351   1.0128214297e+02   6.2914169537e+01    0.1986227    0.1896892  64.79 0.0009325219    1.419    0.295
        79  -7.7366    111.0382     58.0084   6.2988894700e+01   4.8895084234e+01    0.2304965    0.1654281  14.99 0.0005532837    1.659    0.397
        80  -7.5991     49.5396     58.5423   8.4238464760e+01   5.9678591385e+01    0.1328021    0.1153552 -17.41   4.7821e-05    1.050    0.048
        81  -9.2762     99.6026     55.0325   6.5250612304e+01   5.1768709971e+01    0.3554802    0.2846099 -22.17 0.0008314535    1.258    0.205
        82  -8.0772    118.6486     50.9348   5.8613157053e+01   4.8318454820e+01    0.2323598      0.17701  38.65 0.0004317976    1.254    0.203
        83  -8.4877    106.3728     48.9599   6.1191077755e+01   5.1288663983e+01    0.3916527    0.2370754  13.59  0.001635599    2.489    0.598
        84 -10.1890     75.2984     50.0380   7.1347092944e+01   5.7218388025e+01    0.3154758    0.2499698  -2.18 0.0001824042    1.222    0.182
        85  -7.6820    172.1895     49.9938   4.7365953824e+01   3.5995755345e+01     0.175569    0.1645833 -48.65            0    1.092    0.084
        86  -8.8270     45.1389     48.9398   8.2683570131e+01   6.2024642338e+01    0.3251979    0.2060452 -10.42  0.001206095    1.729    0.422
        87  -8.6335     10.1654     47.1887   9.7986292931e+01   6.5766071658e+01    0.4431023    0.1591269 -46.45  0.001764399    2.062    0.515
        88  -8.9244     13.7520     45.4131   9.5718601777e+01   6.5858930762e+01    0.2302023    0.2019926 -35.21  0.001018913    1.213    0.175
        89  -9.1681     55.5032     43.0258   7.6155466237e+01   6.1595449733e+01    0.6592844    0.2463946 -26.96  0.002167184    4.317    0.768
        90  -8.4695     58.3323     40.3339   7.3970933907e+01   6.1593736779e+01    0.2406175    0.1683951   9.03 0.0006649534    1.428    0.300
        91  -8.6712      3.1031     44.6758   1.0062675450e+02   6.6689547945e+01    0.2683909    0.2156534 -51.69  0.001867547    1.252    0.201
        92  -8.5677      3.5537     40.0037   9.8986944587e+01   6.7568164131e+01    0.2494802    0.1282861 -57.10  0.001191327    1.808    0.447
        93  -8.9303     92.7255     42.9558   6.2998807077e+01   5.4998860065e+01    0.3938909    0.2357711  15.33  0.001462275    2.296    0.565
        94  -8.5098     87.4930     38.4523   6.2925205547e+01   5.6677840925e+01      0.28995    0.1994317  22.38 0.0008226965    1.490    0.329
        95  -7.3661    162.5553     43.4775   4.7154998399e+01   3.9140971435e+01    0.1349826    0.1268999  56.62 8.026029e-05    1.069    0.064
        96  -8.0442    123.1991     40.3522   5.3980774657e+01   4.8761433615e+01    0.3250686    0.1969453  12.87  0.001378629    2.550    0.608
        97 -10.7579     82.9039     40.1416   6.5034184133e+01   5.7334083374e+01      0.37855    0.2502735 -11.87  0.001938809    1.687    0.407
        98  -8.3287     18.0188     39.0031   9.1471822365e+01   6.6718629303e+01    0.2157498      0.15119 -41.41 0.0005815823    1.263    0.208
        99  -9.0818     19.7007     35.9350   8.9519015256e+01   6.7119777649e+01    0.2514255    0.2223615  22.21 0.0007841437    1.451    0.311
       100  -8.9023     22.0008     32.0092   8.6863123567e+01   6.7580952592e+01    0.2986631    0.1778139  17.38 0.0003329085    1.660    0.397
       101  -8.3891    105.4925     36.8424   5.7144825664e+01   5.3155803636e+01    0.3257717    0.1966186  24.41  0.001510598    1.999    0.500
       102  -8.9018     67.5088     37.5063   6.9342931920e+01   6.0516509977e+01    0.2620814     0.213066 -21.99  0.001123323    1.206    0.171
       103  -9.6440     70.8581     35.3802   6.7279557648e+01   6.0235959002e+01    0.4885332    0.2898744  41.26  0.002542711    1.610    0.379
       104  -9.1272     37.2359     36.0703   8.1231734414e+01   6.5225853699e+01    0.4205836    0.2468044   1.20  0.002174197    1.969    0.492
       105  -8.7582     92.0180     36.5328   6.0818269459e+01   5.6029322123e+01    0.2420297    0.1773085  -0.39 0.0005690563    1.481    0.325
       106  -8.2016     62.5108     37.0049   7.1016441599e+01   6.1431956355e+01     0.188231    0.1201269 -31.85 0.0006396548    1.536    0.349
       107  -8.4527     55.4417     35.1538   7.3039010536e+01   6.2837738416e+01    0.2781477    0.1737006 -35.24 0.0009724799    1.590    0.371
       108  -9.0940      5.9659     33.9949   9.5773572044e+01   6.8540096712e+01    0.2763201    0.2499308 -63.65  0.002015514    1.547    0.354
       109  -8.8547      1.9302     30.2613   9.6586591445e+01   6.9471082631e+01    0.3170068    0.1926225 -73.16  0.001646366    3.012    0.668
       110  -9.0433     96.3646     32.7210   5.8125999126e+01   5.5622700420e+01    0.2653206    0.1973065  19.22 0.0002278801    1.367    0.269
       111  -8.0430    133.9303     31.2680   4.8709638422e+01   4.7400114055e+01    0.1858692    0.1619619  44.82 0.0004869055    1.080    0.074
       112  -8.3549    228.8688     30.2085   3.5536425017e+01   2.5903335016e+01    0.1810324     0.139193 -69.52  0.000423505    1.129    0.114
       113  -7.8471     85.9240    250.8007   1.0915775130e+02   1.1151064266e+01    0.1577138   0.08328629  35.09   0.00038524    1.672    0.402
       114 -11.4804     80.7076     23.1669   5.9031169663e+01   5.9946404078e+01    0.5377179    0.2295453  39.13 0.0001644227    2.174    0.540
       115  -8.5688     42.0068     27.9797   7.5707336806e+01   6.5864321723e+01    0.2556764    0.1644547   4.09 0.0007948031    1.572    0.364
       116  -8.5909    151.8487    247.4068   9.5260936456e+01   2.3976662667e+00    0.2483702    0.1576586 -69.50  0.001240814    2.740    0.635
       117  -7.5014    153.2847     26.3431   4.3746806635e+01   4.3397510014e+01    0.1335491   0.09528439  32.26 0.0007017269    1.641    0.390
       118  -7.9837    109.7788     25.7844   5.2097696477e+01   5.3537644758e+01    0.1985751    0.1644651  28.53  0.000745938    1.151    0.131
       119  -6.9625    241.3032     25.2815   3.3449978455e+01   2.3975749307e+01      0.10061   0.08956308  43.36 0.0002120115    1.552    0.356
       120  -8.2718    236.7642    243.9937   7.8320463138e+01  -8.7427561562e+00    0.1646834    0.1212448  -3.78  0.000417575    1.053    0.050
       121  -8.5105      3.1753     25.0894   9.4014883156e+01   7.0303500951e+01    0.1872502    0.1157709 -26.45 0.0004809807    1.270    0.212
       122  -7.8987    136.8808     22.9055   4.5493492794e+01   4.7631250445e+01    0.2015002    0.1587535  36.24 0.0004477839    1.302    0.232
       123  -8.3444    128.8722     22.4015   4.6829140524e+01   4.9552056994e+01    0.2230959    0.1895326   5.65 0.0006312926    1.314    0.239
       124  -9.3969     70.0322     26.4248   6.3904788961e+01   6.1577399135e+01    0.2754377    0.2039219 -19.21  0.000889533    1.338    0.252
       125  -8.9397     92.3550     20.6309   5.4619001743e+01   5.7858983104e+01    0.2705783    0.1949467  23.41 0.0009584994    1.357    0.263
       126  -7.7870    140.6402     19.9215   4.3903799109e+01   4.7055209272e+01    0.1649676    0.1614976  59.88 0.0003541186    1.096    0.087
       127  -9.0575      8.5162     20.0227   8.9018818016e+01   7.0756417504e+01    0.3428654    0.2424896  14.58  0.001571694    1.430    0.301
       128  -8.9761     14.1309     18.0632   8.5076614433e+01   7.0575228502e+01    0.3006498    0.1560251  15.91 0.0008130561    1.887    0.470
       129  -7.4102    146.7651     19.0041   4.2616604277e+01   4.5706335549e+01     0.146915    0.1102802 -26.60 0.0003274914    1.491    0.329
       130  -7.6950    112.1441     19.3029   4.9242133532e+01   5.3691467631e+01    0.2174747    0.1333455  41.70 0.0005912301    1.495    0.331
       131  -7.9687    127.3676     16.7082   4.5247256105e+01   5.0468949996e+01    0.2175789    0.1437135  63.10 0.0005610494    1.361    0.265
       132  -7.4305    189.3954     15.8049   3.6159001514e+01   3.6103516623e+01    0.1557259    0.1216422 -12.08 0.0007033517    1.662    0.398
       133  -7.6356    220.1693    234.2068   7.9704276365e+01  -5.2742207153e+00    0.1479943    0.1332645   1.55 0.0003799814    1.315    0.240
       134  -9.3602    187.6019    233.1879   8.5835017672e+01  -5.4360816104e-01    0.2854362    0.2309976  66.43  0.001146252    2.073    0.518
       135  -7.5798    121.6183     14.6788   4.5667659220e+01   5.1985618107e+01    0.1442371   0.08230499  36.40 0.0001025782    1.834    0.455
       136  -7.6182    198.1734    232.9038   8.3691858355e+01  -2.0309293649e+00    0.1985277    0.1227896 -14.17 0.0007832177    1.798    0.444
       137 -10.3028    217.4310    225.7400   7.8768992729e+01  -3.6519524573e+00    0.2306293    0.1918122 -12.32  0.000372669    1.136    0.119
       138  -9.0724    185.5183    225.9914   8.5066942177e+01   9.3849927222e-01    0.2735183     0.171412  34.53 0.0004327901    1.484    0.326
       139  -7.2158    151.2578     12.9881   4.0158130423e+01   4.5230952859e+01    0.1399743    0.1115533 -27.91    0.0002948    1.417    0.294
       140  -7.8541    134.3353     13.3185   4.2910101588e+01   4.9166739298e+01    0.1375365   0.08511714  38.08 0.0007048877    1.699    0.412
       141  -8.3986     88.2839     12.9479   5.2689311706e+01   5.9478615305e+01    0.2585942    0.1576606  42.99 0.0009400327    1.392    0.281
       142  -8.2819    187.6723    216.8357   8.3061434450e+01   2.1532006052e+00    0.2160682    0.1608561  13.68 0.0004021147    1.257    0.205
       143  -8.4715     56.1455    215.4656   1.1193260882e+02   2.2094493122e+01     0.224521    0.1373079 -84.82 0.0007328348    1.700    0.412
       144  -7.0051    100.7734    215.0552   1.0186454321e+02   1.6148262234e+01    0.1482111    0.1105148 -65.06 0.0008127267    1.440    0.306
       145  -7.9456    214.6458    214.0152   7.7222366248e+01  -1.4382806701e+00     0.177766    0.1437649 -14.15 0.0005267014    1.089    0.082
       146 -10.3877    154.3907    210.8279   8.9107546935e+01   8.5581526745e+00    0.2537436    0.2395975 -36.88 0.0004577133    1.167    0.143
       147  -8.1639    106.2199    207.0397   9.9493493130e+01   1.7038919971e+01     0.190339    0.1787847  -4.66 0.0003556602    1.176    0.150
       148  -8.1693    139.1050    199.0646   9.0554157189e+01   1.3442753377e+01    0.2013806    0.1765351  -1.34            0    1.189    0.159
       149  -7.9136    132.9128    198.9225   9.1969424731e+01   1.4505279363e+01    0.1977846    0.1747543  -5.27            0    1.202    0.168
       150  -7.9488    222.9849    187.9986   7.0751777469e+01   1.5810884215e+00    0.1927893    0.1586353 -12.11            0    1.031    0.030
       151  -7.2912     85.6222    184.4809   1.0115190018e+02   2.5230636808e+01    0.1367065    0.1299665 -76.38 0.0001366274    1.044    0.042
       152  -7.5873     40.7502    179.4517   1.1174451562e+02   3.2126324918e+01    0.1617624    0.1294952   4.44 0.0008525854    1.643    0.391
       153  -7.0694    101.1981    175.9726   9.5813204307e+01   2.4863060893e+01    0.1762159    0.1128594 -57.99 -0.000430966    1.566    0.361
       154  -7.5782    136.0177    165.9962   8.5080311275e+01   2.1179246583e+01    0.1833736    0.1656364 -41.82 0.0004267528    1.102    0.093
       155  -7.6415    107.1279    151.8555   8.9685454198e+01   2.9644728072e+01    0.2078562    0.1778111  -5.01 0.0005241546    1.332    0.249
       156  -7.1153    119.6354    149.6931   8.5861448172e+01   2.7939785711e+01    0.1605245    0.1198837  -9.60 0.0007037897    1.745    0.427
       157  -8.9511     66.9939    144.5915   9.9628788142e+01   3.7614110717e+01    0.4971087      0.30127  75.65  0.002005222    2.591    0.614
       158  -7.4057    183.3850    143.5045   6.9148477376e+01   1.6859082603e+01    0.1492728    0.1361534 -28.91 5.616528e-05    1.031    0.031
       159  -7.5388    139.6555    138.7264   7.8167564126e+01   2.6642206326e+01    0.1573013    0.1212661  -0.40 0.0006998277    1.621    0.383
       160  -7.1938     55.4962    135.4800   1.0140122232e+02   4.1352401323e+01    0.1429828    0.1275001 -53.34 0.0008099218    1.045    0.043
       161  -7.4380      4.7513    134.2353   1.1624973610e+02   4.6210860861e+01     0.172487     0.100483  -8.36 0.0008885261    2.431    0.589
       162  -7.4769    153.4833    124.4956   7.1298096648e+01   2.6922159491e+01    0.1552379    0.1476597 -17.68 0.0008103247    1.024    0.023
       163  -7.3986    133.2700    124.3823   7.6321555797e+01   3.1130652402e+01    0.1624579    0.1198809 -14.79 0.0004170922    1.698    0.411
       164  -8.1780     11.8112    121.3939   1.1259223430e+02   4.8894908977e+01    0.1610477    0.1188719 -13.90 0.0007106595    1.648    0.393
       165  -8.2636    248.6694    112.3274   5.0849771232e+01   1.0128962801e+01    0.1327889   0.09185962 -62.18 0.0007051241    1.710    0.415
