#   1 NUMBER                 Running object number                                     
#   2 MAG_AUTO               Kron-like elliptical aperture magnitude                    [mag]
#   3 X_IMAGE                Object position along x                                    [pixel]
#   4 Y_IMAGE                Object position along y                                    [pixel]
#   5 X_WORLD                Barycenter position along world x axis                     [deg]
#   6 Y_WORLD                Barycenter position along world y axis                     [deg]
#   7 A_WORLD                Profile RMS along major axis (world units)                 [deg]
#   8 B_WORLD                Profile RMS along minor axis (world units)                 [deg]
#   9 THETA_WORLD            Position angle (CCW/world-x)                               [deg]
#  10 FWHM_WORLD             FWHM assuming a gaussian core                              [deg]
#  11 ELONGATION             A_IMAGE/B_IMAGE                                           
#  12 ELLIPTICITY            1 - B_IMAGE/A_IMAGE                                       
         1 -14.4826    161.4313     49.2485   8.1024445015e+01   3.8458298520e+01     1.784308     1.385279   6.28  0.005560808    1.457    0.314
         2 -13.5798    177.9940     26.2760   7.0857704673e+01   3.7215113901e+01    0.6075392    0.5523043  -4.97  0.001156201    1.134    0.118
         3 -14.4091    173.9678     33.3178   7.3691529232e+01   3.7412481156e+01     1.100811    0.9368179 -14.65  0.003633814    1.187    0.157
         4 -13.2671    190.7736     14.8873   6.5794786344e+01   3.5222777043e+01    0.6837952    0.3965262 -86.76  0.002962666    2.049    0.512
         5 -13.8128    190.8433      3.6069   6.2403544461e+01   3.6239369748e+01     1.168582    0.6069568  63.03  0.004374115    1.870    0.465
         6 -10.2687    203.3145    245.3006   1.1561691648e+02   1.5024247718e+00    0.1101277   0.06308427  10.43 0.0003535824    1.612    0.380
         7 -18.9509     58.5710    244.2023   1.4192407808e+02   1.9122630939e+01     5.954765      4.56294  30.03   0.04756032    1.298    0.229
         8 -13.4445     11.9364    205.4018   1.4900672625e+02   3.0055079796e+01    0.4012338    0.3203095  15.73  0.003107944    1.596    0.373
         9 -13.8454    194.1177    194.1692   1.0966546904e+02   8.8095707406e+00    0.9694347     0.738673 -58.77  0.004881421    2.421    0.587
        10 -12.4301    204.9202    198.3609   1.0837852564e+02   6.6904305938e+00    0.4519025    0.2632539  -4.11  0.001871155    1.944    0.486
        11 -11.4679    104.8155    201.8085   1.2908938525e+02   2.0637439512e+01    0.2943572    0.2383844  36.54  0.001318285    1.042    0.041
        12  -9.7928    170.2160    205.2006   1.1600069464e+02   1.0796749408e+01    0.1460947    0.1335736  33.73 0.0004436958    1.334    0.250
        13 -10.9116     23.2238    205.0419   1.4672122664e+02   2.9171144748e+01    0.1714318    0.1286355  29.47  0.000588102    1.397    0.284
        14 -10.0315    211.0056    202.0687   1.0790482749e+02   5.3708654861e+00     0.176587    0.1359437  10.29 0.0003434324    1.037    0.036
        15 -11.4827    137.4692    197.8430   1.2158637940e+02   1.6712927853e+01    0.5253409    0.2580271  52.96  0.002311832    2.886    0.653
        16 -10.1710     30.7059    199.2659   1.4488398721e+02   2.9578995832e+01    0.1313098   0.08601867  30.37  0.000613579    1.488    0.328
        17 -10.6328    177.9858    196.9674   1.1320720733e+02   1.0820017270e+01    0.2540775    0.2134473  51.26  0.001080175    1.614    0.380
        18 -11.6030    179.4926    192.2397   1.1214419740e+02   1.1268945188e+01    0.5261326    0.3516956 -63.05  0.002584474    3.209    0.688
        19 -19.2210     46.4676     99.8288   1.3047541979e+02   5.0303295573e+01     18.47066     1.178235 -65.40   0.02908345   15.187    0.934
        20 -11.1768    157.7324    192.8457   1.1661298026e+02   1.4484273031e+01    0.2182301     0.198285  45.38 0.0003799794    1.320    0.243
        21 -10.1162    182.4092    189.2833   1.1108142493e+02   1.1250219279e+01    0.1515675    0.1187162 -42.07 0.0006775553    1.612    0.380
        22 -12.4416    207.5932    183.7655   1.0537654810e+02   8.1875948758e+00    0.3638157    0.3321662 -39.11  0.001069622    1.626    0.385
        23 -12.2258    210.9633    181.2079   1.0430769050e+02   8.0180349802e+00    0.3893462    0.2551483  -9.36  0.001539691    1.463    0.316
        24 -10.1608     28.1894    179.6664   1.4430572254e+02   3.3661525752e+01    0.2389855    0.1702524  -3.90   0.00134737    2.093    0.522
        25 -11.4626    197.8108    175.9547   1.0576809387e+02   1.0760266284e+01    0.3462452    0.2774532 -37.89  0.001250622    1.536    0.349
        26  -9.8887    145.5025    178.4713   1.1690632713e+02   1.8735517045e+01    0.1322305    0.1134384  20.25 0.0001110069    1.028    0.027
        27  -9.6482    168.4024    175.8018   1.1156543059e+02   1.5498833962e+01    0.1715587    0.1156403 -22.46  0.000368867    1.612    0.380
        28 -12.4017    137.3809    171.4771   1.1755333173e+02   2.1264482831e+01    0.6776635    0.3660139  44.78  0.003246052    1.824    0.452
        29 -10.8071    178.4814    172.9768   1.0899367779e+02   1.4303474947e+01    0.2719941    0.1662246 -51.61   0.00134265    2.350    0.574
        30 -11.0994    225.9425    166.9787   9.9017644576e+01   7.5988182440e+00    0.2214434    0.1633842 -49.14  0.001262717    2.207    0.547
        31 -11.5694    203.8105    168.2900   1.0320333583e+02   1.0889262169e+01    0.5209588    0.5063785  68.15  0.003474038    1.607    0.378
        32 -11.7524    230.3299    166.6828   9.8221390308e+01   6.9714498538e+00    0.3553759    0.1537619 -38.85  0.001512481    2.627    0.619
        33 -11.5135    144.7446    168.4213   1.1536767720e+02   2.0616638774e+01    0.3955418    0.2335789  45.51  0.001766725    1.714    0.417
        34 -10.4778     27.2860    165.3375   1.4359066509e+02   3.6741145425e+01    0.3981655    0.1198521  20.28  0.001513573    4.316    0.768
        35 -12.6221    113.7042    195.9547   1.2644820286e+02   2.0444558438e+01    0.8152228    0.4291824  17.90  0.003713903    2.617    0.618
        36 -12.0343    163.9343    156.4864   1.0890132505e+02   1.9453303249e+01    0.3632017    0.3059179 -34.86  0.000995654    1.276    0.216
        37  -9.3724    140.2837    156.6524   1.1425675354e+02   2.3515867782e+01    0.1315408    0.1095962  76.41 0.0002678212    1.648    0.393
        38 -12.6651    134.0255    145.1873   1.1353631354e+02   2.6802679961e+01      1.01849    0.3252099 -53.52  0.003156225    4.307    0.768
        39 -11.9021    117.3161    201.7031   1.2638805418e+02   1.8948879698e+01     0.408129    0.1815961  44.08  0.001683655    2.036    0.509
        40 -11.7522    174.1454    148.5824   1.0511655120e+02   1.8987952146e+01    0.3731201    0.2943165 -22.58  0.001345983    1.245    0.197
        41 -10.0630    232.6367    149.3046   9.4374457954e+01   8.8484405624e+00    0.1113297    0.1020147 -54.35 0.0007037495    1.735    0.424
        42 -12.3152    144.5995    146.1161   1.1119020454e+02   2.4749120928e+01    0.4221155    0.3593099  80.99  0.002291736    1.624    0.384
        43 -13.5564    108.1571    209.0570   1.2919968057e+02   1.8951862771e+01     1.032411    0.6415204  17.22  0.005210896    1.877    0.467
        44 -11.0477      3.5723    137.2497   1.4791880268e+02   4.4731621087e+01    0.2984446    0.1766046  71.74  0.001050018    1.496    0.332
        45 -11.5311      9.1583    143.3932   1.4678058737e+02   4.2983654401e+01    0.5735784    0.2517839   5.55  0.002585915    3.613    0.723
        46 -11.2195     95.1483    135.8546   1.2187682870e+02   3.5252854521e+01    0.2219621    0.1908903  67.66  0.001242074    1.253    0.202
        47 -12.1886     24.2532    135.4748   1.4208288255e+02   4.3696959242e+01    0.2248993     0.215211  59.64 0.0005180821    1.157    0.136
        48 -10.8851    150.2689    134.4539   1.0738518557e+02   2.5918618177e+01    0.2969431    0.2274375  72.15 0.0009889775    1.972    0.493
        49 -11.9776    118.9186    130.1868   1.1429096054e+02   3.2538347322e+01    0.4091329    0.3711855 -59.54  0.001332643    1.191    0.160
        50 -11.6569    105.9808    130.9821   1.1794929768e+02   3.4590925681e+01    0.3672853    0.3091553  58.78  0.001198881    1.285    0.222
        51 -11.6216    107.1730    126.7572   1.1675291748e+02   3.5317809202e+01    0.3359438    0.2620737 -33.15 0.0007121431    1.384    0.277
        52 -12.1514    135.3429    122.7239   1.0835937874e+02   3.1054179253e+01    0.6842053    0.1951911 -46.89  0.002091856    3.691    0.729
        53 -10.1433     89.6287    131.2834   1.2258736736e+02   3.7125943174e+01    0.1471194    0.1034624  63.50 0.0007016039    1.703    0.413
        54 -11.0416      4.1150    130.8874   1.4740933863e+02   4.6158218814e+01    0.1925488    0.1353796  66.65 0.0006894088    1.268    0.211
        55 -11.4975    160.3361    127.9636   1.0359454352e+02   2.5198896220e+01    0.4363203    0.2800787 -36.22  0.002076406    1.562    0.360
        56 -12.3781    124.1521    126.6299   1.1213758915e+02   3.2346147114e+01     0.592487    0.3553537  62.94  0.002313986    2.710    0.631
        57 -10.9225     93.1005    123.6795   1.2012034064e+02   3.8320136093e+01    0.3355289    0.1596101  45.19  0.001356996    2.191    0.544
        58 -11.1058     15.5192    213.6296   1.4860400278e+02   2.8276574626e+01    0.1255722    0.1053626  11.45 0.0006135617    1.596    0.373
        59 -10.9687    113.1583    119.2824   1.1345798038e+02   3.5907529817e+01    0.2525521    0.2331436 -52.36 0.0002982186    1.120    0.107
        60 -11.4790    181.7510    234.0581   1.1789875269e+02   5.4678959932e+00    0.2267662    0.1579535  -1.10  0.001574836    1.434    0.302
        61 -11.3776    167.6432    113.2442   9.8410827736e+01   2.6397389553e+01    0.3771338     0.315376  66.97  0.001232792    1.548    0.354
        62 -11.2135    134.5284    104.4930   1.0404124115e+02   3.4904648451e+01    0.6541143    0.1719197 -43.88  0.001881829    3.821    0.738
        63 -11.2797      3.6926    112.4689   1.4633314626e+02   5.0515316786e+01    0.2635749    0.2330825  14.58  0.001257712    1.375    0.273
        64 -10.7016    205.5184    110.2410   9.0223068766e+01   1.9206738273e+01    0.2872728    0.2123997  30.43 0.0009620481    1.368    0.269
        65 -11.7907     90.6123    109.0103   1.1772586483e+02   4.2093897518e+01    0.3099733    0.2593559 -52.41 0.0005891258    1.174    0.148
        66 -10.0366    135.9896    219.2323   1.2468827923e+02   1.3586941195e+01    0.1625156    0.1258152  30.61 0.0001984852    1.028    0.028
        67 -10.2067    217.4967    218.4851   1.0938553327e+02   2.5921045315e+00    0.1164251   0.08276781  11.42 0.0002540006    1.036    0.034
        68 -10.0502    148.0116     78.7149   9.3314963077e+01   3.6910768007e+01    0.2127441    0.1987497  23.23 0.0004353502    1.057    0.054
        69 -10.8794     89.0526     78.2028   1.1013648101e+02   4.9402449992e+01    0.2487035    0.2095816 -42.61 0.0004287008    1.138    0.121
        70 -11.3625      1.4323    249.3990   1.5212553100e+02   2.3544165333e+01    0.0894695   0.06722684  52.40 0.0007952071    1.121    0.108
        71 -10.0941      7.4414    212.5830   1.5012539323e+02   2.9119467157e+01     0.175207   0.09128155  23.79  0.001119858    2.059    0.514
        72 -10.2840     13.4304     59.8771   1.3636701528e+02   6.2899038361e+01     0.183625    0.1731257  73.73  0.000435015    1.208    0.172
        73 -10.3931    165.7198    207.3689   1.1720200606e+02   1.1139685937e+01    0.2318888    0.1940251  24.26 0.0009842791    1.109    0.098
        74 -10.6012    125.7849     26.8145   8.0220082921e+01   5.0513246150e+01    0.3327005    0.2415849  78.37  0.001072819    1.654    0.395
        75 -10.0635      2.0421     19.3974   1.3285430816e+02   7.2965975729e+01    0.1563842    0.1320084 -29.83  0.001048906    1.155    0.134
        76 -10.6443    164.6987    204.3527   1.1695836993e+02   1.1720313306e+01    0.2553336    0.2038612 -76.79  0.001281691    2.282    0.562
