#   1 NUMBER                 Running object number                                     
#   2 MAG_AUTO               Kron-like elliptical aperture magnitude                    [mag]
#   3 X_IMAGE                Object position along x                                    [pixel]
#   4 Y_IMAGE                Object position along y                                    [pixel]
#   5 X_WORLD                Barycenter position along world x axis                     [deg]
#   6 Y_WORLD                Barycenter position along world y axis                     [deg]
#   7 A_WORLD                Profile RMS along major axis (world units)                 [deg]
#   8 B_WORLD                Profile RMS along minor axis (world units)                 [deg]
#   9 THETA_WORLD            Position angle (CCW/world-x)                               [deg]
#  10 FWHM_WORLD             FWHM assuming a gaussian core                              [deg]
#  11 ELONGATION             A_IMAGE/B_IMAGE                                           
#  12 ELLIPTICITY            1 - B_IMAGE/A_IMAGE                                       
         1  -8.5759    101.6991     29.1912   3.1907377884e+01   5.5755942013e+01    0.2249106     0.182197 -56.10 0.0007109661    1.437    0.304
         2  -8.4622     55.9367      9.9634   3.9369705577e+01   6.9018460823e+01    0.1953394    0.1685145 -77.96 0.0004953672    1.644    0.392
         3  -8.1840     90.8389      8.8194   2.5853647218e+01   6.0984754229e+01    0.1931157    0.1641159 -83.45 0.0005981025    1.350    0.259
         4  -7.6453     47.3535      9.6631   4.3658306701e+01   7.0766497210e+01    0.1287529    0.1095602  88.35 0.0007043771    1.797    0.444
         5  -8.1518      5.6953      7.3803   7.3957347166e+01   7.6698049252e+01    0.1172101   0.09229385  58.92 0.0007024676    1.781    0.438
         6  -7.9282     70.4709      6.0356   3.0930193145e+01   6.6283668993e+01    0.1901757    0.1371984 -23.33 0.0005260825    1.518    0.341
         7  -8.6071     33.3459      4.8447   4.9340042536e+01   7.3963516233e+01    0.3058996    0.1919592 -57.78  0.001268173    2.689    0.628
         8  -8.4950     79.1811      3.5972   2.6640185690e+01   6.4444391557e+01    0.2759569    0.1618589 -41.55  0.001295575    2.009    0.502
         9  -8.0912    217.3263      2.9141   7.1040841872e+00   2.9460694786e+01    0.1608023    0.1381674 -43.36 0.0004308072    1.124    0.110
        10  -7.7159     44.6101      2.8097   4.0881040340e+01   7.2251806123e+01    0.1754274    0.1210262 -40.76 0.0009419236    1.699    0.411
        11  -7.5123     15.7148      2.6665   6.2026983757e+01   7.6738967994e+01    0.1307503   0.08277345 -19.00 0.0003442717    1.620    0.383
        12  -7.9481     62.5157      1.4102   3.1339713144e+01   6.8633753430e+01    0.1356736    0.1198595  44.16 9.718083e-05    1.068    0.064
        13  -9.3816    146.7207    245.4960   6.9066753955e+01   8.9119480195e+00    0.2472771     0.151275  49.93  0.001033951    2.146    0.534
        14  -8.9233    248.0344    234.1900   4.9636440401e+01  -1.9001061583e+00    0.1681163    0.1153888  -1.73 0.0007410808    1.136    0.119
        15  -9.1364    242.9648    246.0502   5.2066948186e+01  -2.4561135278e+00    0.2804118    0.1291309 -18.54  0.001840457    2.095    0.523
        16  -8.6562    248.2410    249.4918   5.1728159250e+01  -3.2968289083e+00    0.2458467    0.1278883   0.73   0.00172607    1.648    0.393
        17  -9.8440    248.8151    241.8452   5.0594675423e+01  -2.6786679540e+00    0.3395521    0.1809022 -26.93  0.001666649    1.923    0.480
        18  -9.0392    232.7390    246.9340   5.3788934834e+01  -1.4658631412e+00    0.2826055    0.1639109 -30.98  0.001944712    2.056    0.514
        19  -8.0995    191.5816    249.6967   6.1108479933e+01   2.8929868258e+00    0.1750504    0.1010081  37.35 0.0006037751    1.744    0.427
        20  -9.1053    169.1494    243.0991   6.4420555978e+01   6.3822402490e+00    0.1823355    0.1567498 -41.89  0.000643769    1.760    0.432
        21  -8.9463     78.5155    243.5127   8.3003461847e+01   1.7590347894e+01    0.3359356   0.09515356  47.31  0.001412057    3.317    0.699
        22  -8.0484     67.3369    243.8255   8.5394766763e+01   1.8802387986e+01    0.1835522    0.1026046 -88.78  0.001096051    2.554    0.609
        23  -8.5271     50.0000    244.0170   8.9060190947e+01   2.0622715539e+01    0.1476864   0.06265506 -75.26  0.000814318    3.025    0.669
        24  -8.7916      9.4293    243.6320   9.7368736561e+01   2.4451633447e+01    0.1953357   0.06038181  71.53 0.0009579768    3.487    0.713
        25  -8.9902    201.9813    242.6834   5.8359295654e+01   2.4176502266e+00    0.1621803    0.1432758 -13.21 0.0007157061    1.618    0.382
        26  -7.8128    112.4699    243.5310   7.5842075213e+01   1.3501973256e+01    0.1186709   0.08608603  28.58 6.478791e-05    1.032    0.031
        27  -8.9971    194.4097    240.3211   5.9388081817e+01   3.5818695767e+00    0.2675133     0.180276 -43.16  0.001235544    2.276    0.561
        28  -9.0988    183.1912    240.1030   6.1403831314e+01   4.9839236117e+00    0.3185075    0.1954372  49.39  0.001815705    2.753    0.637
        29  -9.4300    160.0630    239.9752   6.5789588619e+01   7.9209585275e+00    0.2450864     0.211913  77.35  0.001382781    2.140    0.533
        30  -8.0383    153.4880    241.9839   6.7322319480e+01   8.5052516952e+00    0.1267639    0.1004503  74.09 0.0008097261    2.477    0.596
        31  -7.8869     88.1426    242.0857   8.0846609436e+01   1.6686147517e+01    0.1532793    0.1067718  48.24 0.0005871508    1.319    0.242
        32  -8.0712    214.4821    241.4908   5.6046862791e+01   1.0858751180e+00    0.1084123   0.07546601  13.69 0.0008097961    1.052    0.050
        33  -8.7304    146.5993    239.8290   6.8440473242e+01   9.6711146493e+00    0.2341084    0.1648707  65.26  0.001226439    2.721    0.632
        34  -9.0932    241.6288    238.2104   5.1189171559e+01  -1.5968817360e+00     0.395826    0.1619245  -8.14   0.00184688    3.933    0.746
        35  -8.3944     37.5388    240.0973   9.1483427179e+01   2.2510200211e+01    0.1800094    0.1139377   5.27 0.0005564404    2.181    0.541
        36  -8.9898    135.7161    238.8585   7.0538905432e+01   1.1208571399e+01    0.1824891    0.1465178  52.68 0.0008841277    1.589    0.371
        37  -9.1987    231.1437    237.0093   5.2677860609e+01  -3.4502092215e-01    0.2151587     0.192921  33.63  0.001728392    2.115    0.527
        38  -8.0446    209.0058    238.2977   5.6546562694e+01   2.0552321936e+00    0.1520992    0.1045094  16.86  0.000465838    1.063    0.059
        39  -7.6337    129.2832    238.6496   7.1842339008e+01   1.2068301955e+01    0.1124339   0.07630167  49.02 0.0004707148    1.654    0.395
        40  -8.5743    217.3126    235.6743   5.4768097624e+01   1.3580217908e+00    0.1874823    0.1289915  32.95 0.0006809543    1.606    0.377
        41  -9.4339    213.6755    231.6419   5.4818433840e+01   2.2099907306e+00    0.2630714    0.2131928  46.43  0.001426173    2.219    0.549
        42  -8.9608    203.0791    234.4030   5.7044171619e+01   3.1847600219e+00    0.2191605    0.1715258 -44.03 0.0009275205    2.170    0.539
        43  -9.7164    175.7402    233.2921   6.1910399984e+01   6.7411814710e+00    0.3550268    0.2240304 -51.58  0.002161627    2.677    0.626
        44  -8.4061    170.2164    235.2473   6.3224466334e+01   7.2107233747e+00    0.1467026    0.1169228  33.28  0.001054437    1.379    0.275
        45  -9.1344    108.6150    233.9935   7.5726257156e+01   1.5408824120e+01    0.3090014    0.1919628  60.84  0.001101804    2.212    0.548
        46  -8.0755    122.8424    233.9452   7.2681372861e+01   1.3581739350e+01    0.1781519    0.1214757  60.47 0.0008868602    2.070    0.517
        47  -8.0460     99.7911    234.2180   7.7655155171e+01   1.6488357087e+01    0.2014839   0.09330595  54.06 0.0009546069    2.791    0.642
        48  -8.3734     78.3359    233.8008   8.2301466838e+01   1.9161814545e+01     0.186634    0.1079719 -86.72  0.001065724    2.578    0.612
        49  -8.6299    194.4576    232.7546   5.8357495383e+01   4.4306298044e+00    0.1942626    0.1447272  34.77 0.0009895063    1.534    0.348
        50  -8.2768    144.7882    233.1555   6.8017479441e+01   1.0811050309e+01    0.2581815    0.1517343  53.12  0.001382894    2.536    0.606
        51  -8.4822    140.0958    230.0235   6.8608983877e+01   1.1872290609e+01    0.2242506    0.1282265  41.91 0.0009982673    1.627    0.385
        52  -9.3188     68.0136    231.7119   8.4414556301e+01   2.0700225759e+01    0.4199851    0.1553076  54.12  0.001884355    3.072    0.674
        53  -7.9563    132.4878    232.4843   7.0486243080e+01   1.2530048997e+01    0.1220909   0.08985438  30.26 8.692454e-05    1.067    0.063
        54  -7.8650     43.6704    232.3067   8.9792006850e+01   2.3213413878e+01    0.1225727    0.0593125  49.60 0.0005664348    1.658    0.397
        55  -9.1248    236.2336    230.6256   5.0957313072e+01  -2.8429957311e-01    0.2021593    0.1462305  -8.33  0.000866358    1.268    0.212
        56  -8.2640     92.0048    231.1521   7.9074367086e+01   1.7943123550e+01    0.1606309    0.1135114  60.90 0.0006492258    1.626    0.385
        57  -8.7040      1.4852    230.4513   9.8688063533e+01   2.7296947836e+01    0.1752198   0.07254395  71.17  0.001021001    2.266    0.559
        58  -9.4576    246.6702    228.3026   4.8996376229e+01  -1.2022664125e+00    0.3273723     0.142585 -25.12  0.002057416    2.164    0.538
        59 -10.0561    149.7309    226.0864   6.6127811493e+01   1.1131672376e+01    0.4825331    0.3426939  86.16  0.002432445    3.831    0.739
        60  -9.1421     10.4802    230.5049   9.6820909735e+01   2.6569965408e+01    0.1081288   0.07938737  45.63 0.0008102696    1.018    0.018
        61  -8.7500    162.2522    227.7272   6.3805152151e+01   9.2232717480e+00    0.2885909    0.1606237  42.00  0.001589637    1.820    0.451
        62  -8.7496    128.1112    227.2435   7.0809081147e+01   1.3880367095e+01    0.2716998    0.1680062  54.70  0.001518433    2.150    0.535
        63  -8.7681    229.8098    228.6992   5.1709166390e+01   6.3205808135e-01    0.1669043    0.1144744 -29.64  0.001224767    1.780    0.438
        64  -8.0810    223.4635    226.9133   5.2491234302e+01   1.5517647066e+00    0.2508133   0.09068422 -27.23  0.001296698    2.980    0.664
        65  -9.3037    225.5567    221.5549   5.1357390570e+01   1.8683387745e+00    0.2033544    0.1490736 -20.01  0.001049879    1.453    0.312
        66  -7.9936     49.3631    226.5687   8.8216755610e+01   2.3619009929e+01    0.1955919   0.08806886  79.03  0.000948816    3.170    0.685
        67  -8.7531    205.9606    225.7021   5.5308808620e+01   3.8005707297e+00    0.1848118    0.1496518 -19.67 0.0007784829    1.483    0.326
        68  -8.1031    200.1210    226.1683   5.6413484938e+01   4.4781914952e+00    0.1402564    0.1152422  19.25 0.0003974522    1.327    0.247
        69  -8.8430     94.2380    223.9505   7.7906573576e+01   1.8840640049e+01    0.3218478    0.1563159  55.39  0.001490586    2.590    0.614
        70  -8.8919    216.4385    223.2431   5.3135983339e+01   2.7841903918e+00    0.2003359    0.1690241 -30.56 0.0008820635    1.780    0.438
        71  -8.7417    180.4765    224.1446   5.9763205815e+01   7.2604708950e+00    0.2468211    0.1360679  36.81 0.0009311773    1.623    0.384
        72  -8.8617    104.6186    223.4646   7.5531538590e+01   1.7583838622e+01    0.2478305    0.1782191  69.83  0.001169053    1.907    0.476
        73  -7.4979     38.2884    224.6082   9.0576704224e+01   2.5090187942e+01    0.1247359   0.06056894  53.86 0.0007005654    1.767    0.434
        74  -8.5650    173.0151    222.8748   6.1026799223e+01   8.4176189160e+00    0.1608924    0.1582628 -36.57 0.0006185995    1.625    0.385
        75  -8.3689    162.9972    222.4994   6.2958909288e+01   9.8229616657e+00    0.2545658    0.1430838  47.36  0.001357227    2.270    0.559
        76  -8.3999    158.8787    220.2894   6.3492260938e+01   1.0689399179e+01    0.2347345    0.1643412  52.59  0.001151186    2.030    0.507
        77  -7.7009    113.5776    223.5451   7.3551042006e+01   1.6390432187e+01    0.1239441   0.09379036  33.54 0.0001168334    1.058    0.055
        78  -9.3016    186.5997    230.6103   5.9504924977e+01   5.6730414586e+00       0.2582    0.2332741  87.57  0.001507351    2.346    0.574
        79  -9.4889    238.9804    220.9451   4.9103518206e+01   3.6923196023e-01    0.2784669    0.1479212 -20.20   0.00179862    1.733    0.423
        80  -9.4456    192.3808    221.1255   5.7097658216e+01   6.0673071981e+00    0.2254169    0.2135668  28.69 0.0009166583    1.662    0.398
        81  -8.4297     82.7736    220.4642   8.0184638128e+01   2.0864716027e+01    0.2248755    0.1165213  55.89  0.001149311    2.168    0.539
        82  -8.1050    202.7932    220.1316   5.5059828133e+01   4.8388219282e+00    0.1602952    0.1296537  17.44 0.0006106741    1.260    0.206
        83  -9.0590    120.5382    219.1781   7.1516594163e+01   1.6144934378e+01    0.4061975    0.1865698  51.19  0.001801277    2.916    0.657
        84  -7.9729     72.6161    219.8191   8.2461979574e+01   2.2205551931e+01    0.1511025     0.105956  77.43 0.0004165796    1.742    0.426
        85  -7.4291     27.6549    220.6819   9.2761605580e+01   2.6807237390e+01    0.1019339   0.08303592 -15.24  0.000704894    1.723    0.420
        86  -8.4350    210.0154    218.8642   5.3596040108e+01   4.0677755996e+00    0.1610891    0.1374931 -23.13 0.0006465162    1.585    0.369
        87  -9.4065    248.4597    217.5256   4.7126066713e+01  -3.5629069073e-01    0.3188737    0.2054094  50.28  0.001755263    4.116    0.757
        88  -9.2783    133.0663    215.8155   6.8351372962e+01   1.4939417054e+01    0.4602329    0.2666705  62.54  0.002005592    3.729    0.732
        89  -8.8336     51.7074    217.3465   8.7107529102e+01   2.5012097407e+01    0.1968278    0.1273281  69.26  0.001191098    1.647    0.393
        90  -8.4904    179.3526    217.1695   5.8988198144e+01   8.3012879891e+00    0.1369432    0.1107731 -41.00 0.0007166576    1.726    0.421
        91  -8.7892    169.3739    216.0389   6.0785612204e+01   9.8215720357e+00    0.2313563    0.2012933  85.41  0.001189446    2.175    0.540
        92  -8.6050    142.8392    216.4540   6.6324731155e+01   1.3472805353e+01    0.1976079    0.1683141  87.67 0.0009965625    1.916    0.478
        93  -8.1537     61.8925    217.0621   8.4726274465e+01   2.3939738442e+01    0.1988386    0.1047736  59.85 0.0009662258    2.037    0.509
        94  -8.9974    232.1396    214.4112   4.9205625297e+01   1.8403345437e+00    0.2028767    0.1547719 -30.61 0.0008953408    1.750    0.429
        95  -8.0461    154.5298    214.8023   6.3637576483e+01   1.2070513376e+01    0.1356771    0.1234279 -66.22 0.0009341807    1.693    0.409
        96  -8.1106     41.4656    214.9881   8.9332483328e+01   2.6511266359e+01    0.1684725   0.07291376  65.30 0.0008092117    2.649    0.623
        97  -8.4756    185.5851    213.9460   5.7320871612e+01   7.8684498112e+00    0.1800487     0.144843 -41.75 0.0009954897    1.771    0.435
        98  -9.0868     92.8985    213.7734   7.7203748990e+01   2.0740518704e+01    0.2874774    0.1358366  51.41  0.001184523    2.302    0.566
        99  -7.9786     77.9737    214.5128   8.0761907067e+01   2.2497654222e+01    0.2667481    0.0724906  37.36  0.001099202    2.533    0.605
       100  -9.0418     72.4696    211.2801   8.1773656248e+01   2.3749892745e+01    0.4273742    0.1797038  59.35  0.001610353    3.385    0.705
       101  -9.3382    213.8938    211.9777   5.1880411381e+01   4.3632572533e+00    0.2800425    0.1945104  40.17  0.001489906    1.808    0.447
       102  -7.9738    224.8309    212.0164   5.0033837331e+01   2.9852194590e+00    0.1408546    0.1234857 -34.66 0.0006786622    1.884    0.469
       103  -8.5693    161.5477    212.0490   6.1800353647e+01   1.1471922766e+01    0.2220134    0.1427691  40.58  0.001171129    1.528    0.346
       104  -7.9272    106.4596    212.5192   7.3927603967e+01   1.9153403607e+01    0.1285704   0.09868979  36.31  0.000807873    1.075    0.070
       105  -8.5789    243.4486    211.5311   4.6977618840e+01   8.1168850306e-01    0.1096751   0.07574636   4.58 4.446961e-05    1.036    0.035
       106  -8.8913    204.1910    210.5715   5.3372021485e+01   5.7892476415e+00     0.192578     0.166583 -21.83 0.0006578229    1.508    0.337
       107  -8.2833    192.4716    210.5262   5.5509056324e+01   7.3659533993e+00    0.1670067    0.1117978 -45.97 0.0006309549    2.219    0.549
       108  -9.4605    175.3578    209.7443   5.8680796152e+01   9.8387989976e+00     0.343543    0.2509638  59.23  0.001818013    2.498    0.600
       109  -8.8430    147.8962    210.2600   6.4408122466e+01   1.3682630357e+01    0.2508383    0.1992818  68.63  0.001199631    2.048    0.512
       110  -8.9356    116.5138    210.4750   7.1382420956e+01   1.8112671150e+01    0.3296538    0.1546388  47.16   0.00105334    2.212    0.548
       111  -9.2589    236.5526    207.8600   4.7485864912e+01   2.0068164018e+00    0.2801947     0.184062 -33.55  0.001348913    1.858    0.462
       112  -8.2844     85.1225    209.0419   7.8556604135e+01   2.2581683055e+01    0.1991897    0.1234617  55.86  0.001109839    1.706    0.414
       113  -8.0024     46.2196    209.2587   8.7866423257e+01   2.7089532262e+01    0.1658675   0.08618492  82.60 0.0008049114    2.386    0.581
       114  -9.3044    246.4234    207.0697   4.5827900026e+01   9.2373552264e-01    0.2334912      0.15024 -21.59 0.0006885985    1.444    0.308
       115  -7.8787    156.5798    207.7736   6.2217642424e+01   1.2800619809e+01    0.1360483    0.1239795 -49.47   0.00050585    1.550    0.355
       116  -8.3172    138.9200    207.5760   6.5983281163e+01   1.5389208249e+01    0.2027235    0.1703097  85.24 0.0009134454    1.885    0.470
       117  -8.0956    126.4214    208.2107   6.8850426691e+01   1.7086157457e+01    0.1425167    0.1252356 -86.97 0.0006704254    1.619    0.382
       118  -8.2897      6.3131    208.6317   9.7126552420e+01   3.0845016290e+01    0.1259274   0.05481366  52.77  0.000703699    1.771    0.435
       119  -9.1016     99.4135    205.8593   7.4821078095e+01   2.1264114433e+01     0.312984    0.2008821  65.63  0.001279017    2.125    0.529
       120  -8.3424     56.7809    205.6505   8.5076169842e+01   2.6626722222e+01     0.237846    0.1225573  61.86  0.001065074    2.143    0.533
       121  -9.1516    183.7358    203.8995   5.6152339656e+01   9.4413982833e+00    0.2718068    0.2145915  55.33  0.001167544    2.040    0.510
       122  -8.6918    131.3062    203.8591   6.7171897802e+01   1.7090692941e+01    0.2710849    0.1898371  63.49  0.001306135    2.158    0.537
       123  -8.2218    109.0132    205.0031   7.2455386748e+01   2.0090714954e+01    0.1966753    0.1330995  54.62 0.0006082667    1.660    0.397
       124  -9.2392    194.8879    203.5396   5.3977969629e+01   7.9217566165e+00    0.2501071    0.2205714   2.65  0.001232308    1.302    0.232
       125  -9.4358    192.3831    197.1755   5.3432749874e+01   9.1028653663e+00    0.3759883    0.3334307  53.13  0.001820618    1.772    0.436
       126  -9.6001    163.7887    202.8035   5.9981483094e+01   1.2477943612e+01    0.3902384    0.2223829  46.51  0.001240698    2.051    0.513
       127  -7.7511     25.3081    204.6910   9.2579910479e+01   3.0002131970e+01    0.1256772   0.06352351  51.72 0.0003573197    1.616    0.381
       128  -9.3550    250.2276    201.4883   4.4372688449e+01   1.0542020023e+00     0.372644    0.1337836 -30.66  0.001691342    2.602    0.616
       129  -9.5240    245.5881    193.1839   4.3730149384e+01   2.4795881054e+00    0.2630415    0.2204425 -48.08  0.001863337    2.305    0.566
       130  -8.4803    211.0170    201.8045   5.0786203359e+01   5.9362541030e+00    0.1721462    0.1441403 -32.25   0.00071287    1.634    0.388
       131  -8.3923     80.3477    201.2372   7.8927883286e+01   2.4628313519e+01    0.2972993    0.1288573  52.22  0.001238057    2.546    0.607
       132  -8.9503    243.1222    200.2966   4.5260359558e+01   2.0199056415e+00    0.2316977    0.1313831 -26.38  0.001145837    1.657    0.397
       133  -7.9265    222.0091    201.2408   4.8809014383e+01   4.5547193352e+00    0.1374002    0.1190392 -27.34 0.0005556825    1.630    0.386
       134  -9.3765    149.5915    198.3868   6.2333394314e+01   1.5254091706e+01     0.359548    0.2666499  71.96  0.001471284    2.524    0.604
       135  -8.8106    124.0942    199.0863   6.8173763717e+01   1.8943231478e+01    0.2844273    0.2069957  67.82  0.001146196    2.030    0.507
       136  -9.2795    113.0115    198.3306   7.0676945227e+01   2.0690415210e+01    0.4217433    0.2229061  56.73  0.001750538    2.757    0.637
       137  -9.0800    237.0719    198.2448   4.5872578935e+01   2.9802199053e+00    0.2207278    0.1359735 -28.56 0.0009624239    1.637    0.389
       138  -8.4642    177.0485    198.6725   5.6648214071e+01   1.1122633384e+01    0.1828491    0.1674539 -22.45 0.0006495903    1.403    0.287
       139  -9.0160     88.6390    198.4217   7.6592715506e+01   2.4071176451e+01    0.3273396    0.1964674  63.56  0.001271377    2.151    0.535
       140  -8.5740    202.2477    197.6451   5.1681402207e+01   7.6480643743e+00    0.1984783    0.1934627 -82.16  0.001331945    1.828    0.453
       141  -9.0394     61.3903    196.9049   8.3227533125e+01   2.7785371978e+01    0.3994852    0.1722713  56.93  0.001742449    2.666    0.625
       142  -8.1849     53.5875    196.7621   8.5172748666e+01   2.8703752773e+01    0.1624973    0.1082357  77.52 0.0008474659    1.681    0.405
       143  -8.2074     12.3754    196.8607   9.5336288700e+01   3.2631162120e+01    0.2181316   0.08910456  80.34  0.001081203    2.602    0.616
       144  -8.7271    216.0164    195.4047   4.8879371483e+01   6.0345748454e+00    0.2221931    0.1804094 -46.56  0.001350365    2.028    0.507
       145  -8.9497    185.3245    194.7269   5.4387499108e+01   1.0455822798e+01    0.2124622    0.2054709 -27.16 0.0006949659    1.525    0.344
       146  -8.2453    133.0582    195.9634   6.5671103749e+01   1.8135966688e+01    0.1966064    0.1427684  54.39 0.0008415991    1.677    0.404
       147  -8.7747    224.5573    193.8176   4.7173874799e+01   5.0824037884e+00    0.2364849    0.1499869 -37.92  0.001202033    1.964    0.491
       148  -8.9802    140.6577    201.0298   6.4684302338e+01   1.6170945460e+01    0.3330785    0.2188966  58.98   0.00130634    2.333    0.571
       149  -8.1812    231.0161    194.0291   4.6150825526e+01   4.2157411931e+00    0.1436538     0.132224   2.86 0.0004409426    1.559    0.359
       150  -8.8002    160.5340    193.8407   5.9283230341e+01   1.4299735734e+01    0.2241811    0.1837322  49.20 0.0007552244    1.527    0.345
       151  -8.6635     77.0699    193.8134   7.8983348728e+01   2.6466103688e+01    0.2250963     0.170826  44.16  0.000629646    1.125    0.111
       152  -8.9704     43.8991    193.3027   8.7354480806e+01   3.0437428538e+01    0.4058264    0.1539011  52.95  0.001740514    2.531    0.605
       153  -8.2470    198.9424    191.5214   5.1280320452e+01   8.9048884175e+00    0.1767825    0.1409059  -8.50 0.0004708118    1.184    0.155
       154  -8.4395    172.5261    191.4472   5.6403193099e+01   1.2832350246e+01    0.2064326    0.1837555 -64.24  0.000992608    1.777    0.437
       155  -9.1145    139.5261    190.3248   6.3360044046e+01   1.8091636469e+01    0.3273906    0.2381846  70.76  0.001178605    2.359    0.576
       156  -7.8069    205.3665    191.2389   5.0062734894e+01   8.0238277697e+00    0.1486278    0.1060445 -35.78 0.0005944824    1.673    0.402
       157  -8.3864    179.3635    191.3068   5.5001284853e+01   1.1819285186e+01    0.1470016    0.1166718 -38.30 0.0004698175    1.565    0.361
       158 -10.1758     92.5304    188.7841   7.4502384607e+01   2.5368482379e+01    0.9713376    0.2159768  41.82  0.003173773    3.730    0.732
       159  -8.4903    148.6667    189.2875   6.1143393606e+01   1.6843735801e+01    0.1974098    0.1668018 -64.33  0.001205687    1.713    0.416
       160  -8.5222    237.4627    188.4558   4.4199252212e+01   4.0161523836e+00    0.2001492   0.09527726 -29.79 0.0008260686    1.985    0.496
       161  -8.8097    129.2962    188.5323   6.5459135401e+01   1.9976952750e+01    0.2662426    0.1928954  59.97 0.0009335722    1.825    0.452
       162  -8.7721     34.3224    188.0245   8.9441190387e+01   3.2472714526e+01    0.3358103    0.1412469  63.18  0.001290402    2.608    0.617
       163  -8.9216    216.4402    187.6184   4.7507102469e+01   6.9238004767e+00    0.2022692    0.1763149  -6.31 0.0006978402    1.309    0.236
       164  -8.8401    191.4987    187.4031   5.1985680046e+01   1.0546682617e+01    0.2126142     0.197734 -51.47 0.0008332108    1.670    0.401
       165  -9.2893    155.9269    187.2693   5.9225550761e+01   1.6033019439e+01     0.265359    0.2270359 -60.22 0.0009442751    1.678    0.404
       166  -9.4827    120.6444    185.8561   6.7129984213e+01   2.1782283943e+01    0.4236428    0.2780819 -81.49   0.00199727    2.817    0.645
       167  -8.9192     54.9258    186.3575   8.3967387331e+01   3.0645531349e+01    0.4477508    0.2308484  76.54  0.002085079    2.605    0.616
       168  -9.1194    249.3374    185.3996   4.1878099022e+01   2.8564725779e+00    0.2752144    0.1566957 -34.61  0.001743275    1.920    0.479
       169  -8.2409    230.4862    187.0825   4.5077675778e+01   5.0824428608e+00    0.1600753   0.09790684 -26.01  0.000587146    1.547    0.354
       170  -8.8379    164.8086    186.5943   5.7211077440e+01   1.4748307750e+01    0.2119412     0.204836  38.68 0.0006828738    1.387    0.279
       171  -9.1790    109.6160    186.0103   6.9855188191e+01   2.3424158316e+01    0.3543049    0.2153865  59.39  0.001132006    2.207    0.547
       172  -8.8134    210.2329    184.2689   4.8015187769e+01   8.2188647976e+00    0.1988014    0.1725916 -11.31 0.0006049171    1.294    0.227
       173  -8.6644    202.9144    184.4855   4.9362732613e+01   9.2512392357e+00    0.1994011    0.1671288 -40.31 0.0008750555    1.649    0.394
       174  -8.7247    183.0859    184.7521   5.3167719969e+01   1.2189174455e+01    0.1893524    0.1684835 -29.36 0.0006924818    1.402    0.287
       175  -8.9055     66.7264    184.3625   8.0680971812e+01   2.9653537782e+01    0.3437361    0.1716369  54.16 0.0009957124    2.088    0.521
       176  -8.0158    197.2557    183.3899   5.0215921383e+01   1.0233705591e+01    0.1867543    0.1485239 -48.44 0.0009765616    1.870    0.465
       177  -8.8399    174.2666    183.4687   5.4721741103e+01   1.3742184084e+01    0.2221364    0.2101313  57.07 0.0007569459    1.516    0.340
       178  -8.3215    224.0440    183.3158   4.5489969308e+01   6.3970447161e+00     0.160999    0.1255268   9.75 0.0005109296    1.063    0.059
       179  -8.9887     44.6189    182.3781   8.6352727139e+01   3.2600959929e+01    0.3731052    0.1727673  55.59  0.001152621    2.139    0.532
       180  -8.0586      1.7632    183.5610   9.7487202023e+01   3.6097396810e+01    0.1660687    0.0800214  37.59 0.0009399175    1.630    0.386
       181  -9.1655    147.5171    180.3883   5.9968708411e+01   1.8491811428e+01    0.2868865    0.2317298  59.13  0.001043321    1.638    0.389
       182  -9.6155     25.9107    178.8527   9.1073716080e+01   3.5166498540e+01    0.6435734    0.2066742  66.55  0.002297798    4.295    0.767
       183  -8.5422    137.6024    179.0802   6.2039649058e+01   2.0314901147e+01     0.304056    0.2144902  64.38  0.001348034    2.172    0.540
       184  -9.4385    191.4177    178.1342   5.0402266962e+01   1.1844721721e+01    0.2955962    0.2221298  51.00 0.0009001793    1.824    0.452
       185  -9.3540     36.0507    176.4444   8.8200509472e+01   3.4728952148e+01    0.5499683    0.1968587  67.44   0.00194729    4.236    0.764
       186  -8.7023    250.5190    172.5325   3.9509519605e+01   4.1156561123e+00    0.2226873    0.1247049 -23.05 0.0007754799    1.542    0.351
       187  -9.2482    248.9268    177.1422   4.0538198539e+01   3.8095967637e+00    0.2348551      0.21502 -29.76  0.001121605    1.701    0.412
       188  -8.7626    247.3044    173.6893   4.0180452936e+01   4.4023914420e+00    0.1920801    0.1091372  23.06 0.0003491436    1.653    0.395
       189  -8.5491    205.0437    177.5088   4.7761785807e+01   9.8578020949e+00     0.204509    0.1638494 -37.85 0.0006310368    1.584    0.369
       190  -7.9273    169.2191    178.2505   5.4871898847e+01   1.5333999878e+01    0.1604092    0.1492818  43.10 0.0005666123    1.377    0.274
       191  -8.4239    129.2066    177.0835   6.3717033985e+01   2.2022536490e+01    0.2242268    0.1892135  83.54 0.0008308935    1.670    0.401
       192  -8.5043    231.1228    176.7864   4.3205614407e+01   6.2065682722e+00     0.182163    0.1399572 -26.58 0.0005950215    1.404    0.288
       193  -8.6908    217.5795    176.9310   4.5464487454e+01   8.0928838169e+00    0.1893918    0.1675469 -18.73 0.0007800903    1.379    0.275
       194  -9.5371    183.1300    175.7817   5.1600487263e+01   1.3481134415e+01      0.28816    0.2008769 -40.72   0.00080943    1.697    0.411
       195 -10.6555    101.6401    175.6166   7.0422565009e+01   2.6615373638e+01    0.5222621    0.3115354  22.06  0.002527356    1.708    0.415
       196  -8.7165     88.9301    176.3745   7.3869385934e+01   2.8327798289e+01    0.2599742    0.1925808 -85.87  0.001071902    1.728    0.421
       197  -9.3594     58.7752    175.3760   8.1910964908e+01   3.2490278621e+01    0.5173708    0.2231635  57.35  0.002119029    2.795    0.642
       198  -9.2306     55.7293    170.4907   8.2263675611e+01   3.3896817060e+01    0.3751648    0.1854632  63.77  0.001636928    2.518    0.603
       199  -8.8529     12.8250    176.3411   9.4396698113e+01   3.6787021283e+01    0.2755989    0.1230117  70.37 0.0009081828    2.233    0.552
       200  -8.2874    211.6345    175.8688   4.6301678318e+01   9.0945035058e+00    0.1531914    0.1054582 -36.03 0.0007249913    1.650    0.394
       201  -9.1736    158.7255    174.8481   5.6530391370e+01   1.7580723045e+01    0.2888814    0.2409203  84.20  0.001004994    2.006    0.502
       202  -8.5710    224.3756    174.2191   4.3847433894e+01   7.4588122738e+00    0.1912754    0.1318878 -31.30 0.0004813954    1.522    0.343
       203 -10.5419     76.0160    169.5097   7.6495923374e+01   3.1547113156e+01     1.218049    0.5317546 -73.79  0.004837323    3.265    0.694
       204  -9.3622     81.7486    154.8831   7.2880992147e+01   3.3896635435e+01    0.4767562    0.2929373  55.01  0.001400857    1.763    0.433
       205  -9.6199    175.7767    172.1191   5.2428908018e+01   1.5213401201e+01    0.2873287    0.2571265 -28.72 0.0009660368    1.322    0.244
       206  -8.0512    143.0200    172.3741   5.9654924347e+01   2.0597869900e+01    0.1934943    0.1548531  31.66 0.0005584331    1.086    0.079
       207  -8.5735    134.8158    171.5728   6.1460642464e+01   2.2101504925e+01    0.2335823    0.1894321 -82.60 0.0008909507    1.854    0.461
       208  -9.1230     45.2308    170.9540   8.5240170509e+01   3.4971229410e+01    0.3533728    0.1880581  65.25  0.001395678    2.088    0.521
       209  -8.9184    230.3315    170.0473   4.2139471390e+01   7.1256613817e+00    0.2227338    0.1272001 -33.61 0.0007864145    1.764    0.433
       210  -8.4037    206.0431    170.2058   4.6272708820e+01   1.0682384134e+01    0.1969226    0.1621341 -58.01 0.0008128851    2.044    0.511
       211  -9.5197    121.2862    170.2085   6.4561211887e+01   2.4577821698e+01    0.3224072     0.256843  83.92  0.000962848    1.801    0.445
       212  -8.7271    198.2907    170.0865   4.7663666862e+01   1.1900493058e+01    0.2102697    0.1731923  32.41 0.0007894887    1.282    0.220
       213  -8.6516    149.9466    169.4206   5.7542220349e+01   1.9948873754e+01    0.2641353    0.2023474  53.32 0.0008943476    1.572    0.364
       214  -8.3953    244.6434    169.1745   3.9782870064e+01   5.2639099086e+00     0.164042    0.1246375 -28.24 0.0006018031    1.424    0.298
       215  -8.0894    237.0397    169.2936   4.0953835870e+01   6.2810634287e+00    0.1602359    0.1276786   4.69 0.0009155211    1.068    0.064
       216  -9.1800    167.1089    168.4857   5.3584159243e+01   1.7215366663e+01    0.3133515    0.2150821  56.51  0.001274013    2.074    0.518
       217  -8.0711     88.8259    168.7746   7.2874847224e+01   2.9901751529e+01    0.1976459    0.1413857  51.93  0.000805443    1.382    0.277
       218  -8.5200    218.8360    168.1712   4.3682443630e+01   9.0208665304e+00    0.1699695    0.1484557   0.88 0.0005669459    1.198    0.165
       219  -8.2837    211.5691    167.7847   4.4855251024e+01   1.0161543183e+01    0.1555659     0.109586 -36.33 0.0007739115    1.599    0.374
       220  -8.6234    111.7934    167.4182   6.6540461455e+01   2.6651754011e+01    0.2636286    0.1976125  59.17 0.0008284493    1.553    0.356
       221  -9.2289    191.8676    166.3676   4.8188779872e+01   1.3450409295e+01    0.2655141    0.1742802 -38.67 0.0007703255    1.701    0.412
       222  -9.0619    185.0227    166.2863   4.9502456809e+01   1.4578071562e+01    0.2461173    0.1745263 -42.30 0.0007118235    1.684    0.406
       223  -8.3170     13.3124    167.6586   9.3864394887e+01   3.8611089981e+01    0.1346792    0.0690662  54.44 0.0007046398    1.700    0.412
       224  -9.6018    137.3232    164.5114   5.9636050303e+01   2.2958548870e+01    0.6822172    0.2632845  49.88  0.002124965    3.713    0.731
       225  -9.9912     94.8354    162.4904   7.0316296706e+01   3.0313344615e+01    0.7767233    0.3972723  66.22  0.002565664    4.358    0.771
       226  -9.3146     20.4882    165.8447   9.1783842424e+01   3.8438135042e+01    0.3234575    0.1389837  48.25  0.001479021    1.984    0.496
       227  -8.1914    234.0778    164.8805   4.0619078998e+01   7.2209964774e+00    0.1638761    0.1420496 -17.38 0.0006669629    1.316    0.240
       228  -8.7376    159.5259    164.1398   5.4433843102e+01   1.9211477853e+01    0.2382931    0.2001971  55.95 0.0009251111    1.503    0.335
       229  -9.4339     33.8457    163.3248   8.7828201466e+01   3.7805212320e+01    0.5868367    0.1619961  47.03  0.002104028    3.173    0.685
       230  -8.2598    240.2924    163.9785   3.9505443292e+01   6.4583681344e+00    0.1634573    0.1215559 -14.25 0.0005470133    1.142    0.124
       231  -8.7074    212.8849    163.5607   4.3847939423e+01   1.0518863071e+01    0.2141626    0.1599445 -27.76 0.0005171747    1.354    0.261
       232  -9.0307    246.2054    162.6477   3.8390111219e+01   5.8028354679e+00     0.203117    0.1302952 -23.44 0.0006685155    1.358    0.263
       233  -8.6816    204.9356    162.5034   4.5047928993e+01   1.1902203443e+01    0.2092246    0.1632225 -38.29 0.0006685408    1.528    0.346
       234  -9.1060     60.6757    160.0825   7.9721012104e+01   3.5586611676e+01    0.3258668    0.1915525  56.64  0.001143628    1.774    0.436
       235  -9.3452      3.3295    162.2666   9.6371944745e+01   4.0493337277e+01    0.4034394     0.125719  44.33  0.001808506    2.453    0.592
       236  -7.8454    221.7243    161.3564   4.1948456376e+01   9.4615710373e+00    0.1060543   0.09429757 -46.48  0.000700648    1.651    0.394
       237  -9.2950    177.5787    160.4699   4.9903332282e+01   1.6709412287e+01    0.2640859    0.2471747  85.19  0.001002128    1.569    0.362
       238  -8.7058    151.7693    160.7244   5.5545980893e+01   2.1135207950e+01    0.2429686     0.196666 -56.90 0.0009344904    1.621    0.383
       239  -8.4584    242.3837    159.7223   3.8421959230e+01   6.6686990920e+00     0.227416    0.1268278   4.36 0.0003408049    2.151    0.535
       240  -9.9434    241.7360    154.0311   3.7472048574e+01   7.4335103623e+00    0.4698821    0.3448629 -71.76  0.002294173    4.210    0.762
       241  -9.7753    250.2032    157.4940   3.6886223054e+01   5.8517845899e+00    0.2877137    0.1471096 -30.94 0.0008726063    1.756    0.431
       242  -8.6383    246.5757    155.5018   3.7040304459e+01   6.5795949193e+00    0.1574485    0.1253889  -5.04 7.186116e-05    1.039    0.038
       243  -8.9394    227.2675    158.8417   4.0582010761e+01   8.9518479033e+00    0.2426446    0.1673592 -44.77  0.001140999    1.958    0.489
       244  -8.4960    236.8381    158.5504   3.9038265674e+01   7.5914992807e+00    0.1860236     0.120087 -27.94 0.0008001658    1.432    0.302
       245  -8.5210    128.1723    159.0003   6.0910121736e+01   2.5555329851e+01    0.2673008    0.1661735  56.21  0.001206966    2.067    0.516
       246  -9.6212    105.7783    157.7922   6.6572772487e+01   2.9558787978e+01    0.4846262    0.2824423  59.56  0.001023081    2.378    0.580
       247  -8.6084    196.5789    157.8421   4.5689800177e+01   1.3909206351e+01     0.203225    0.1943867 -26.82 0.0008276639    1.366    0.268
       248  -8.3217    188.4506    157.9339   4.7252442614e+01   1.5251935663e+01    0.1819877    0.1227582 -34.40  0.001006205    1.551    0.355
       249  -9.1997    167.7156    157.1542   5.1331203661e+01   1.8944205782e+01    0.3069844    0.2511954  83.46  0.001144739    2.078    0.519
       250  -8.6255    218.0609    156.4978   4.1643345742e+01   1.0650430396e+01    0.2181625    0.1564916 -40.65 0.0008777979    1.673    0.402
       251  -8.8330    157.7321    155.4784   5.3196832969e+01   2.0988323279e+01    0.3160725    0.1906868 -48.11  0.001183996    1.993    0.498
       252  -9.1532    119.5647    155.0278   6.2410333762e+01   2.7808580851e+01    0.3393932    0.2636783  85.76  0.001412629    1.877    0.467
       253  -9.2534     49.8696    155.1213   8.2362516871e+01   3.7982385151e+01    0.4403318    0.1796676  52.45  0.001761411    2.634    0.620
       254  -8.7456     34.3997    155.7101   8.7045501120e+01   3.9465960757e+01    0.3325806    0.1354161  26.86  0.001472715    2.191    0.543
       255  -8.2552    204.5396    155.0712   4.3703953392e+01   1.2995011392e+01    0.1800911    0.1156793 -31.20 0.0006217323    1.542    0.351
       256  -8.4084    144.6061    154.6467   5.6071836266e+01   2.3476469981e+01    0.2632698    0.1981655  69.80 0.0007621904    2.028    0.507
       257  -9.6467    132.6713    152.6204   5.8602967081e+01   2.5981602835e+01    0.4341374    0.3199067  63.47  0.001224306    1.818    0.450
       258  -9.0095    133.3267    148.3151   5.7611978385e+01   2.6684112286e+01    0.2973399    0.2249084   0.94 0.0009208466    1.559    0.359
       259  -9.6342     67.9410    153.2679   7.6723614352e+01   3.6179392370e+01    0.4319608    0.2378594  62.07  0.001430021    2.282    0.562
       260  -8.0279    232.7592    153.5860   3.8738012961e+01   8.7920443878e+00    0.1445079     0.109337  43.13 0.0003738378    1.585    0.369
       261  -8.3447    182.7772    151.2991   4.7069785939e+01   1.7233810334e+01    0.2278844    0.1781305 -60.32  0.001061105    1.945    0.486
       262  -9.3505     29.2731    150.4198   8.8148167917e+01   4.1154642696e+01    0.4498253    0.1721748  55.98  0.001816362    2.795    0.642
       263  -8.5172     20.3664    152.2375   9.0967702946e+01   4.1496664338e+01    0.1762047    0.1058274  80.54 0.0007233215    1.673    0.402
       264  -8.8291      3.1947    150.5058   9.5945156258e+01   4.3110697503e+01     0.373466    0.1306319  78.77    0.0015537    3.023    0.669
       265  -9.0002    189.5623    150.0879   4.5501391098e+01   1.6236470610e+01    0.2515362    0.2145192 -60.29 0.0009887052    1.711    0.415
       266  -8.5483    162.5554    150.2541   5.1098574223e+01   2.1011201912e+01    0.2389654    0.1991673 -70.68 0.0007324066    1.782    0.439
       267  -8.8068     98.3225    150.6522   6.7444316484e+01   3.2261588070e+01    0.2955493    0.2113511  62.38 0.0007053093    1.667    0.400
       268  -9.6090    248.9389    149.1273   3.5530584092e+01   6.9919597098e+00     0.262416    0.1410818 -26.96 0.0007331938    1.612    0.380
       269  -9.1015    243.2558    149.6807   3.6441133726e+01   7.7340983286e+00    0.2176808    0.1339941 -27.28   0.00128934    1.439    0.305
       270  -9.4956    233.6462    147.5436   3.7457675754e+01   9.4089339418e+00    0.2510079    0.1507324 -28.99 0.0008615549    1.516    0.340
       271  -8.3825    213.0737    149.6805   4.1170536914e+01   1.2349373524e+01    0.1949824    0.1595058 -27.74 0.0004336459    1.277    0.217
       272  -8.3568    198.7845    148.8632   4.3528020409e+01   1.4834416734e+01    0.2071184    0.1709767 -44.56 0.0006914297    1.519    0.342
       273 -10.2534    139.4286    145.2461   5.5484831948e+01   2.6148233997e+01    0.5660313    0.3787785 -79.69  0.002031066    3.234    0.691
       274  -9.9378     89.3608    146.1581   6.9279758281e+01   3.4660569969e+01    0.6420383    0.3718858  79.61  0.002341842    3.504    0.715
       275  -9.7437     39.8982    147.6530   8.4628876661e+01   4.0773844000e+01     0.509712    0.2065886  52.81  0.001836265    2.604    0.616
       276 -10.7410    148.9035    144.9117   5.3133143308e+01   2.4452846982e+01    0.5731613    0.4251261 -86.90  0.001827569    2.515    0.602
       277 -10.4636     60.4675    125.2228   7.4991790488e+01   4.3688258991e+01    0.7949132     0.419183  69.28  0.002855598    3.058    0.673
       278 -11.0450     68.5352    138.3318   7.4401996603e+01   3.9510139321e+01     1.066087    0.6875492  82.66  0.004335316    2.070    0.517
       279 -10.3813     55.2712    144.9180   7.9515927974e+01   3.9696410378e+01    0.7882724    0.3375752  60.42  0.002782988    3.478    0.712
       280  -9.8388     56.2249    135.3295   7.7934766100e+01   4.1827319065e+01     0.640267    0.3274975  -2.88    0.0020389    4.602    0.783
       281  -8.2159    223.1258    146.7897   3.8949833271e+01   1.1127246046e+01    0.1684261    0.1529033  -4.09 0.0004171624    1.202    0.168
       282 -10.1597    106.4458    143.6456   6.3900208695e+01   3.2392993638e+01     0.730608    0.4993365  84.70  0.002566098    2.431    0.589
       283  -8.6799     77.9765    146.9500   7.2803507125e+01   3.6204022394e+01     0.230142    0.1546363  60.03 0.0008692319    1.668    0.400
       284  -9.4737     13.6307    146.2127   9.2616361273e+01   4.3391417392e+01    0.3644299    0.1692012  51.35  0.001331665    1.955    0.489
       285  -8.1082    206.4247    146.2676   4.1643766483e+01   1.3914558898e+01    0.1621639    0.1145017 -37.69 0.0003664606    1.528    0.346
       286  -8.3350    175.6451    146.0875   4.7466668285e+01   1.9325548676e+01    0.1965329    0.1719341 -56.76 0.0008990345    1.519    0.342
       287  -9.4840    240.1540    144.9547   3.5998829343e+01   8.7546929231e+00    0.1703545     0.141705 -25.79 0.0005396179    1.271    0.213
       288  -9.1015    165.6629    143.9202   4.9134908784e+01   2.1510954077e+01    0.2796976    0.2106175  57.80  0.001104401    1.684    0.406
       289  -7.8751    194.2778    143.6714   4.3316168718e+01   1.6372411363e+01    0.1169878    0.1062347 -68.84 0.0003426613    1.596    0.373
       290 -10.2168    242.6866    139.2190   3.4538687386e+01   9.0730548021e+00    0.5529236    0.1770014 -39.08  0.002352361    3.246    0.692
       291  -8.4954    182.0523    141.3323   4.5190183461e+01   1.8916730036e+01    0.2233564    0.1885254 -61.88 0.0006401528    1.671    0.402
       292  -9.3095      2.8295    141.4606   9.5661542603e+01   4.5190912700e+01    0.4018863    0.1758149  64.01  0.001698201    2.193    0.544
       293  -8.0428    250.4996    140.5202   3.3704739421e+01   7.7749861475e+00    0.1152759   0.09191083  -7.86 1.999561e-05    1.002    0.002
       294  -9.8364     23.5399    138.1543   8.8938421978e+01   4.4512046746e+01    0.5124162    0.2082267  56.35  0.002066225    2.604    0.616
       295  -8.7053    172.4328    138.1920   4.6494583055e+01   2.1201301118e+01    0.2868558    0.2218693 -66.30 0.0009721678    1.990    0.497
       296  -7.9776    218.5488    138.5134   3.8049585209e+01   1.2958930019e+01    0.1244262     0.106459  -2.74 0.0001431733    1.026    0.025
       297  -8.3048    207.7631    137.7119   3.9683519596e+01   1.4888017531e+01    0.2174856    0.1581154 -54.08 0.0008909268    1.988    0.497
       298  -8.6206    197.6139    137.3983   4.1411211621e+01   1.6709535756e+01    0.2260987    0.1819145 -51.88 0.0008328609    1.633    0.388
       299  -8.8735    248.5730    134.7968   3.2875778590e+01   8.7289166144e+00    0.2308035    0.1571264 -29.72 0.0008495285    1.329    0.248
       300  -9.0557    250.8003    129.7727   3.1611452804e+01   8.9931219755e+00    0.4175407   0.09296205 -30.06  0.001520674    4.101    0.756
       301  -8.3225    162.6374    136.1777   4.8170076604e+01   2.3397811504e+01    0.2016275    0.1747693 -53.07 0.0006258014    1.411    0.291
       302  -9.1918     39.1628    135.8224   8.3612440596e+01   4.3633832434e+01      0.28397    0.1953669  58.33 0.0007557773    1.439    0.305
       303  -8.1464    187.5538    135.5158   4.2895143852e+01   1.8813523700e+01    0.1339608    0.1198542   7.90 0.0001089865    1.025    0.025
       304  -9.1511    151.7354    135.3573   5.0469820983e+01   2.5640019653e+01    0.3933605    0.1246153  39.35  0.001312659    2.999    0.667
       305 -10.3586     83.4432    132.9744   6.8791628208e+01   3.8538444577e+01    0.4845557    0.3407094 -85.44  0.001407331    1.876    0.467
       306  -8.5834    179.5623    133.7779   4.4092241669e+01   2.0574895196e+01    0.2408692    0.2025876 -64.57 0.0008040026    1.663    0.399
       307  -9.9304    131.2029    118.7159   5.1827618126e+01   3.2855758661e+01    0.5464917    0.3581233  72.37  0.002124389    2.707    0.631
       308 -10.2955    132.2390    131.2171   5.4375535560e+01   3.0197137699e+01    0.5331933    0.3872545  89.10   0.00170442    2.406    0.584
       309  -9.0840    132.3567    125.3182   5.3041857379e+01   3.1328671148e+01    0.2930967    0.1796698  -1.45  0.001030657    3.291    0.696
       310  -8.9136    112.9985    133.1405   5.9994231626e+01   3.3440123833e+01    0.3488797    0.2390072  70.45 0.0009721679    2.202    0.546
       311  -8.7050    237.4229    133.2299   3.4121712264e+01   1.0609331510e+01    0.1649992   0.09781212 -37.74 0.0007461556    1.695    0.410
       312  -9.3065    142.9509    131.3604   5.1706020012e+01   2.8083124675e+01    0.3076182    0.2410405 -79.04 0.0008288718    1.933    0.483
       313  -9.4045    168.3974    129.3502   4.5434781947e+01   2.3444316558e+01    0.3065961    0.2420144 -66.85  0.000518997    1.840    0.457
       314 -10.0666     12.9291    128.8045   9.1706031727e+01   4.7524613427e+01    0.5617496     0.241717  68.21   0.00241938    2.568    0.611
       315  -8.3788    246.9789    129.8680   3.2137186082e+01   9.5535243037e+00    0.2036914    0.1400932 -27.21 0.0007146755    1.270    0.212
       316  -8.3226    220.5611    129.7500   3.5947675494e+01   1.3795029901e+01    0.1648549    0.1086025 -37.22 0.0004998249    1.533    0.348
       317  -7.9943    204.5068    130.0364   3.8647307141e+01   1.6548136590e+01    0.1892379     0.119491 -33.14 0.0006635322    1.539    0.350
       318  -8.3085    192.8406    130.1188   4.0747860539e+01   1.8659796990e+01    0.1878859    0.1811783 -28.24  0.000475629    1.228    0.186
       319  -9.5429    152.8596    128.8628   4.8786838518e+01   2.6589482452e+01    0.3707867    0.2776363 -62.45 0.0009802083    1.838    0.456
       320  -9.2594     97.9508    127.7627   6.3303268407e+01   3.7294409601e+01    0.4986728    0.2239172 -57.26  0.001903864    2.582    0.613
       321 -10.0134     72.9633    128.6769   7.1390493191e+01   4.1125896953e+01    0.4163516    0.2794765 -86.08  0.000926337    1.934    0.483
       322  -8.4654     25.3107    129.8416   8.7624761148e+01   4.6347701868e+01    0.2802285    0.1395123 -13.79  0.001090599    3.424    0.708
       323  -9.7771    125.0331    142.4789   5.8600301746e+01   2.9330936012e+01    0.4864567    0.3482239  89.55  0.001525288    2.433    0.589
       324  -8.1867    211.3628    128.7081   3.7210833076e+01   1.5520993160e+01     0.177962    0.1479106 -61.47 0.0006501779    1.722    0.419
       325 -10.6559     45.3793    123.8263   8.0005119060e+01   4.5860193967e+01     1.159091    0.4913341  64.24  0.003741081    4.169    0.760
       326  -7.7584      1.3304    129.6815   9.5583078783e+01   4.8012165687e+01    0.1355468   0.07406908  53.94 0.0007047651    1.688    0.407
       327  -9.8965    118.0028    125.1662   5.6887572985e+01   3.4162082813e+01     0.530226    0.3531173  68.46  0.001358955    2.306    0.566
       328  -9.0943    179.3017    124.5252   4.2116847588e+01   2.2105630747e+01    0.2580234    0.2295329 -71.24 0.0007272759    1.501    0.334
       329 -10.2040     28.4914    122.0181   8.5737405730e+01   4.7971291666e+01     0.815982    0.3271308  67.43  0.002835436    3.767    0.735
       330  -8.3092    188.5161    123.0854   4.0017219635e+01   2.0546626991e+01    0.2042411    0.1283109 -35.11  0.001027508    1.590    0.371
       331  -9.8836    158.8678    121.6601   4.5781174293e+01   2.6663605251e+01    0.4049991    0.2981658 -86.11  0.001388887    2.457    0.593
       332  -8.7755    171.9994    121.2625   4.2860585250e+01   2.4080997417e+01    0.2737063    0.1904602 -44.24 0.0007577442    1.580    0.367
       333  -8.3473     84.4668    122.3601   6.6451858950e+01   4.0798020747e+01    0.2616974    0.1321319  33.42  0.001070216    1.849    0.459
       334  -7.9100    203.2680    121.6607   3.7064471855e+01   1.7976667604e+01    0.1229038    0.1015114 -57.88 0.0002280916    1.599    0.375
       335  -9.5380     71.2485    119.6309   7.0327944362e+01   4.3503548496e+01    0.3648516    0.2382513  74.10  0.001150291    2.124    0.529
       336 -10.1316    141.7084    117.9592   4.8963523578e+01   3.0852239317e+01    0.5779306    0.3568791 -56.74  0.001634853    2.148    0.534
       337  -9.6319      2.7354    116.6785   9.4412032124e+01   5.1028123348e+01    0.5685894    0.2294431  70.52  0.002428042    2.658    0.624
       338  -8.9804    247.0843    143.6985   3.4774354135e+01   7.8926338838e+00     0.211873    0.1383988 -19.09 0.0004798657    1.310    0.236
       339 -10.2827    109.3772    113.2454   5.6661657466e+01   3.8332463398e+01    0.7669477    0.4156079 -57.76  0.002586187    2.292    0.564
       340  -8.4886    185.9391    115.9925   3.8903094804e+01   2.2145434307e+01    0.2016804     0.167359 -67.98  0.000646829    1.649    0.393
       341  -8.2593    192.9931    114.8186   3.7341248636e+01   2.0936689189e+01    0.2309771    0.1595175 -44.65 0.0006029364    1.594    0.373
       342  -7.9535    194.9717    121.9229   3.8574946911e+01   1.9491081575e+01    0.1955806    0.1631865 -66.37 0.0006065263    1.678    0.404
       343 -10.1756     92.7603    112.3877   6.1636002180e+01   4.1636688487e+01    0.5396411    0.3532416 -73.18  0.001307774    2.124    0.529
       344  -8.8059     93.4910    104.4805   5.9543617088e+01   4.3270482968e+01    0.3042077    0.2088661   3.37  0.001096724    2.151    0.535
       345  -9.8866     79.1522    112.5217   6.6202817126e+01   4.3938880631e+01    0.5799685    0.3633644  70.84  0.002056069    2.471    0.595
       346  -8.0661    167.4128    114.2264   4.2182595280e+01   2.6188274087e+01    0.1887086    0.1341933 -46.31 0.0005615855    1.565    0.361
       347  -9.7800    122.0449    112.4167   5.2807522413e+01   3.5977521280e+01    0.3392591    0.2872933  88.19 0.0007878908    1.515    0.340
       348  -9.0269    124.0083    107.4758   5.1044651782e+01   3.6569310857e+01    0.3971647     0.186184  25.66  0.001162206    4.014    0.751
       349  -8.7236    174.7395    111.5391   4.0039174330e+01   2.5118589919e+01     0.308952    0.1825009 -46.53 0.0008563424    1.918    0.479
       350  -8.9211    159.2882    111.5581   4.3300420096e+01   2.8340833138e+01    0.2447843    0.2216491 -42.51 0.0005790515    1.203    0.169
       351  -9.8572    133.3809    109.0441   4.8919128872e+01   3.4292034674e+01    0.5397556     0.281941 -39.79   0.00196531    2.061    0.515
       352  -9.7471     66.4622    110.3637   7.0218250047e+01   4.6410357588e+01    0.4278336     0.289301  77.40  0.001476311    2.004    0.501
       353  -8.6520     67.0090    105.3258   6.8991327399e+01   4.7531696005e+01    0.3065974    0.1818829   7.53  0.001205003    2.514    0.602
       354  -9.5342     14.4482    111.1784   8.9759510496e+01   5.1689655270e+01    0.3784636     0.192162  57.50  0.001174451    2.064    0.515
       355  -7.9177    182.8000    109.0553   3.7883383998e+01   2.3858310006e+01     0.183501    0.1061279 -34.98  0.000499848    1.724    0.420
       356  -8.6837     43.8411    108.8577   7.8339577475e+01   4.9689641135e+01    0.3358089    0.1248404  35.25  0.001302552    2.409    0.585
       357 -10.7272    249.3413    104.8473   2.6853230804e+01   1.2171893074e+01    0.5157362    0.1915735 -29.67  0.002437156    2.316    0.568
       358 -10.5562     45.8596    102.1958   7.6437471843e+01   5.1099270318e+01    0.8908467    0.4005272  58.86  0.003071437    3.493    0.714
       359 -10.6632     22.9221    102.5996   8.5592492538e+01   5.3204929534e+01    0.7262028    0.3376538  58.96  0.002325986    2.584    0.613
       360  -8.7558    166.8013    103.9795   3.9829223133e+01   2.8032685335e+01    0.2880661    0.1882335 -43.98 0.0006309936    1.639    0.390
       361  -9.6156    150.5951    103.0324   4.3156483225e+01   3.1706480727e+01    0.4168707    0.2849444 -60.11  0.001216455    1.977    0.494
       362  -8.5632     78.4264    104.8309   6.4769810889e+01   4.5846137760e+01    0.2724323    0.1879574 -11.21  0.000791357    2.111    0.526
       363 -10.1362    128.7558    101.0595   4.8107125632e+01   3.6829236358e+01    0.5605537    0.3511608 -34.59  0.001798548    1.771    0.436
       364 -10.9611    108.8908     98.6759   5.3175818332e+01   4.1508494962e+01     1.002617     0.562255  62.89  0.001224283    2.871    0.652
       365  -8.7229    107.4746     92.4708   5.1942707866e+01   4.3095116443e+01     0.448741    0.2661309  24.50  0.001753056    2.211    0.548
       366  -8.6805      6.8482    102.7485   9.1926251984e+01   5.4198754614e+01    0.2499569    0.1323032  64.02 0.0007588292    1.983    0.496
       367  -8.0099    175.5155    101.9761   3.7578501847e+01   2.6497389198e+01    0.2060134    0.1360001 -36.59 0.0004881789    1.528    0.346
       368  -8.9052    159.6674    100.6230   4.0504552087e+01   3.0144230253e+01    0.3191675    0.1892755 -49.54  0.001143988    1.979    0.495
       369  -9.3908     82.0880     99.8311   6.2305050637e+01   4.6375689594e+01    0.3951881    0.2873522  82.11  0.001048116    1.949    0.487
       370  -9.6393     94.9446     96.6355   5.7088599130e+01   4.4727721299e+01     0.367308    0.2638262 -62.29 0.0006540006    1.641    0.390
       371 -10.0858     63.9328     95.6591   6.8040423308e+01   5.0294742786e+01    0.6014599    0.3782043  78.63  0.001653436    2.571    0.611
       372  -8.7595     63.9600     88.0400   6.6225087932e+01   5.2096427774e+01    0.4493512    0.2628257 -12.86  0.001590088    3.294    0.696
       373  -8.1996    189.4140    107.7022   3.6345419456e+01   2.2722386257e+01    0.2502019    0.1231852 -39.12 0.0008589528    2.031    0.508
       374  -9.2910    139.9587    104.4366   4.6077458183e+01   3.3762051033e+01    0.3823438    0.2831538  88.40  0.001084336    2.153    0.536
       375  -8.4018    164.8752     94.0855   3.7724991921e+01   3.0091608254e+01    0.2147987     0.196208 -73.60 0.0005193827    1.272    0.214
       376  -7.5088    188.6723     93.3047   3.3028661237e+01   2.5039678037e+01    0.1355045    0.1077469 -71.06 0.0004145481    1.650    0.394
       377  -8.0804    176.2429     93.1844   3.5247915641e+01   2.7731092358e+01    0.1885649    0.1643039 -67.13 0.0004714975    1.360    0.265
       378  -9.3680    139.0683     91.8460   4.2973931239e+01   3.6286905962e+01    0.4604619    0.3142108 -59.64  0.001535814    1.910    0.476
       379 -10.3772    123.8586     90.1707   4.6498121573e+01   4.0015794300e+01    0.6244383    0.4236157  75.07  0.002548621    2.291    0.564
       380  -8.9261     46.2768     92.1236   7.4368154392e+01   5.3522125761e+01    0.3987295    0.2232403   4.11  0.001621142    2.513    0.602
       381  -8.0408    157.7995     91.7569   3.8609107462e+01   3.2063494256e+01    0.1938993    0.1730051 -79.81 0.0004498886    1.330    0.248
       382  -8.9809     22.6826     90.2895   8.4066296435e+01   5.6278079377e+01    0.3727078     0.223858 -29.03  0.001802262    1.950    0.487
       383  -9.3045      4.9641     91.6417   9.1748236215e+01   5.7016461464e+01    0.3259887    0.1526467  44.34 0.0009533287    2.182    0.542
       384  -9.3088     34.8536     89.6281   7.8721072327e+01   5.5380930742e+01    0.4377895    0.2560592  77.29  0.001858073    2.310    0.567
       385  -8.0320    150.8651     88.8669   3.9365641888e+01   3.4130669941e+01    0.1975686     0.174955 -67.10 0.0003927693    1.305    0.234
       386 -10.1707     86.5339     85.9638   5.7107885289e+01   4.8681816819e+01     0.611109    0.4371815 -75.46  0.001700792    1.944    0.486
       387  -7.9432    164.1687     87.1206   3.6043295311e+01   3.1386837727e+01      0.19896     0.171364 -66.90 0.0005471871    1.359    0.264
       388  -9.8052     48.6362     84.1415   7.1663753009e+01   5.5174545341e+01    0.5892395    0.3182559  61.67   0.00185112    2.862    0.651
       389  -7.3896    179.3208     85.6439   3.2757080773e+01   2.8214243474e+01    0.1451084    0.1085597 -68.09 0.0007045724    1.759    0.432
       390  -9.9622    104.7117     82.9332   5.0095038342e+01   4.5641030678e+01    0.4587518    0.3406773 -75.04  0.001036736    1.902    0.474
       391  -8.4774    158.0987     83.7369   3.6387111567e+01   3.3329088825e+01    0.2417068     0.194427 -48.35 0.0004214601    1.338    0.253
       392  -9.1290    140.8791     82.4259   3.9899027497e+01   3.7557334403e+01    0.3521012    0.2566066 -54.35 0.0009352937    1.594    0.373
       393  -7.4018    185.3011     82.3159   3.0859875116e+01   2.7388041552e+01    0.1405005     0.104903  16.88 0.0003529286    1.616    0.381
       394  -8.0674     64.1987     82.4515   6.4704412765e+01   5.3368737788e+01    0.2061864    0.1284176  45.39 0.0006062964    1.646    0.392
       395  -9.5621     24.6756     80.4765   8.1649853960e+01   5.8554308012e+01    0.4570937     0.258247  70.87   0.00141963    2.325    0.570
       396  -9.1890      9.7446     80.8995   8.8561107357e+01   5.9431458567e+01    0.3658941    0.1766697  52.42  0.001308434    2.339    0.572
       397  -8.8121     74.6805     80.2419   5.9915280087e+01   5.2127742712e+01    0.3195976     0.245087  89.76 0.0009461772    1.790    0.441
       398  -8.3759    150.0672     80.0430   3.7097277660e+01   3.5813207485e+01    0.2232742    0.2186451  81.62  0.000733302    1.075    0.070
       399  -8.9123    119.1812     79.7254   4.4786490032e+01   4.3070806293e+01    0.3064977    0.2336135 -70.52 0.0008728313    1.744    0.427
       400  -8.0618    166.9237     79.3515   3.3409508340e+01   3.1988783386e+01    0.1934563    0.1827331  42.88 0.0004744636    1.033    0.032
       401  -7.7924    184.2160     77.9923   2.9932736442e+01   2.8257452404e+01    0.1863231    0.1098046 -32.18 0.0006720914    1.678    0.404
       402  -7.7562    175.0000     77.9837   3.1533232161e+01   3.0340904742e+01    0.2220473   0.07962026 -33.10 0.0003304669    2.806    0.644
       403  -8.5522     51.5403     76.9048   6.8649472572e+01   5.6526739437e+01    0.4735637    0.1715614  21.83  0.001503441    3.653    0.726
       404  -7.7791    157.0000     76.0176   3.4472804607e+01   3.4836600495e+01    0.2289319   0.08389468 -34.59  0.000423323    2.820    0.645
       405  -9.2773    128.2015     75.1835   4.0951038798e+01   4.1817244263e+01    0.3486308     0.248921 -59.88 0.0006665127    1.749    0.428
       406  -9.9664     63.2546     73.3600   6.2588373850e+01   5.5612829186e+01    0.4994039    0.3149961 -68.43  0.001140842    2.018    0.505
       407  -9.6586     82.4605     72.2940   5.4552213795e+01   5.2422881823e+01    0.4727006    0.3119261 -70.66  0.001109548    2.268    0.559
       408  -8.5501    163.4299     72.8627   3.2298230734e+01   3.3809853760e+01    0.2706645    0.1340776 -38.69  0.001115489    2.033    0.508
       409  -9.0086    115.7239     72.5012   4.3562055559e+01   4.5222975631e+01     0.343773    0.2032358 -50.75  0.001428019    1.967    0.492
       410  -8.3368     42.6712     72.2051   7.1507856822e+01   5.8779584414e+01    0.2916509    0.1775168 -77.72  0.001204915    2.074    0.518
       411  -7.5616    175.5174     72.4285   2.9953152168e+01   3.1045144199e+01    0.1380043    0.1347659  37.68 0.0001564714    1.016    0.016
       412  -9.3322    105.8589     71.5567   4.6239038091e+01   4.7648777665e+01    0.2816901    0.2220126 -54.23 0.0006329587    1.431    0.301
       413  -9.2767     95.2006     71.0494   4.9573633983e+01   5.0079788302e+01    0.3853122    0.2637492 -64.42  0.001121391    1.971    0.493
       414  -9.3974     51.5816     69.5923   6.6673822672e+01   5.8238032605e+01    0.4283918    0.2826457 -86.71   0.00141686    2.296    0.564
       415  -8.7424    140.5339     75.0607   3.7841224298e+01   3.8911910813e+01    0.2562701      0.20028 -75.01 0.0005583854    1.658    0.397
       416  -8.5812     16.8093     69.9544   8.3632038352e+01   6.1716551453e+01    0.2419694    0.1705018  75.22  0.000888149    1.618    0.382
       417  -8.9985    147.0349     67.6500   3.4156775386e+01   3.8566922469e+01    0.3546764    0.2057243 -42.32  0.000916429    1.810    0.448
       418  -8.6322    138.7324     65.9392   3.5506636471e+01   4.0869747822e+01    0.2698212    0.1977803 -54.75 0.0005215334    1.567    0.362
       419  -8.8761    121.5806     65.6836   3.9742015857e+01   4.5075384163e+01    0.2882835    0.2442899 -69.83 0.0006990199    1.395    0.283
       420  -8.2880    151.4023     73.1554   3.4834012429e+01   3.6628480882e+01    0.2079432    0.1346135 -47.29 0.0004677685    1.684    0.406
       421  -8.8959    110.0010     63.0715   4.2182687175e+01   4.8286743316e+01    0.3765712    0.2090452 -47.56 0.0009994828    2.031    0.508
       422  -8.5846     64.3675     63.1668   5.8969972285e+01   5.7701076658e+01    0.3975211    0.2358484   5.89  0.001454891    3.003    0.667
       423  -8.4245     37.3513     64.0601   7.2010587388e+01   6.1332995687e+01     0.249141    0.1798494  53.42   0.00101538    1.612    0.380
       424  -8.1155     17.8270     62.7899   8.1816193362e+01   6.3396209277e+01      0.25506    0.1008363 -35.32 0.0009685144    2.975    0.664
       425  -8.6113    158.0027     61.7015   3.0140358899e+01   3.6801661839e+01    0.1989453    0.1852874  55.32 0.0004038688    1.036    0.035
       426  -9.3195     97.7838     60.5291   4.5175045688e+01   5.1560193827e+01    0.3519066    0.2426018  60.24  0.001142405    1.612    0.380
       427  -9.6901     73.2907     59.1231   5.3801673328e+01   5.6948104211e+01    0.5101264    0.2728963 -55.68  0.001373568    2.277    0.561
       428  -8.3123     89.2602     59.4344   4.7744798169e+01   5.3642118891e+01    0.2472292     0.186926 -68.01 0.0004975836    1.761    0.432
       429  -7.5416    147.2870     59.3073   3.1567112166e+01   3.9804646049e+01    0.1484462    0.1125043  24.12 0.0002112084    1.570    0.363
       430  -8.5223    130.8492     57.5681   3.4714015532e+01   4.4168702054e+01    0.2946765    0.1860393 -52.90 0.0009774546    1.890    0.471
       431  -9.7607     23.4900     56.2080   7.7331742078e+01   6.4550767978e+01    0.4716665     0.275595  71.51  0.002071861    2.604    0.616
       432  -9.2958      7.5408     57.1134   8.6352759061e+01   6.5355999286e+01    0.3082554    0.2006867  71.07  0.001230541    1.806    0.446
       433  -9.0374    119.1220     55.3290   3.6953698677e+01   4.7434329635e+01    0.4538324    0.2240872 -48.55  0.001372537    2.438    0.590
       434  -8.2698    140.0672     55.7121   3.1985401666e+01   4.2154263792e+01    0.2533648    0.1973585 -48.78  0.000661708    1.382    0.276
       435  -8.5242     44.1651     55.4406   6.6046443897e+01   6.2493464158e+01    0.2185649    0.1944056  86.23 0.0008723702    1.351    0.260
       436  -8.9828     62.8186     54.3504   5.6639529168e+01   5.9852444362e+01    0.3225179    0.2080673 -56.00 0.0007413437    1.760    0.432
       437  -8.9830     54.1212     53.6331   6.0468118501e+01   6.1448136885e+01    0.3515732    0.2329251 -75.32  0.001249147    2.323    0.570
       438  -8.5782    105.8773     53.1501   3.9974147225e+01   5.1010954506e+01    0.2278913    0.2039298 -86.04 0.0006835774    1.292    0.226
       439  -9.4789     92.4283     50.3303   4.3296066710e+01   5.4634169252e+01    0.4160015     0.275026 -57.69 0.0009548545    1.977    0.494
       440  -8.0463    144.6767     48.8116   2.8797852479e+01   4.2004961198e+01    0.2081257    0.1281563 -41.67 0.0006332156    1.699    0.411
       441  -8.3833    129.7988     48.8047   3.2033194597e+01   4.5791527098e+01    0.2044464    0.1744965 -75.60 0.0005145882    1.325    0.245
       442  -8.5665    112.4252     46.9812   3.5825193134e+01   5.0437567259e+01    0.3159466    0.2265443 -66.93  0.001017686    1.870    0.465
       443  -8.3905    120.8437     47.1887   3.3659048236e+01   4.8301801094e+01     0.222929    0.2003175 -84.67 0.0005639067    1.224    0.183
       444  -8.9212     82.1799     46.1492   4.5400873610e+01   5.7654400678e+01    0.2897938    0.2342346 -53.40 0.0007032066    1.428    0.299
       445  -8.4768     45.1014     44.6105   6.1814876013e+01   6.4739824581e+01    0.2281178    0.1893394 -63.49 0.0006090456    1.389    0.280
       446  -8.7397     16.8861     44.4498   7.8233965264e+01   6.7825257345e+01    0.2357406    0.1765396  88.96 0.0007445118    1.606    0.377
       447  -8.5090    132.5342     43.0219   2.9430024274e+01   4.5934725841e+01    0.2128632    0.1484777 -32.10 0.0004029924    1.534    0.348
       448  -8.6081     92.7066     42.4690   4.0147512170e+01   5.5924331962e+01    0.2576278    0.1877777  -2.52   0.00118579    1.802    0.445
       449  -9.4582     69.8198     41.5952   4.8572527082e+01   6.1060595529e+01    0.3873177    0.2989576 -76.88  0.001170631    1.945    0.486
       450  -8.9224     58.2239     42.4023   5.4225909140e+01   6.3089350986e+01    0.3161156    0.2461979 -84.65  0.001256455    1.977    0.494
       451  -9.6641      5.3011     41.8951   8.4912691421e+01   6.9078349203e+01    0.3458017    0.2176181  83.76  0.001470011    1.905    0.475
       452  -7.6730    140.4240     41.4695   2.7246084542e+01   4.4114864124e+01    0.1466451    0.1367838  86.38 7.073639e-05    1.073    0.068
       453  -8.5945    105.8187     40.9146   3.5422215479e+01   5.3019462709e+01    0.2675146    0.2022834 -56.78 0.0006320939    1.580    0.367
       454  -8.4450     36.9113     40.6268   6.4908217251e+01   6.6701993704e+01    0.2441707    0.1846811 -79.87   0.00069135    1.811    0.448
       455  -9.0156     95.7247     37.9192   3.7317960946e+01   5.5943710168e+01    0.2568838    0.1982911 -55.09 0.0005158327    1.544    0.353
       456  -8.2447     80.5354     36.5391   4.2063508297e+01   5.9683874338e+01    0.2433285    0.1356577 -48.53 0.0007861581    2.167    0.539
       457  -7.6114    133.4972     36.4455   2.6942323539e+01   4.6584180933e+01    0.1482001    0.1364406  74.08  0.000122767    1.047    0.045
       458  -9.2640     26.1699     35.1292   6.9460228089e+01   6.9127044976e+01    0.3135158    0.2249117 -76.89 0.0008870468    1.797    0.443
       459  -8.0368    126.0474     35.4882   2.8207695912e+01   4.8650823190e+01    0.2192563    0.1378742  61.40 0.0003346081    1.472    0.321
       460  -8.4332    111.9673     34.4526   3.1222450551e+01   5.2424135846e+01    0.2707497    0.1989393 -51.68 0.0006155694    1.562    0.360
       461  -7.8141    180.3315     33.9002   1.8515004601e+01   3.4946149641e+01    0.1867409    0.1273541 -10.43 0.0009282145    1.800    0.445
       462  -7.8801    104.6354     34.3078   3.3161824901e+01   5.4298865698e+01    0.1528636    0.1155353 -81.15 0.0007038223    1.747    0.428
       463  -7.5576     88.7075     34.3569   3.8166369405e+01   5.8166119498e+01    0.1462885    0.1165163 -76.07 0.0007029792    1.690    0.408
       464  -8.8485     48.6357     33.1419   5.5201571044e+01   6.6525092935e+01    0.2637025    0.2262035 -84.82   0.00068772    1.633    0.388
       465  -8.9960    118.8691     32.1991   2.8640674987e+01   5.0954553242e+01    0.3920526    0.1733631 -41.49  0.001221898    2.464    0.594
       466  -8.8309     60.6866     32.3616   4.8691340887e+01   6.4524364773e+01    0.2369965    0.1743457 -52.77 0.0007185666    1.632    0.387
       467  -8.7262     72.3504     31.0291   4.2876470499e+01   6.2381127060e+01    0.2420941    0.2007517  77.24 0.0006211461    1.564    0.361
       468  -8.9513     12.9846     30.2082   7.6721389461e+01   7.1341003536e+01    0.2828849    0.1811294 -81.02 0.0009642206    1.945    0.486
       469  -9.3098    175.6243    247.7707   6.3777379590e+01   5.0275704724e+00    0.2384142    0.1854468  47.34  0.001223727    1.913    0.477
       470  -9.1036      3.8958     27.6308   8.2584486215e+01   7.2423072666e+01    0.2293945     0.176392 -79.67 0.0008357626    1.410    0.291
       471  -9.0745     91.8858     26.1041   3.3529394791e+01   5.8616936541e+01    0.3162195    0.1948958 -43.90 0.0008889226    1.856    0.461
       472  -8.0540     34.9347     22.9742   5.8578997587e+01   7.0562410189e+01    0.1982039     0.164214  63.67 0.0007721547    1.697    0.411
       473  -8.8593     81.5505     27.1673   3.7519671396e+01   6.0929160301e+01     0.309788    0.2381867 -68.53  0.001075101    1.800    0.444
       474  -8.9974     63.6209     20.6677   4.1631551370e+01   6.5870471067e+01    0.3525878    0.2115073 -52.44  0.001051277    2.324    0.570
       475  -8.8588     48.2799     21.2568   4.9655694473e+01   6.8750627936e+01    0.2624759    0.2136253 -49.09 0.0009903092    1.451    0.311
       476  -7.7440     19.4357     21.2230   6.8628491223e+01   7.2749419076e+01    0.1639563     0.124152 -68.08 0.0006142037    1.590    0.371
       477  -8.8906     74.3149     19.3445   3.6488876927e+01   6.3717291645e+01    0.2925531     0.227453 -51.16 0.0006610711    1.573    0.364
       478  -8.2220     38.5395     17.9986   5.3709686179e+01   7.0944076651e+01    0.1887646    0.1280645 -41.33 0.0003821091    1.520    0.342
       479  -8.2097     87.8660     17.1917   3.0722125190e+01   6.0773144422e+01    0.2072177    0.1916509 -76.20 0.0004200856    1.246    0.198
       480  -7.9114    112.5743     16.5169   2.3896257652e+01   5.4509729137e+01    0.1451085    0.1311765  60.83 7.908393e-05    1.011    0.011
       481  -8.1015     30.3686     16.1095   5.8145936646e+01   7.2483291769e+01    0.1729244    0.1233026 -57.40 0.0007434717    1.749    0.428
       482  -8.2019     97.2923     14.9898   2.6969029359e+01   5.8661505343e+01    0.1901384    0.1864723 -14.87 0.0004972119    1.135    0.119
       483  -7.8226      7.6793     15.3263   7.5577920515e+01   7.4921753052e+01    0.1188132   0.09301679  54.10 0.0004943338    1.683    0.406
       484  -8.7607    132.3347    247.8852   7.2203408316e+01   1.0408442729e+01    0.2355277     0.167219  61.67  0.000954996    2.171    0.539
       485  -8.1772    113.1785    248.4689   7.6163753497e+01   1.2707466887e+01    0.1754506    0.1217968  71.93  0.001111483    2.302    0.566
       486  -9.1187    103.7387    246.5289   7.7940350155e+01   1.4140925482e+01    0.3262553    0.2029167  89.70  0.001889592    2.988    0.665
       487  -8.3511     93.8424    249.2364   8.0229762699e+01   1.4931148001e+01    0.1929617   0.08163702  52.22 0.0009427147    2.792    0.642
       488  -8.3708    218.6316    247.9513   5.6219436926e+01  -2.9491202540e-02    0.1573278    0.1237685 -27.84  0.001114238    1.829    0.453
       489  -8.7665    156.2177    247.9115   6.7481591736e+01   7.4121671154e+00    0.1919257    0.1410791  47.12 0.0008151909    1.748    0.428
       490  -9.9087    223.8735    243.6105   5.4770931515e+01  -1.8539764736e-01    0.3277432    0.2009504 -39.24   0.00224642    2.518    0.603
       491  -9.3462    210.9435    246.1850   5.7277071858e+01   1.0117508430e+00    0.1914686     0.142388 -34.96  0.000981534    1.988    0.497
       492  -8.0704    142.4892    247.6930   7.0150945607e+01   9.1600260775e+00    0.2139502   0.07746128  31.24 0.0009897368    1.992    0.498
       493  -9.2857    120.1184    245.2582   7.4425036876e+01   1.2299912129e+01    0.3177977    0.1908134  57.14  0.001778417    2.346    0.574
