#   1 NUMBER                 Running object number                                     
#   2 MAG_AUTO               Kron-like elliptical aperture magnitude                    [mag]
#   3 X_IMAGE                Object position along x                                    [pixel]
#   4 Y_IMAGE                Object position along y                                    [pixel]
#   5 X_WORLD                Barycenter position along world x axis                     [deg]
#   6 Y_WORLD                Barycenter position along world y axis                     [deg]
#   7 A_WORLD                Profile RMS along major axis (world units)                 [deg]
#   8 B_WORLD                Profile RMS along minor axis (world units)                 [deg]
#   9 THETA_WORLD            Position angle (CCW/world-x)                               [deg]
#  10 FWHM_WORLD             FWHM assuming a gaussian core                              [deg]
#  11 ELONGATION             A_IMAGE/B_IMAGE                                           
#  12 ELLIPTICITY            1 - B_IMAGE/A_IMAGE                                       
         1 -13.6442    232.4550      3.7452   2.9792693445e+01   2.8084785986e+01     2.516202     1.501142  48.10    0.0147716    2.348    0.574
         2 -15.6940    198.6887     61.6110   4.6310976369e+01   2.8246963977e+01     8.543936     4.389815 -30.02    0.0381887    2.106    0.525
         3 -16.0078    227.5834     89.9864   4.8897953245e+01   1.7705004969e+01     7.752778     1.784481 -46.16   0.02294732    4.489    0.777
         4 -16.7540    246.4941     45.7381   3.7152619075e+01   2.0429176521e+01     4.329852     2.680026  72.34   0.02094558    1.708    0.414
         5 -15.8590    249.4086     61.7045   4.0146813469e+01   1.7711055858e+01     5.939692     1.082714 -32.53   0.01317058   10.099    0.901
         6 -11.1675    124.0024     34.9765   5.2004947528e+01   4.9256760007e+01     0.858741    0.2562056 -29.39  0.002812949    3.601    0.722
         7 -10.0570    184.4061     27.0604   3.9546296302e+01   3.6026373573e+01    0.5983116    0.4217554 -62.51  0.001249764    1.435    0.303
         8 -11.5528    134.8244     19.5770   4.4809902021e+01   4.8452886646e+01    0.7715079    0.4115036 -12.74  0.002517619    2.492    0.599
         9 -11.5308    129.3402     20.9931   4.6278766416e+01   4.9588140453e+01    0.9135062    0.2984703  44.57  0.003349294    3.151    0.683
        10 -10.1077    143.1746      9.2141   4.0231135331e+01   4.7468003201e+01    0.5143313    0.2166078 -14.17  0.002139986    3.393    0.705
        11 -11.1065    139.8461     22.7228   4.4908710462e+01   4.6954479060e+01    0.7037173    0.3782314  -1.27  0.002416696    3.158    0.683
        12 -10.4689    141.5768     16.4260   4.2672433664e+01   4.7179681820e+01    0.4502084    0.2807764 -11.66  0.002246828    2.028    0.507
        13 -11.1026    124.3428     14.9786   4.5244676523e+01   5.1331289725e+01    0.4540161    0.3033593  25.09  0.002457742    1.723    0.420
        14 -12.3309    119.3566      9.8658   4.4468314021e+01   5.2934296967e+01    0.8266038    0.5852884  52.34  0.003241715    1.207    0.171
        15  -8.9946    156.8714      7.2570   3.7753301787e+01   4.4434614954e+01    0.2511214    0.1759952  25.52  0.001183644    1.829    0.453
        16  -9.8911     93.8622      4.3994   4.7887305750e+01   5.9043012716e+01    0.3250371    0.1612964   0.50  0.001300864    2.792    0.642
        17 -16.0111    246.7251     72.5633   4.2695888984e+01   1.6663367837e+01     7.646149     1.194963  50.63   0.01493142    9.435    0.894
        18 -10.1607    179.9791    174.9538   7.6727089857e+01   1.1205869117e+01    0.2755558    0.1888161 -40.08  0.001348315    1.420    0.296
        19  -9.4274    226.0285    192.5475   7.1075124205e+01   3.5917173080e-01    0.2303532    0.1758795  21.25 0.0007602294    1.293    0.227
        20  -9.0897     38.9517    194.5514   1.1375319660e+02   2.8762192929e+01    0.2068944    0.1553138 -61.12  0.000381039    1.346    0.257
        21 -11.1698    220.3607    186.4331   7.0931981619e+01   2.2548922794e+00    0.5788156    0.3534453 -24.72  0.002950264    1.581    0.367
        22 -10.1729    208.8302    192.1660   7.4253480665e+01   3.0928602107e+00    0.3088952    0.2111973  17.32  0.001376425    1.508    0.337
        23 -11.2503    215.1659    183.3297   7.1295567653e+01   3.6163245951e+00    0.5978727    0.4170744 -34.35 0.0007499693    1.317    0.241
        24  -9.4379    213.9392    190.9732   7.3034717642e+01   2.4884007451e+00    0.2628095    0.1966521  38.31   0.00101338    1.479    0.324
        25 -11.4791    207.8905    184.2295   7.2876229705e+01   4.6426500268e+00    0.8587129    0.5595328 -66.89  0.003507902    3.348    0.701
        26  -7.9561    155.5501    191.4353   8.5404947954e+01   1.2212020762e+01    0.1419246    0.1333584  13.12 0.0001268019    1.032    0.031
        27  -8.6898    198.6337    248.0564   8.6037490342e+01  -4.3654006019e+00    0.1635032    0.1333645  -9.51 0.0004190474    1.158    0.136
        28  -8.9503    197.5242    230.6956   8.3452044538e+01  -1.5929942774e+00    0.2339797    0.2027159  74.04  0.001299132    2.005    0.501
        29 -10.3917    217.6955    224.7798   7.8552354890e+01  -3.5436110655e+00    0.2390984    0.1931898 -13.50 0.0003986069    1.115    0.103
        30 -10.9673    192.0020    153.0083   6.9499791172e+01   1.3310110215e+01    0.8007349    0.3565925 -52.60  0.002821322    2.965    0.663
        31 -11.2913    201.6453    165.0917   7.0173651835e+01   9.2201985864e+00    0.7716084    0.5551213 -84.09  0.003253554    2.978    0.664
        32  -9.0303    203.6820    160.7883   6.8856141143e+01   9.6638856719e+00    0.3112791    0.1976775  37.25  0.001507717    1.663    0.399
        33 -10.7118    185.3743    162.6511   7.2983533996e+01   1.2655536199e+01     0.666204    0.4373659  83.09   0.00216568    4.655    0.785
        34 -11.9025      3.5478    149.8563   1.1815846370e+02   4.2503839398e+01    0.8549662    0.3029965 -69.75  0.003852168    2.168    0.539
        35  -9.8771    192.8419    164.0479   7.1727314866e+01   1.1007069140e+01    0.2208762     0.201914 -55.74  0.001054271    1.284    0.221
        36 -10.6664    196.8672    176.6479   7.3540134056e+01   7.8910393810e+00    0.5064352    0.3180708  52.51   0.00233727    2.107    0.525
        37 -13.0911     17.1682    148.7825   1.1441798991e+02   4.1790896218e+01    0.9250634    0.7414631 -78.26  0.004007087    1.052    0.050
        38  -9.7098    204.7803    153.4135   6.7048852794e+01   1.0849981855e+01    0.5371214    0.3933296 -81.48  0.002397919    2.525    0.604
        39  -9.1887    198.7202    153.6689   6.8291601140e+01   1.1921374765e+01    0.3603831     0.183436 -36.07 0.0009618428    1.871    0.466
        40  -9.2236    211.0776    150.7711   6.5276353380e+01   1.0192660399e+01    0.3246385    0.2672847 -63.68  0.001309406    1.547    0.354
        41 -11.6133      5.5547    160.2870   1.1859091021e+02   3.9863361710e+01    0.7990209    0.4720361  75.50  0.004410495    1.684    0.406
        42  -8.8623    185.5627    224.9695   8.4886404274e+01   1.1017620783e+00    0.1879041     0.157665  13.76 0.0003651148    1.038    0.037
        43 -11.5184     45.4258    139.7972   1.0515117898e+02   4.1416881267e+01     0.401054    0.3590889  -7.80 0.0009237986    1.291    0.226
        44 -13.8473     57.1211    136.3197   1.0106181991e+02   4.0945557233e+01      2.39682     1.641016  16.33  0.007844603    1.750    0.429
        45  -9.6828    192.1466    143.6233   6.7367041400e+01   1.5117168272e+01    0.4390349    0.2019636 -43.72  0.001192122    2.069    0.517
        46 -10.0853    210.4868    136.3099   6.2185204361e+01   1.2976004816e+01    0.3745663    0.3069433 -83.12   0.00196468    1.705    0.413
        47 -10.1929    189.3488    137.9695   6.6638747042e+01   1.6775332435e+01     0.463187    0.2663622 -30.80  0.001973209    1.821    0.451
        48  -8.7077    202.9980    186.9897   7.4387939970e+01   4.9549733271e+00    0.2353944    0.1520565 -61.35  0.001028737    2.630    0.620
        49 -10.1358    200.5246    130.8333   6.2789636766e+01   1.5932215383e+01    0.5362281    0.3975752 -78.18  0.001867307    2.062    0.515
        50 -10.2209    189.0802    131.4792   6.5178899472e+01   1.8100798931e+01    0.3404002    0.2739989 -53.46  0.001744199    1.316    0.240
        51 -11.0731    160.7676    129.2660   7.0767280377e+01   2.4391298844e+01    0.5280238     0.483486 -23.16  0.002121913    1.065    0.061
        52 -10.2321    183.4892    142.3973   6.8872349347e+01   1.7060265858e+01    0.3068154     0.274174 -50.77 6.390191e-05    1.183    0.155
        53  -9.3759    225.0147    130.1331   5.8277728710e+01   1.1372138799e+01    0.3853281    0.2599222  79.74  0.001218997    2.727    0.633
        54 -10.0454    142.8313    135.7137   7.6652976075e+01   2.6679213314e+01    0.4720537    0.2715474 -62.77  0.001740374    2.504    0.601
        55  -9.1669    216.8077    128.3698   5.9276352888e+01   1.3223004569e+01    0.2334813    0.1900488  -3.72 0.0005448753    1.388    0.280
        56  -8.2254    218.0957    123.6093   5.7982910744e+01   1.3830772761e+01    0.3579398    0.2385928  -6.97  0.000934924    2.204    0.546
        57 -11.8169    185.2600    122.8832   6.3900672188e+01   2.0562683784e+01    0.7920444     0.581269 -44.33  0.003897573    1.305    0.234
        58  -9.2779    198.2255    172.9554   7.2505007564e+01   8.3467707852e+00    0.2761637    0.1356074 -42.50 0.0004888901    1.958    0.489
        59  -9.0946    126.7643    140.1699   8.1841148291e+01   2.8828772369e+01      0.27152    0.2160423  25.24 0.0002554784    1.340    0.254
        60 -10.0504    189.5967    171.7079   7.4015237028e+01   1.0113061477e+01    0.2979419    0.2221236  52.39 0.0006548395    1.644    0.392
        61  -8.6739     94.9513    123.8278   8.6952664597e+01   3.8482190399e+01    0.2368974    0.1980839 -19.77 0.0008675518    1.290    0.225
        62 -10.7016    185.4977    169.4780   7.4409246717e+01   1.1286787821e+01    0.6137454    0.3015509 -58.61  0.002032896    3.773    0.735
        63  -9.3988    174.1405    138.8035   7.0043416734e+01   1.9661312894e+01    0.2321112    0.2109789 -77.93  0.001220611    1.309    0.236
        64 -10.9191    165.9048    115.9859   6.6291768943e+01   2.6036968086e+01    0.4623769    0.4072953  -7.98  0.002400024    1.216    0.178
        65 -10.5365    193.7482    173.2351   7.3474016996e+01   9.0816155995e+00    0.5327956    0.2100533 -42.53  0.002032578    2.435    0.589
        66  -9.2139    197.4925    111.7648   5.8853014723e+01   2.0114111015e+01    0.2977684    0.2381274  79.09 0.0007849633    1.575    0.365
        67  -9.5205    180.0403    120.7388   6.4447465386e+01   2.2076175881e+01    0.3415978    0.2339561 -49.52 0.0009117811    1.483    0.326
        68  -8.5643    161.6176    176.4860   8.1117640744e+01   1.4219092925e+01    0.2657609    0.1873976 -76.99 0.0009743256    2.418    0.586
        69  -8.6324     75.0184    109.9966   8.9821315698e+01   4.4979287416e+01    0.2116397     0.196506 -36.52  0.001181854    1.010    0.010
        70  -8.6455     87.2489    107.6789   8.5306840142e+01   4.3581590055e+01    0.2748893    0.1814752 -61.27 0.0008904983    1.708    0.415
        71  -9.2495    153.4206    176.5135   8.3016399650e+01   1.5700115091e+01    0.2843966    0.2390608 -87.80 0.0003283075    1.601    0.375
        72 -10.1265     92.8570     91.4699   7.9056890549e+01   4.6215685024e+01    0.2528697    0.2211414 -32.49 0.0002360579    1.087    0.080
        73  -9.8308    140.8145     86.6956   6.4195176823e+01   3.7314150933e+01    0.4500946     0.303306 -24.56  0.001469875    1.698    0.411
        74  -9.5449    152.9893     78.5118   5.9045678881e+01   3.6032232929e+01    0.2945143    0.2426645 -36.10 0.0006428583    1.216    0.178
        75 -10.3346    157.4207     83.2161   5.9412721627e+01   3.4187187140e+01    0.5770853    0.2041791 -48.36  0.001800645    3.454    0.710
        76 -10.5159    204.5410    174.9060   7.1647989185e+01   6.8908773382e+00    0.4404869    0.3286392  80.34  0.002001588    2.705    0.630
        77  -9.9860    132.4330     81.3985   6.4718682793e+01   4.0166970689e+01     0.419639    0.2413583  39.21  0.001122343    1.821    0.451
        78  -9.1049    187.0258    220.2809   8.3790719752e+01   1.6665214093e+00    0.2068064    0.1740506 -19.93 0.0003224226    1.161    0.139
        79  -9.5773    156.1085     74.9023   5.7350063369e+01   3.5933444368e+01    0.2237529    0.1969963 -72.97 0.0004871767    1.248    0.198
        80  -9.4667    152.6080     65.4119   5.5351336598e+01   3.8305534162e+01    0.3292788    0.2177791 -31.45  0.001307295    1.581    0.367
        81 -10.0691    183.1139     54.8626   4.6926759834e+01   3.2768690414e+01    0.3525311    0.2177983 -49.69 0.0005403041    1.637    0.389
        82  -9.3482    124.5602     48.0832   5.6219721226e+01   4.7400577305e+01    0.4029108    0.2164811 -46.04  0.001412762    2.169    0.539
        83 -10.2265    126.2040     40.7388   5.3423379122e+01   4.8024060352e+01    0.4328261    0.2229159 -23.03  0.001879119    2.292    0.564
        84  -9.1135    187.9096    215.8116   8.2833580049e+01   2.2919709468e+00    0.1986522    0.1567055   0.84  0.000347976    1.188    0.158
        85  -8.9049     91.5236     41.4992   6.2825591631e+01   5.5448340303e+01    0.3544447    0.1348921 -28.80  0.001341479    2.967    0.663
        86  -9.7420    159.4916     41.0028   4.6968987130e+01   4.0185587230e+01    0.1966074    0.1350082 -31.32 0.0006690325    1.549    0.354
        87  -9.9759    169.3809     35.5409   4.3849932035e+01   3.8532466366e+01    0.3245806    0.2293769  66.56 0.0005898583    1.324    0.245
        88 -10.6590    144.9823     31.0094   4.6548017599e+01   4.4834137684e+01    0.4120706     0.231406 -29.32  0.001701312    1.927    0.481
        89  -8.1597    214.9729    212.7743   7.6935551003e+01  -1.2880056384e+00    0.1616693   0.09760005  30.10    0.0003494    1.592    0.372
        90  -9.7296    159.7284     28.8700   4.3460652694e+01   4.1592804406e+01    0.2648632    0.2526664  57.79 0.0007611633    1.090    0.083
        91 -10.0526    154.7010    209.8700   8.8876894417e+01   8.6919545884e+00    0.2553407    0.2242483 -22.43 0.0004702407    1.159    0.137
        92  -9.1902    229.2204    210.3944   7.3844214275e+01  -2.9527573943e+00    0.1635017    0.1134024  37.84 0.0006964187    1.654    0.395
        93  -8.3882    106.7295    206.0423   9.9229489808e+01   1.7176098675e+01    0.1772133    0.1706305 -62.89 0.0001992601    1.097    0.089
        94 -10.7677    240.9222    190.8168   6.8089455667e+01  -1.5479925613e+00    0.4725646    0.1837961 -32.16  0.002032502    2.393    0.582
        95 -10.9840    238.8385    197.6852   6.9759061452e+01  -2.3310384045e+00    0.3549382    0.3176249  39.67  0.001776358    1.542    0.352
        96  -9.1364    112.9907     29.5075   5.2655357152e+01   5.2401056103e+01    0.2094386     0.119556  53.23 0.0009954869    1.569    0.363
        97 -10.8732    192.4969    194.1722   7.7912601926e+01   5.3904980554e+00    0.9240702    0.4713003 -60.64  0.002929987    5.064    0.803
        98  -9.3517    165.3832    198.9802   8.4597636761e+01   9.0268741094e+00    0.4475397    0.2900145  66.43  0.001827241    2.974    0.664
        99  -8.6199    248.6239    195.7262   6.7706852428e+01  -3.3834750329e+00     0.217724    0.1358486  18.94 0.0007282128    1.685    0.407
       100  -9.1207    105.5474    180.2103   9.5432685443e+01   2.3172268375e+01    0.3793664    0.2207383 -54.40  0.001299874    1.718    0.418
       101  -8.8920    177.1154    195.3535   8.1370886353e+01   7.7425858320e+00     0.218072    0.1771458 -19.00 0.0002776086    1.202    0.168
       102 -10.9065    230.8993    194.2652   7.0520026131e+01  -6.4573835946e-01    0.4413091    0.2495899  31.06  0.001193416    1.824    0.452
       103  -8.4596    177.4938     25.5254   4.0027287299e+01   3.7798363606e+01    0.2060825    0.1487006  61.43 0.0005299415    1.304    0.233
       104  -8.3010     40.9992    179.0016   1.1163248272e+02   3.2207644164e+01    0.1757939    0.1403012 -47.56  0.001034984    1.389    0.280
