#   1 NUMBER                 Running object number                                     
#   2 MAG_AUTO               Kron-like elliptical aperture magnitude                    [mag]
#   3 X_IMAGE                Object position along x                                    [pixel]
#   4 Y_IMAGE                Object position along y                                    [pixel]
#   5 X_WORLD                Barycenter position along world x axis                     [deg]
#   6 Y_WORLD                Barycenter position along world y axis                     [deg]
#   7 A_WORLD                Profile RMS along major axis (world units)                 [deg]
#   8 B_WORLD                Profile RMS along minor axis (world units)                 [deg]
#   9 THETA_WORLD            Position angle (CCW/world-x)                               [deg]
#  10 FWHM_WORLD             FWHM assuming a gaussian core                              [deg]
#  11 ELONGATION             A_IMAGE/B_IMAGE                                           
#  12 ELLIPTICITY            1 - B_IMAGE/A_IMAGE                                       
         1 -14.1277    135.6181    124.9825   1.0826679189e+02   3.0773693615e+01      2.93828    0.4033432 -48.93  0.005738943   10.198    0.902
         2 -14.4649    150.3293     60.2201   8.6921895726e+01   3.9727663537e+01     1.498848     1.127211  -5.36 0.0009981666    1.479    0.324
         3 -14.8783    161.8223     44.9799   7.9259511705e+01   3.9254108618e+01     1.433635     1.067584 -16.16  0.003778463    1.350    0.259
         4 -14.9302    174.8669     13.7977   6.6054239573e+01   3.9655465705e+01     1.509468     1.457424 -45.97  0.005179513    1.091    0.083
         5 -14.0430    189.7025     14.3917   6.4212375342e+01   3.5670790864e+01    0.6357568    0.5848786  62.76  0.002310042    1.093    0.085
         6 -12.4749    125.3971    238.4429   1.2681156879e+02   1.3696048891e+01     0.245857    0.1676903 -63.81  0.001434036    1.935    0.483
         7 -20.1560     77.8181    175.7088   1.2924209957e+02   2.9981381463e+01     13.85099     6.140315 -68.25   0.07215462    2.378    0.579
         8 -10.2278     13.3099    236.1784   1.4441880050e+02   2.6718406074e+01   0.07097963   0.05607502  46.02 0.0002794972    1.456    0.313
         9 -10.8070     34.3575    187.2181   1.3868018881e+02   3.2743965259e+01    0.2646584    0.2408062   2.61    0.0021822    1.736    0.424
        10 -10.2145    242.4552    184.5672   9.9400157413e+01   2.2432155735e+00    0.1219535   0.09235898  16.11 5.283876e-05    1.005    0.005
        11 -10.3442    131.0710    233.0166   1.2534335789e+02   1.3626878967e+01    0.1101977   0.09981287  59.26 0.0003546076    1.221    0.181
        12 -12.5199     31.1339    182.1949   1.3896563949e+02   3.3963492436e+01    0.2344158    0.1640809  44.79  0.000519797    1.381    0.276
        13 -12.0547     28.2274    179.5891   1.3935150064e+02   3.4714264153e+01    0.2115709    0.1880279   9.12 0.0009689773    1.733    0.423
        14 -13.6135    177.1640    171.3548   1.0854538071e+02   1.5079814126e+01    0.6276497    0.3840924 -46.21  0.003355665    1.974    0.493
        15  -8.8555      4.8469    233.4626   1.4557980929e+02   2.7851902536e+01    0.1015923   0.06427839  52.31 0.0002968974    1.225    0.184
        16 -11.4260    140.9077    228.3987   1.2320130261e+02   1.2846796316e+01    0.2645731    0.2153492 -82.60  0.001390679    1.640    0.390
        17 -11.3304    218.4578    220.7040   1.0921998425e+02   2.2136948354e+00    0.2573211   0.09930187 -39.69  0.001295371    3.605    0.723
        18 -12.1049    187.9183    175.2429   1.0720073517e+02   1.2617529674e+01    0.2628253    0.1859043 -53.83  0.001470276    2.020    0.505
        19 -11.2550     26.0647    172.6794   1.3933349753e+02   3.6198917172e+01      0.28727    0.1571163  42.36  0.001164285    1.683    0.406
        20 -11.2376    166.8600    174.7430   1.1111765078e+02   1.6380410813e+01    0.2216008    0.1699807 -83.28  0.001172528    2.122    0.529
        21 -11.6562    164.0356    169.8378   1.1083325542e+02   1.7634285744e+01    0.1983168    0.1643415  55.00  0.001217367    1.284    0.221
        22 -11.9838    230.4919    167.9590   9.8270441719e+01   6.0948629853e+00    0.3161834    0.1614505 -43.80  0.001464327    2.930    0.659
        23 -11.1341     20.3036    166.7699   1.4009282949e+02   3.7829223171e+01    0.1833418    0.1526028 -70.33  0.001089232    1.390    0.280
        24 -14.8343    143.8971    143.6500   1.1022309689e+02   2.5714140037e+01    0.9943098    0.6941403 -65.22  0.004602579    1.860    0.462
        25 -15.3870    133.7490    146.0699   1.1291409992e+02   2.7092198737e+01     1.544958    0.8904859 -55.53   0.00575609    1.960    0.490
        26 -10.5628    127.2643    248.9183   1.2746353731e+02   1.2127699194e+01    0.1204375   0.09823184  45.05 0.0001982244    1.138    0.121
        27 -12.3444    143.4374    156.3567   1.1267930769e+02   2.3518058533e+01    0.3127097    0.2126813  56.46  0.001494119    1.574    0.365
        28 -10.2931     22.9524    156.2679   1.3886513127e+02   3.9644517336e+01    0.1423106    0.1158698  70.44  0.000442843    1.109    0.098
        29 -10.2607     13.7364    155.6772   1.4073423057e+02   4.0524128759e+01    0.1312596    0.1228566 -68.63 0.0008603292    1.418    0.295
        30 -10.4186    177.0466    154.8969   1.0551143370e+02   1.7620707564e+01    0.1909481    0.1737231  57.31 0.0004569002    1.270    0.213
        31 -12.7985    161.3029    153.2232   1.0837034382e+02   2.0827089629e+01     0.306264    0.2887371  81.38  0.001140438    1.251    0.200
        32 -10.6135     17.7883    153.5551   1.3975841737e+02   4.0616730378e+01    0.1879966    0.1189672 -81.95 0.0004343104    1.314    0.239
        33 -12.1038    174.2980    148.6266   1.0481746609e+02   1.9141303342e+01    0.3082944    0.2944359 -71.50  0.001139037    1.289    0.224
        34 -10.7342    150.9757    239.4483   1.2270348142e+02   1.0037334742e+01    0.1443744    0.1272553  24.34 0.0005122752    1.262    0.208
        35 -12.1219     27.3600    145.7499   1.3712011566e+02   4.1379044471e+01     0.299432    0.2508194 -64.16  0.001982906    1.350    0.259
        36 -11.0891     18.2826    220.5324   1.4309829864e+02   2.8652319037e+01    0.1131078   0.07563646  86.84 0.0001825174    1.317    0.240
        37 -10.5801    171.5506    137.7500   1.0311768883e+02   2.1469378239e+01    0.1780874    0.1342013 -49.32 0.0005245832    1.540    0.351
        38 -12.2250     23.8015    217.3356   1.4208651146e+02   2.8652477533e+01    0.1513918    0.1180941  82.41 0.0008763862    1.234    0.190
        39 -12.7374    160.7097    127.9738   1.0327160004e+02   2.5319112499e+01    0.4470835    0.3335978 -48.23  0.001760806    1.473    0.321
        40 -10.9569     30.8511    206.3661   1.4039692123e+02   2.9772141760e+01    0.1742912    0.1399577  41.82 0.0008044111    1.435    0.303
        41 -11.7122    140.2328    120.3727   1.0616641958e+02   3.0781453203e+01    0.2960552    0.2106611  67.70  0.000691937    1.849    0.459
        42 -10.4040     23.7418    123.5482   1.3598505524e+02   4.6355270158e+01    0.1724541    0.1165137  17.73  0.001100983    2.019    0.505
        43 -13.1531     11.7268    206.0338   1.4358264454e+02   3.1566669271e+01    0.3843795    0.1964513  32.49  0.002727836    2.143    0.533
        44 -11.7129     13.2480    240.0609   1.4455330216e+02   2.6156900921e+01     0.118498   0.09297069  72.65  0.000990164    1.263    0.208
        45 -10.8079    205.3411    110.2551   9.0010099057e+01   1.8851544527e+01    0.3077678    0.1906185  41.12 0.0009589453    1.569    0.363
        46 -10.9417    160.4946    237.5149   1.2092844943e+02   8.9164561168e+00    0.1604649    0.1081333 -45.29 0.0006034343    1.999    0.500
        47 -10.8750     28.1134    237.0572   1.4224166060e+02   2.5229494350e+01    0.1263521   0.09472267  80.12 0.0005638965    1.249    0.199
        48 -11.0360    167.6785    112.8050   9.8183284140e+01   2.6569504447e+01    0.3618717    0.2664728 -89.52  0.001289608    2.322    0.569
        49 -11.6266    138.7110    200.3373   1.2028057106e+02   1.7104273218e+01    0.3352656    0.1986265  59.33  0.001042942    1.933    0.483
        50 -11.6262    141.5608    198.7342   1.1954170341e+02   1.6904891690e+01    0.2404373    0.2001695  68.10 0.0007290937    1.328    0.247
        51 -11.3682    121.9410    198.7889   1.2322274811e+02   1.9868840694e+01    0.1734774    0.1643187 -64.39 0.0004612798    1.268    0.211
        52 -11.2812    163.8333    247.9197   1.2152378824e+02   7.2661611749e+00    0.1458557    0.1407958  51.68 0.0009026807    1.376    0.273
        53 -10.4866    135.7574    241.5159   1.2540572286e+02   1.1897603826e+01    0.4320029    0.2172237  40.92  0.001417533    1.481    0.325
        54 -13.2940    165.6006     36.8379   7.5692815955e+01   3.9410916771e+01    0.4801292     0.448411   7.50 0.0009041108    1.019    0.019
        55 -11.0520     13.3809     59.8947   1.3067575801e+02   6.1275297256e+01    0.1709631    0.1515021  85.42 0.0004532231    1.243    0.196
        56 -11.7477     21.6835    235.0775   1.4313308525e+02   2.6124260969e+01    0.1309412   0.08454502  79.92   0.00102931    1.291    0.226
        57 -11.6750    135.5367    237.0014   1.2499733152e+02   1.2494520486e+01    0.1882438    0.1497958  69.43 0.0004744339    1.422    0.297
