#   1 NUMBER                 Running object number                                     
#   2 MAG_AUTO               Kron-like elliptical aperture magnitude                    [mag]
#   3 X_IMAGE                Object position along x                                    [pixel]
#   4 Y_IMAGE                Object position along y                                    [pixel]
#   5 X_WORLD                Barycenter position along world x axis                     [deg]
#   6 Y_WORLD                Barycenter position along world y axis                     [deg]
#   7 A_WORLD                Profile RMS along major axis (world units)                 [deg]
#   8 B_WORLD                Profile RMS along minor axis (world units)                 [deg]
#   9 THETA_WORLD            Position angle (CCW/world-x)                               [deg]
#  10 FWHM_WORLD             FWHM assuming a gaussian core                              [deg]
#  11 ELONGATION             A_IMAGE/B_IMAGE                                           
#  12 ELLIPTICITY            1 - B_IMAGE/A_IMAGE                                       
         1 -12.9300    102.2544     20.7351   8.1022079665e+01   5.5659093009e+01    0.4136148    0.1942963 -15.42  0.001828037    2.748    0.636
         2 -13.3957    105.3305     10.9463   7.6753685576e+01   5.5964429958e+01     0.475733    0.2329886 -12.96  0.002169119    2.557    0.609
         3 -11.3420    144.0326      1.4504   6.6074428088e+01   4.8013008291e+01    0.1968116    0.1059891  65.72 0.0003174137    1.531    0.347
         4 -12.4659    210.1337    205.3467   1.0459394759e+02  -1.9169205496e+00    0.2267218    0.1827239 -16.72 0.0005077142    1.263    0.208
         5 -17.6823    165.2271    114.4865   9.4042243143e+01   2.5904854236e+01     6.538227      3.86936  46.64   0.01966327    1.680    0.405
         6 -15.1295    168.1760    151.5905   1.0237793203e+02   1.7259695174e+01      1.07968    0.8224468  87.85  0.004771996    1.783    0.439
         7 -15.3437     68.4634    151.5210   1.2765366035e+02   3.6182465870e+01     1.424144    0.8588403  55.46  0.002821038    1.858    0.462
         8 -14.4265     74.8160    147.3367   1.2523633825e+02   3.6281197947e+01    0.7403726     0.547571  61.87  0.003852172    1.474    0.322
         9 -15.8777     80.1653    142.9825   1.2297998501e+02   3.6527671769e+01     1.716489     1.236971  44.87  0.005796067    1.455    0.313
        10 -12.0692    150.0350    152.9580   1.0697031717e+02   2.0926052078e+01    0.2330381    0.2282701  54.24 0.0003236553    1.021    0.021
        11 -15.0518    199.6602    193.0751   1.0433053391e+02   2.2445762256e+00    0.8488498    0.4920965  43.59   0.00388489    1.669    0.401
        12 -11.4596    236.4066    145.5793   8.7125643053e+01   3.8258635435e+00    0.3900721    0.2277266  29.76  0.001674577    2.275    0.560
        13 -13.3375    248.9772    141.4866   8.4099475120e+01   2.1237212590e+00    0.3363462    0.2935239 -35.34  0.001618625    1.030    0.029
        14 -12.6746    247.4232    135.9125   8.3150337889e+01   3.4102661032e+00    0.3200273    0.2259998 -31.66 0.0008237033    1.351    0.260
        15 -14.9940     93.9659    131.5704   1.1681256725e+02   3.7019413192e+01     1.308979     0.911639 -46.05  0.006296156    1.409    0.290
        16 -18.1448    227.1347    161.4225   9.2262347558e+01   2.7452728521e+00     15.87886    0.9502312 -40.49   0.02341181   15.932    0.937
        17 -11.6519    109.5029    138.0516   1.1399225823e+02   3.2680242670e+01    0.2658992    0.2087906  63.39  0.000586117    1.401    0.286
        18 -18.6088    192.6741     61.8640   7.4721806857e+01   2.8811816088e+01     10.24009     7.186543  67.88    0.0508584    1.365    0.268
        19 -15.6201     10.1426    188.8612   1.4573820525e+02   3.4078744438e+01    0.9302803    0.5770032 -28.10  0.004874009    3.402    0.706
        20 -11.3521    103.3025    128.9813   1.1362790463e+02   3.5973915063e+01    0.2146235     0.192512 -53.88 0.0004413021    1.077    0.071
        21 -12.5771    156.3990    153.7922   1.0563138293e+02   1.9360721982e+01    0.2994922    0.2197314  46.30  0.000568849    1.338    0.252
        22 -12.0698    218.3457    121.5572   8.4913515938e+01   1.2111028997e+01    0.4352033    0.2554002  68.78  0.001743107    2.362    0.577
        23 -10.7056    244.5375    117.9575   7.9683611930e+01   7.1832131976e+00    0.1851058    0.1701283  61.21 0.0005263731    1.193    0.161
        24 -10.6925     24.1374    105.1565   1.3201338338e+02   5.1941772415e+01    0.1877153    0.1394245 -43.65  0.000554026    1.227    0.185
        25 -11.3091     86.6800     99.1642   1.1108846476e+02   4.5661672178e+01    0.2183974    0.1961122  51.33 0.0004857508    1.236    0.191
        26 -11.4865    250.2659     86.1398   7.1890367554e+01   1.1474492136e+01    0.3517897    0.1835166 -34.31   0.00159002    1.974    0.494
        27 -15.0470    191.5259    192.7598   1.0596669064e+02   3.8910098646e+00      1.30536    0.6695347 -61.91  0.004335132    3.974    0.748
        28 -15.4559     49.8143    165.5077   1.3449344860e+02   3.5257779891e+01    0.9573421    0.7184198 -51.68  0.003938491    1.414    0.293
        29 -12.0085     79.1724     75.0347   1.0661073111e+02   5.1840884893e+01    0.3158484    0.1746261 -50.46  0.001129245    1.929    0.482
        30 -11.1002     37.0989     62.7435   1.1771182181e+02   5.9662263526e+01    0.2494048     0.143227 -42.79  0.001396874    1.453    0.312
        31 -13.7041    103.6972     53.2903   9.1963840738e+01   5.1148112128e+01    0.5103027     0.304335 -24.14  0.002031722    1.873    0.466
        32 -10.6200     35.0000     54.8950   1.1615493006e+02   6.1319034317e+01    0.3299419   0.05948877 -50.43  0.001046561    4.891    0.796
        33 -11.1196     64.7022     54.1102   1.0483478509e+02   5.7833538220e+01    0.2582726    0.1090966 -47.28  0.001094938    2.617    0.618
        34 -12.4850     22.7560     43.5863   1.1746878922e+02   6.4419157368e+01    0.2475951    0.1765241 -46.68 0.0002309388    1.371    0.271
        35 -11.5372     17.3309     38.9215   1.1821887697e+02   6.5644798291e+01    0.1605428    0.1155967 -33.35 0.0005262373    1.098    0.089
        36 -15.4383     48.7642    160.3901   1.3404493417e+02   3.6598949704e+01    0.7687356      0.74683  32.69  0.003224849    1.276    0.216
        37 -14.6506     26.4276    169.6528   1.4047795296e+02   3.6852915145e+01     1.063081    0.4689575  73.37  0.004331876    3.285    0.696
        38 -12.6798    186.3193    188.6877   1.0626355610e+02   5.7088613608e+00    0.3080885    0.2530601  50.64 0.0007541255    1.245    0.197
        39 -11.7234    114.3476    218.8791   1.2722041147e+02   1.3322148270e+01    0.2460015    0.1860868  62.39 0.0006776473    1.221    0.181
        40 -12.5539    166.8120    168.4271   1.0639960928e+02   1.3912007204e+01    0.3771804    0.2494059  57.07  0.001636116    1.670    0.401
        41 -13.9651    182.7047    159.3195   1.0085043926e+02   1.2424148424e+01    0.5374932    0.4161177 -47.12  0.002594595    1.320    0.242
        42 -13.7895    177.2248    155.3839   1.0118423334e+02   1.4449497759e+01    0.6403203    0.3653499  62.79  0.001644994    2.469    0.595
