#   1 NUMBER                 Running object number                                     
#   2 MAG_AUTO               Kron-like elliptical aperture magnitude                    [mag]
#   3 X_IMAGE                Object position along x                                    [pixel]
#   4 Y_IMAGE                Object position along y                                    [pixel]
#   5 X_WORLD                Barycenter position along world x axis                     [deg]
#   6 Y_WORLD                Barycenter position along world y axis                     [deg]
#   7 A_WORLD                Profile RMS along major axis (world units)                 [deg]
#   8 B_WORLD                Profile RMS along minor axis (world units)                 [deg]
#   9 THETA_WORLD            Position angle (CCW/world-x)                               [deg]
#  10 FWHM_WORLD             FWHM assuming a gaussian core                              [deg]
#  11 ELONGATION             A_IMAGE/B_IMAGE                                           
#  12 ELLIPTICITY            1 - B_IMAGE/A_IMAGE                                       
         1 -14.8826      6.3249     70.7913   8.2619645396e+01   6.2130840097e+01     1.126708    0.7091345 -64.82  0.006518455    1.256    0.204
         2 -13.1374      8.8457      2.9069   5.6898321460e+01   7.6459194377e+01    0.6476877    0.4313379  44.43   0.00392899    2.207    0.547
         3 -15.8002     11.2367     23.2828   6.6385957112e+01   7.2503396401e+01     1.939914    0.9503465 -35.08   0.00915789    1.921    0.479
         4 -14.4794     27.0705     11.7850   5.0587348089e+01   7.2865271808e+01    0.9313917    0.5748282 -19.04   0.00514318    1.684    0.406
         5 -13.6932    189.0430     24.0067   1.3156221205e+01   3.4245858340e+01     1.308782    0.7552107 -49.30  0.005983129    1.633    0.388
         6 -13.8764    122.2381     36.8396   2.8252902697e+01   4.9880301681e+01     1.038209    0.5578663  36.02  0.002874793    2.348    0.574
         7 -14.3371    166.5756     29.0653   1.7506517815e+01   3.9417835035e+01     1.081753    0.8328041  71.80  0.004010154    1.289    0.225
         8 -14.3963    147.8073     29.6780   2.0579253349e+01   4.4253057109e+01      1.29609    0.7963777  69.52  0.004535532    1.640    0.390
         9 -12.9488    140.2058     21.4262   1.8833101702e+01   4.7235074815e+01    0.9463301    0.3490812  67.71   0.00246759    2.676    0.626
        10 -15.1737     99.1514     11.5204   2.2742910985e+01   5.8746444073e+01     1.459876    0.9272073  58.49  0.004340739    1.497    0.332
        11 -12.3599     85.5760     13.7342   2.7305219410e+01   6.1706284889e+01    0.4896679    0.3658104 -51.27  0.001971853    1.591    0.371
        12 -13.5683    219.1200     15.3112   7.9866178104e+00   2.7908276854e+01    0.6235538    0.3490401  39.85  0.002857674    2.618    0.618
        13 -13.9869    215.0980     10.0977   6.9166517071e+00   2.9397082792e+01     1.159591    0.5832466  60.70  0.005302975    2.126    0.530
        14 -12.2939     60.1053     15.2665   3.6653317581e+01   6.6909535101e+01    0.5221744    0.2989166  29.40  0.002499769    1.974    0.493
        15 -11.7797     46.8090     12.8139   4.0915333260e+01   6.9678329071e+01    0.2782191    0.2524967  25.57  0.001368437    1.189    0.159
        16 -13.8548     41.9238      4.3469   3.7942547057e+01   7.1646633962e+01    0.6959998    0.5268028   7.50  0.003534245    1.248    0.199
        17 -11.5302    122.9343     10.6010   1.7531176706e+01   5.2873014214e+01    0.3229813    0.2295173 -67.12  0.001607237    1.625    0.385
        18 -11.6759     75.1629      9.3264   2.8098601506e+01   6.4525487894e+01    0.3364755    0.1918736 -14.81  0.001609283    1.858    0.462
        19 -11.0932    168.3102      9.6431   1.0933076322e+01   4.1103092491e+01    0.1552886   0.09136397 -57.17 0.0007042934    1.733    0.423
        20 -12.1152    152.7241      8.6218   1.2390582153e+01   4.5277680788e+01    0.3121122    0.2095275  38.56  0.001529683    1.691    0.408
        21 -10.8293     80.5818      7.2925   2.5410623793e+01   6.3535182106e+01    0.1818715    0.1243838  -4.03 0.0006626433    1.548    0.354
        22 -12.2943    118.6554      2.4682   1.4866597020e+01   5.4705109420e+01    0.5146291    0.2662621 -89.22  0.002101317    2.503    0.600
        23 -11.8653     78.7033      2.0810   2.3150616742e+01   6.4461068679e+01    0.8240916  0.004174899  54.04  0.002230832    5.497    0.818
        24 -11.2017     67.4961      2.9663   2.6979581045e+01   6.6841442640e+01     0.266214    0.1569613  38.83  0.001361297    1.613    0.380
        25 -10.9776    232.8569      1.8192   3.6869583660e+00   2.6178271368e+01     0.176808    0.1677672 -70.74  0.000952519    1.206    0.171
        26 -13.3875    187.7737     11.2365   9.4807069301e+00   3.5952087363e+01    0.6631188    0.4385884 -17.11  0.003369277    1.678    0.404
        27 -11.2907     61.2964      1.4592   2.8171803700e+01   6.8288504775e+01    0.3378745    0.1204902  56.98   0.00137321    2.786    0.641
        28 -10.9233     81.0391    192.7954   7.7564689758e+01   2.4656930994e+01    0.1760062   0.08991122  39.25 0.0008696476    1.757    0.431
        29 -13.0038    107.6626    246.4729   7.7744362482e+01   1.1381648973e+01    0.6208485    0.4329363  87.52  0.004190869    1.859    0.462
        30 -13.3302     98.8799    238.8469   7.8660030576e+01   1.3765358257e+01     0.792979    0.3687021  39.75  0.004442658    1.688    0.408
        31 -14.0963     92.5625    230.4516   7.9077022292e+01   1.6011723029e+01    0.6134261    0.5098791  45.01  0.004437329    1.126    0.112
        32 -12.2605     50.8565    248.6586   8.8184910633e+01   1.8245824177e+01    0.3214845    0.2916363  87.29  0.002714846    1.401    0.286
        33 -12.2255     60.4976    246.0071   8.6300251321e+01   1.7541261785e+01     0.239215    0.1470831  25.56  0.001493485    2.061    0.515
        34 -10.9803     41.6499    250.2993   8.9891503976e+01   1.9025054064e+01    0.1157999   0.05288561  57.64 0.0007036886    1.689    0.408
        35 -12.2068      2.8966    249.5569   9.6446064430e+01   2.3133185320e+01    0.3283398    0.1905153  54.15  0.001719628    1.170    0.145
        36 -13.7198      9.7522    245.7577   9.5184731797e+01   2.3114381892e+01    0.7367231    0.2884225  53.37  0.003535574    1.708    0.415
        37 -12.3617     98.6380    186.6076   7.2876852019e+01   2.3296937573e+01    0.3894183      0.26587  -3.77  0.001751437    3.011    0.668
        38 -11.2938    155.6645    184.6817   6.0264598166e+01   1.4164442459e+01    0.1349547   0.09998936   5.23 0.0007048829    1.700    0.412
        39 -12.0806     48.8999    181.5202   8.3650629039e+01   3.1311051890e+01    0.3487661    0.2127692 -58.05  0.001941623    1.826    0.452
        40 -11.9164    198.5683    181.4900   5.1387641857e+01   7.3286176054e+00    0.2481988    0.2347878  51.22   0.00163954    1.345    0.257
        41 -12.2818     84.1421    178.4055   7.5108289375e+01   2.7218536547e+01    0.2220202     0.155508 -76.92  0.001224153    1.477    0.323
        42 -12.6520    124.1797    166.6044   6.3970515466e+01   2.3157028597e+01    0.5872663    0.3885512 -71.20  0.002823748    1.905    0.475
        43 -12.3236     76.8713    156.8356   7.3890590557e+01   3.3121165551e+01    0.4497121    0.3379842  24.43  0.001499987    1.633    0.388
        44 -13.5028     73.7403    153.2552   7.4164876942e+01   3.4418386961e+01    0.8030055    0.6976261 -70.96  0.004277775    1.148    0.129
        45 -12.1352    111.4719    155.9352   6.5082463229e+01   2.7671070870e+01    0.5002378    0.3135087  82.41  0.002062802    2.557    0.609
        46 -11.7089     54.9894    156.1132   7.9419639620e+01   3.6325282788e+01      0.33289    0.1897508  16.11  0.001457363    2.878    0.652
        47 -11.7264     85.6438    153.2928   7.1096015071e+01   3.2595607428e+01    0.4714893    0.2276571 -43.44  0.001868182    2.753    0.637
        48 -12.1228     61.1243    152.0351   7.7289019526e+01   3.6483291131e+01    0.2474058    0.1953931  84.38 0.0002696606    1.159    0.137
        49 -12.7706     60.4794    147.5170   7.6832377985e+01   3.7648006558e+01    0.3731503    0.3207607 -14.71  0.001959104    1.628    0.386
        50 -11.5668    103.4367    149.8088   6.5962864181e+01   3.0440115345e+01    0.3480322    0.2427529 -35.41  0.001533292    1.829    0.453
        51 -12.7969      8.6589    149.1799   9.0721598866e+01   4.2827692556e+01    0.5417497    0.3883323  41.62  0.003487235    1.456    0.313
        52 -12.5952    245.5066    148.3710   3.7030195090e+01   4.2970782688e+00    0.3368143    0.2497702 -34.60  0.002071032    1.320    0.243
        53 -10.8822     38.2126    145.6033   8.2593290417e+01   4.0844251859e+01    0.1588603    0.1291435  17.10 0.0005232654    1.616    0.381
        54 -12.9939     41.1765    137.5000   8.0787896598e+01   4.2483496622e+01    0.3691458    0.2310784  65.76   0.00190991    1.610    0.379
        55 -12.7162    246.9182    135.6263   3.4143594926e+01   5.8216925284e+00    0.3860902     0.250881  68.90  0.001921888    2.797    0.642
        56 -11.8118    136.3938    132.3783   5.4216872877e+01   2.8043179539e+01    0.5796244    0.1853757  41.20  0.001819874    3.294    0.696
        57 -11.3055      5.3472    128.6771   9.0037872277e+01   4.7975137852e+01     0.250854    0.1416089 -48.49  0.001340394    2.065    0.516
        58 -14.6321    105.8567    105.0631   5.5452171766e+01   4.0317415043e+01      1.35355     1.169685 -49.08  0.005718645    1.126    0.112
        59 -13.3104    112.2123    116.7603   5.6658866884e+01   3.6373877874e+01    0.5897722    0.3780841  35.97  0.002484039    1.722    0.419
        60 -13.1615     28.9139    121.8217   8.2343740594e+01   4.7665942188e+01    0.4075793    0.2998867 -60.30   0.00224169    1.305    0.234
        61 -11.5723    180.8556    120.6161   4.1730147279e+01   2.0980879861e+01    0.2056687    0.1422911  61.19 0.0009502724    1.716    0.417
        62 -12.3538      4.6995    119.2741   8.9410118509e+01   5.0309843528e+01    0.4710347    0.2786023  15.23  0.002617335    2.241    0.554
        63 -12.3500      8.3424    114.4371   8.7826021684e+01   5.1242470111e+01    0.3584302     0.215641  70.49  0.001845255    1.614    0.380
        64 -13.1554     84.5262    114.7804   6.4038348343e+01   4.1964664504e+01    0.8488585    0.3875111  38.43  0.002845634    2.309    0.567
        65 -12.4699     78.8709    110.1379   6.4689472576e+01   4.4041106574e+01     0.368613    0.3018689 -86.09  0.001525425    1.267    0.211
        66 -12.4344     42.3434     90.3873   7.2439921371e+01   5.4113662070e+01    0.3062306    0.2287002 -73.09 0.0002114496    1.232    0.189
        67 -12.7362     36.7739     92.9091   7.4992237902e+01   5.4111959792e+01    0.4402058    0.3319499   8.05  0.001506521    1.730    0.422
        68 -13.5287      2.2470     96.9566   8.7927843153e+01   5.5956246110e+01    0.8513553    0.3322389 -79.28  0.003298972    2.130    0.531
        69 -14.3641     18.1427    111.7160   8.4413239097e+01   5.1161784414e+01    0.7876866    0.5898046 -50.07  0.003424688    1.425    0.298
        70 -14.3129     11.4988    102.9724   8.5494976742e+01   5.3856633876e+01    0.8449624    0.6401495  81.60  0.005207147    1.215    0.177
        71 -14.7781     22.9451     94.8513   8.0331469261e+01   5.4972813612e+01      1.20684     1.054122  52.92  0.007691666    1.272    0.214
        72 -12.0318    121.7236    112.1246   5.2978871344e+01   3.5484606611e+01    0.2916117      0.26003  77.17 0.0008351746    1.189    0.159
        73 -11.8219     62.6876    110.6506   6.9858180315e+01   4.6412251782e+01    0.4789876    0.2706669  62.03    0.0020103    2.301    0.565
        74 -13.0676     29.6177     89.4654   7.6926417186e+01   5.5703626399e+01      0.89864     0.441561  68.08  0.003435544    3.362    0.703
        75 -11.1189     42.7308    106.5880   7.5557376735e+01   5.0017144192e+01    0.2270426    0.1413006  21.49  0.001105821    2.033    0.508
        76 -10.6314     46.3207    110.3139   7.5056331827e+01   4.8656700102e+01    0.1397751   0.09922933 -39.23 0.0007039235    1.654    0.396
        77 -12.4869    136.1808    102.9309   4.6876796576e+01   3.4349874578e+01    0.5575334    0.2910891  52.60  0.001886919    2.038    0.509
        78 -14.1124    104.9189    122.2439   5.9930741224e+01   3.6519541034e+01     1.324536    0.9154227  50.42  0.006259208    1.481    0.325
        79 -12.6015    120.8082    102.1006   5.0559663948e+01   3.7891874388e+01    0.3700089    0.2793056 -20.78  0.001676839    1.685    0.406
        80 -12.2382     61.8104     97.9288   6.7337568197e+01   4.9690697158e+01    0.4990209    0.3351375  86.78  0.001711967    1.926    0.481
        81 -12.0882     52.7671     97.4618   7.0313534175e+01   5.1059621842e+01    0.4664489      0.30411 -10.30  0.002023596    2.645    0.622
        82 -10.6311     48.5923    101.1983   7.2540416307e+01   5.0663799462e+01    0.2739677      0.21826 -72.41  0.001045991    1.123    0.109
        83 -12.2090     46.4872     98.5226   7.2709972638e+01   5.1592537438e+01    0.3149386    0.2366766 -56.89  0.001444992    1.206    0.171
        84 -11.9511    163.4389     97.4975   3.9210413598e+01   2.9194999147e+01     0.375193    0.2946758 -59.52 0.0009058463    1.383    0.277
        85 -12.8094    136.9465     94.8616   4.4419874122e+01   3.5852681934e+01    0.5179002    0.4106678  86.71  0.002068304    1.564    0.360
        86 -12.2123     49.0588     93.4315   7.0707698302e+01   5.2539753391e+01    0.3904607    0.2862581  87.79  0.002019163    1.524    0.344
        87 -11.4959     35.4206     86.4514   7.4141145217e+01   5.5862224454e+01    0.2558022     0.205563 -51.07  0.001485174    1.177    0.150
        88 -13.0328    188.2341     83.9959   3.0768188676e+01   2.5788879247e+01    0.6304598    0.3239767  44.29  0.002247267    2.213    0.548
        89 -13.1848    164.0801     71.5252   3.1506389864e+01   3.3753088790e+01     1.004998    0.4798731  48.83  0.003842779    2.203    0.546
        90 -13.1121    160.8829     80.7465   3.4920426910e+01   3.2911640983e+01    0.9426016    0.5816455  18.25    0.0031591    3.012    0.668
        91 -14.1535    169.3620     77.1041   3.2179404948e+01   3.1491176358e+01     1.289859    0.6498106  49.50  0.003570187    2.077    0.519
        92 -10.7775     97.7911     84.3959   5.1956358473e+01   4.6616454510e+01    0.2155209    0.1462808  31.81 0.0009487674    1.741    0.426
        93 -13.6625     92.1262     57.4649   4.4556120804e+01   5.3421017642e+01    0.5507159    0.4831803 -32.44  0.001607467    1.101    0.091
        94 -12.7141     69.6473     51.5015   5.0055122419e+01   5.9003720950e+01    0.5688252    0.3192879 -45.25  0.000527977    1.671    0.402
        95 -13.3076     64.3300     48.4936   5.0900899387e+01   6.0542944506e+01     1.757552    0.4622124 -41.24  0.005406471    3.731    0.732
        96 -13.7495     87.4097     65.2718   4.8948027419e+01   5.2820158832e+01     1.087554    0.6848012  17.06  0.003882106    2.661    0.624
        97 -13.0447     54.8324     81.1693   6.5574423025e+01   5.4768705394e+01    0.9040252    0.4750194 -60.10  0.003993823    1.761    0.432
        98 -14.2717     61.3912     75.5685   6.1538905803e+01   5.5136229939e+01      1.79524     1.133281 -78.36  0.006172274    2.275    0.560
        99 -13.2661     70.8977     75.3491   5.8012560764e+01   5.3658792498e+01     0.555257    0.4099444 -10.97  0.001109144    1.882    0.469
       100 -12.1832     77.1464     73.1092   5.5099686330e+01   5.3076676484e+01    0.5652283    0.3240466 -30.97  0.001947668    2.237    0.553
       101 -12.4740    216.3925     80.7453   2.5553776375e+01   1.9895855398e+01    0.4146704     0.314766 -54.73  0.001747772    1.347    0.257
       102 -12.4553    210.3383     76.8897   2.5396845619e+01   2.1831162601e+01    0.5083335    0.3096446 -58.25   0.00228029    1.927    0.481
       103 -12.0087    113.9937     79.9438   4.5848794597e+01   4.4136838960e+01    0.4532823    0.3464763 -47.98  0.001698357    1.267    0.211
       104 -12.1910    237.0009     80.0092   2.2689243071e+01   1.5640907383e+01     0.268318    0.1794465  74.41  0.001392748    1.917    0.478
       105 -12.5154    135.3854     79.2659   4.0102914380e+01   3.9342417411e+01    0.7327495    0.3706423  56.73   0.00278273    2.150    0.535
       106 -10.9852     42.5239     79.4793   6.9798312069e+01   5.6771890351e+01     0.273983    0.1710423 -44.09  0.001024253    1.565    0.361
       107 -11.1544     41.5336     75.9057   6.9266397687e+01   5.7754051872e+01    0.2948775     0.173643 -56.55 0.0008141994    1.455    0.313
       108 -12.9643     28.7493    246.0011   9.1932557085e+01   2.1144429656e+01    0.4006717    0.2279664  71.38  0.002728561    1.459    0.315
       109 -14.2134      5.3415     63.3501   8.1647081653e+01   6.3979041630e+01    0.6787232    0.6448079 -43.50  0.004541621    1.203    0.169
       110 -11.1073     27.3390     76.0061   7.4980753317e+01   5.9241214672e+01    0.2434727    0.1743565  63.48  0.001329658    1.668    0.400
       111 -10.2145     98.2923     75.2847   4.8911125177e+01   4.8496498377e+01    0.1474882     0.120461  -4.46 0.0006956512    1.538    0.350
       112 -13.4427    199.3432     69.8981   2.5094876972e+01   2.5441841703e+01    0.7454664    0.4476563  45.78  0.002530931    1.898    0.473
       113 -12.5551    134.7509     65.9603   3.5930726046e+01   4.1997981888e+01    0.6330387    0.4876029  26.32  0.002223838    1.572    0.364
       114 -12.0666     39.4451     67.7588   6.7882112214e+01   5.9941469578e+01    0.3421499    0.2158344  38.43  0.001705242    1.795    0.443
       115 -11.7769    158.7083     64.3154   3.0295938133e+01   3.6315933722e+01    0.5057037    0.2195301 -48.71  0.001750271    2.562    0.610
       116 -11.6013     99.9940     65.0816   4.4901492895e+01   5.0243360329e+01    0.2365175    0.2288346 -47.29 0.0009411896    1.022    0.021
       117 -10.9270    117.5191     72.0764   4.2315402324e+01   4.4938959115e+01    0.2328144    0.2119785  53.76 0.0007150403    1.135    0.119
       118 -12.9520     78.9435     60.2228   5.0003192402e+01   5.5513066895e+01    0.6246349    0.4635168 -42.64  0.003099906    1.263    0.208
       119 -12.6586     35.6294     57.2403   6.6342443339e+01   6.2818564451e+01    0.8018199    0.2171008 -50.26  0.002868221    2.935    0.659
       120 -11.9917    111.2701     58.7272   3.9349269940e+01   4.8936644788e+01    0.2785496    0.2471735 -24.72 0.0003429591    1.142    0.124
       121 -14.5038    120.1234     54.8951   3.5610284862e+01   4.7526145182e+01     1.031629    0.6901249  48.19  0.004705117    1.525    0.344
       122 -11.4671     17.5883     55.5173   7.4162834870e+01   6.4979749334e+01    0.3287643    0.1799826 -60.56  0.001710846    1.493    0.330
       123 -13.6262    103.1833     50.3142   3.8448761776e+01   5.2313747239e+01    0.9815801    0.5698892 -54.81  0.001357616    2.138    0.532
       124 -13.0233     97.7155     49.9911   3.9931719090e+01   5.3602933853e+01    0.5744038    0.3406287 -42.85  0.001621157    1.654    0.396
       125 -12.3259    135.9198     50.6293   3.0363101969e+01   4.4326843879e+01    0.4979737    0.3946581 -22.91  0.001852234    1.325    0.246
       126 -13.5008    177.8594     57.4216   2.4778774968e+01   3.2595895091e+01    0.8910844     0.556471 -45.18  0.002752612    1.527    0.345
       127 -11.7782    152.0044     47.0000   2.5876824386e+01   4.0773206710e+01    0.2891994    0.2155037  62.88 0.0009038342    1.356    0.262
       128 -12.8445    158.3581     43.1945   2.3467424531e+01   3.9684829246e+01    0.6332189    0.4892668  40.32  0.002718832    1.436    0.304
       129 -11.2492     29.5880     46.9687   6.5700058167e+01   6.5781840640e+01    0.2268085     0.183526 -40.46 0.0006998501    1.078    0.072
       130 -11.8463     24.7747     59.1744   7.1835044432e+01   6.3502101096e+01    0.3923583    0.2117621 -56.35   0.00198385    1.515    0.340
       131 -13.2011      6.3911     43.0095   7.6292614649e+01   6.8646275025e+01     0.839392    0.3750082  19.09  0.004200427    2.646    0.622
       132 -14.1383    171.1486    242.1740   6.5804468721e+01   3.0790524881e+00    0.8088838    0.5140117  29.04  0.005331365    1.289    0.224
       133 -12.8015    147.5216    238.8436   6.9625560270e+01   6.8923997661e+00    0.2159978     0.161964  46.40 0.0009432847    1.223    0.183
       134 -13.8481     26.5536    225.9658   9.1383087592e+01   2.4898912775e+01    0.6593422    0.3557578 -58.12  0.004021065    2.486    0.598
       135 -14.0178    212.3025     41.1273   1.5511092831e+01   2.6453176034e+01     2.023006    0.6873681  77.93  0.006309884    4.560    0.781
       136 -13.9552     20.8134    223.9645   9.2359330692e+01   2.5864034800e+01    0.5966932    0.4312031  47.90  0.003672597    1.246    0.198
       137 -12.3303    109.8629     41.9528   3.3300165848e+01   5.2147610896e+01    0.4470467    0.2163477  55.92 0.0007045658    2.091    0.522
       138 -12.7070     23.4604    216.2737   9.1481158878e+01   2.7037600852e+01    0.6729603    0.2941271  49.04  0.003941264    1.712    0.416
       139 -12.9461    113.6664     37.9016   3.0703364792e+01   5.1849865683e+01    0.4124096    0.3571555 -40.10    0.0012987    1.156    0.135
       140 -12.7951    131.3555     33.4899   2.5009267995e+01   4.8030855041e+01     0.519968    0.4145445   7.39  0.001450858    1.474    0.321
       141 -12.0260     40.5519     40.3519   5.7842138429e+01   6.5847974627e+01    0.5106008    0.2841022  32.99  0.002534628    1.996    0.499
       142 -12.5792     32.9376     40.0411   6.1423879741e+01   6.6878598965e+01    0.3078667    0.2539929 -20.49 0.0006224771    1.193    0.162
       143 -12.5664     75.8591     36.9614   4.1594520777e+01   6.0503358368e+01    0.4597021      0.31376  38.40  0.001380755    1.524    0.344
       144 -11.7822     70.9561     36.2241   4.3048078059e+01   6.1596132773e+01    0.3016056    0.2658596  49.83 0.0009798531    1.255    0.203
       145 -12.7054    242.2356     35.9990   1.1366987536e+01   2.0383092367e+01    0.4960014    0.2885232  80.78  0.002043235    1.972    0.493
       146 -11.1238    104.4908     36.9919   3.2700064292e+01   5.4196387477e+01    0.2297215     0.141692 -32.00  0.001034854    1.597    0.374
       147 -12.9629     44.1033     33.4818   5.3118459038e+01   6.6688787730e+01    0.8766688     0.469545  33.85  0.004262875    2.051    0.512
       148 -12.9518     57.5123    203.2617   8.3698840159e+01   2.5694161743e+01     0.787702    0.3410593  79.52  0.003257476    3.451    0.710
       149 -13.8708     65.5689    223.2859   8.3712317253e+01   2.0848003878e+01    0.9762611    0.5695871  54.67  0.006028263    1.390    0.280
       150 -11.5629    248.8572    225.2954   5.0521661718e+01  -5.4322159562e+00    0.1588045    0.1213927  28.60  0.001205493    1.422    0.297
       151 -13.5372     57.5541     26.7816   4.3817637273e+01   6.5669164838e+01     1.027117    0.3760714  41.55  0.003446906    2.880    0.653
       152 -12.6535    120.3135     26.2199   2.4438334042e+01   5.1800532765e+01     0.580042    0.4275779  47.69  0.002540859    1.342    0.255
       153 -12.1476     30.5644     25.4661   5.6127678396e+01   7.0037914846e+01    0.3106635    0.2162471  13.59  0.001787017    1.612    0.380
       154 -12.2750     35.6122     23.4360   5.2405680236e+01   6.9734843868e+01    0.2976371    0.2442804  -6.43   0.00104291    1.173    0.148
       155 -13.9682     64.5261    214.3012   8.3184648727e+01   2.2651244722e+01     0.492526    0.2993258  49.61  0.002970679    1.325    0.245
       156 -12.6552     94.0468    218.1270   7.7568799692e+01   1.7949284599e+01     0.249228    0.1719933  43.67  0.001495576    1.208    0.172
       157 -11.9897    248.9297    215.8025   4.8989263247e+01  -4.4525063837e+00    0.1801293    0.1430818 -44.52  0.001258878    2.131    0.531
       158 -13.2265     59.6263    212.6705   8.4046168736e+01   2.3584348552e+01    0.3973098    0.3059552 -18.48  0.002170439    2.378    0.580
       159 -12.3367    223.5550     20.7861   9.0645883108e+00   2.6284256445e+01    0.2656955     0.209085  54.26   0.00120601    1.502    0.334
       160 -11.9173     49.2562     20.1819   4.3980787357e+01   6.8165339841e+01    0.5987543    0.1735263  46.69  0.002126382    3.858    0.741
       161 -11.6410     70.9295     16.5270   3.3336859948e+01   6.4571117582e+01    0.2573753    0.2168859 -24.73 0.0007192044    1.166    0.142
       162 -12.1895    238.3344    213.1596   5.0194177738e+01  -2.7805112745e+00    0.2182412   0.08941798 -24.30   0.00109983    2.593    0.614
       163 -13.2977    217.4321     28.7277   1.1665699289e+01   2.6784780590e+01    0.4682836    0.3004132 -65.89  0.002411881    1.569    0.362
       164 -11.7878    175.9652     13.9008   1.1471429699e+01   3.8692520249e+01    0.2082479    0.1864447 -65.63 0.0003016932    1.028    0.027
       165 -12.3193      4.4658    212.2889   9.4947207331e+01   2.9656439655e+01    0.3671753    0.1821438 -76.02  0.002299034    1.941    0.485
       166 -10.7432    136.6120    210.8154   6.8128288596e+01   1.2829448555e+01    0.1565499    0.1193289 -71.41  0.000946136    1.696    0.410
       167 -13.2665     72.3614    207.2375   8.0936475918e+01   2.2980357466e+01    0.4243088    0.2634268 -78.55  0.002387103    1.716    0.417
       168 -13.5771     15.4651    198.7681   9.2171377493e+01   3.1297924489e+01    0.9282348    0.2962452 -57.56  0.003948019    4.219    0.763
       169 -14.2093     39.9902    195.8364   8.6833246917e+01   2.9312529076e+01    0.7921176    0.3493138  53.30  0.004106967    1.908    0.476
       170 -14.2535     29.9509    169.2818   8.7013048617e+01   3.6186409986e+01    0.8909873    0.7923254  10.73  0.006027482    1.576    0.366
       171 -13.4387     22.3014    180.7272   8.9639598295e+01   3.4426943419e+01    0.5627623    0.3286695 -77.21  0.002591467    1.553    0.356
       172 -15.6563      7.7525    181.6111   9.2912140996e+01   3.5607682556e+01      2.13375     1.039736 -83.16   0.01215892    1.756    0.431
       173 -14.5983     14.7120    174.5112   9.0953307815e+01   3.6522056442e+01     1.180859    0.4431584  55.75  0.005702793    2.302    0.566
       174 -12.1071    249.6144    198.8133   4.6019678058e+01  -2.6679194296e+00    0.2606512    0.1958269 -35.54  0.001795689    1.667    0.400
       175 -12.1491    164.2624    195.5169   6.0347112966e+01   1.0877438885e+01    0.2519236    0.1622382 -59.81   0.00130129    2.201    0.546
       176 -11.9318    135.1414     39.2990   2.6418544422e+01   4.6247971440e+01    0.4677943    0.2932195  71.47  0.001434552    1.752    0.429
       177 -11.2545    200.8612    191.5079   5.2784728254e+01   5.4832302261e+00     0.245866    0.1934736  25.50  0.001121201    1.131    0.116
