#   1 NUMBER                 Running object number                                     
#   2 MAG_AUTO               Kron-like elliptical aperture magnitude                    [mag]
#   3 X_IMAGE                Object position along x                                    [pixel]
#   4 Y_IMAGE                Object position along y                                    [pixel]
#   5 X_WORLD                Barycenter position along world x axis                     [deg]
#   6 Y_WORLD                Barycenter position along world y axis                     [deg]
#   7 A_WORLD                Profile RMS along major axis (world units)                 [deg]
#   8 B_WORLD                Profile RMS along minor axis (world units)                 [deg]
#   9 THETA_WORLD            Position angle (CCW/world-x)                               [deg]
#  10 FWHM_WORLD             FWHM assuming a gaussian core                              [deg]
#  11 ELONGATION             A_IMAGE/B_IMAGE                                           
#  12 ELLIPTICITY            1 - B_IMAGE/A_IMAGE                                       
         1 -11.0649    169.7894     26.6406   4.4427843091e+01   3.9319061362e+01    0.5022855    0.3713828  50.35  0.001438629    1.367    0.269
         2  -9.6810     44.6771     17.9006   7.4092432447e+01   6.7480464806e+01    0.4030172    0.2429591  13.70  0.001722496    1.721    0.419
         3  -9.7238     51.8886     25.8470   7.4671476719e+01   6.5307873330e+01    0.5056632    0.3395489 -29.51  0.002970253    1.407    0.289
         4 -10.5604     51.5603     17.8165   7.1090082867e+01   6.6446655757e+01    0.7992213    0.3356652 -39.11  0.003692938    2.642    0.622
         5 -10.7453     25.6546      9.9885   7.9301743985e+01   7.1051188398e+01    0.7309355    0.5653669  54.94  0.004420614    2.612    0.617
         6 -11.2438     15.1915     15.6842   8.7724931220e+01   7.1324545102e+01     1.062054    0.3716424 -48.12   0.00485856    3.032    0.670
         7 -10.3303     23.3060     17.7243   8.4336879966e+01   7.0207266560e+01    0.5047979    0.2255886  30.76  0.002687385    2.317    0.568
         8  -9.7857     33.3636     12.7294   7.6812536727e+01   6.9728902458e+01     0.311755    0.1731642  29.46 0.0008150552    1.718    0.418
         9 -10.3330    248.9990     17.8891   3.4025213291e+01   2.1955229508e+01     0.573707    0.2637814 -57.31  0.002944843    1.931    0.482
        10  -9.5505    217.1759     24.3006   3.8142572990e+01   2.8147156222e+01    0.4935247    0.2541146 -50.29  0.001859194    1.782    0.439
        11 -10.7139    133.2183     18.2864   4.7838096398e+01   4.9306083670e+01    0.9025661    0.3455736  49.58  0.002279412    2.315    0.568
        12 -10.8592    141.2603     12.9002   4.4628938677e+01   4.7864067136e+01    0.3534918    0.3363641  61.49 0.0004394469    1.075    0.070
        13 -10.2609     40.8335     13.8837   7.3862652260e+01   6.8560707679e+01    0.7464209    0.3929035   4.02  0.001994756    2.677    0.627
        14  -9.2118    211.4814     19.0251   3.7447100357e+01   3.0077469104e+01    0.3146097    0.2230151 -43.16  0.001295367    1.360    0.265
        15 -10.2898    204.7736     12.5444   3.6533224064e+01   3.2360040271e+01    0.3870543    0.2446388 -57.67 0.0007525753    1.487    0.327
        16  -9.1615    209.2911     11.4506   3.5849507954e+01   3.1420758101e+01    0.2978204    0.1786491 -79.74 0.0009742948    1.630    0.387
        17 -11.1336     87.8663     16.1651   5.7617551661e+01   5.9913788609e+01    0.4752225    0.4287761 -79.47  0.001581472    1.505    0.336
        18  -9.5133     91.5222     12.9369   5.5233466478e+01   5.9465952384e+01    0.3381186    0.1984529  26.09  0.001339158    1.806    0.446
        19  -9.2910     70.8596     20.0632   6.4742005436e+01   6.2846889050e+01    0.3061756    0.2175327 -42.54  0.001278172    1.782    0.439
        20  -9.8940    196.8118     18.1347   3.8727873136e+01   3.3644819276e+01    0.5718985    0.2331095 -55.95  0.001895936    2.807    0.644
        21  -8.9119    192.9904     13.2121   3.7881814595e+01   3.5093564107e+01    0.3526194    0.2173763  46.92   0.00150395    1.890    0.471
        22 -10.5072     65.2908     15.8554   6.4810559846e+01   6.4360080017e+01    0.6632986    0.3579539  -1.91  0.002396185    2.468    0.595
        23  -9.9283     60.8802     12.4233   6.4821084460e+01   6.5533378871e+01    0.3360394    0.3054537  36.39  0.001341079    1.328    0.247
        24 -12.1689     65.3235      6.1730   6.0223794813e+01   6.5374770983e+01    0.7537574    0.2708246  45.01  0.003401035    2.336    0.572
        25  -9.5188     77.9943      2.8398   5.4638807095e+01   6.3205014495e+01    0.2437163    0.1782332  21.21 0.0003548603    1.244    0.196
        26  -8.7780    184.8720     16.8817   3.9742317022e+01   3.6674919625e+01    0.3386256    0.2127002 -84.74  0.001724025    1.648    0.393
        27  -9.7060    157.0161     15.5362   4.3008246828e+01   4.3705740427e+01    0.3836544    0.3427526 -16.22  0.002356268    1.294    0.227
        28  -8.4248    121.3319     13.6937   4.8536816205e+01   5.2621465443e+01    0.2892447    0.1480361 -53.10  0.001208007    2.862    0.651
        29  -9.2157    122.6924     10.4535   4.7105442628e+01   5.2596226860e+01    0.3804532    0.1708357  50.55  0.001422251    1.893    0.472
        30 -10.1629    113.1052      3.8529   4.6570789075e+01   5.5417254768e+01    0.5221047    0.3734736  40.94  0.002568732    1.266    0.210
        31 -11.1073    113.1152     12.2173   4.9707451027e+01   5.4694251163e+01    0.3173873    0.2448786  30.86 0.0003181972    1.262    0.208
        32  -9.2523    230.8935     11.4749   3.4037175066e+01   2.6538780497e+01    0.4444792    0.1726536  67.17  0.002092425    2.406    0.584
        33  -9.5263    234.3458      1.3675   3.1629306825e+01   2.6868109587e+01    0.2002549    0.1012842  80.78 0.0003303636    1.812    0.448
        34 -10.7868    234.7037      6.3641   3.2656798198e+01   2.6266236160e+01    0.6279039    0.2970539 -83.60  0.001051179    2.193    0.544
        35  -9.8857    238.1289     12.8154   3.3772760471e+01   2.4823232724e+01    0.3936732    0.2285165 -88.70  0.002127377    1.636    0.389
        36 -11.8869    101.3243     13.3065   5.2848790883e+01   5.7283907319e+01    0.3540497    0.2840866 -30.75  0.002124622    1.403    0.287
        37  -8.9843    103.9511      8.0216   5.0129636116e+01   5.7175696786e+01    0.2728044    0.1825696  77.10 0.0008398673    1.787    0.440
        38 -10.0271     94.0915      4.9867   5.1247406447e+01   5.9628338625e+01    0.5462009    0.2650642  62.58  0.002591495    2.019    0.505
        39  -8.3991     87.6491      6.6887   5.3632600170e+01   6.0870660032e+01    0.2854664    0.1191821  38.86  0.000878901    2.233    0.552
        40  -9.4946     80.6795     12.0041   5.7944791985e+01   6.1819037556e+01    0.3786593     0.287583 -84.13  0.002041955    2.273    0.560
        41  -9.1353     84.1886      9.9026   5.5987646895e+01   6.1303709786e+01    0.2661603    0.2129681 -14.31 0.0009344941    1.309    0.236
        42 -10.6188      6.7311      7.7854   8.8760526568e+01   7.3262752272e+01    0.6781344    0.2568803 -45.32  0.003530783    2.425    0.588
        43  -9.4460    248.5359      1.9257   3.0829034317e+01   2.3829342512e+01    0.3199302    0.1743388  88.26 0.0003516797    1.691    0.409
        44 -10.0124    249.9601      7.7712   3.1904948303e+01   2.2906029544e+01    0.3951729    0.1756488 -58.41 0.0009584186    1.963    0.490
        45  -9.2970    243.5089      4.5179   3.1670275361e+01   2.4594446599e+01    0.2455961    0.1714141 -59.26  0.001605373    1.164    0.141
        46  -9.3326    241.7860      1.6056   3.1188955579e+01   2.5263460833e+01    0.2536573    0.1251461  86.27 0.0007449955    1.903    0.475
        47  -9.9124    183.3404      9.1838   3.7869595183e+01   3.7839757737e+01    0.3822266    0.2837823  79.64  0.001277293    1.187    0.158
        48 -11.1723    186.4351      3.6370   3.6096104910e+01   3.7623147650e+01    0.3005819    0.2433525 -37.81 0.0008405931    1.345    0.256
        49  -9.0489    182.0495      3.7250   3.6565565353e+01   3.8674648253e+01    0.2358173    0.1884152 -17.33 0.0008581392    1.541    0.351
        50  -9.4074    134.4165     10.2940   4.4917046675e+01   4.9781243836e+01    0.2888133    0.2390153  32.67  0.001102557    1.256    0.204
        51  -9.9501    149.6484      3.3246   4.0325706658e+01   4.6652160078e+01    0.5445482    0.3179688  12.71  0.002576519    2.544    0.607
        52  -8.4503    144.7483      5.8032   4.1800467323e+01   4.7646459861e+01    0.2314842    0.1426046 -89.47 0.0006011171    1.817    0.450
        53  -8.9797    128.3585      9.2496   4.5625308733e+01   5.1343635567e+01    0.1844222    0.1472401  52.51 0.0005821862    1.101    0.092
        54 -10.3709     32.3303      6.1935   7.3936328011e+01   7.0695646563e+01    0.2523333    0.1900401  -4.69 0.0005587455    1.059    0.056
        55  -9.9561    223.8775      5.8016   3.3335954160e+01   2.8697414520e+01    0.3162502    0.1871185 -54.74  0.001032045    1.484    0.326
        56  -8.7844    195.7998      5.1495   3.5570110709e+01   3.5237184050e+01    0.2092736      0.14763 -71.94 0.0009073038    1.311    0.237
        57  -8.5937    168.6878      5.0203   3.8397393698e+01   4.1818849698e+01    0.1731011    0.1597336 -82.91 0.0004732755    1.092    0.084
        58  -8.9414    217.9968      3.2084   3.3211949204e+01   3.0282169432e+01    0.1964594    0.1595239 -53.39 0.0004635397    1.185    0.156
        59  -8.4217    121.6393      3.5591   4.4838624979e+01   5.3430816918e+01    0.1941966    0.1593714  18.72 0.0008851411    1.313    0.239
        60  -9.3055     14.7144      3.1076   8.1640602971e+01   7.3181566649e+01     0.211714    0.1413005  -1.22 0.0008647877    1.244    0.196
        61  -8.8757      1.4375      2.8266   8.9485859257e+01   7.4414744292e+01    0.2579062   0.07984114 -42.33  0.001283923    2.580    0.612
        62  -9.5657    203.1082      3.1049   3.4410447666e+01   3.3713873938e+01     0.359022    0.1621592  76.10   0.00119293    1.986    0.496
        63  -8.5780    138.4768      6.5256   4.2995127765e+01   4.9121656848e+01     0.238091    0.1424765  17.08  0.001134878    2.287    0.563
        64  -8.1797     81.9594      2.3014   5.3270051072e+01   6.2435528214e+01    0.1712642    0.1388027  32.75 0.0005414494    1.021    0.021
        65  -8.6150     33.9987      1.4847   7.0578666861e+01   7.1009897550e+01     0.160696   0.09857458  32.26 0.0003632415    1.491    0.329
        66  -7.9852     37.8330      2.8705   6.9534638614e+01   7.0305729279e+01    0.1432134    0.1253523  -1.67 0.0008856537    1.304    0.233
        67  -8.2263    135.5013     83.0233   6.8582058357e+01   3.9080860681e+01    0.2312068    0.1515779 -41.24 0.0006398932    1.521    0.343
        68  -9.1639     63.9925     82.4288   9.0533578863e+01   5.3042628707e+01    0.2831154    0.2241503 -57.09  0.000858923    1.291    0.225
        69  -7.9120    146.2673     82.6848   6.5832359845e+01   3.6611944614e+01    0.1536165    0.1211532 -71.71 0.0001926262    1.550    0.355
        70 -10.2797    245.3728     78.0803   4.7425741633e+01   1.4468898905e+01     0.559759     0.298943 -84.64  0.001899729    3.690    0.729
        71  -8.5870    174.1782     78.7038   5.8647857001e+01   3.0576623629e+01    0.2617967    0.1980914 -48.52 0.0006453323    1.315    0.240
        72  -8.9445    151.8967     78.0961   6.3159481451e+01   3.6112626803e+01    0.2200536    0.2160029 -87.61 0.0002672227    1.025    0.025
        73  -9.1596     31.8163     77.1249   1.0114782361e+02   5.8004306448e+01    0.3112309    0.1860287   4.90  0.001402144    2.096    0.523
        74  -9.4066     72.4625     73.2914   8.4711496619e+01   5.3720334532e+01    0.3838083    0.2243031 -52.56  0.001745682    1.790    0.441
        75  -9.9437    233.8739     74.7987   4.8117493092e+01   1.7375799027e+01    0.3326383    0.2217228 -82.30  0.001403175    1.873    0.466
        76  -8.9181    147.7760     73.7822   6.2800025409e+01   3.7887147348e+01    0.4067779    0.1979585 -41.65  0.001565989    2.059    0.514
        77  -7.7699     50.4502     75.4160   9.3505549412e+01   5.6386343401e+01    0.1338553    0.1206986 -38.29 0.0001211698    1.068    0.064
        78  -9.5007     19.0482     73.7188   1.0532033942e+02   5.9812575681e+01    0.3685292    0.2890126  74.64  0.001905408    1.719    0.418
        79 -11.0470    245.1730     71.4343   4.5959638759e+01   1.5528092097e+01    0.7953072    0.4628756 -78.50  0.002226647    2.439    0.590
        80 -10.4800    236.0307     67.0483   4.6052990893e+01   1.8106264071e+01    0.4863248    0.3146481 -32.77  0.002300619    1.516    0.340
        81  -9.8207    234.7201     61.9978   4.5045421631e+01   1.9143212458e+01    0.3761744    0.2876279  18.23  0.001152196    2.024    0.506
        82  -8.2925    218.8134     74.0168   4.9963943668e+01   2.0803103379e+01      0.36735    0.1853701  81.88  0.001304966    3.479    0.713
        83  -7.8718    169.6681     74.2866   5.8283036977e+01   3.2448745641e+01    0.1551666    0.1167629 -76.45 0.0004058199    1.620    0.383
        84  -8.3821    189.0482     73.4646   5.4474253323e+01   2.7860470048e+01    0.2120075    0.1444167  59.14  0.000508357    1.490    0.329
        85  -8.1004     64.1421     73.6665   8.7845564377e+01   5.4918124127e+01     0.186113     0.125886  15.64 0.0004703821    1.710    0.415
        86  -8.5158    160.8814     71.2611   5.9184034334e+01   3.5128406231e+01    0.2617906     0.195433 -52.72 0.0006382095    1.407    0.289
        87 -11.1681    129.3293     70.8679   6.6376968709e+01   4.2793484811e+01    0.5337187    0.2959603  36.49 0.0004757326    2.054    0.513
        88  -9.9095    113.6424     70.3611   7.0469731003e+01   4.6425289828e+01    0.4242609    0.3698783 -64.11  0.002191806    1.340    0.254
        89  -8.9012     59.4957     71.0274   8.8749075088e+01   5.6138936320e+01    0.3628567    0.1232174 -48.72  0.001339797    2.654    0.623
        90  -9.6821     28.9120     71.5623   1.0086288943e+02   5.9502130993e+01    0.2267163    0.1709193 -52.54  0.000305364    1.147    0.128
        91  -8.7465    211.6497     70.1855   5.0041838982e+01   2.3045173878e+01    0.2469287    0.1984483 -55.99 0.0006192076    1.166    0.143
        92  -7.7852    152.5320     71.5008   6.1040229079e+01   3.7133472223e+01    0.1510358    0.1474351 -86.16 1.454109e-05    1.030    0.029
        93  -9.7636     37.3458     71.0670   9.7364357864e+01   5.8808828391e+01    0.2109566    0.1829504  -0.72 0.0003157016    1.219    0.180
        94  -8.5894    191.5889     69.8056   5.3060359432e+01   2.7849198769e+01    0.2378375    0.1851349  47.66 0.0004671353    1.378    0.274
        95  -8.9626    204.1714     68.7432   5.0784596496e+01   2.5017711790e+01    0.2378447    0.1801372 -52.54 0.0003751152    1.256    0.204
        96  -9.1073    168.7696     68.1881   5.6705103285e+01   3.3702551834e+01    0.2772231     0.226972 -89.39 0.0007677588    1.353    0.261
        97  -8.9162    173.1331     66.7015   5.5449303475e+01   3.2869789010e+01    0.4086719    0.2602378 -35.74  0.001603603    1.577    0.366
        98  -8.7291    140.9676     69.2414   6.2986251181e+01   4.0330560737e+01    0.3046847    0.1505988  55.75 0.0009128332    2.062    0.515
        99 -10.0315     95.3742     66.1207   7.4557589235e+01   5.1023447504e+01    0.2510968    0.2321002  26.93 0.0003721478    1.086    0.080
       100 -10.6181    100.8718     62.7455   7.1677224671e+01   5.0531493283e+01     0.642545    0.4793509 -41.14  0.003249182    1.367    0.268
       101  -8.2267    221.9986     67.7994   4.8013809981e+01   2.1064071720e+01    0.1836652     0.166758 -79.06 0.0003323426    1.078    0.073
       102 -10.3727    149.2942     66.9021   6.0354443995e+01   3.8714468736e+01    0.2976378    0.2751787  50.37 0.0004848911    1.064    0.060
       103  -8.8563      3.5147     66.0134   1.0983827815e+02   6.2459640441e+01    0.3835386    0.1669291 -62.05  0.001967334    1.780    0.438
       104  -9.2039     38.5116     66.8878   9.5694346648e+01   5.9587269061e+01    0.4140477    0.1682831  18.01  0.001648233    3.306    0.697
       105 -11.0957     48.9228     65.5038   9.1094248155e+01   5.8684962959e+01    0.3141763    0.2528055   8.67 -0.0003637504    1.294    0.227
       106  -9.7014     15.2325     66.1106   1.0504279532e+02   6.1756472030e+01    0.2429536    0.1753293 -15.31 0.0004311789    1.460    0.315
       107  -9.2958     19.3964     63.7652   1.0271279558e+02   6.1969645598e+01    0.3295816    0.1405983 -54.38  0.001597097    1.833    0.454
       108  -9.0481    248.9012     65.0163   4.4111015444e+01   1.5725257729e+01      0.34429    0.1133737 -51.14    0.0012432    3.229    0.690
       109  -9.0535    228.0753     64.7155   4.6489445249e+01   2.0184870208e+01    0.1853233    0.1708626 -66.72 0.0004574246    1.066    0.062
       110  -9.6178    144.0343     63.9069   6.0603172217e+01   4.0500475892e+01    0.3680174    0.2724745 -63.96  0.001128778    1.643    0.391
       111  -8.1235     89.0629     65.5070   7.6395660660e+01   5.2360619924e+01    0.2095783    0.1402857  38.90 0.0004853365    1.510    0.338
       112  -7.9389    208.5032     64.5544   4.9077464392e+01   2.4657824793e+01    0.1416159    0.1296093 -66.28 4.039647e-05    1.007    0.007
       113  -7.9694    201.9389     64.0344   4.9905572687e+01   2.6285935484e+01    0.1700638    0.1564626 -70.75  0.000464615    1.012    0.012
       114  -8.6189    126.7889     63.9108   6.4775778539e+01   4.4611020500e+01    0.2410312    0.1951067  72.95 0.0008365908    1.446    0.308
       115  -9.4505    134.5667     59.0416   6.1251489496e+01   4.3587942374e+01    0.4934112    0.2474138 -48.72  0.001902315    2.360    0.576
       116 -10.0475     39.1140     60.4643   9.3481533918e+01   6.0864976966e+01    0.4181701    0.2954457  62.62  0.001234523    2.468    0.595
       117  -9.7716     34.3235     59.9316   9.5320009218e+01   6.1476126272e+01    0.2632267    0.2144155 -41.02  0.000644186    1.083    0.077
       118  -8.9027     81.9115     61.9673   7.7581099163e+01   5.4348231001e+01    0.3771978    0.2219909  23.10  0.001642472    2.090    0.521
       119  -7.9259      1.0000     61.8760   1.0998319212e+02   6.3478607228e+01    0.1984974   0.05470797 -65.02 0.0007961834    2.899    0.655
       120 -10.7979    243.9476     58.6104   4.3233237921e+01   1.7680586042e+01    0.3569227    0.3036686 -75.21 0.0005093159    1.120    0.107
       121  -9.1322    249.2892     59.0395   4.2757759877e+01   1.6515855622e+01    0.2594187    0.1783228 -60.25 0.0008120958    1.334    0.250
       122  -8.0297     59.9449     61.7445   8.5537972488e+01   5.7966717480e+01    0.1743496     0.115211  28.37 0.0008717361    1.587    0.370
       123  -9.0876     28.3806     54.2845   9.6103560072e+01   6.3202123494e+01    0.3976457    0.1418398 -38.76   0.00137517    2.600    0.615
       124  -9.9768     24.5269     58.9597   9.9200023572e+01   6.2582008660e+01    0.3341951    0.2670357 -46.50  0.002153079    1.107    0.097
       125  -8.4549    185.5573     60.4869   5.1529795376e+01   3.0796411426e+01    0.2716267    0.1183209  49.52 0.0007313025    2.408    0.585
       126  -9.6508    174.3331     57.8193   5.2692277436e+01   3.3979438214e+01    0.5580324    0.3633454 -25.96   0.00183867    1.723    0.420
       127  -9.5289    158.8943     57.8946   5.5595391910e+01   3.7809381995e+01    0.4439121    0.2813247  89.73  0.001800241    2.330    0.571
       128  -8.3422    149.5321     59.0034   5.7858958727e+01   3.9953150005e+01    0.2184323     0.187809  62.29 -3.019947e-05    1.143    0.125
       129  -7.7016    229.2908     58.7055   4.4924759876e+01   2.0812282702e+01    0.1392522   0.09121449 -63.89 0.0002039918    1.553    0.356
       130 -10.3665    192.0147     56.0664   4.9305169743e+01   2.9889030208e+01     0.612094    0.3209442 -65.74  0.002302671    2.800    0.643
       131  -9.0964    184.8343     51.2087   4.9093149316e+01   3.2363335138e+01    0.3185377    0.2822682 -78.22  0.001236435    1.087    0.080
       132  -8.8648    196.2385     52.9964   4.7859061097e+01   2.9316427341e+01    0.2267219     0.171335 -68.79 0.0003000088    1.357    0.263
       133 -10.3838    192.9040     48.9496   4.7268045836e+01   3.0708187134e+01    0.4643116    0.3183484  73.50  0.001046601    1.461    0.315
       134  -9.2555    197.5226     48.5193   4.6498725904e+01   2.9648218648e+01    0.3909986    0.2405585 -80.72  0.001741146    2.018    0.505
       135  -9.7335     63.0670     55.8769   8.2277884994e+01   5.8631153028e+01    0.4242524    0.3315577  88.69  0.001911956    2.385    0.581
       136  -8.3746     54.9687     58.4610   8.6357086398e+01   5.9313138776e+01    0.1796381    0.1282593  22.74 -4.78138e-05    1.459    0.315
       137  -8.5548    235.3293     56.9392   4.3811573434e+01   1.9752242515e+01    0.3187769    0.1475139 -61.45  0.001275477    2.749    0.636
       138  -8.0618     89.7476     57.3141   7.3288041143e+01   5.3726492317e+01    0.1884429    0.1243802  34.74 0.0003047762    1.517    0.341
       139  -8.3328    121.0325     56.4754   6.3781368261e+01   4.7187572359e+01    0.2335182    0.1390133  48.26  0.001030978    1.613    0.380
       140  -9.7024    124.7924     54.2084   6.2043423987e+01   4.6678149386e+01    0.2939639    0.2270028   6.98 0.0006868569    1.545    0.353
       141  -9.0251    207.2135     48.1350   4.5098799036e+01   2.7385046328e+01    0.2426449    0.1925331 -28.93 0.0003942795    1.376    0.273
       142  -8.9837    207.7853     54.9673   4.6750295183e+01   2.6270125421e+01    0.2607628    0.2253528 -42.28 0.0009745158    1.151    0.132
       143  -9.2127    204.8882     51.8440   4.6348226790e+01   2.7409040695e+01    0.2209254    0.1940179 -44.50 0.0003877705    1.136    0.120
       144  -9.1099    142.6152     54.1092   5.7809839500e+01   4.2417498826e+01    0.3045337    0.2114802  38.21 0.0008204558    1.526    0.345
       145  -8.5475    220.9104     54.2142   4.4872444722e+01   2.3341818615e+01    0.2095196     0.161308 -66.76 0.0004309007    1.233    0.189
       146  -8.3608    128.6522     54.6759   6.1240371895e+01   4.5695759244e+01    0.2493794    0.1327747 -20.15 0.0009460786    2.524    0.604
       147  -9.6773    113.1523     54.8259   6.5332137184e+01   4.9243968200e+01    0.3872492    0.3213864  24.46  0.001212028    1.219    0.180
       148  -7.5965     57.2638     54.3118   8.3979800989e+01   5.9785165066e+01    0.1358815   0.09306552 -16.48 0.0002330938    1.537    0.350
       149 -10.3927      9.7925     52.8588   1.0395205502e+02   6.4917425378e+01    0.3068592    0.2811553  56.87  0.002200642    1.497    0.332
       150  -8.4275     14.2765     49.6207   1.0099039696e+02   6.5286244871e+01     0.182632    0.1309275 -45.60 0.0004102711    1.123    0.110
       151  -8.3997    241.3100     36.7815   3.8674085175e+01   2.1237040250e+01    0.3503466    0.2021368 -27.41  0.001461688    1.976    0.494
       152 -10.7635    244.5805     50.0999   4.1281700601e+01   1.8754037940e+01    0.6292687    0.3204885 -50.52  0.003130947    1.724    0.420
       153 -10.0627    246.7638     28.6241   3.6439264398e+01   2.1124582886e+01    0.5410304    0.3127091 -22.94  0.002790409    2.267    0.559
       154 -10.0487    237.3094     47.7362   4.1502960437e+01   2.0625863585e+01    0.5369927     0.267592 -28.00   0.00245128    2.278    0.561
       155 -11.0405    233.9378     45.0584   4.1248786495e+01   2.1724329318e+01    0.6227221    0.3487661 -44.58  0.002533148    1.553    0.356
       156  -9.8076    246.9744     44.4648   3.9814979863e+01   1.9026251495e+01    0.4739693    0.2197133  78.99  0.001811801    2.576    0.612
       157  -9.5714    250.0814     40.9592   3.8772222602e+01   1.8852512609e+01    0.2758761     0.238561  89.57 0.0008685089    1.193    0.162
       158 -10.5239    248.7632     36.5980   3.7960764612e+01   1.9696256882e+01     0.658304    0.4999271  34.90  0.003886319    2.017    0.504
       159  -8.1095    153.3044     52.6749   5.5112232611e+01   3.9996754925e+01    0.1514994    0.1118555 -70.21  0.000635611    1.643    0.391
       160  -9.3068     92.7216     48.6096   6.9131039763e+01   5.4602996607e+01    0.4610103    0.2659865 -52.02  0.001936953    2.383    0.580
       161  -8.8666     87.8586     46.8869   7.0047756307e+01   5.5847032733e+01    0.2960541    0.1768305  34.37 0.0008981209    1.680    0.405
       162  -9.0087     84.2589     51.1747   7.2864391807e+01   5.5836308461e+01    0.2496186    0.2197706  51.23 0.0006729758    1.322    0.244
       163 -10.0901     79.4920     50.5134   7.4254713415e+01   5.6833268478e+01    0.3582473    0.2706892   3.34 -0.0002111247    1.411    0.291
       164  -8.4091    210.7403     50.6643   4.5279018883e+01   2.6197506110e+01    0.1952036    0.1747959 -87.68 0.0004502058    1.070    0.066
       165  -9.0657    213.4798     47.9756   4.4266897039e+01   2.5937548872e+01    0.2882047    0.2006901  72.05 0.0008131964    1.435    0.303
       166 -10.0595    120.2020     50.4960   6.1939730289e+01   4.8324722003e+01    0.2471128    0.2349042  -1.13 0.0003012032    1.058    0.055
       167  -8.8744    119.7508     46.4084   6.0627544922e+01   4.9043984783e+01    0.2626925     0.241644  38.35 0.0007828537    1.025    0.025
       168  -8.9111     72.7815     50.2931   7.6567913416e+01   5.8059497060e+01    0.3693604    0.2381607  -3.71  0.001095105    2.017    0.504
       169  -9.2863    222.0346     50.0392   4.3734788259e+01   2.3682612037e+01    0.2052073     0.187444 -71.23 0.0006426865    1.065    0.061
       170  -8.8933     70.7887     46.7931   7.5961068157e+01   5.8998246449e+01    0.4294644    0.2280089   1.10  0.001307584    5.122    0.805
       171  -9.7638    173.7892     45.1450   4.9148574659e+01   3.5964531854e+01    0.3706309    0.2887134 -13.59  0.001919466    1.559    0.359
       172  -9.2811     20.8028     47.1676   9.7220963897e+01   6.5280569531e+01    0.2009179    0.1572385 -23.96 0.0002501015    1.103    0.093
       173  -8.8577    164.7458     46.2108   5.0993261479e+01   3.8077310129e+01    0.2755525    0.1786033 -45.90 0.0006546856    1.590    0.371
       174  -9.1594    162.9790     42.0768   5.0067281852e+01   3.9088749345e+01    0.2780728    0.2083109  56.90  0.000512106    1.268    0.211
       175  -8.1922    155.3594     47.3184   5.3053182018e+01   4.0267733170e+01    0.2006145    0.1541153  -5.54  0.000699587    1.621    0.383
       176  -8.6266    156.0197     44.2313   5.1976235139e+01   4.0536069138e+01      0.28448    0.1747401  57.39 0.0006788713    1.523    0.343
       177  -9.5723    152.8548     41.2633   5.1647562685e+01   4.1731053404e+01    0.3346047    0.2801761  80.24  0.001034711    1.213    0.176
       178  -8.3059    109.2028     47.2966   6.3749013075e+01   5.1307628774e+01    0.2888755     0.109147  44.64 0.0007106574    2.543    0.607
       179  -9.5406     40.7130     45.5534   8.7665465972e+01   6.3587902805e+01    0.3786549    0.2847968 -68.83  0.001535626    2.108    0.526
       180 -10.3548     33.6601     43.9114   9.0198011124e+01   6.4688680111e+01    0.5422579    0.3096114  28.02  0.002478588    1.880    0.468
       181  -9.0228     29.6389     44.6996   9.2313609891e+01   6.4955950792e+01    0.2306688     0.174441 -41.72 0.0007249548    1.197    0.165
       182  -9.6168    137.2063     44.1628   5.5748647349e+01   4.5201854023e+01    0.5203206    0.3695625  52.82 0.0006476247    1.318    0.241
       183  -9.7923    141.3461     39.6803   5.3397068803e+01   4.4798673125e+01    0.4815528    0.2387931  45.31  0.002005646    2.015    0.504
       184  -9.1400      2.8673     44.5990   1.0484846947e+02   6.6990035484e+01    0.2737065    0.1568921 -46.99   0.00167358    1.301    0.231
       185  -8.2242     55.4884     44.5267   8.1021282440e+01   6.1810934151e+01    0.1329142    0.1134157 -11.13 0.0001645851    1.012    0.011
       186  -8.9578     96.7275     42.8860   6.5730497484e+01   5.4663975722e+01    0.2778126    0.2125167  15.95 0.0007173034    1.366    0.268
       187  -8.1702      9.4842     43.4998   1.0137172710e+02   6.6826314029e+01     0.120873   0.09291212 -37.22 0.0008104712    1.008    0.008
       188  -8.9274    147.4763     41.9758   5.2907820816e+01   4.2973728978e+01    0.3451054    0.1762176  45.00  0.001437369    2.003    0.501
       189  -9.3808    128.1123     41.6007   5.6924449059e+01   4.7756570941e+01     0.396359    0.2688138  68.46  0.001848391    1.622    0.384
       190  -7.8089     85.3291     42.3074   6.9114804476e+01   5.7057592345e+01    0.1447375   0.09989438  11.81 0.0003970499    1.659    0.397
       191  -8.6493     67.6007     42.1489   7.5325773872e+01   6.0305516554e+01    0.3195268     0.183993  47.55  0.001539661    2.028    0.507
       192 -10.1343     51.7878     37.3628   7.9679500602e+01   6.3555689386e+01    0.2548261    0.2037908 -15.08 0.0002347856    1.076    0.070
       193 -10.1267     70.0900     35.6015   7.1730602015e+01   6.0896576141e+01    0.3935369    0.2737308  24.54 0.0009289608    1.391    0.281
       194  -9.5217     62.2312     38.7448   7.6012231276e+01   6.1736948380e+01    0.3887842     0.254343  40.12  0.002103047    1.607    0.378
       195  -9.1691    223.7992     39.7580   4.1098406715e+01   2.4689694732e+01    0.3926421    0.2056538 -46.60  0.001922857    1.705    0.413
       196  -8.3085    225.5197     35.6000   3.9947216084e+01   2.4846286624e+01    0.1935992    0.1625174 -38.08 0.0001137816    1.259    0.205
       197  -9.2516    185.0924     39.6491   4.5878081246e+01   3.3899995590e+01    0.3467451    0.2061038 -33.07 0.0007837841    1.732    0.423
       198  -8.6092    170.7679     40.9094   4.8415732658e+01   3.7295325392e+01    0.3692586    0.1553563  56.54  0.001469856    2.180    0.541
       199  -8.6760     77.6889     41.4758   7.1387886242e+01   5.8634318071e+01      0.34858    0.1236914  41.84  0.001329447    2.746    0.636
       200  -9.4362     18.8486     40.2577   9.5805718687e+01   6.6771858903e+01    0.4794066    0.1918008  32.73   0.00222235    2.942    0.660
       201  -8.6435     12.6974     35.9747   9.7315170029e+01   6.8051311532e+01    0.2259298    0.1599792 -42.29 0.0008123796    1.167    0.143
       202 -10.2043     21.8309     32.0080   9.1270642356e+01   6.8015912167e+01    0.5317074    0.3210024  37.57   0.00231616    2.184    0.542
       203 -10.2979     13.4693     30.6504   9.4973711034e+01   6.8966490048e+01    0.3102082    0.2246437  -0.65  0.001212611    1.338    0.252
       204 -10.1717      8.5144     26.2885   9.5893369569e+01   7.0108232678e+01    0.3894429    0.2762462 -26.54   0.00181395    1.089    0.081
       205  -7.9022    106.5377     39.9420   6.1786153632e+01   5.2973250291e+01    0.1886633    0.1372082 -26.71 0.0003376071    1.424    0.298
       206  -8.3507     89.6785     40.5727   6.7026605268e+01   5.6456362182e+01    0.2785315    0.1019296  36.58 0.0009522341    3.235    0.691
       207  -9.9924     58.7111     34.2250   7.5526007769e+01   6.3006565771e+01    0.4407889    0.2782679   6.83  0.001665012    1.853    0.460
       208  -9.6577    216.4221     38.6555   4.1646193351e+01   2.6520676846e+01    0.2980043    0.2270886 -60.13 0.0006347229    1.190    0.159
       209  -9.3997    212.0381     37.5139   4.1866138620e+01   2.7688886184e+01    0.3070823    0.2107116  58.42  0.001137687    1.522    0.343
       210  -9.0732    119.7663     38.9278   5.7975535200e+01   5.0096512189e+01    0.2304022    0.1860792  49.14 0.0003778895    1.155    0.134
       211  -9.4116    112.7435     36.3972   5.8820950119e+01   5.2059479700e+01    0.5494136    0.3231444  48.12  0.002609462    1.559    0.358
       212  -9.7182     99.4922     36.9694   6.2650508880e+01   5.4924746759e+01    0.4462156    0.2153463 -44.82  0.001566831    2.571    0.611
       213 -10.4849      4.9350     33.6439   1.0043558325e+02   6.9002771654e+01    0.4876506    0.1829878 -50.35   0.00225045    1.982    0.495
       214  -9.0359    236.9543     35.9762   3.8905149145e+01   2.2276110714e+01    0.3098176    0.1547862 -61.03 0.0007933258    2.046    0.511
       215  -8.9973    232.2839     37.2992   3.9655080926e+01   2.3122249915e+01    0.1843368    0.1506654 -33.35 0.0002105237    1.333    0.250
       216  -8.8796    192.9875     36.6365   4.3983528513e+01   3.2356242931e+01    0.1958315    0.1589788  74.99  0.000537328    1.164    0.141
       217 -10.3215    124.8063     35.3661   5.5518311449e+01   4.9375952027e+01    0.3849088    0.2672866 -40.48 0.0009226825    1.566    0.361
       218  -9.4591     91.8147     34.8810   6.4120683705e+01   5.6830732735e+01    0.3867254    0.3157251 -41.58   0.00220332    1.410    0.291
       219  -9.4872    153.7455     33.7730   4.9147665323e+01   4.2477024268e+01    0.3488232    0.2303636 -44.40 0.0009426418    1.602    0.376
       220  -8.7525     33.2271     34.3605   8.6704727291e+01   6.6441366644e+01    0.2413553     0.149432 -38.85  0.001395765    1.420    0.296
       221  -8.3512    139.0534     34.1107   5.2026173922e+01   4.6081795636e+01    0.2182049    0.1634937 -71.91 0.0005352972    1.642    0.391
       222  -8.1979    102.8388     34.4281   6.0727262805e+01   5.4540238492e+01    0.2010066    0.1148763  40.46 0.0009316901    1.659    0.397
       223  -9.6818    134.1506     32.0782   5.2344519898e+01   4.7534028858e+01     0.292404    0.2337312  86.78  0.000423262    1.418    0.295
       224  -8.8621    129.8417     25.7064   5.1049634891e+01   4.9330805978e+01    0.5374472    0.1637753 -42.05   0.00178097    3.926    0.745
       225  -9.1191     39.7812     32.7001   8.2986035920e+01   6.5939833553e+01    0.2520894    0.1760641  -9.86 0.0007712823    1.342    0.255
       226  -9.6629    212.3099     31.8485   4.0452560869e+01   2.8350754242e+01     0.373877    0.2131152  89.57  0.001258402    1.918    0.479
       227  -9.2305    239.8092     30.9969   3.7546590971e+01   2.2297654238e+01    0.2268622    0.1612174  82.05  0.001364588    1.373    0.272
       228 -10.1356    224.4173     27.8406   3.8263396710e+01   2.6071950503e+01    0.4564297    0.2435657 -42.87  0.001522658    1.674    0.403
       229  -9.4241     96.7700     29.8678   6.0664188182e+01   5.6445890752e+01    0.2188163    0.1888968  23.44 0.0003811597    1.050    0.048
       230  -9.0506     84.5595     29.0921   6.4046657192e+01   5.9077725160e+01    0.2385384    0.2120037   0.87 0.0004209022    1.080    0.074
       231  -9.4341     67.7070     28.8525   6.9750921966e+01   6.2285076350e+01    0.3586036    0.2692282  15.69  0.001935516    1.238    0.192
       232  -9.3877    241.6872    246.8775   8.2346522634e+01  -1.0916247084e+01    0.2823745     0.142297  -6.85  0.001416903    2.571    0.611
       233  -9.0321    175.0760     27.1031   4.3806095268e+01   3.7948192983e+01    0.3709553    0.1715798 -47.12  0.001578789    2.266    0.559
       234  -8.9366    156.8369     28.7423   4.7063774466e+01   4.2312008627e+01    0.4077674    0.1681916  59.21  0.001658106    2.123    0.529
       235  -9.5049    105.0847     26.7752   5.7180308008e+01   5.4999753890e+01    0.3613253    0.1924244 -20.06 0.0009444699    2.128    0.530
       236  -9.7822    123.9261     26.8442   5.2702459952e+01   5.0623764221e+01    0.2823454    0.2012501 -18.93 0.0008948518    1.552    0.356
       237  -9.0341    234.1768    243.4252   8.3100211038e+01  -9.5129631913e+00    0.2092793     0.144838  14.67  0.001382291    1.163    0.140
       238  -8.5818    213.8032    244.5713   8.6969120826e+01  -6.8489336674e+00    0.1650828   0.09875884  39.77 0.0005405977    1.666    0.400
       239 -10.1729    247.6154    240.5703   8.0284733757e+01  -1.0917215219e+01    0.3280851    0.1997363 -25.81  0.002081266    1.548    0.354
       240  -9.1240    227.3940    242.5211   8.4162845470e+01  -8.4817035929e+00    0.2105966    0.1689175  -6.73  0.001474224    1.164    0.141
       241  -8.2482      1.3691    241.6970   1.2733859538e+02   2.3166982041e+01    0.1185419   0.05169111  61.78 0.0007033465    1.746    0.427
       242  -9.9046    171.4528    233.4080   9.3384202385e+01   1.2330510049e+00    0.3889671     0.344513  80.79  0.002473306    1.572    0.364
       243  -8.7903     33.9237     16.4835   7.8396692741e+01   6.9145043331e+01    0.2502258    0.1771372  28.23 0.0006654672    1.439    0.305
       244  -9.1207    249.5716    232.9855   7.8668175377e+01  -1.0237429047e+01    0.3260524   0.09817195 -31.83   0.00140207    3.276    0.695
       245  -9.5642    234.2642     26.2315   3.6992334228e+01   2.4086751732e+01    0.2296503    0.1688387 -65.19 0.0003580018    1.167    0.143
       246  -8.3175    209.3080     26.7256   3.9527888051e+01   2.9683380302e+01    0.2038467    0.1636253 -25.71 0.0005995216    1.452    0.311
       247  -9.0114    189.5248     27.5041   4.2006946083e+01   3.4335401335e+01    0.3006835    0.1881344  86.70  0.001490234    1.648    0.393
       248  -9.6005    192.9406     24.1209   4.0702943761e+01   3.3901255813e+01    0.4032663     0.267492 -12.48  0.002037671    2.062    0.515
       249  -7.8780    115.2935     27.2896   5.4832354102e+01   5.2607462007e+01    0.1409061   0.09622509  29.18 0.0002240962    1.549    0.354
       250  -9.1151     62.4846     26.2842   7.0599120329e+01   6.3540404336e+01    0.3002507    0.1790829   7.15  0.001457204    2.094    0.522
       251  -9.1408     37.8863     25.9331   8.0920801212e+01   6.7254265989e+01    0.2868255    0.1419912 -28.57 0.0008717859    1.920    0.479
       252  -9.0992     30.4333     27.0111   8.4950010576e+01   6.7977546739e+01    0.2325372    0.1798841  23.32 0.0006674288    1.399    0.285
       253 -10.5645    246.7122     23.5360   3.5371761865e+01   2.1758709838e+01     0.579462    0.2733078  86.60   0.00203433    2.334    0.571
       254  -8.2568    152.7926    234.0012   9.7252804042e+01   4.1482899870e+00    0.1541716    0.1053386 -47.98 0.0008639736    1.716    0.417
       255  -8.4173    219.4898    228.4827   8.3264068178e+01  -5.4770589090e+00    0.1260252    0.1005919   8.31 0.0005117414    1.010    0.010
       256  -9.8945    136.8877     25.4326   4.9557156097e+01   4.7643711921e+01    0.3271452    0.2430121 -55.39 0.0004090163    1.554    0.356
       257  -9.5832    142.4285     23.2192   4.7796194978e+01   4.6524044176e+01    0.3766568    0.3294532 -29.84  0.002227139    1.253    0.202
       258  -9.1927    138.5398     19.2705   4.7193620964e+01   4.7902405767e+01     0.453988     0.203758  40.66  0.001838793    2.507    0.601
       259 -10.5458    247.6788    217.0683   7.6200487634e+01  -7.9199076532e+00    0.4246965    0.2319391 -39.22  0.002282054    1.994    0.499
       260  -8.0654    229.4482    214.5711   7.8983341095e+01  -4.9652512570e+00    0.1259185    0.1033246   3.13 0.0002207563    1.028    0.027
       261  -9.2070     78.0317     24.5790   6.4273280837e+01   6.0935248364e+01    0.3563605    0.2569115 -20.66  0.001673457    1.384    0.278
       262 -10.8974    157.6393     23.0429   4.5193010653e+01   4.2760235885e+01    0.4819733     0.224491  58.20 0.0006131233    1.883    0.469
       263  -8.3522     82.4035     24.2051   6.2688884601e+01   6.0122140306e+01    0.1735944    0.1192726 -35.35  0.000693402    1.604    0.377
       264  -8.2529      1.3253     23.8545   9.8861101008e+01   7.1004445610e+01     0.166415   0.07162826 -43.97 0.0002019581    1.704    0.413
       265  -8.1058    234.4861    210.4954   7.7328495254e+01  -5.1220901063e+00    0.1280818    0.1029099  -0.08 0.0008104886    1.011    0.011
       266  -8.0226    113.8150     22.3591   5.3350389430e+01   5.3508394975e+01    0.1926381    0.1080207  48.28 0.0003222305    1.575    0.365
       267  -9.3289    103.7641     21.0223   5.5285800418e+01   5.5948278696e+01    0.3057549    0.2352851 -23.89  0.001289154    1.392    0.281
       268  -8.7956     58.0008     21.2147   7.0061589832e+01   6.4967273886e+01    0.2005098    0.1567781 -11.98 0.0005083067    1.162    0.139
       269  -8.8440    238.5768    217.0072   7.7781867355e+01  -6.6390749092e+00    0.3785905    0.1808525  -2.85  0.001260458    5.135    0.805
       270  -8.6785    208.9337     16.2259   3.7023026411e+01   3.0985230886e+01    0.2133665    0.1735334 -56.05 0.0005909705    1.150    0.131
       271  -8.6186    242.3247    201.3354   7.4230612880e+01  -4.9469263202e+00    0.1344583   0.08459894  -1.29  0.000705119    1.715    0.417
       272  -8.0492     29.5377    198.5050   1.1943990311e+02   2.9193564706e+01    0.1253357   0.09666333  76.76 8.780507e-05    1.046    0.044
       273  -8.1059    219.9878    193.4859   7.6781709070e+01  -2.4910475299e-01    0.1886665    0.1235246  34.25 0.0003911905    1.497    0.332
       274  -8.6440    246.6454    190.2854   7.1363865639e+01  -3.9534584240e+00    0.2125597    0.1560674  43.74  0.001254052    1.694    0.410
       275  -8.1460    110.5195    189.4892   9.9808004025e+01   2.0013774993e+01     0.138972     0.134202  46.87 0.0003863194    1.089    0.082
       276  -8.4608     73.0192     16.9418   6.2599558749e+01   6.2802619505e+01    0.2056375    0.1545793  17.09 0.0009341154    1.208    0.172
       277  -9.6597    238.7581     20.2440   3.5308522354e+01   2.3833545137e+01    0.3870163    0.1392014  61.14  0.001728234    2.811    0.644
       278  -8.3610    232.4807     20.5129   3.5885582038e+01   2.5161679588e+01    0.1260295    0.1042179 -70.24 0.0001725922    1.014    0.013
       279  -9.7272    243.4742    168.2008   6.7483216023e+01  -1.5578922929e-02    0.2432749    0.1822668  32.64  0.001219052    1.425    0.298
       280  -9.7374    249.8051    150.7534   6.2800857230e+01   1.7651910252e+00    0.3409585      0.16737 -31.55  0.001169213    1.831    0.454
       281  -8.3233      1.3877     20.2163   9.7419856441e+01   7.1637772808e+01    0.1414033   0.09298984 -52.68  0.000355232    1.534    0.348
       282  -9.6116    169.4655     17.9607   4.1974528454e+01   4.0360521333e+01    0.3781747    0.1975805  55.33  0.001057082    1.778    0.438
       283  -8.3850    151.6887     18.7989   4.4822729668e+01   4.4697443784e+01    0.1759424    0.1448231 -59.47 0.0002306673    1.300    0.231
       284  -8.1565    235.3423    147.6872   6.4519299907e+01   4.7992742816e+00    0.1335633    0.1077807 -67.17  0.000611376    1.703    0.413
       285 -10.0466    245.6185    142.6970   6.1749563966e+01   3.8127323901e+00    0.4113258    0.2759971 -72.61  0.001800896    2.998    0.666
       286  -9.6612    248.1702    135.1700   5.9722773938e+01   4.6149627877e+00    0.2101019    0.1719552 -16.65  0.001233514    1.177    0.151
       287  -8.6138     13.4795    133.0471   1.1702626694e+02   4.6108715191e+01     0.176424    0.1585645 -88.69 0.0005942871    1.131    0.115
       288  -9.7276     65.7563    131.7396   1.0161387502e+02   4.0979311629e+01    0.3670316    0.2481897   8.50 0.0006809711    2.103    0.525
       289  -8.2178    225.4814    124.5645   6.1003928749e+01   1.0722288031e+01    0.1431057    0.1289648 -26.90 6.702296e-05    1.034    0.033
       290  -9.0301    121.3502     17.5368   4.9918922427e+01   5.2241700975e+01    0.2385328    0.2008317  74.31 0.0007952193    1.231    0.188
       291  -7.9552     17.0047    124.0542   1.1490215965e+02   4.8037369488e+01    0.1542034    0.1233767 -72.28 0.0003529501    1.016    0.016
       292  -8.9109      1.4997    123.8968   1.1936801627e+02   4.9110662820e+01    0.1933439   0.09765425 -74.36 0.0009086339    1.551    0.355
       293  -9.9205     69.3911    122.8615   9.8736381236e+01   4.2683392188e+01    0.2350497    0.2313777  56.06 0.0002798176    1.104    0.094
       294  -9.6535    113.4619     16.4378   5.1215574148e+01   5.4207942524e+01      0.26504    0.2058772  46.20 0.0006316006    1.133    0.117
       295  -7.9886      9.6783    122.6315   1.1686930197e+02   4.8902951187e+01    0.1364016   0.07370158 -47.88 0.0007036299    1.796    0.443
       296  -9.5377    244.4936    117.4873   5.6392071937e+01   8.2431195114e+00    0.2166212    0.1208177 -27.61 0.0009875239    1.831    0.454
       297  -7.9447    236.2874    117.2937   5.7592125375e+01   9.8533094337e+00    0.1342997     0.105101  -3.20 0.0002465257    1.545    0.353
       298  -8.7838     12.0386    115.0293   1.1518245917e+02   5.0584031849e+01    0.1911682    0.1557325 -76.51 0.0004213686    1.063    0.059
       299  -8.8451     15.2641    112.1259   1.1377379907e+02   5.1064762746e+01    0.2261456    0.1599224 -82.41 0.0007051902    1.305    0.234
       300 -10.1803    248.0075    112.7055   5.4818593830e+01   8.3760607562e+00     0.239605    0.1842099 -32.89 0.0009191166    1.147    0.128
       301 -10.8892    247.4833    103.9053   5.2936104547e+01   9.9236706537e+00    0.4249091    0.2976742 -51.73  0.002159075    1.368    0.269
       302  -8.0856     79.2589     15.3512   5.9858824831e+01   6.1759428156e+01    0.2177017    0.1506369  18.94 0.0006255007    1.409    0.290
       303  -7.8845    105.0370    111.7859   8.5290690045e+01   3.9393760093e+01    0.2024015    0.1262417  40.80 0.0007824377    1.660    0.398
       304  -9.0861    119.8412    102.9251   7.8625335040e+01   3.8424282850e+01    0.2827143    0.2264648  52.67   0.00135115    1.323    0.244
       305  -8.9631     10.0064    101.4970   1.1387471311e+02   5.3963271587e+01    0.1603411    0.1253815  21.19 0.0009465817    1.575    0.365
       306  -8.3339     56.2164    100.1986   9.7933618303e+01   4.9986828861e+01    0.1777991    0.1582521  79.68   0.00024658    1.303    0.233
       307  -8.0445     26.2555    111.9796   1.1027021410e+02   5.0254174995e+01    0.1676701   0.09690025 -66.94 0.0002107704    1.448    0.310
       308  -9.7024    249.8779     97.3860   5.1163462572e+01   1.0520556931e+01     0.253245    0.1576736 -45.30  0.001315061    1.392    0.282
       309  -8.8580    203.6952     97.5695   5.8222747334e+01   2.0231868973e+01    0.2847755    0.1682734 -54.10  0.001207158    1.857    0.461
       310  -7.9919    130.5617     97.5464   7.4165704009e+01   3.7260219251e+01    0.1551903    0.1521247 -55.67 0.0002000137    1.040    0.038
       311  -9.0798     72.1887     95.6912   9.1373440394e+01   4.8825328008e+01     0.288188    0.2152438 -37.83 0.0008218292    1.284    0.221
       312  -9.6220    165.1880     94.5290   6.4932981559e+01   2.9823424081e+01    0.2961851    0.2821812  46.32 0.0006741738    1.072    0.067
       313  -7.5495     38.6645     95.3332   1.0290392230e+02   5.3136342022e+01    0.1343056    0.1007617  75.14  0.000705216    1.738    0.424
       314  -9.8331    211.1340     91.6497   5.5487542090e+01   1.9596201381e+01    0.3976246    0.2846286 -60.26  0.001384675    1.503    0.335
       315  -8.0082    171.4289     11.4974   3.9886651378e+01   4.0532824705e+01    0.1333755    0.1149345 -85.58 9.715393e-05    1.071    0.066
       316  -7.9441    174.6735     92.7099   6.2428268051e+01   2.7907514600e+01    0.1545811    0.1221188  15.68 0.0007015031    1.616    0.381
       317  -9.3846     19.8254     90.9527   1.0868474358e+02   5.5801464954e+01    0.3089373    0.2337214 -35.86  0.001282371    1.295    0.228
       318 -10.8743    189.1055     88.2044   5.8410849443e+01   2.5297583780e+01    0.3768885     0.283841 -77.68            0    1.627    0.385
       319  -8.2061     57.5351     90.7846   9.5133068261e+01   5.2031425616e+01    0.1982045    0.1298302 -66.84 0.0009424566    1.702    0.412
       320  -7.8079     99.4928     90.5414   8.1048998324e+01   4.5260805159e+01    0.1513664    0.1441752 -21.72 3.739098e-05    1.007    0.007
       321 -10.3384    248.5767     88.2242   4.9295237493e+01   1.2237700102e+01    0.2834943    0.1977542 -38.69  0.001482089    1.240    0.194
       322  -8.7498     27.6134     88.8797   1.0545752466e+02   5.5676090191e+01    0.2451428    0.1595795  46.32  0.001317554    1.929    0.481
       323  -8.7242      5.9970     87.7916   1.1303999087e+02   5.7416761023e+01     0.202344    0.1340866 -44.70  0.001226495    1.335    0.251
       324 -11.1041    240.4246     85.4821   4.9728578429e+01   1.4314415836e+01    0.5104623    0.3384023 -89.85  0.001871304    2.038    0.509
       325  -8.7367    100.4878     85.1921   7.9128109191e+01   4.6211572339e+01    0.4271252    0.1859879  47.45   0.00155177    2.510    0.602
       326  -9.7940    199.6300     76.6202   5.3536397428e+01   2.4806912597e+01    0.3434732     0.300575  28.63  0.000726568    1.352    0.261
       327  -8.3235    195.5745     77.4974   5.4437660428e+01   2.5620833260e+01    0.2397607    0.1342788 -37.58 0.0001260286    1.709    0.415
       328 -10.9339    195.6779     82.0929   5.5628170888e+01   2.4814202026e+01    0.3444754     0.286968  69.91 0.0002432588    1.253    0.202
       329 -10.6756    188.8302     82.1526   5.6847503319e+01   2.6431980096e+01    0.3553996    0.2736354  44.04 0.0003425022    1.406    0.289
       330  -9.2962     87.9785     82.6158   8.2327040880e+01   4.9115776854e+01    0.3101764    0.2476266 -41.54  0.001089361    1.194    0.162
       331  -9.5686    236.5094     15.5456   3.4478765334e+01   2.4861970541e+01    0.2806593    0.2008253  88.79  0.001759284    1.273    0.214
       332  -8.7426     11.9128     82.4795   1.0992442584e+02   5.8301325018e+01    0.3871019    0.0785867 -55.41  0.001467603    2.929    0.659
