#   1 NUMBER                 Running object number                                     
#   2 MAG_AUTO               Kron-like elliptical aperture magnitude                    [mag]
#   3 X_IMAGE                Object position along x                                    [pixel]
#   4 Y_IMAGE                Object position along y                                    [pixel]
#   5 X_WORLD                Barycenter position along world x axis                     [deg]
#   6 Y_WORLD                Barycenter position along world y axis                     [deg]
#   7 A_WORLD                Profile RMS along major axis (world units)                 [deg]
#   8 B_WORLD                Profile RMS along minor axis (world units)                 [deg]
#   9 THETA_WORLD            Position angle (CCW/world-x)                               [deg]
#  10 FWHM_WORLD             FWHM assuming a gaussian core                              [deg]
#  11 ELONGATION             A_IMAGE/B_IMAGE                                           
#  12 ELLIPTICITY            1 - B_IMAGE/A_IMAGE                                       
         1 -12.8011     37.8425     50.8933   9.8882286381e+01   6.2223025703e+01    0.7452258     0.539334 -23.38  0.002830808    1.336    0.251
         2 -11.2125     79.1726     31.0132   7.5415513968e+01   5.9885386863e+01    0.5993929    0.3469298 -11.73  0.002643387    2.171    0.539
         3 -11.9157     60.7499     24.1538   7.9186833768e+01   6.4008233140e+01    0.7064305     0.328011 -45.21  0.003157827    2.609    0.617
         4 -11.0767     64.6534     14.2958   7.3146896069e+01   6.4729280153e+01    0.5736023    0.2821821  24.77  0.002379831    2.463    0.594
         5 -11.5234     75.6398     16.2502   7.0145119308e+01   6.2545790173e+01    0.5180463    0.3589536  17.21  0.001909082    1.413    0.292
         6 -10.9273     70.4328     14.4721   7.1129568670e+01   6.3706655017e+01    0.4102888    0.1757515 -18.52  0.001672532    2.848    0.649
         7 -12.0413     81.0532      6.3364   6.3794462214e+01   6.2628932474e+01    0.4902003    0.3501672  23.96 0.0001723767    1.264    0.209
         8 -10.8960     77.0309      9.9911   6.6781080499e+01   6.3018952399e+01    0.2453578    0.2060212  32.38 0.0008921764    1.155    0.134
         9 -11.9990     73.9892      7.1855   6.6454821414e+01   6.3896651515e+01      0.30213    0.2262866 -14.93 0.0003101059    1.269    0.212
        10 -11.6675    130.3977     20.4529   5.7066547786e+01   5.0175773619e+01    0.5173578    0.3985269  40.37  0.001715746    1.222    0.182
        11 -11.6442    112.4226     24.4384   6.2783891014e+01   5.3943964918e+01    0.4564547     0.305057   1.41   0.00222482    1.753    0.430
        12 -11.0312    107.3239     22.2285   6.3222412550e+01   5.5357718875e+01    0.5004426    0.2219946 -38.36  0.002029083    2.453    0.592
        13 -11.6779    120.2708     21.3934   5.9677819342e+01   5.2493217175e+01    0.2979559    0.2369336  -4.06 0.0002650429    1.315    0.240
        14 -12.3310     84.7287     19.7601   6.8729602519e+01   6.0385333273e+01    0.6116497    0.4379564 -40.70 0.0009820587    1.625    0.384
        15 -11.9065     20.3307     17.6562   9.4335869566e+01   6.9998900333e+01    0.4486543    0.4245697  71.12  0.002732559    1.774    0.436
        16 -11.5007      4.6237     18.6315   1.0278075780e+02   7.1005302029e+01    0.4082092    0.2721548  25.85  0.002820522    1.881    0.468
        17 -10.6708     30.8694     13.3261   8.7150608683e+01   6.9626691195e+01    0.2709915    0.1461566 -30.35 0.0003788935    1.557    0.358
        18 -11.1258     26.6641     14.0140   8.9530957559e+01   6.9974325067e+01    0.1919402    0.1392326 -10.78 0.0004323872    1.175    0.149
        19  -9.8901     50.5274     11.4440   7.7346293999e+01   6.7334663320e+01    0.3103492    0.1663142  -0.95   0.00142476    2.632    0.620
        20 -10.2731    100.1148     12.7196   6.1188561019e+01   5.8018097956e+01    0.2730327    0.1817218 -11.06 0.0006462453    1.562    0.360
        21 -10.2275     55.1436     13.1888   7.6304656646e+01   6.6408283675e+01    0.2568703    0.1736708 -35.15  0.001010336    1.540    0.351
        22 -10.1445     58.7596     10.4095   7.3511733559e+01   6.6189540875e+01    0.3444654    0.1534478  44.13  0.001515069    2.289    0.563
        23 -10.5531    138.4683     12.0423   5.2401600111e+01   4.9074468673e+01    0.3038566    0.2258581 -45.85  0.001138692    1.513    0.339
        24 -11.1981    133.0829     10.9731   5.3026426188e+01   5.0511804892e+01    0.3812745    0.1880127   1.48  0.001447211    3.169    0.684
        25 -11.8036    115.8270      8.3843   5.5588226232e+01   5.4902359965e+01      0.55466    0.4299001 -37.94  0.001857721    1.462    0.316
        26 -10.1342      6.4675      8.0859   9.7384792578e+01   7.2678850735e+01    0.1666264    0.1469298 -36.04 0.0004331871    1.399    0.285
        27 -10.7769    184.7968     10.7037   4.4995920732e+01   3.7381607123e+01    0.3824711    0.2065645  86.73  0.001537426    2.047    0.511
        28  -9.8886     40.0064     11.0275   8.1735517995e+01   6.8854158491e+01    0.1800615    0.1611527  59.75 0.0003893936    1.937    0.484
        29  -9.5458     37.6887      8.6907   8.1624920156e+01   6.9475087480e+01    0.1439925     0.106767  32.13 0.0003457255    1.527    0.345
        30 -11.7165     22.3145      6.7924   8.8214280728e+01   7.1510845366e+01    0.5008602    0.3377624 -51.92  0.003082606    2.153    0.535
        31 -10.9781     16.8785      3.5440   8.9436176561e+01   7.2518628108e+01    0.3389005    0.1801932 -43.75  0.001272236    1.853    0.460
        32 -11.2953     11.6601      2.6048   9.1829844322e+01   7.3126507158e+01      0.29876    0.1648245 -21.60  0.001182043    1.573    0.364
        33 -12.9249     31.9620      2.0839   8.0883069057e+01   7.1071570949e+01    0.2789029    0.1893365  19.25 0.0005929465    1.384    0.277
        34 -10.7184     27.2270      3.3721   8.3923575477e+01   7.1463965389e+01    0.2115133     0.165663  14.71 0.0007883973    1.297    0.229
        35  -9.8869    107.7911      9.3195   5.7820685113e+01   5.6660734151e+01    0.2201203    0.1688391 -25.77 0.0009577196    1.387    0.279
        36 -11.6629    149.0471      6.2134   4.8558135195e+01   4.6968380212e+01    0.5785251    0.2771578  68.27  0.001810984    1.936    0.484
        37 -10.4103     91.6657      7.2793   6.1118867812e+01   6.0377195546e+01    0.2137768     0.172741  54.75 0.0003218481    1.309    0.236
        38  -9.9623     93.3419      4.3208   5.9344860058e+01   6.0306281377e+01    0.2786956    0.1628913  14.72 0.0007915157    1.925    0.481
        39  -9.3187     43.4301      7.9204   7.8628659974e+01   6.8812105573e+01    0.1528694   0.09563273 -48.59   0.00080592    2.499    0.600
        40 -10.2642    164.1120      5.3392   4.6050020133e+01   4.3208541922e+01    0.2738496    0.1922031  89.92 0.0007628842    1.482    0.325
        41 -11.9636    167.9535      2.2428   4.4572659884e+01   4.2504888251e+01    0.2607383    0.2205072  87.42   0.00026406    1.122    0.108
        42  -9.7875     59.9999      5.8882   7.0782850444e+01   6.6519246204e+01    0.2138881    0.1615145  39.02  0.001351794    1.375    0.273
        43 -10.5072    243.7635      4.5485   3.7798643970e+01   2.3686152110e+01    0.3135503    0.1184239 -57.05  0.001310273    2.670    0.625
        44 -11.3359    229.2554      4.8715   3.8999896620e+01   2.6992164062e+01    0.4084774    0.1891486  76.14  0.001916149    2.055    0.513
        45 -10.0570    127.0246      8.2884   5.3207899410e+01   5.2245922281e+01     0.190637    0.1642988  52.46 0.0003503043    1.058    0.055
        46 -10.0594    131.3165      5.0655   5.1182748896e+01   5.1492404146e+01     0.318248    0.1855371  86.99  0.001403765    2.312    0.568
        47  -9.8318     72.8409      2.3491   6.4492525280e+01   6.4606890545e+01    0.2153207    0.1321747  39.13 0.0008295423    1.447    0.309
        48  -9.3258    155.5017      1.4381   4.5997740314e+01   4.5751028555e+01    0.1379363    0.1193063  57.54 5.589356e-05    1.062    0.059
        49 -10.7754    237.8740      1.9476   3.7643183355e+01   2.5298069941e+01     0.255516    0.1529734  73.22 0.0009711211    1.595    0.373
        50  -9.8740      5.4983     11.4621   9.9412875752e+01   7.2188597122e+01     0.191843    0.0687092 -41.58 0.0005239267    2.016    0.504
        51  -9.0496     76.3402    212.3116   1.1682445164e+02   2.1251830714e+01    0.1061861   0.09736404 -18.76 0.0007045797    1.695    0.410
        52 -10.8716    250.3729    246.0947   8.9049893490e+01  -1.1122419041e+01     0.349954      0.18835 -18.49  0.002164345    1.932    0.482
        53 -12.2636    225.9389    246.1632   9.3159445711e+01  -7.6866858867e+00    0.5195835    0.3131422   6.72  0.003111612    1.840    0.457
        54 -12.5751      6.2232    244.6150   1.3119738768e+02   2.3526663057e+01    0.6759473    0.3753169  71.52  0.005006048    1.269    0.212
        55  -9.6200      2.3001    212.3366   1.3044002938e+02   2.9742064936e+01    0.1572463    0.1126127  48.44 0.0005663973    1.445    0.308
        56 -12.0869      4.8508    207.5863   1.2977228302e+02   3.0424649137e+01     0.605541    0.2236049  85.67  0.003166671    2.466    0.595
        57  -8.9851    188.4573    209.5276   9.4099055937e+01   3.2080604735e+00    0.1310877    0.1120406  27.44 -1.23545e-05    1.004    0.004
        58 -10.0001     10.9903    208.0443   1.2872052754e+02   2.9764070915e+01    0.1477341    0.1148912 -64.49  0.000501228    1.637    0.389
        59 -11.2448     19.0262    202.9723   1.2698083464e+02   2.9984104113e+01    0.3424443     0.234091  85.11  0.001570149    1.129    0.114
        60 -10.3596    175.4133    202.6181   9.5487112761e+01   6.6403137789e+00     0.230979    0.1978988  38.32 0.0005430896    1.051    0.048
        61  -9.3368     67.9510    203.7665   1.1763253172e+02   2.4104581437e+01    0.1487144   0.09138985  42.84 0.0003945558    1.540    0.351
        62  -9.7656     37.9779    217.4812   1.2448344635e+02   2.5108185217e+01    0.1572137   0.09590235  43.69 0.0007449378    1.561    0.359
        63  -9.4681    223.5992    201.8154   8.6144194646e+01  -1.7087323413e+00    0.1625432    0.1174985 -42.85 0.0005989656    1.702    0.412
        64  -9.1917    238.6616    201.2848   8.3363898553e+01  -4.1129987792e+00    0.1085233    0.1015291  62.05 0.0006494381    1.630    0.387
        65  -9.6452     34.5434    201.3289   1.2396264935e+02   2.8689907839e+01     0.141267    0.1384387  13.80 0.0005543571    1.585    0.369
        66  -9.2007    227.1570    197.0149   8.4609573833e+01  -1.6281575868e+00    0.1938435    0.1228926  19.46 0.0009831054    1.599    0.374
        67  -9.3454      7.0000    195.9507   1.2877226550e+02   3.2532215772e+01    0.1749138   0.04923801 -78.35 0.0006953963    2.920    0.658
        68 -10.2372    215.5304    194.6916   8.6304894108e+01   7.1210290827e-01    0.2228359    0.1237649 -29.55  0.000654502    1.910    0.477
        69 -10.2408    186.7725    190.9672   9.1159770429e+01   6.5149156779e+00    0.1742787    0.1131691 -38.77 0.0008818477    1.671    0.401
        70  -9.2090    245.7027    190.6809   8.0136356633e+01  -3.8179417761e+00    0.1316039   0.08558434   4.84 0.0004614891    1.615    0.381
        71 -10.2611      2.1331    188.9889   1.2928463065e+02   3.4369280705e+01    0.3132386    0.1145896  75.14  0.001524835    2.687    0.628
        72  -9.3578    211.4797    188.4998   8.5888950039e+01   2.3788489903e+00    0.2364136    0.1214908 -24.60  0.001025649    2.383    0.580
        73  -9.4992     61.7846    185.0762   1.1696676664e+02   2.8839173746e+01    0.1654767   0.09156568 -73.19 0.0008686031    1.695    0.410
        74 -10.0468    167.1930    183.5985   9.3806861312e+01   1.1511637926e+01    0.2033354    0.1239372  33.01 0.0006457748    1.661    0.398
        75 -11.4890     15.8965    182.7292   1.2624801791e+02   3.4448255480e+01    0.4121837    0.1907062  83.34  0.002226266    1.977    0.494
        76  -9.6026      2.0258    180.3091   1.2880954336e+02   3.6169933035e+01    0.1528346    0.1120926  72.88 0.0005039944    1.112    0.101
        77  -9.9778    244.2500    178.3817   7.7962732711e+01  -1.8566991389e+00    0.2415585    0.1409706 -20.12  0.001011836    1.732    0.423
        78 -10.9466    224.1295    178.5222   8.1566492802e+01   1.6430420868e+00    0.2465963    0.2314288  15.51 0.0004224333    1.176    0.150
        79  -9.5303     70.1938    177.7365   1.1428416434e+02   2.9318258779e+01    0.1559209    0.1491482 -49.87 0.0005955013    1.359    0.264
        80  -9.9893     46.6009    177.3417   1.1942052600e+02   3.2403121252e+01    0.2502522    0.1652905  58.03  0.001505854    1.381    0.276
        81  -9.1969     36.4584    178.4508   1.2169416376e+02   3.3301421798e+01    0.1208131   0.09576718  84.12 0.0002214489    1.020    0.020
        82  -9.9598    200.3253    176.3709   8.5658747728e+01   6.4261694566e+00    0.2182893    0.1559773   7.35 0.0009048895    1.659    0.397
        83 -11.1301     18.2350    173.1437   1.2506980175e+02   3.6283318773e+01    0.4028741    0.1624222  59.45   0.00184279    2.436    0.589
        84 -10.9744     12.7004    170.3380   1.2600855284e+02   3.7388171661e+01     0.318364    0.1480748  87.54  0.001708134    1.912    0.477
        85  -9.3992     75.0556    170.9738   1.1231822176e+02   3.0145659927e+01    0.1978752    0.1591062 -32.87  0.001122387    1.757    0.431
        86  -9.6937    210.1367    165.8536   8.1584682165e+01   6.3138324331e+00    0.2011877    0.1550612  16.68 0.0006432744    1.330    0.248
        87 -11.1247     50.7054    165.1369   1.1718628859e+02   3.4648329693e+01    0.4322496    0.2240996 -55.96  0.002195766    1.955    0.489
        88 -10.0252     48.4714    159.4675   1.1703994086e+02   3.6205942611e+01    0.2226096    0.1993461  74.46 0.0008995979    1.149    0.129
        89 -12.2995     37.0773    159.1077   1.1965134364e+02   3.7550497765e+01    0.6301256    0.2216859 -69.79 0.0006284639    2.390    0.582
        90  -9.5026     67.1922    165.1818   1.1337019336e+02   3.2545759205e+01    0.1909257     0.135227  71.59  0.001063736    1.373    0.272
        91  -9.4588    200.2699    162.6175   8.2825866541e+01   8.8175391564e+00    0.1909234    0.1292201  34.57 0.0005144617    1.453    0.312
        92 -11.1899     44.7001    162.4029   1.1825524556e+02   3.5967236810e+01    0.3841665    0.2107597 -69.88   0.00171354    1.581    0.367
        93 -11.3386     22.4896    156.4957   1.2272882535e+02   3.9577739842e+01    0.4567272    0.3693242  75.01  0.003186952    1.129    0.115
        94  -9.1377    147.6732    156.3383   9.2784346201e+01   2.0748220326e+01    0.1536301    0.1169158  83.03 0.0007051651    1.728    0.421
        95 -10.3393     11.6341    153.5380   1.2491583174e+02   4.1178958548e+01    0.2441692    0.2104035  16.38  0.001779318    1.653    0.395
        96 -10.3241    178.0537    151.4520   8.4981528047e+01   1.5457921611e+01    0.2715106    0.2499376 -70.04 0.0009729559    1.236    0.191
        97 -10.1064    206.9585    146.2109   7.7900018292e+01   1.0369706614e+01    0.2123675    0.2021207  84.46  0.000828966    1.262    0.207
        98 -10.8341     12.0650    147.0000   1.2425076837e+02   4.2613983123e+01    0.3157928    0.1158209  36.55  0.001209171    2.775    0.640
        99  -9.9713     30.7096    144.9048   1.1959823030e+02   4.1459850175e+01    0.1817819      0.13027 -79.04 0.0005498721    1.136    0.120
       100 -11.9450     19.4913    141.5740   1.2196773570e+02   4.3242182252e+01    0.5601824    0.2377623  54.54  0.001808788    2.570    0.611
       101 -10.4194      2.8563    143.7213   1.2609789676e+02   4.4042140844e+01    0.2131673    0.1212073 -69.95  0.001313239    1.411    0.291
       102 -10.9294     55.2561    134.8327   1.1198762455e+02   4.1180931221e+01    0.6039666     0.340057 -87.06   0.00278742    2.091    0.522
       103 -11.0949      2.7712    137.4308   1.2559117814e+02   4.5461197411e+01    0.3893036    0.1323217 -70.16 0.0009342505    2.155    0.536
       104 -10.2961      5.4606    133.2600   1.2456958809e+02   4.6220773012e+01    0.2208449    0.1569151 -84.03 0.0007181414    1.078    0.072
       105  -8.7370    143.6839    137.3100   8.9597296052e+01   2.5643813433e+01    0.1551139    0.1213012  86.07 0.0007031773    1.635    0.389
       106 -11.0489      9.2039    136.7667   1.2398724888e+02   4.5155655930e+01    0.1986062    0.1646973 -70.40 0.0002493587    1.200    0.167
       107 -10.3165     21.4207    135.9268   1.2088785851e+02   4.4382557327e+01    0.2338388    0.1745872  72.61  0.001103462    1.281    0.219
       108  -9.3960    137.8247    135.3961   9.0580631338e+01   2.7279090884e+01    0.2179832    0.1444763  33.04 0.0009457272    1.687    0.407
       109  -9.0628    250.3053    134.3168   6.7543292202e+01   3.7196817516e+00    0.1398769   0.09959341   2.41 0.0006320691    1.627    0.385
       110 -10.1070    106.9794    133.1928   9.7920970814e+01   3.3768578634e+01    0.2545737    0.2146706 -55.55  0.001038953    1.150    0.130
       111  -9.1110    227.2516    131.9969   7.0864189134e+01   8.6421735709e+00    0.1846556    0.1160855 -33.90  0.000415618    1.487    0.327
       112 -11.5392     37.4215    130.5382   1.1608700210e+02   4.4170005689e+01    0.4342896    0.2545766 -68.90  0.001721681    1.415    0.293
       113 -10.3717     33.3004    125.9138   1.1654835631e+02   4.5664816519e+01    0.2195012     0.170675  78.35  0.000314602    1.263    0.208
       114 -10.3942     74.1720    129.5134   1.0598228190e+02   3.9959438692e+01    0.2619556    0.2344852 -73.70 0.0007875877    1.010    0.010
       115 -11.3739      2.1936    124.7676   1.2457880568e+02   4.8368709362e+01    0.4460106    0.1405487 -69.73  0.001188966    2.260    0.558
       116 -10.4804     14.3022    125.9372   1.2158997319e+02   4.7265490001e+01    0.2371449    0.1798537 -83.40 0.0009481259    1.059    0.055
       117 -11.2471     10.4831    122.6028   1.2221634532e+02   4.8312677080e+01    0.2667119    0.2050977  82.23  0.001381506    1.201    0.168
       118  -9.0922      6.6628    126.2877   1.2359320885e+02   4.7729247534e+01    0.1194869   0.07343881  70.48 0.0007018851    1.634    0.388
       119  -9.7010     82.0890    125.1617   1.0296057209e+02   3.9825660860e+01    0.2076029    0.1806684 -46.58  0.000536128    1.185    0.156
       120  -9.9626    219.9383    124.3182   7.0344272714e+01   1.1496653166e+01    0.2012966    0.1890356  19.92  0.000658474    1.087    0.080
       121  -9.6932    225.9873    124.0000   6.9200385506e+01   1.0265913896e+01    0.2265951    0.0835209  50.48 0.0007956245    2.895    0.655
       122 -10.4949     20.8719    121.3888   1.1930487178e+02   4.7814646826e+01    0.2286147    0.1552073 -42.74  0.001371805    1.674    0.403
       123  -9.5153     32.7542    118.9870   1.1570657269e+02   4.7354146542e+01    0.1810997    0.1340001 -70.33 0.0003751093    1.105    0.095
       124 -11.3338     17.4746    115.3271   1.1945815757e+02   4.9493333158e+01    0.3200175    0.2902976  29.84  0.001794758    1.402    0.287
       125  -9.5552    220.4356    116.9743   6.8477256939e+01   1.2667025499e+01    0.2259032    0.1364955 -36.47 0.0004768038    1.548    0.354
       126  -9.0781    201.2533    117.3536   7.2110692011e+01   1.6872387779e+01    0.1534178    0.1171855  -2.21 0.0006956973    1.602    0.376
       127 -10.3715     85.9941    116.7167   1.0007862374e+02   4.1222290775e+01    0.2445492    0.1900197 -55.99  0.000478099    1.187    0.158
       128 -10.5486     51.1145    116.4708   1.1007364058e+02   4.6055771150e+01    0.3157562    0.1548097 -59.27            0    1.713    0.416
       129  -9.0272    179.5091    116.5391   7.6321726013e+01   2.2020011654e+01    0.1547248    0.1509232  -7.79 0.0001251736    1.015    0.014
       130  -9.4751    166.1550    115.6368   7.9021084319e+01   2.5282985865e+01    0.2185153    0.1935532 -56.45 0.0005568322    1.176    0.149
       131  -9.1917    214.1636    115.6018   6.9259063526e+01   1.4288320905e+01    0.2029095    0.1369929  37.55 0.0005768961    1.610    0.379
       132  -9.1596     71.9914    115.6868   1.0387889978e+02   4.3574675405e+01    0.2067306    0.1191117   4.34 0.0007039419    4.193    0.762
       133 -12.1258     35.5866    108.8901   1.1330099153e+02   4.9478730824e+01      0.51883     0.284036 -78.58  0.002015643    1.839    0.456
       134 -10.9441    249.0719    112.1765   6.2664259690e+01   7.4606671520e+00    0.2545674    0.1848061 -31.94 0.0007009945    1.221    0.181
       135 -12.8470     54.8159    109.8714   1.0775605226e+02   4.7198075390e+01    0.3100332    0.2611427 -67.06 0.0006175045    1.034    0.033
       136 -12.6081     15.6765    109.0033   1.1912784969e+02   5.1096931909e+01    0.5536273    0.4100329  67.98  0.000789671    1.460    0.315
       137 -11.6110     22.7031    106.9088   1.1678936797e+02   5.1058298310e+01     0.304166    0.2281233  44.73  0.001268249    1.556    0.357
       138 -12.6846      2.7177     99.7825   1.2167917661e+02   5.4040735208e+01    0.7219801    0.2521301 -80.34  0.001108721    2.779    0.640
       139 -11.8106      2.4772    106.0042   1.2250548889e+02   5.2634514917e+01    0.2866606     0.168426 -68.22  0.000368808    1.279    0.218
       140 -10.5730      6.4331    105.5252   1.2132285893e+02   5.2511194255e+01    0.2301886     0.141193 -63.21 0.0006960153    1.278    0.217
       141 -10.8748     62.8539    106.7919   1.0471505458e+02   4.6930265578e+01    0.2823326    0.2590055  53.81 0.0008798267    1.210    0.173
       142 -10.7494    243.7458    104.2813   6.1603341894e+01   9.8116208958e+00    0.2517256    0.1860567   8.16   0.00125532    1.727    0.421
       143 -10.9523    247.6427    102.1524   6.0520201885e+01   9.3448464876e+00    0.2476068    0.2051779  56.07  0.001145522    1.368    0.269
       144  -9.8336    223.3040    104.0096   6.4782372253e+01   1.4267850133e+01    0.2131932    0.1757443 -35.13 0.0004467066    1.128    0.113
       145 -10.0443     93.1001    104.0374   9.5028540154e+01   4.3014328429e+01    0.2230523    0.2053609 -46.56 0.0005208823    1.041    0.040
       146  -9.4924     89.3112    103.2975   9.5959613068e+01   4.3826750987e+01    0.1452742    0.1121327 -20.66 0.0002119543    1.599    0.375
       147 -10.3314     36.3707    101.7807   1.1182218186e+02   5.1081327454e+01    0.2869348    0.1924461  45.19  0.001126516    1.734    0.423
       148  -9.6640    119.7854    101.4187   8.6762921967e+01   3.8560497050e+01     0.213963      0.14744  30.63 0.0009396538    1.675    0.403
       149  -9.6590    145.3920    100.2058   7.9768950877e+01   3.3243951085e+01     0.231187    0.1453265 -51.22 0.0009520393    1.676    0.403
       150 -10.6221     93.1940     96.2331   9.2975686671e+01   4.4782293371e+01    0.4541366    0.1745351 -43.20  0.001596363    2.603    0.616
       151 -10.6249     94.0826     91.7170   9.1477752354e+01   4.5640628843e+01    0.4844691    0.3080491  10.10  0.001648906    2.688    0.628
       152  -9.5815     84.9937     99.2544   9.6234460199e+01   4.5470030081e+01    0.2761764    0.1655379 -41.08  0.001243534    1.673    0.402
       153 -11.1094     66.8578     98.3250   1.0159211635e+02   4.8390355800e+01    0.2741008    0.1794492 -55.99 0.0003369405    1.352    0.260
       154 -11.1033     62.2894     98.5120   1.0306531907e+02   4.8954190777e+01    0.3310246    0.2991923  15.49 0.0009212643    1.284    0.221
       155 -11.5192     20.2740     97.5423   1.1606378886e+02   5.3425486517e+01    0.4423225    0.2513003 -77.30   0.00175753    1.600    0.375
       156 -10.0118     40.6557     97.2201   1.0961866344e+02   5.1735686360e+01      0.25247    0.1397324 -54.54  0.001123542    1.495    0.331
       157  -9.4292     30.5628     98.2049   1.1297900351e+02   5.2445295401e+01    0.1776301   0.09434225 -55.60 0.0003154042    1.527    0.345
       158 -10.1817     57.2082     96.0744   1.0411531897e+02   5.0165028940e+01    0.3132128    0.1524842 -52.88   0.00104464    1.743    0.426
       159 -10.3712     13.8441     96.8335   1.1793241564e+02   5.4040703378e+01    0.1860081    0.1346052 -56.12 0.0006295745    1.189    0.159
       160  -9.8926    249.9492     95.5081   5.8616487788e+01   9.9169402099e+00    0.1883248    0.1404734  56.54  0.000411981    1.517    0.341
       161  -9.9590    162.2474     92.7901   7.3688448937e+01   3.0777770528e+01    0.2179367    0.1856535   1.69 0.0004636166    1.359    0.264
       162  -9.8953     31.4739     92.4663   1.1162815319e+02   5.3701668132e+01    0.2788453    0.1038236 -63.29  0.001207917    2.163    0.538
       163 -10.6531    158.0181     90.6939   7.4051633100e+01   3.2202726897e+01    0.3686867    0.2304161 -37.64  0.001199149    1.588    0.370
       164 -11.0873     25.4751     91.6110   1.1340386429e+02   5.4399645680e+01    0.2782893    0.2324994 -34.34  0.001047026    1.303    0.233
       165 -10.8257     22.8508     87.3439   1.1347410744e+02   5.5584920213e+01    0.2754166    0.1639376 -63.47 0.0004545452    1.332    0.249
       166 -11.5736     10.5117     90.8999   1.1806295770e+02   5.5614569791e+01    0.2766821    0.2276409  20.98 0.0002923932    1.558    0.358
       167  -9.3906     21.3073     91.3370   1.1469598302e+02   5.4783130875e+01    0.1312634   0.07429752 -44.51 0.0004223357    1.677    0.404
       168 -10.9556     46.3013     84.4988   1.0501562261e+02   5.4094109010e+01    0.5319427    0.4046228  66.05  0.003025225    1.699    0.411
       169  -9.1484    139.2676     87.6588   7.7686096026e+01   3.7218103419e+01    0.1572816    0.1228564 -71.51 0.0006983836    1.602    0.376
       170 -11.0285      4.6525     85.8250   1.1915246590e+02   5.7103749537e+01     0.581365    0.1649863 -64.81  0.002589281    2.375    0.579
       171 -12.3574     17.8502     66.4257   1.1094662267e+02   6.0631672152e+01    0.7909935    0.4974881 -40.65  0.001491241    1.415    0.293
       172 -12.2639     21.0802     77.6968   1.1219712076e+02   5.7906417684e+01    0.5516532    0.2698517 -52.99  0.002932697    1.584    0.369
       173 -10.3417     16.0987     74.2077   1.1324172999e+02   5.9032116862e+01    0.2845582    0.1308582 -55.31 0.0007651696    1.621    0.383
       174 -10.1526      3.4004     78.2747   1.1837578818e+02   5.8863218157e+01    0.3279082    0.1459137 -63.15  0.001125561    1.617    0.382
       175 -11.3276      7.3974     73.9134   1.1625088748e+02   5.9622424138e+01    0.3372709    0.2587325  13.90  0.001388851    1.662    0.398
       176 -10.7348     14.5288     83.8758   1.1560119096e+02   5.6960238230e+01    0.3652878    0.1577878 -59.77  0.001262189    1.705    0.413
       177 -11.4658     12.8980     78.2503   1.1513799541e+02   5.8333010222e+01    0.3870579    0.1792772 -61.48  0.001672247    1.606    0.377
       178 -10.5681     67.1049     84.8391   9.8136743504e+01   5.1450927916e+01    0.3165329    0.2009538 -30.45  0.001162797    1.811    0.448
       179 -10.9627    167.4300     84.1646   7.0057242028e+01   3.1160740231e+01    0.4610018    0.3500285  68.88  0.002119394    1.487    0.328
       180 -10.0185     29.8982     82.5831   1.1016713508e+02   5.6107983021e+01    0.3420702     0.138278 -56.18  0.001598485    1.888    0.470
       181 -10.2259     87.9413     83.3381   9.0989361881e+01   4.8554910031e+01    0.2336983    0.1842216 -55.77 0.0003183845    1.267    0.211
       182  -9.6288    117.9125     83.3591   8.2072635435e+01   4.2811374937e+01    0.2127066    0.2005223   9.71  0.001134527    1.090    0.083
       183 -10.3575     74.8914     76.1126   9.3090470415e+01   5.2236493599e+01    0.2760022    0.2384641  44.70  0.001577035    1.315    0.240
       184 -10.0242     71.0370     79.6346   9.5400095702e+01   5.2047785047e+01    0.2406345    0.1898835 -78.93 0.0009978431    1.600    0.375
       185  -9.3615    208.4131     78.5723   6.0686304615e+01   2.2042741848e+01    0.1486848    0.1402666 -48.75 3.590488e-05    1.011    0.011
       186 -10.1126     92.7091     77.7510   8.7820993677e+01   4.8917103485e+01    0.2740885    0.1967071   9.34  0.001083961    1.847    0.459
       187 -11.5016     59.2427     76.0526   9.8402026792e+01   5.4458452461e+01    0.4448422    0.3352502  83.11  0.002315747    1.957    0.489
       188 -11.3243     62.3641     71.8085   9.6099496163e+01   5.4969215891e+01    0.3966939    0.2236077 -38.21  0.001889216    1.700    0.412
       189 -10.0344    108.4132     76.4973   8.2667357069e+01   4.6177303625e+01    0.2911226    0.2114984  18.28 0.0007443872    1.706    0.414
       190  -9.0154     95.7114     80.6864   8.7783550962e+01   4.7751496950e+01    0.1479218    0.1124289 -13.63 0.0003094517    1.586    0.369
       191 -12.1271     44.5917     75.1846   1.0331287962e+02   5.6373481700e+01    0.2474419    0.2169022  28.04 0.0002666508    1.337    0.252
       192  -9.6662     33.1318     75.6891   1.0751015020e+02   5.7382136295e+01    0.1673314     0.142627 -37.97 0.0005171773    1.139    0.122
       193  -9.7231    145.5102     73.9496   7.1966036098e+01   3.8402689216e+01    0.2434523    0.1524304 -36.62  0.001032124    1.588    0.370
       194 -12.1279    102.6834     72.5267   8.3105890119e+01   4.8119040941e+01    0.4528901    0.2846242 -36.32 0.0005421623    1.554    0.356
       195  -9.5479    194.6280     72.7321   6.1442972516e+01   2.6404802954e+01    0.2064554    0.1354895 -43.61 0.0002896923    1.486    0.327
       196 -10.3707    150.5405     71.9564   7.0158099109e+01   3.7549983720e+01    0.2615136     0.208605  39.55 0.0004203889    1.288    0.223
       197 -10.2559    128.9555     71.7951   7.5443544195e+01   4.2681113367e+01     0.240321    0.2115583 -35.82 0.0002151992    1.118    0.106
       198 -11.1374     77.2248     71.7361   9.0979541447e+01   5.2803391062e+01    0.5470494    0.3123922  42.22  0.001734057    1.948    0.487
       199 -11.1781     37.3892     69.9493   1.0456040354e+02   5.8257685452e+01    0.4971489    0.3245477 -78.57  0.002599577    1.983    0.496
       200 -10.5199     31.1057     66.1169   1.0590393100e+02   5.9669937611e+01    0.3780711     0.172034 -58.51  0.001184942    1.829    0.453
       201  -9.6416     28.0011     68.0147   1.0753880365e+02   5.9520194310e+01    0.1749601    0.1442948 -48.75 0.0003636585    1.031    0.030
       202  -9.2379    116.3232     71.3438   7.8739617290e+01   4.5555987694e+01    0.1584014    0.1180338   2.20  0.000705043    1.733    0.423
       203 -11.3879     50.5490     68.5058   9.9356375717e+01   5.7168463001e+01     0.484634    0.2745232 -36.88  0.001795899    1.708    0.415
       204 -10.0923     51.3530     62.8358   9.7384257422e+01   5.8276244948e+01    0.3004172    0.1880853 -28.43  0.001548099    1.688    0.408
       205  -9.3247    167.9000     69.9935   6.5752086366e+01   3.3589224408e+01    0.1866369    0.1686762  56.53 0.0004918268    1.109    0.098
       206 -12.2433     94.2394     68.4351   8.4377863128e+01   5.0549265076e+01    0.4023937    0.2515998 -37.93   0.00034568    1.521    0.342
       207 -11.0943     68.6893     67.3860   9.2540996897e+01   5.5015188215e+01    0.3543603    0.1940131 -44.50 0.0009823042    1.622    0.384
       208 -12.6689      4.3509     65.4521   1.1575490174e+02   6.1641458362e+01    0.4162862    0.2873786  88.03  0.001330337    1.692    0.409
       209 -10.7000      5.6107     58.7790   1.1391233717e+02   6.3016311913e+01    0.3999831    0.1962183 -72.01  0.001728274    1.929    0.481
       210 -11.3027      5.3244     51.7591   1.1244148823e+02   6.4515301519e+01    0.3098768    0.1963935 -42.11 0.0007574073    1.297    0.229
       211 -11.2447    140.1706     68.6476   7.1581777733e+01   4.0650822418e+01    0.3612293    0.2749901 -53.07 0.0003038035    1.437    0.304
       212 -10.1182     61.3240     53.9983   9.0781533386e+01   5.8770193776e+01    0.2780919    0.2142944   3.96 0.0007795796    1.410    0.291
       213 -11.5383     64.6965     59.9570   9.1562603176e+01   5.7113655704e+01    0.4814748    0.2288639  32.92  0.001535136    2.344    0.573
       214 -11.0871     56.4650     65.5813   9.6340538502e+01   5.7067790782e+01    0.4006293    0.1405836 -43.18  0.001548644    2.571    0.611
       215 -11.6063     57.4641     59.4521   9.4047133471e+01   5.8206979595e+01    0.5468593    0.3038654 -48.20  0.001242103    1.593    0.372
       216 -11.2778     77.1734     62.8986   8.8149193733e+01   5.4622339698e+01    0.5127313    0.2551451 -46.30  0.002248746    1.873    0.466
       217  -9.9723     99.8335     64.8656   8.1445976682e+01   5.0183641699e+01    0.2330648    0.1920793  -7.70  0.001145926    1.296    0.228
       218  -9.3395    217.0120     64.5351   5.5597143990e+01   2.2207528113e+01     0.208539    0.1244546 -84.24 0.0006682204    2.556    0.609
       219  -9.2415    150.4868     64.5383   6.7831122683e+01   3.8874106793e+01     0.152265    0.1499856  22.53 3.987241e-05    1.006    0.006
       220 -10.8349     86.0400     46.3985   7.9240539073e+01   5.6163481156e+01    0.6994332    0.3947306  -0.62  0.002442444    3.754    0.734
       221  -9.8537     82.4879     46.5693   8.0498305283e+01   5.6775604905e+01    0.2053051     0.155765  -2.25 6.605183e-05    1.414    0.293
       222 -10.9683     78.4925     47.4576   8.2206157556e+01   5.7317003532e+01    0.5266714    0.2482318 -45.97  0.001657427    2.203    0.546
       223 -11.8981     86.2343     57.4091   8.3208376039e+01   5.4145148800e+01     0.881549    0.4097129 -27.60  0.003220004    2.905    0.656
       224 -11.5981     87.0844     52.1913   8.1053351258e+01   5.4953207174e+01    0.4031962    0.2954806 -60.56 0.0003634503    1.842    0.457
       225 -10.5012     11.0286     62.4419   1.1263031566e+02   6.1929913358e+01    0.2004739    0.1403533 -66.25 0.0003966184    1.236    0.191
       226 -10.7772    201.4318     62.0010   5.7298241801e+01   2.6434050588e+01    0.2658356    0.2157342  66.89 0.0003553625    1.257    0.204
       227  -9.4873     41.5063     64.4128   1.0153341956e+02   5.9043875887e+01    0.1279413    0.1087469 -43.66 0.0001552513    1.034    0.033
       228 -10.8475     45.0751     49.8461   9.5629247899e+01   6.1649248867e+01    0.4674489    0.1807022 -48.21  0.002057282    2.176    0.540
       229  -9.9514     47.4423     58.1767   9.7419128720e+01   5.9702006807e+01    0.2318272    0.1814538 -62.35 0.0009797214    1.414    0.293
       230 -10.2104     43.9456     57.0587   9.8417119645e+01   6.0324951601e+01    0.2541435    0.1895242 -16.73 0.0003514334    1.402    0.286
       231 -11.3589     29.3785     60.8450   1.0517642960e+02   6.0952455129e+01    0.5905889    0.2529846  12.66  0.002575538    3.459    0.711
       232 -12.2781    232.8257    245.8322   9.1936402515e+01  -8.6465049313e+00    0.5610596    0.3297866 -20.75  0.003537101    1.847    0.459
       233 -10.4007    147.0375     57.0244   6.6182422973e+01   4.0989284007e+01    0.2221859    0.2193224 -69.65            0    1.052    0.049
       234 -10.1786    129.8064     55.9513   6.9955410289e+01   4.5319213314e+01    0.2594007     0.200686 -24.45 0.0004983846    1.326    0.246
       235 -12.4597    128.7144     50.3029   6.8274836330e+01   4.6502307351e+01    0.4978726    0.3740748   5.42 0.0009744135    1.597    0.374
       236  -8.7121    114.3487     57.3370   7.4570852311e+01   4.8574228552e+01    0.1585306    0.1133013  10.14 0.0007046956    1.784    0.439
       237 -11.7144     75.3318     56.0328   8.6433020073e+01   5.6262617704e+01    0.2395476    0.2116818 -23.41 0.0002719363    1.007    0.007
       238 -11.2171    103.1430     58.8727   7.8375783938e+01   5.0650734295e+01    0.4843015    0.3192734 -11.82  0.001309122    1.995    0.499
       239  -9.6394    123.1228     56.1784   7.1768364527e+01   4.6823497183e+01    0.2013716     0.172474 -57.00 0.0003925737    1.327    0.247
       240  -9.6197    143.5079     53.4828   6.5813344340e+01   4.2432721886e+01    0.1488821    0.1471673  37.57 0.0008102512    1.026    0.025
       241 -10.9081     12.4935     51.4399   1.0943013236e+02   6.4175666293e+01      0.26929    0.1827177 -63.62 0.0006641616    1.328    0.247
       242 -11.0640     11.1656     44.6755   1.0817435762e+02   6.5646051384e+01    0.4692444    0.1900021 -41.22  0.001862038    2.003    0.501
       243  -9.7435      4.3521     47.3092   1.1176584129e+02   6.5488276177e+01    0.2795048     0.119771 -35.55  0.001470365    2.174    0.540
       244 -11.1678      7.0517     41.0499   1.0895222879e+02   6.6616565041e+01    0.2800721     0.117108 -54.84  0.000539182    1.735    0.424
       245  -9.4761    116.3072     52.6997   7.2389470898e+01   4.8942679996e+01    0.1429409    0.1182024 -73.84 0.0001494976    1.596    0.373
       246 -10.1210    109.1832     52.1283   7.4193345096e+01   5.0586798663e+01    0.2211033    0.1871169   0.87 0.0003877595    1.215    0.177
       247 -11.0079     70.1355     50.2800   8.6218641832e+01   5.8173265674e+01    0.4386147    0.3386292  81.15  0.002047213    2.354    0.575
       248 -10.9312    104.0626     49.1703   7.4613484742e+01   5.2163866893e+01    0.4554783    0.2995903 -34.49  0.002204399    1.482    0.325
       249  -9.8586    186.7677     50.1231   5.6291968405e+01   3.1953870644e+01    0.2195645    0.1901608 -62.40 0.0003313669    1.169    0.144
       250  -9.6268     53.5204     50.3407   9.2475289684e+01   6.0527475314e+01    0.1991168    0.1211502  29.56  0.000614512    1.816    0.449
       251  -9.4925    166.8016     49.1836   5.9547590174e+01   3.7225187586e+01    0.2059834    0.1674246  36.47 0.0003971834    1.307    0.235
       252 -11.2478    152.4945     47.8094   6.1958987616e+01   4.1073954098e+01    0.6147638     0.333369  42.28  0.001951928    1.955    0.488
       253 -10.8428     95.0362     48.4809   7.7116493508e+01   5.4101567297e+01    0.3495434    0.2327422 -37.53  0.001405891    1.459    0.314
       254  -9.3871    220.4236     48.5073   5.0907163383e+01   2.3747808308e+01     0.142576    0.1293665 -59.56 0.0002377539    1.015    0.015
       255 -10.7180    120.0954     47.2293   6.9404719740e+01   4.8985744794e+01    0.2853442    0.2031719 -31.81  0.001025125    1.402    0.287
       256  -9.7705    115.7576     48.3847   7.0990225182e+01   4.9776602017e+01    0.2023719    0.1299489  38.97 0.0002654131    1.572    0.364
       257  -9.8079     26.3074     48.5628   1.0289080773e+02   6.3763209605e+01    0.2100393   0.09047442  40.16 0.0009625525    3.235    0.691
       258  -9.1958    194.3360     47.3056   5.4266168300e+01   3.0426526942e+01    0.1510988    0.1116767  30.29 0.0007040097    1.670    0.401
       259 -10.0775    142.6607     45.7206   6.3383190632e+01   4.3843457248e+01    0.2950368    0.2353983 -66.72 0.0007416474    1.513    0.339
       260  -9.1763     59.3645     45.2610   8.8380540611e+01   6.0699661243e+01     0.133884   0.09260748  -7.14 0.0003411234    1.639    0.390
       261  -9.6705     51.2584     44.9469   9.1436127804e+01   6.1844049361e+01    0.1822976    0.1424138 -30.34 0.0003501548    1.081    0.075
       262 -10.6158     89.8797     40.4520   7.5685420132e+01   5.6429083177e+01    0.5432852    0.2884478 -55.27  0.002035778    3.367    0.703
       263 -10.4996    123.5200     42.1575   6.6678807517e+01   4.8977661208e+01    0.4499057    0.2944524  45.93  0.002134262    1.472    0.321
       264 -11.5057    110.8785     42.0586   7.0002389398e+01   5.1851020961e+01    0.2656226    0.2384483  32.97   0.00030007    1.082    0.076
       265  -9.6201    165.1685     42.3360   5.7688430573e+01   3.8637141967e+01    0.2102168    0.1372611  73.28 0.0003323554    1.677    0.404
       266 -11.7357     97.2486     41.1576   7.3643366265e+01   5.4864462113e+01    0.7730721     0.376589 -40.70  0.003298465    2.105    0.525
       267 -10.4155    101.5008     36.9248   7.0716785810e+01   5.4637320787e+01    0.2500197    0.1923553  40.55 0.0007864096    1.266    0.210
       268 -10.7240    104.9691     34.1075   6.8609404110e+01   5.4310599152e+01      0.26207    0.2368065  23.12 0.0003027594    1.039    0.038
       269 -11.0244     98.2102     31.6031   6.9573494333e+01   5.6093965675e+01    0.4480591    0.2543199  29.48  0.001103864    1.988    0.497
       270 -11.3313    101.1138     28.3793   6.7422876309e+01   5.5926278976e+01    0.2605129    0.2475506 -22.06 0.0004206547    1.168    0.144
       271 -10.8583     82.6056     41.6886   7.8575893251e+01   5.7583064785e+01    0.3975326    0.2246685 -16.06  0.001692632    2.350    0.575
       272 -11.6019     81.5728     35.9674   7.6642616396e+01   5.8692456191e+01    0.4765235    0.3761317 -45.94  0.002554083    1.471    0.320
       273  -9.6837    148.0000    244.9868   1.0689270250e+02   4.5960809485e+00    0.1640809   0.06960748 -51.03 0.0008074233    2.977    0.664
       274 -10.9482     66.1578     41.4971   8.4364887630e+01   6.0371422851e+01    0.3546576    0.2286571   4.02  0.001188112    1.985    0.496
       275 -11.0274     69.9424     37.3082   8.1297029042e+01   6.0482886015e+01    0.3275762     0.177809 -26.66 0.0008422857    1.883    0.469
       276 -10.2322     23.6356     41.2964   1.0173485402e+02   6.5429147091e+01    0.1987627    0.1811949  87.82 0.0009738487    1.544    0.352
       277 -12.8937     25.6784     36.2638   9.9117187262e+01   6.6222314711e+01    0.5500481    0.4456256  22.60  0.003797753    1.470    0.320
       278 -11.2228     20.3702     37.9262   1.0206491044e+02   6.6344310251e+01    0.2443712    0.1876189 -38.22 0.0005910776    1.009    0.009
       279 -10.2235     55.9926     40.2235   8.7777313657e+01   6.2080193848e+01    0.2659431    0.1891466 -23.03  0.001162704    1.292    0.226
       280 -10.5617     51.7134     40.5564   8.9612042154e+01   6.2593931244e+01    0.2407515    0.2144629 -88.63  0.000803155    1.733    0.423
       281 -10.7372    100.2634     55.6204   7.8100932062e+01   5.1818386536e+01    0.3551578    0.2189407  46.87   0.00127763    1.698    0.411
       282 -10.1176     42.5390     37.3382   9.2164844699e+01   6.4306810387e+01     0.378713    0.2776622  88.55  0.001815453    3.358    0.702
       283 -10.8016    183.0477     38.4095   5.3423684317e+01   3.4560057983e+01    0.3081556    0.1971579 -43.48 0.0003224082    1.568    0.362
       284 -10.1400     61.9271     37.8108   8.4511732036e+01   6.1649297495e+01    0.2122376    0.1609996 -29.08 0.0003233586    1.161    0.139
       285 -10.5281    166.5782     36.7273   5.5650635576e+01   3.9041931277e+01    0.2458834    0.1759583 -86.70 0.0005549524    1.677    0.404
       286  -9.8337     21.1943     28.0396   9.8155114395e+01   6.8124062634e+01    0.3537458    0.1104511 -47.13  0.001423244    2.425    0.588
       287 -10.3983     17.8591     31.3793   1.0095761277e+02   6.7779526858e+01    0.3428218    0.2256581  22.61  0.002218459    1.771    0.435
       288 -10.1668     13.0053     28.4670   1.0221903341e+02   6.8675607415e+01    0.4040686    0.2101907  -4.02  0.002220283    2.397    0.583
       289 -10.5010     10.1575     25.1619   1.0241347576e+02   6.9477457011e+01    0.2770114    0.1856025 -30.64 0.0008481445    1.200    0.167
       290 -11.0889     10.0474     34.8398   1.0575166631e+02   6.7663359132e+01    0.3988777    0.2752307  13.86   0.00270798    1.696    0.410
       291 -10.4456      7.0866     30.5951   1.0577443603e+02   6.8656856680e+01    0.2990642    0.1568682 -56.40  0.001182105    1.593    0.372
       292  -9.6559    127.4374     36.4506   6.3631370619e+01   4.8877913611e+01    0.1937716    0.1412008  -9.29 0.0001018822    1.533    0.348
       293 -10.2496    125.6658     33.1333   6.2836492886e+01   4.9751692141e+01    0.2650811    0.2217311 -63.65 0.0005070573    1.460    0.315
       294  -9.4515    155.1810     35.8600   5.7465264361e+01   4.2084336934e+01     0.207367    0.1654804  31.95 0.0005129954    1.336    0.251
       295  -9.6044    110.6286     34.7918   6.7303511054e+01   5.2977769150e+01    0.1916406    0.1254307 -40.51 0.0004349152    1.640    0.390
       296  -9.2170     60.3066     33.6655   8.3451932391e+01   6.2586712272e+01    0.1710826     0.116203  22.79 0.0004923078    1.526    0.345
       297 -10.0500     57.3582     34.7268   8.5047610786e+01   6.2840662617e+01    0.2759628    0.2374334  81.58  0.001050286    1.980    0.495
       298 -10.4298     55.9790     31.2553   8.4158547576e+01   6.3614524845e+01    0.2324354    0.1616221 -24.20  0.001090499    1.276    0.216
       299  -9.5840    206.1402     33.8307   4.8829213293e+01   2.9265480265e+01    0.1822923    0.1624887  37.37  0.001025538    1.288    0.224
       300  -9.8438    150.9693     34.4901   5.7824686185e+01   4.3337356661e+01    0.2191152    0.1385778  59.19 0.0004150955    1.504    0.335
       301  -9.7630    192.7742     32.9762   5.0384269819e+01   3.2768989103e+01    0.2732343    0.1221509  37.53 0.0008979675    3.624    0.724
       302 -10.7234    139.3908     30.9005   5.8942683930e+01   4.6709379524e+01    0.3166656     0.234982   2.37 0.0005622988    1.578    0.366
       303  -9.7990    233.8366     32.3930   4.5251552190e+01   2.2709104784e+01    0.1816702    0.1162887  56.80 0.0004180131    1.677    0.404
       304 -11.3342    177.6101     30.5669   5.1908431915e+01   3.6983215648e+01    0.5030656     0.291573 -34.41  0.002289785    1.735    0.424
       305  -9.5409     43.2259     31.7695   8.9672356304e+01   6.5210538782e+01    0.1732986    0.1219393 -14.89 0.0006035437    1.348    0.258
       306 -10.4392    154.1805     29.5011   5.5536768962e+01   4.3157756608e+01    0.3739206    0.2214848 -61.53  0.001546557    2.318    0.569
       307 -10.6389     49.5879     30.0854   8.6281514197e+01   6.4688997768e+01    0.3905826    0.1988656 -30.82  0.001953581    1.824    0.452
       308 -10.1916    223.0367     30.0109   4.5812098618e+01   2.5582608797e+01    0.2309536    0.1437408 -64.20 0.0004229638    1.674    0.403
       309  -9.5953    168.7976     30.2078   5.3207564210e+01   3.9308816977e+01    0.1938605    0.1601567  35.15 0.0002483188    1.299    0.230
       310 -12.0771     74.3814    238.6635   1.1957754213e+02   1.6639635729e+01    0.6099353     0.349415 -60.82  0.003794652    2.053    0.513
       311 -10.0595    109.6964    243.2335   1.1366744324e+02   1.0812577756e+01    0.2531451    0.1506663  64.75 0.0009638214    1.713    0.416
       312 -10.7689     74.0158    232.7381   1.1914638302e+02   1.7739840464e+01    0.1878528    0.1738617  62.50 0.0006396048    1.349    0.259
       313 -11.4544     36.1184    241.3653   1.2630745115e+02   2.0929559487e+01      0.39849    0.2210846  64.43  0.002726282    1.365    0.267
       314 -10.0271     88.5392    241.4800   1.1730277970e+02   1.4193885664e+01    0.1828928   0.09665441 -52.97  0.001029823    2.509    0.601
       315 -10.3939    156.4242    241.2702   1.0488393502e+02   3.7977938499e+00    0.1422388    0.1173211 -73.35 0.0009515179    1.604    0.377
       316  -9.1369     50.4652    240.4534   1.2385637641e+02   1.9398682127e+01    0.1103397   0.08038276  66.60  0.000807771    1.012    0.012
       317 -10.3157    248.5539     27.6743   4.2694793562e+01   1.9934708020e+01    0.2379802    0.1403418 -76.07  0.001189441    1.844    0.458
       318 -10.9389    214.6175     27.3720   4.6072894011e+01   2.7967288407e+01    0.2627519    0.2380525  74.23 0.0006821289    1.122    0.109
       319 -11.0711    135.0823     22.4764   5.6826814886e+01   4.8798168115e+01    0.5937069    0.2435799  37.48  0.002083194    3.058    0.673
       320 -10.2586    195.6313    238.5986   9.7350636700e+01  -2.1382119803e+00    0.2558419    0.1684402  21.27  0.001544216    1.472    0.321
       321 -11.6326     70.7286     25.8257   7.6170688149e+01   6.2133071104e+01    0.3483083    0.2450961  28.95 0.0003307634    1.383    0.277
       322 -11.4362    237.3614     25.3378   4.3185044114e+01   2.2768576815e+01    0.2711442    0.2134017 -54.14 0.0003908261    1.124    0.111
       323  -9.8931     72.6287    250.0970   1.2078254502e+02   1.4923046306e+01    0.1630221    0.1442448  34.78  0.001256384    1.575    0.365
       324  -9.5404    135.3551    237.3070   1.0829305637e+02   7.7902663665e+00    0.1170672   0.08916292  17.08 0.0007041948    1.720    0.419
       325  -9.9647    108.1977     17.6316   6.1130421050e+01   5.5697607369e+01    0.3514377    0.1754559  47.84  0.001389335    1.801    0.445
       326 -11.0438     96.4417     23.6681   6.6835019430e+01   5.7525717553e+01    0.3661226     0.234745  50.72 0.0002647706    1.554    0.356
       327 -10.8097    197.2114     24.8780   4.7491851895e+01   3.2636686121e+01    0.2079504    0.1740378 -67.07 0.0003000535    1.160    0.138
       328 -11.3914     30.1537    233.5066   1.2684626037e+02   2.2996507607e+01     0.380143    0.1829662 -82.23  0.002386469    1.889    0.471
       329 -10.4111    179.4867    243.9675   1.0103457831e+02  -2.8144078593e-01    0.1424265    0.1054378 -83.01 0.0008099621    2.537    0.606
       330  -9.1255     35.0877     22.8100   8.9505479044e+01   6.7663082111e+01    0.3105625    0.1360876  17.66  0.001312098    3.236    0.691
       331 -12.0328     17.0200    238.3083   1.2924097580e+02   2.3538785904e+01    0.9605306    0.1901354  37.90  0.004364214    4.033    0.752
       332  -9.1888    129.5190     32.4985   6.1697360078e+01   4.8915380483e+01    0.1443055    0.1349161  30.87 2.375755e-05    1.004    0.004
       333 -10.7989     28.9943     21.0591   9.1588889158e+01   6.8604914778e+01     0.272782    0.1457227 -29.09 0.0007494448    1.650    0.394
       334  -9.9276    185.2426     21.4272   4.8069140773e+01   3.6105809158e+01    0.1964039    0.1296425  83.92 0.0005145379    1.569    0.363
       335 -10.3812     66.5449     21.1311   7.5615570018e+01   6.3505044688e+01    0.2654849    0.1730466  34.86 0.0009201956    1.505    0.335
       336 -10.5029     44.8221     20.3584   8.4044631747e+01   6.6865468226e+01    0.2821289    0.2037618  42.89  0.001471956    1.814    0.449
       337 -10.0591    177.5923    234.8024   1.0009293795e+02   1.2922583970e+00    0.2300738    0.1653009  19.99 0.0008445681    1.439    0.305
       338 -10.6661     10.2081     15.6007   9.8649625169e+01   7.1162148021e+01    0.2091085    0.1391106 -24.60 0.0006414777    1.222    0.182
       339  -9.4560    151.2451     18.6235   5.2403546684e+01   4.5172938193e+01    0.1946628    0.1179682  53.69 0.0002841456    1.501    0.334
       340  -9.9749    214.0331     17.0000   4.3428874167e+01   2.9336484149e+01    0.2779346    0.1277343  64.59  0.001226413    2.033    0.508
       341  -9.7776    168.6858     17.3142   4.9167061644e+01   4.0836308628e+01     0.146724    0.1017563 -65.85 0.0002407217    1.641    0.390
       342 -11.1306    244.4761     15.7341   4.0292191441e+01   2.2280910351e+01    0.2293543    0.1791234 -73.87 0.0005536992    1.140    0.123
       343 -10.2867     35.1273     15.2862   8.6061165069e+01   6.8842028815e+01    0.2674074    0.1589786   1.00 0.0006764262    1.920    0.479
       344  -9.9335    167.1736    233.8177   1.0189036317e+02   3.1462847252e+00    0.1630839    0.1318586  17.44  0.000778862    1.310    0.236
       345 -10.8413    153.8001    233.5451   1.0436033583e+02   5.3888430292e+00    0.1919612    0.1741867 -39.43 0.0007000758    1.354    0.262
       346 -10.7160    249.1014     15.1209   3.9776317536e+01   2.1315215086e+01    0.1764486    0.1689617 -87.97  0.000490003    1.224    0.183
       347  -9.6933     50.2291     15.4250   7.9410870886e+01   6.6839771790e+01    0.2261118    0.1089269  33.38  0.001142618    2.108    0.526
       348  -9.1737     62.4685    233.4840   1.2127466129e+02   1.9134147801e+01    0.1150983   0.08573251  66.37 0.0008096133    1.008    0.008
       349  -9.3450    233.3173     14.6763   4.0998972522e+01   2.4967673046e+01    0.1429687   0.08301944 -61.66 0.0003907345    1.669    0.401
       350  -9.8873     24.1160    232.3131   1.2778481308e+02   2.3866561718e+01    0.1643212     0.115228 -86.17 0.0005732643    1.314    0.239
       351  -9.8522     79.9385    231.5107   1.1796169890e+02   1.7146837564e+01    0.1733506   0.09412473  45.72 0.0005156292    1.524    0.344
       352  -9.5811     12.9869    231.2988   1.2955799071e+02   2.5199228382e+01    0.1454099     0.101829  68.50  0.001050232    1.059    0.055
       353 -10.8520    168.9468     13.3279   4.7881555169e+01   4.1188858539e+01    0.2031555    0.1639307  65.24 0.0004208524    1.136    0.120
       354 -13.1740     19.2099    247.8468   1.2934085448e+02   2.1658442024e+01     1.282966    0.3980417  50.38  0.007436825    2.198    0.545
       355 -10.2145      5.0054    226.7711   1.3064450812e+02   2.6798191439e+01    0.4026385    0.1314841  70.46  0.002037449    2.852    0.649
       356 -10.0567    190.5934    227.0202   9.6520103163e+01   2.5379618024e-01    0.2970096    0.1211424 -44.91  0.001356933    3.037    0.671
       357 -10.0194    248.7810    227.5961   8.6293533233e+01  -8.9024024820e+00    0.2047139    0.1237469 -10.57 0.0007936101    1.660    0.398
       358 -10.1788     85.8664    233.0660   1.1701852069e+02   1.6035873558e+01    0.1877725     0.127077  64.79 0.0006320201    1.256    0.204
       359  -9.7797    129.8778    226.7035   1.0802877540e+02   1.0417094915e+01    0.2872998    0.1219484  57.32  0.001162557    3.048    0.672
       360 -10.7462    120.1703    226.6451   1.0988760030e+02   1.1988831246e+01    0.1978693     0.126835  54.98   0.00058618    1.370    0.270
       361 -10.1932     88.0161    227.0065   1.1604163529e+02   1.6817371660e+01    0.1899826    0.1499709  63.11  0.001295695    1.004    0.004
       362 -10.2601     66.6435    226.2666   1.1993983594e+02   1.9909365009e+01    0.2758195    0.1296415  43.24  0.001053926    1.817    0.450
       363 -10.0490     25.7686    225.4553   1.2712720595e+02   2.4948076410e+01    0.1966297    0.1463257 -59.98  0.001440302    1.836    0.455
       364  -9.3345    115.5294    244.5192   1.1274478692e+02   9.7246182966e+00    0.1179183   0.09330778  51.76  0.000310174    1.039    0.037
       365 -10.1185    159.8850    235.8880   1.0353447264e+02   4.0349597398e+00     0.187787    0.1477799  27.01  0.000562563    1.243    0.195
       366 -10.5675    122.5711    221.5280   1.0879878854e+02   1.2499571162e+01    0.3605725    0.2134221  70.84  0.001792612    2.251    0.556
       367 -10.2808    141.2876    221.3555   1.0511776927e+02   9.4408111213e+00    0.2507188    0.1929966  16.01  0.001469377    1.652    0.395
       368  -9.4584    250.5594    219.2485   8.4560578597e+01  -8.1942534238e+00    0.1525746   0.09689249 -11.18 0.0003918493    1.509    0.337
       369  -9.9091    174.2689    219.4686   9.8437186480e+01   4.1277335189e+00    0.2595421    0.1083137  37.97  0.001150333    2.100    0.524
       370 -10.8076      9.5502    216.9174   1.2943044255e+02   2.8196003531e+01    0.2821329     0.146096  60.62  0.001115143    1.480    0.325
       371 -11.4594    236.0553    214.8318   8.6267530778e+01  -5.4661015945e+00    0.4555691    0.2682903  21.23  0.001764045    1.618    0.382
       372 -10.5498     24.0904    216.7799   1.2691112966e+02   2.6763142910e+01    0.2888886   0.08616873  43.76  0.001479143    2.588    0.614
       373 -10.4988     30.8607    215.9054   1.2565662021e+02   2.6206341771e+01    0.2792612    0.1518852  36.95  0.001728322    1.962    0.490
       374  -9.8749    193.4534    215.9103   9.4208804563e+01   1.3784176429e+00    0.3653905    0.1399531  29.95  0.001330103    3.438    0.709
       375 -10.4263     21.9972    220.4755   1.2749026522e+02   2.6279024080e+01    0.1627857     0.111789  81.75 0.0004163281    1.122    0.108
       376  -9.1483    201.6521    215.6966   9.2633497085e+01   1.7268416766e-02    0.1327291   0.08778508  13.39 0.0007040394    1.694    0.410
       377 -10.5835     13.4429    222.0567   1.2903104842e+02   2.6850623944e+01    0.1723858    0.1410772 -83.33 0.0009235897    1.402    0.287
       378  -9.6050    170.3042    213.3143   9.8246049906e+01   5.7895272286e+00    0.1283815   0.09550031  10.95 0.0003723943    1.619    0.382
       379 -10.6705     21.2518    212.3052   1.2714605360e+02   2.7920634721e+01    0.3167654    0.1311223  57.87   0.00179435    1.977    0.494
       380 -10.1210    208.9898    212.0757   9.0653327835e+01  -7.0289568255e-01     0.195032     0.159539  19.18 0.0004772629    1.038    0.036
