#   1 NUMBER                 Running object number                                     
#   2 MAG_AUTO               Kron-like elliptical aperture magnitude                    [mag]
#   3 X_IMAGE                Object position along x                                    [pixel]
#   4 Y_IMAGE                Object position along y                                    [pixel]
#   5 X_WORLD                Barycenter position along world x axis                     [deg]
#   6 Y_WORLD                Barycenter position along world y axis                     [deg]
#   7 A_WORLD                Profile RMS along major axis (world units)                 [deg]
#   8 B_WORLD                Profile RMS along minor axis (world units)                 [deg]
#   9 THETA_WORLD            Position angle (CCW/world-x)                               [deg]
#  10 FWHM_WORLD             FWHM assuming a gaussian core                              [deg]
#  11 ELONGATION             A_IMAGE/B_IMAGE                                           
#  12 ELLIPTICITY            1 - B_IMAGE/A_IMAGE                                       
         1 -12.4411    198.5532     39.6590   4.4884199096e+01   3.0704337357e+01     1.025093     1.007869 -12.48  0.004648551    1.165    0.141
         2 -12.5255    209.0164     29.0571   4.0894030114e+01   2.9545394188e+01    0.8074402    0.7173131  24.09  0.001867683    1.426    0.299
         3 -11.1302    235.8934      4.1646   3.2726879583e+01   2.6273700598e+01    0.5519025    0.4545958  66.13  0.003124585    1.361    0.265
         4 -10.6755    230.3755      3.7777   3.3047981912e+01   2.7504171521e+01    0.4360366    0.2880784 -53.52   0.00244338    1.329    0.247
         5  -8.8151     28.3386      8.2962   7.9060970372e+01   7.0634960678e+01    0.1237444   0.07339656  -2.30 0.0007031171    1.655    0.396
         6  -9.9175     32.5074      5.5501   7.5527681845e+01   7.0467574825e+01    0.3071409   0.09967393 -37.09  0.001360999    3.095    0.677
         7  -8.6169     77.3548    226.1835   1.1294614141e+02   1.7514811291e+01    0.2448049    0.1594988 -89.85  0.001314505    1.675    0.403
         8 -11.5062     15.4739    190.7880   1.2274238636e+02   3.2110229376e+01    0.4182927      0.29396  49.85 0.0004471732    1.368    0.269
         9 -12.5145     44.7987    200.0059   1.1726260368e+02   2.7090329212e+01     1.632539    0.8109189  69.06  0.003662227    2.230    0.551
        10 -13.3852     55.6571    188.8485   1.1373271792e+02   2.8288644001e+01     6.571743     2.662808  67.28   0.02139782    4.704    0.787
        11  -9.9833    109.5630    201.5389   1.0297369709e+02   1.7783193216e+01      0.29203    0.2633524 -35.31 0.0009596522    1.291    0.225
        12 -10.0531     63.3371    199.9902   1.1321147001e+02   2.4839308352e+01    0.5105072    0.1842012 -56.44 0.0009094154    2.807    0.644
        13 -15.7915      6.2661    207.2852   1.2561883537e+02   2.9416321687e+01     19.35336     1.083877 -76.20   0.01453472   11.435    0.913
        14  -8.9786    192.9875    194.7628   8.3390289859e+01   4.6273520007e+00     0.297933    0.1556924 -58.35  0.001063025    3.896    0.743
        15  -8.4805     99.5013    180.9940   1.0225120955e+02   2.3894298943e+01    0.2123665    0.1858035  46.01 0.0006689269    1.108    0.097
        16 -10.3476     69.2527    174.8153   1.0877826898e+02   2.9789156750e+01    0.4216807     0.292097 -35.80  0.001708032    1.911    0.477
        17 -10.4618     73.9648    169.7273   1.0688445181e+02   3.0348167878e+01    0.3910414    0.2519807 -46.75  0.001043247    1.705    0.413
        18 -12.9615     57.2568    239.8254   1.1810627982e+02   1.7493408242e+01     0.967388    0.5533261  55.87   0.00504519    1.453    0.312
        19  -9.7440    114.3381    173.7330   9.7388481889e+01   2.3081802049e+01    0.3109963    0.2296025 -67.32  0.001547921    1.475    0.322
        20  -9.4951    102.6291    172.1789   1.0003840412e+02   2.5410831389e+01    0.3639956    0.2612342 -72.16  0.001805177    1.520    0.342
        21  -8.3018    138.2359    169.5579   9.0739394324e+01   1.9701223348e+01    0.2928188    0.1377559  43.62  0.001133169    2.081    0.519
        22 -11.1047     82.5231    160.7987   1.0329129196e+02   3.1255349374e+01    0.9260485    0.4613162  58.00 0.0006870466    2.707    0.631
        23 -12.0680     70.9331    155.9183   1.0556627986e+02   3.4091755880e+01    0.5852911    0.5085704 -19.44  0.001297567    1.414    0.293
        24 -12.9686     68.7862    144.2995   1.0422865503e+02   3.7231192857e+01     2.591407     1.294188  72.26  0.005998658    4.948    0.798
        25  -8.2328    156.1474    157.9916   8.4041280323e+01   1.8733898146e+01     0.252094    0.1809154 -74.88  0.001072935    2.100    0.524
        26 -10.6075     89.2641    154.1659   1.0035646517e+02   3.1829182744e+01    0.5719382    0.4297015 -15.64  0.001672627    1.847    0.459
        27 -10.2693     54.5155    148.0049   1.0877273902e+02   3.8127589287e+01    0.6270919    0.1901127 -63.83  0.002244249    2.900    0.655
        28  -9.4097    133.6427    143.8219   8.6457493428e+01   2.6352324683e+01    0.3614848    0.1554693 -53.64  0.001154941    2.574    0.612
        29  -9.0862     39.2995    146.5835   1.1270158234e+02   4.0149713257e+01    0.2979934    0.1504723  36.31  0.001442936    2.093    0.522
        30  -9.5332    102.6649    139.6953   9.3847904089e+01   3.3114237028e+01    0.4870833    0.3031745 -30.98  0.002014817    2.084    0.520
        31 -14.5160     31.1892    249.6951   1.2347852481e+02   1.8698510923e+01     8.874789     2.807804  25.62   0.02128086   14.583    0.931
        32 -10.6629     90.3904    139.1709   9.7178105104e+01   3.5295927075e+01    0.2933183    0.2609431 -36.97 0.0005025049    1.168    0.144
        33  -9.5577     32.8920    165.2518   1.1656800035e+02   3.6298549440e+01    0.2522064    0.1975005  75.39 0.0007937595    1.175    0.149
        34  -8.9477    105.9265    130.8889   9.0991970025e+01   3.4646845439e+01    0.3379578    0.2947291  79.09  0.001550394    1.309    0.236
        35 -10.0470     43.8968    129.6322   1.0892112936e+02   4.3840714672e+01    0.3561308    0.2748002  68.21  0.002011738    1.433    0.302
        36  -8.7947    112.0542    129.8650   8.9033317814e+01   3.3765062580e+01     0.286971     0.218246   8.87  0.001217595    1.673    0.402
        37  -9.3234     99.1799    125.9596   9.1791028825e+01   3.7022291952e+01    0.3143944    0.2464948 -24.71 0.0006643556    1.459    0.315
        38  -9.9389    118.9466    123.4491   8.5567655254e+01   3.3945136765e+01    0.5705545    0.3286499  15.81  0.001905884    3.211    0.689
        39 -11.3964     31.1853    118.6854   1.1098295239e+02   4.7746764547e+01    0.3857287    0.3628866  44.86  0.002548035    1.236    0.191
        40  -8.2706    108.0947    119.0797   8.7555761583e+01   3.7042112160e+01    0.2207347    0.1988279 -15.25 0.0002756361    1.170    0.145
        41 -10.3006     54.3953    117.7760   1.0361924083e+02   4.5597212094e+01    0.4504257    0.2277554 -73.06   0.00184243    2.328    0.570
        42  -9.5608    134.7038    113.3701   7.8691234927e+01   3.2985898834e+01    0.5949258    0.1405819 -45.33  0.001536984    4.199    0.762
        43  -7.9585    168.3293    113.6787   7.0516093896e+01   2.5466088345e+01    0.1591454    0.1264168 -80.42 0.0004702096    1.692    0.409
        44 -11.0983     30.2869    111.3410   1.1006090090e+02   4.9611070372e+01     0.344786      0.31911 -87.54  0.002256726    1.152    0.132
        45 -10.4902     31.2172     99.6529   1.0765021819e+02   5.2345707441e+01    0.4102007    0.2075657  48.82  0.001853935    2.669    0.625
        46 -10.1937    116.2434    109.6813   8.2785316464e+01   3.7629393866e+01     0.572688    0.3580646  51.41  0.002412837    1.800    0.444
        47 -10.1766     43.5182    109.7048   1.0551311122e+02   4.8766784847e+01    0.3814466    0.1463373 -59.42  0.001557793    2.154    0.536
        48  -8.2225    205.7971    110.1876   6.1954940786e+01   1.7741337143e+01    0.2064054    0.1740625  -0.99 0.0006169493    1.325    0.246
        49 -10.2896     50.4364    108.8469   1.0309109715e+02   4.8231096957e+01    0.4528326    0.2590596  62.54   0.00188931    2.786    0.641
        50  -8.2983     59.4686    220.2854   1.1603541098e+02   2.1041887751e+01    0.2486283    0.1470909  21.60   0.00128151    2.403    0.584
        51 -15.2924      6.4326    246.0216   1.2747822451e+02   2.1887791675e+01     1.650239     1.553976  49.74   0.01446432    1.549    0.354
        52  -8.6165     74.9528     84.9682   8.8849432401e+01   5.0555318743e+01    0.2182048    0.1979132 -19.34 0.0004282507    1.042    0.040
        53  -8.4644    158.5983     81.8342   6.3891076749e+01   3.3906888119e+01    0.2197082    0.1407519 -47.55 0.0009378557    1.642    0.391
        54  -8.4172     57.9239     67.0000   8.9581820351e+01   5.6852192720e+01     0.210979    0.0772667  31.64  0.000801207    2.934    0.659
        55  -9.2044     92.2871    216.3488   1.0874109467e+02   1.7371527827e+01    0.2996478    0.1920636  68.62 0.0005822246    1.741    0.426
        56 -12.0430    188.5157     47.4594   4.8409226708e+01   3.2091323581e+01    0.8625414     0.734493   1.34  0.002499011    1.431    0.301
        57  -9.4191    120.2568    244.1420   1.0622879385e+02   7.9851006899e+00    0.2474369    0.1103208 -59.77  0.001183242    2.806    0.644
        58 -10.2459     95.6852    242.0701   1.1087572344e+02   1.1953299897e+01    0.3841964    0.2246127  72.66  0.002019891    2.188    0.543
        59  -8.5440    146.5070     42.9712   5.4536712509e+01   4.3100295429e+01    0.2255857    0.1812569  56.89 0.0004131853    1.178    0.151
        60  -8.5907    143.7696     40.9990   5.4464189638e+01   4.4038714735e+01    0.2213525     0.192336 -75.10  0.000319413    1.315    0.240
        61  -8.4228     32.8738    204.2054   1.2013037956e+02   2.7495035363e+01    0.1883318    0.1323638  70.23 0.0006212852    1.208    0.172
        62  -8.2279     70.6597     53.2993   8.0037653891e+01   5.7631858141e+01     0.126204     0.113656  84.76 0.0007035358    1.666    0.400
        63  -9.6826    144.0363     48.8997   5.6976590545e+01   4.2869895780e+01    0.3724036    0.2715828 -80.06 0.0006094734    1.892    0.471
        64  -9.6305     59.2727    230.6285   1.1697550113e+02   1.9004455237e+01    0.2518235    0.1856092 -76.61 0.0009299514    1.379    0.275
        65  -8.8499     44.1277    229.9431   1.1985123515e+02   2.0962249423e+01    0.2150198    0.1387401  83.88  0.001368463    1.419    0.295
        66 -10.2801     49.6796    217.5180   1.1778118449e+02   2.2805641153e+01    0.5674092    0.3041061  71.21  0.003024316    1.924    0.480
