#   1 NUMBER                 Running object number                                     
#   2 MAG_AUTO               Kron-like elliptical aperture magnitude                    [mag]
#   3 X_IMAGE                Object position along x                                    [pixel]
#   4 Y_IMAGE                Object position along y                                    [pixel]
#   5 X_WORLD                Barycenter position along world x axis                     [deg]
#   6 Y_WORLD                Barycenter position along world y axis                     [deg]
#   7 A_WORLD                Profile RMS along major axis (world units)                 [deg]
#   8 B_WORLD                Profile RMS along minor axis (world units)                 [deg]
#   9 THETA_WORLD            Position angle (CCW/world-x)                               [deg]
#  10 FWHM_WORLD             FWHM assuming a gaussian core                              [deg]
#  11 ELONGATION             A_IMAGE/B_IMAGE                                           
#  12 ELLIPTICITY            1 - B_IMAGE/A_IMAGE                                       
         1 -14.4759    160.6539     52.3301   7.9913366123e+01   3.8332779449e+01     1.898149     1.373431  14.34  0.006643157    1.823    0.451
         2 -14.1228    172.6513     36.5272   7.2894188975e+01   3.7500379488e+01    0.9324245    0.8580928 -66.75  0.002921017    1.091    0.084
         3 -12.4849    189.6442     14.5917   6.4122773728e+01   3.5755510063e+01    0.3809217    0.2983889 -72.17  0.001592538    1.256    0.204
         4 -13.9481    190.2507      4.6435   6.1300774295e+01   3.6595670512e+01     1.029919    0.6309825  67.19   0.00401247    1.479    0.324
         5 -12.8485    206.6234    180.0669   1.0319833436e+02   5.2393000973e+00    0.8126804    0.4143334  32.37  0.002912674    2.065    0.516
         6 -18.9481     67.6248    242.1916   1.3916968738e+02   1.7302779398e+01     6.263017     5.218561  63.30   0.04410386    1.161    0.139
         7 -12.6675    196.3675    171.7062   1.0350105618e+02   8.5761851150e+00    0.8311275    0.4381351 -51.10   0.00293823    2.415    0.586
         8 -10.2623     28.1586    179.6656   1.4160817440e+02   3.4331068996e+01    0.1378433    0.1104434  26.44 0.0005801622    1.669    0.401
         9 -10.5197      3.9663    176.0660   1.4633547943e+02   3.7327147908e+01    0.1166211   0.08966705  76.92 0.0008474863    1.085    0.078
        10 -12.6870    138.2552    198.5564   1.2034437492e+02   1.4519831916e+01    0.6467047     0.362626  64.86  0.002742479    2.640    0.621
        11 -11.6820    208.7726    197.7240   1.0615975839e+02   2.0754849653e+00    0.2205836    0.2078571  56.00 0.0006371597    1.354    0.262
        12 -10.3370    177.4911    169.4961   1.0686312563e+02   1.2651373451e+01    0.1418722    0.1340963  24.82 0.0004724326    1.012    0.012
        13 -11.2032    142.2227    165.5473   1.1372576776e+02   2.0338141837e+01    0.2650251    0.1761772 -61.49 0.0006442177    1.728    0.421
        14 -10.6290    122.7577    165.8912   1.1825085395e+02   2.3913384746e+01     0.247912    0.1916297  54.40 0.0003298685    1.261    0.207
        15 -11.0746    223.9545    164.1946   9.6750868423e+01   4.5986948362e+00    0.2722425    0.1896764 -43.50 0.0005051984    1.556    0.357
        16  -9.7461    179.1290    206.1470   1.1331167857e+02   5.9481007827e+00    0.1651346    0.1469884  59.30            0    1.288    0.224
        17  -9.8536     25.7073    165.4230   1.4086391161e+02   3.7701631166e+01    0.3003015    0.1291073  21.92  0.001355451    3.596    0.722
        18 -10.8919    237.5211    159.4891   9.3386779788e+01   2.8555109099e+00    0.1346454    0.1189462  -8.71 6.837663e-05    1.027    0.026
        19 -12.6948     24.8186    156.9741   1.4024989369e+02   3.9682380388e+01    0.4559374     0.301579  50.20  0.001846977    1.521    0.342
        20 -11.7337     27.9759    151.1898   1.3890441303e+02   4.0697989936e+01    0.4258831    0.1920541  48.48  0.002144071    2.253    0.556
        21 -11.3256    110.5930    158.0006   1.1968858538e+02   2.7821218316e+01     0.311105    0.2065292  43.40 0.0009685101    1.485    0.327
        22 -11.3416    139.8078    156.3828   1.1246142049e+02   2.2725772541e+01    0.2500003    0.2394653  83.02 0.0003453401    1.050    0.048
        23 -10.4397    175.0839    194.0414   1.1201615268e+02   8.7026036308e+00    0.2039004     0.165474  79.36 0.0006623007    1.696    0.411
        24 -10.8844    161.4445    153.6754   1.0700067304e+02   1.8941344048e+01    0.2546925    0.1783756  24.03 0.0009179965    1.718    0.418
        25 -12.9951    133.9780    145.1438   1.1148913422e+02   2.6288839177e+01     1.200963    0.3214895 -54.18  0.003095233    5.094    0.804
        26 -12.3043      4.9054    112.1847   1.4043481459e+02   5.1501480039e+01    0.4008701    0.2593194  10.43  0.001529118    2.142    0.533
        27 -13.4143      3.1101    126.4839   1.4248847199e+02   4.8356811198e+01     2.580243    0.8159568 -84.95  0.009856976    3.614    0.723
        28 -12.6130      7.5088    143.6290   1.4304303713e+02   4.4163344992e+01    0.3737938    0.3431241 -47.94  0.001919297    1.401    0.286
        29 -11.3081      2.6176    141.7809   1.4404169433e+02   4.4934313154e+01    0.2678609    0.1624213 -85.06  0.000580713    1.300    0.231
        30 -10.7554    180.1060    192.3114   1.1069970548e+02   8.0806446279e+00    0.2287843     0.199051 -54.99 0.0005239432    1.361    0.265
        31 -12.0306    143.5007    145.0065   1.0920199063e+02   2.4407827461e+01    0.3504588    0.2725981 -72.35  0.001699471    1.528    0.346
        32 -10.9598    174.4629    148.6408   1.0307425644e+02   1.7242399204e+01    0.3600596     0.260088 -70.68  0.001467623    1.964    0.491
        33 -13.0507    113.9086    138.8081   1.1508821923e+02   3.1550989929e+01    0.8469221    0.5642992  10.39  0.003421598    2.659    0.624
        34 -12.5820    103.5461    138.6746   1.1771053861e+02   3.3449058616e+01    0.3237239    0.3031552  28.60 0.0005216244    1.188    0.158
        35 -11.2653    143.3176    139.6727   1.0806041227e+02   2.5584380290e+01     0.307746    0.2250471   0.95  0.001333078    2.075    0.518
        36 -10.2040    152.6355    139.3011   1.0580156778e+02   2.3723574810e+01    0.1561872    0.1204177  83.76 0.0007034967    1.729    0.422
        37 -19.1707     49.2919     99.7784   1.2504021482e+02   5.0529575650e+01     17.75685     1.013027 -59.94   0.02805624   15.484    0.935
        38 -12.1606    106.0629    130.9015   1.1541603091e+02   3.4790568708e+01     0.393265    0.3457834 -76.77  0.001182763    1.144    0.126
        39 -11.4406    107.5452    125.6427   1.1385455507e+02   3.5727506919e+01    0.3229563    0.2607225 -25.86 0.0005787406    1.478    0.323
        40 -12.2836    118.9476    129.5537   1.1176746328e+02   3.2691624252e+01    0.4182548    0.3496636 -47.98 0.0009597703    1.182    0.154
        41 -12.8292    124.3828    126.9244   1.0976904522e+02   3.2215351179e+01    0.6678435     0.438066  77.16  0.002648587    2.455    0.593
        42 -12.5097    135.6274    122.7000   1.0592735504e+02   3.0847214202e+01    0.7063103    0.2410641 -49.97  0.002218667    3.102    0.678
        43 -11.1058    160.6432    127.6320   1.0121222019e+02   2.4420975651e+01    0.3218385    0.2450198 -63.09  0.001503541    1.529    0.346
        44 -10.2638    143.0414    127.8929   1.0538112456e+02   2.8165870579e+01    0.2305366    0.1995848  88.77  0.000480667    1.323    0.244
        45 -11.7018    167.4559    191.3603   1.1308653800e+02   1.0574098456e+01    0.3887345    0.2161828  35.41  0.001528671    1.747    0.427
        46 -11.2314    113.0099    118.4882   1.1071948371e+02   3.6329449743e+01    0.3374209    0.2717344  84.06  0.001117228    1.499    0.333
        47 -10.7311      1.5069    145.5403   1.4462050528e+02   4.4171832946e+01    0.2062224    0.1331968 -73.53 0.0006327074    1.239    0.193
        48 -11.6771     13.1811    142.1728   1.4153967614e+02   4.4054491455e+01    0.2539112    0.1887023  50.90  0.001169298    1.436    0.304
        49 -10.2769    116.7414    115.5721   1.0900980545e+02   3.6259799231e+01    0.2149861    0.1422705  55.36 0.0009488954    1.685    0.407
        50 -11.2099    168.3848    113.2613   9.5868354195e+01   2.5581209533e+01    0.3946747    0.2975019 -73.41  0.001216014    1.748    0.428
        51 -11.3035    134.7221    106.1221   1.0188848009e+02   3.4596695332e+01    0.4835131    0.1483598 -44.40  0.001462004    3.195    0.687
        52 -10.8923    205.4673    110.1628   8.7669649290e+01   1.7681803076e+01    0.3233782    0.2151244  41.76  0.001043515    1.604    0.377
        53 -11.9916     91.6177    109.1588   1.1438250470e+02   4.2328639931e+01    0.3287992    0.2372479 -49.70 0.0007985028    1.297    0.229
        54 -10.4799    184.2931    186.4429   1.0878102980e+02   8.3146532510e+00    0.1941927    0.1242618  49.97 0.0009532169    1.619    0.382
        55 -10.0395     75.9755     86.5140   1.1325385467e+02   4.9962815713e+01    0.2004824    0.1405602  36.85 0.0005395259    1.558    0.358
        56 -10.9521     89.9784     78.6586   1.0653942858e+02   4.9314384308e+01    0.2459002    0.1891779 -32.47 0.0006596071    1.273    0.215
        57  99.0000     14.6313    248.5696   1.4837663890e+02   2.2352748089e+01    0.3583894   0.08110116  44.39  0.001872935    2.828    0.646
        58 -13.3544    193.9156    193.6625   1.0823202170e+02   5.3428617317e+00    0.9987795    0.5622904 -53.99  0.003039738    2.531    0.605
        59 -10.2881     13.4255     59.8459   1.2855675785e+02   6.2634984629e+01    0.1635994    0.1558567 -58.54 0.0004102699    1.230    0.187
        60 -13.2653    177.0324     28.7805   6.9885908946e+01   3.7350172963e+01    0.5478522    0.4601671  15.52  0.001591907    1.415    0.293
        61 -10.3391    127.1542     27.1919   7.8335319365e+01   4.9981794127e+01    0.3657644    0.1891377  74.49  0.001408681    2.787    0.641
        62 -10.4993     18.3587    231.3833   1.4693735575e+02   2.5006018026e+01   0.09854326   0.07732098  79.00 0.0005383111    1.177    0.150
