#   1 NUMBER                 Running object number                                     
#   2 MAG_AUTO               Kron-like elliptical aperture magnitude                    [mag]
#   3 X_IMAGE                Object position along x                                    [pixel]
#   4 Y_IMAGE                Object position along y                                    [pixel]
#   5 X_WORLD                Barycenter position along world x axis                     [deg]
#   6 Y_WORLD                Barycenter position along world y axis                     [deg]
#   7 A_WORLD                Profile RMS along major axis (world units)                 [deg]
#   8 B_WORLD                Profile RMS along minor axis (world units)                 [deg]
#   9 THETA_WORLD            Position angle (CCW/world-x)                               [deg]
#  10 FWHM_WORLD             FWHM assuming a gaussian core                              [deg]
#  11 ELONGATION             A_IMAGE/B_IMAGE                                           
#  12 ELLIPTICITY            1 - B_IMAGE/A_IMAGE                                       
         1 -10.3610    230.4269     16.2076   1.8958412420e+01   2.6570978897e+01    0.5122757    0.4116885  29.31  0.003106841    1.681    0.405
         2 -10.9274    224.2386     14.7551   1.8999422715e+01   2.7950506914e+01    0.7765045    0.3426848 -23.77  0.003829273    2.175    0.540
         3 -10.0740    230.7167     10.9814   1.7728726024e+01   2.7016539969e+01    0.4416451    0.3594485 -84.73  0.003112407    1.271    0.213
         4  -9.7941    119.3856      9.8093   2.8413361402e+01   5.3823519396e+01    0.5335993    0.4086167  36.29  0.002806175    1.424    0.298
         5  -8.6599    189.5212     10.4727   2.0348558282e+01   3.5936637043e+01    0.2119983    0.2058082 -48.56 0.0005687493    1.152    0.132
         6  -8.0687     79.8561    245.1614   9.2206124192e+01   1.5864973716e+01    0.2387937    0.1774175  75.21   0.00145012    1.699    0.412
         7  -8.7460    147.4801    250.5955   7.9018010345e+01   7.4232395929e+00    0.2290878   0.08252786  26.97 -0.0001455071    2.161    0.537
         8  -8.5143    148.1842    246.8524   7.8471027672e+01   7.8235121943e+00    0.1654062    0.1368443   7.82 0.0003598435    1.187    0.158
         9  -7.6018    125.2865    250.6668   8.3366745841e+01   9.9524563265e+00    0.1065407    0.0707894  45.88 0.0002247874    1.623    0.384
        10  -9.6125     71.9528    242.3107   9.3670914831e+01   1.7167726434e+01    0.4047532    0.2349855 -65.65  0.001672973    2.220    0.549
        11  -9.3317     75.1488    249.4136   9.3484414784e+01   1.5708650528e+01    0.3091718    0.2216283 -43.13  0.001854156    1.908    0.476
        12  -8.3098     75.6696    243.8322   9.2991056191e+01   1.6526498262e+01    0.1743103    0.1545399  80.40  0.001368303    1.402    0.287
        13 -17.4228     14.0246    233.2019   1.0554566550e+02   2.4239893357e+01     3.148096     3.045388  66.08   0.02687299    1.345    0.257
        14  -7.3121    158.2298    248.0212   7.6681047598e+01   6.5202784419e+00    0.1148009   0.08724701 -28.61 0.0004048546    1.561    0.359
        15  -9.2204    153.8535    217.6006   7.3768556067e+01   1.1151771775e+01    0.3685181     0.172342  39.75  0.001597504    2.038    0.509
        16  -9.3998    244.6254    241.1177   6.1078980253e+01  -1.8983058416e+00    0.2257503   0.08719152  19.67  0.001328747    2.326    0.570
        17  -7.3770    184.3351    213.3054   6.7204783225e+01   7.8483168232e+00    0.1218817    0.0739719   3.13 0.0004135022    1.668    0.400
        18  -8.5182    127.8393    212.0973   7.8552210265e+01   1.5403185587e+01    0.3069894    0.1398318  22.70  0.001431254    2.159    0.537
        19  -9.7737    134.2802    209.3833   7.6796063139e+01   1.4986801606e+01     0.342135    0.1881496 -45.44  0.001875738    2.127    0.530
        20  -8.1565     72.2089    201.5821   9.0373931142e+01   2.4368574132e+01    0.2744656    0.1327421  25.02  0.001045773    1.877    0.467
        21  -7.6963    143.3173    208.3304   7.4707738212e+01   1.3941237842e+01    0.1264913   0.08447773  -0.56 0.0007046952    1.685    0.406
        22  -7.9962     87.0651    206.9686   8.7308484981e+01   2.1549134548e+01    0.1838621     0.157647  30.89 0.0004534377    1.056    0.053
        23  -7.8168    162.1252    205.1416   7.0335279489e+01   1.1890517970e+01    0.1522942    0.1313674  29.87  0.000409638    1.287    0.223
        24  -7.6263     80.0570    205.1950   8.8808978816e+01   2.2737385963e+01    0.1699699    0.1192561  47.75 0.0003952838    1.297    0.229
        25  -9.4438    126.1007    236.8470   8.1790582735e+01   1.1807231164e+01    0.2306288    0.1852165 -58.38  0.001658598    1.737    0.424
        26 -11.0963    123.6686    226.7450   8.1194116066e+01   1.3618224228e+01    0.5264392     0.404462 -78.69  0.003408038    2.048    0.512
        27  -9.3675     73.2617    205.5575   9.0480908021e+01   2.3478279999e+01    0.3520429    0.2300761  88.23 0.0008796245    1.965    0.491
        28  -7.9873     90.4747    201.5065   8.5919724034e+01   2.2141946078e+01    0.2144529    0.1285355 -63.36 0.0008749622    2.019    0.505
        29  -8.1219     66.2837    199.5302   9.1649246728e+01   2.5462554482e+01    0.2687105    0.1548304  54.81 0.0009331838    1.726    0.421
        30  -7.2606    250.2294    198.0184   5.3854253405e+01   1.8705341210e+00    0.1304055   0.06967851 -24.84 0.0005424716    1.569    0.363
        31  -9.1474    124.5438    221.0346   8.0352593567e+01   1.4398337633e+01    0.2858199    0.2051438  75.41  0.001500518    2.421    0.587
        32  -7.8289    100.5459    190.9781   8.2233546001e+01   2.2822508951e+01    0.3352387    0.1826135  -6.28  0.001160541    4.526    0.779
        33  -7.8763     97.6652    190.3208   8.2863074284e+01   2.3339670152e+01    0.2203866    0.1258336 -83.32 0.0009684351    3.036    0.671
        34  -9.2052     70.9224    190.9075   8.9675531691e+01   2.6649828544e+01    0.2962474    0.2436648 -45.53 0.0009608673    1.453    0.312
        35  -7.1454    223.0327    188.0000   5.6396207392e+01   6.1969768917e+00    0.1603769   0.05711239  35.36 0.0007674269    2.705    0.630
        36  -8.4779    185.8077    228.2842   6.9054028365e+01   5.7592178985e+00    0.3048227     0.137668 -41.05  0.001715109    2.631    0.620
        37  -7.6324    185.1199    223.1116   6.8464886585e+01   6.4864636456e+00    0.2003767    0.1348354 -34.87 0.0008824258    1.709    0.415
        38  -7.9807     82.1197    182.5112   8.5874425154e+01   2.6973227964e+01    0.2012124    0.1149281  31.26  0.000450317    1.507    0.337
        39  -7.1878    180.6670    180.7030   6.2721418063e+01   1.2945002160e+01    0.1305453   0.08489886   2.89 0.0004777389    1.644    0.392
        40  -8.4372     90.0465    175.1561   8.2873617896e+01   2.7440805034e+01    0.2370406    0.2015951  66.97  0.001405434    1.284    0.221
        41  -7.7692    179.8544    174.7983   6.1850055945e+01   1.3960698033e+01    0.1599862    0.1499827  29.58 0.0006748141    1.355    0.262
        42  -9.5081    150.3439    173.6694   6.7840771148e+01   1.8667815461e+01    0.2443345    0.2114864  -4.55 0.0003522022    1.111    0.100
        43  -7.3683    160.2943    174.6748   6.5844053439e+01   1.6954991843e+01    0.1185555    0.1039541  63.85            0    1.622    0.383
        44  -9.5997    134.6630    230.0489   7.9266422780e+01   1.1758504470e+01    0.2544281     0.132859  15.29  0.001333358    2.027    0.507
        45  -9.1906     85.0601    156.2423   8.1590664012e+01   3.2253192607e+01    0.6256534    0.3216567  25.67  0.001539096    1.965    0.491
        46 -10.3618     73.1427    168.5977   8.6630473867e+01   3.1120610225e+01    0.4250262    0.3951059 -52.39  0.001551806    1.212    0.175
        47 -10.8378     77.3394    164.0353   8.4877029680e+01   3.1581013547e+01    0.7796143    0.5047405  24.06  0.001273525    1.513    0.339
        48  -7.9960    156.2570    171.0326   6.6078325206e+01   1.8197094276e+01    0.1789514    0.1587637  -1.97 0.0003443437    1.080    0.074
        49  -9.2961     31.0027    166.4010   9.8365249503e+01   3.6305469274e+01    0.2673097    0.1908682  24.53  0.001543591    1.373    0.272
        50  -8.0020    191.8066    166.6044   5.8072032236e+01   1.3402146785e+01    0.1661127    0.1118952  40.27 0.0007472271    1.595    0.373
        51  -8.7303     93.8678    164.9195   8.0419620408e+01   2.9069602913e+01    0.1973183    0.1850275  26.36 0.0003118504    1.056    0.053
        52 -10.1389     49.9998    162.3725   9.2542813782e+01   3.5317969743e+01    0.8836749    0.2228468  48.10   0.00269227    4.193    0.761
        53  -8.1064    155.0835    164.0000   6.5071556110e+01   1.9600591938e+01    0.3710759   0.07033412  37.70  0.001044911    4.876    0.795
        54 -10.0068    139.5567    226.4304   7.7827120153e+01   1.1680651456e+01    0.3063813    0.2434446 -89.52   0.00163406    2.263    0.558
        55  -7.2383    149.2790    162.7274   6.6138638129e+01   2.0771276423e+01    0.1222207    0.1053757  60.20 0.0002216172    1.494    0.330
        56  -9.6502    114.4396    226.5230   8.3147331782e+01   1.4795812250e+01    0.2780286    0.1860277 -37.15 0.0009569167    1.849    0.459
        57 -12.2140     58.5998    131.5876   8.6080900688e+01   4.1730286233e+01     1.449741    0.7452019  49.87  0.005534781    2.024    0.506
        58 -10.1259     74.4072    139.8829   8.2253052194e+01   3.7575726262e+01     0.579284    0.3352831 -75.72  0.002381446    2.107    0.525
        59 -11.1818     73.8152    150.7645   8.4078784501e+01   3.5087484014e+01    0.5581341    0.3945818 -59.95  0.001321085    1.503    0.335
        60 -11.4926     68.7932    144.1519   8.4652373768e+01   3.7329929696e+01    0.9140307    0.5036406  51.83  0.002902679    1.912    0.477
        61  -9.2065    117.6260    225.8185   8.2384266146e+01   1.4513067649e+01    0.1955384    0.1703092  80.03 0.0007993073    1.597    0.374
        62  -6.9466      1.2768    155.3520   1.0632716228e+02   4.1149549533e+01    0.1201504   0.08598077 -51.54 0.0007007387    1.644    0.392
        63  -8.3523      2.0109    151.7503   1.0598905679e+02   4.1948808572e+01    0.2562854     0.181538 -62.92  0.001326729    1.526    0.345
        64  -9.3969     36.6676    151.3897   9.5489550357e+01   3.9306392707e+01    0.5193908    0.2438933  50.74  0.002323826    2.028    0.507
        65  -9.5430     91.0959    150.3616   7.8940007335e+01   3.2685134604e+01    0.5498697    0.3924664 -23.90  0.001881234    1.813    0.448
        66 -10.9582     57.8349    151.1559   8.8965885772e+01   3.7052396661e+01     1.128095    0.4942811 -89.84            0    3.973    0.748
        67  -9.0216     54.0274    150.3361   9.0034676234e+01   3.7699957817e+01    0.5574242    0.3071683  73.66  0.002411625    2.318    0.569
        68  -8.8858    133.7146    145.6075   6.6572243503e+01   2.6646756157e+01    0.9368925    0.2056521 -52.09  0.002260199    6.926    0.856
        69  -8.8247     41.9925    146.4973   9.3358771137e+01   3.9956697343e+01    0.2797466    0.2078868 -80.18  0.001540136    1.361    0.265
        70  -8.1905    235.4903    145.9689   4.6889736900e+01   9.8449936981e+00    0.1790108    0.1622064  41.74   0.00056213    1.532    0.347
        71  -7.7608    138.5959    144.8166   6.5212611275e+01   2.5943736189e+01    0.1971155     0.137347 -58.51 0.0009537719    1.791    0.442
        72  -8.0417    102.0956    140.1227   7.3976523820e+01   3.3237914240e+01    0.2133523     0.186238   3.45  0.001152561    1.234    0.190
        73  -7.8137    105.3470    136.3260   7.2314592361e+01   3.3537159095e+01     0.293211    0.1904848 -17.90  0.001216572    2.344    0.573
        74  -9.9486     92.3892    136.2814   7.6110790672e+01   3.5697077968e+01    0.3041335    0.2642781  54.96 0.0004620504    1.165    0.142
        75  -8.2280     17.8989    137.1428   1.0029213873e+02   4.4420873326e+01    0.3361748   0.09712856  14.54  0.001122604    4.122    0.757
        76  -7.8253    121.8067    135.8051   6.7652633829e+01   3.0763737929e+01    0.1952009    0.1721598  69.31  0.000377885    1.329    0.247
        77  -9.4117     51.4083    135.3826   8.9009158342e+01   4.1661086705e+01    0.3065783    0.2171146  58.43  0.000876984    1.423    0.297
        78  -7.9030    247.6687    134.7625   4.3041216154e+01   9.5476430733e+00    0.1607867   0.08576091 -34.68 0.0006212422    1.626    0.385
        79  -8.3478     24.2294    132.8922   9.7856600459e+01   4.4989075245e+01    0.3815511    0.1480917  31.51  0.001609909    2.268    0.559
        80  -9.0673    161.0545    128.1293   5.6451553537e+01   2.4967038697e+01    0.3513356    0.2569058 -22.08   0.00111254    1.441    0.306
        81  -8.0290    112.6975    128.8299   6.8687023266e+01   3.3901510248e+01    0.2630513    0.1958771  25.71  0.000701958    1.372    0.271
        82 -10.4761     45.5341    126.3095   8.9797105053e+01   4.4612626396e+01    0.4929584    0.4431757   0.16   0.00145242    1.245    0.197
        83  -9.9640     72.1937    125.3934   8.0514810682e+01   4.1409213480e+01    0.7723403    0.2990644  52.76  0.002354631    3.859    0.741
        84  -8.6153     99.9443    124.4480   7.1481059249e+01   3.7153418255e+01    0.2903868    0.2317667  15.03 0.0006699543    1.382    0.276
        85  -8.6769     81.5365    120.7132   7.6524353500e+01   4.1122419893e+01    0.3572947    0.2269052   3.01 0.0008202164    2.473    0.596
        86 -10.3174     34.2914    117.6288   9.2705295954e+01   4.8000142975e+01    0.6232166    0.1800371 -63.99   0.00220013    2.970    0.663
        87 -10.3211     46.7436    115.3658   8.7781869724e+01   4.7277611112e+01    0.4491847    0.2816476  54.58  0.002096772    1.682    0.405
        88  -6.9945    138.7975    114.0112   5.8322494981e+01   3.1990414648e+01     0.180014    0.1167616 -42.44  0.000815628    1.566    0.362
        89  -7.1955     78.3912    112.4888   7.5881900183e+01   4.3625767308e+01     0.144598    0.1441324 -72.85 9.020641e-05    1.034    0.033
        90 -10.3369     66.8639    111.1682   7.9667171158e+01   4.5723015310e+01    0.2577919    0.2427104  67.08 0.0002420419    1.057    0.054
        91  -8.9908    244.1317    224.4225   5.8791968426e+01  -2.3116803346e-01    0.1638017    0.1183769 -30.97 0.0006535554    1.845    0.458
        92  -9.1615     53.1085    111.0883   8.4707404595e+01   4.7613256770e+01    0.2338089    0.1928779 -32.87  0.001227232    1.352    0.260
        93  -7.5222    109.1601    117.9143   6.7288350423e+01   3.6961975456e+01    0.2051573    0.1750207 -11.65 0.0004143276    1.324    0.245
        94 -10.0905     43.9630    109.1592   8.7852348193e+01   4.9196252671e+01    0.4779281    0.1986489  27.71  0.001534709    2.327    0.570
        95  -9.3372     52.4560    103.4309   8.3557371604e+01   4.9663461079e+01    0.3419276    0.1977472  15.50  0.001447257    2.061    0.515
        96  -7.4619     23.1527     96.8207   9.4430763769e+01   5.4401655564e+01    0.1830905    0.1508938 -40.91 0.0003368403    1.275    0.216
        97  -7.1080    116.9936     96.2455   5.9551572780e+01   4.0129552359e+01    0.1964618    0.1277104  43.42 0.0003555719    1.507    0.336
        98  -7.7675     38.8047     88.5995   8.6347321417e+01   5.5114999544e+01     0.210371    0.1239597  37.11 0.0009556948    1.694    0.410
        99  -7.3502    104.4610     71.5353   5.5922417529e+01   4.7986907855e+01    0.1521093    0.1491829  53.28 0.0002012868    1.020    0.020
       100  -8.1819    136.0898     70.2174   4.6833099046e+01   4.0929237118e+01    0.2141463    0.1964403  28.20 0.0002784087    1.139    0.122
       101  -8.1211    209.7487     68.0512   3.3412579735e+01   2.4752839481e+01       0.1917    0.1811445  60.47 0.0004037592    1.189    0.159
       102  -7.3269     13.4246     66.4349   9.4582198644e+01   6.3020183659e+01    0.1341225    0.1221228 -62.67 0.0001130831    1.006    0.006
       103  -7.5137    222.4203     64.4818   3.1056926450e+01   2.2722098156e+01    0.1259587    0.1069642 -34.78 0.0001271043    1.013    0.013
       104  -8.8292    105.9637     59.5347   5.1350391700e+01   5.0000062186e+01    0.3294405     0.223573 -33.87   0.00148591    1.561    0.359
       105  -7.7117    143.9951     59.9902   4.1839898907e+01   4.0764172178e+01    0.2385318    0.1740518 -67.85 0.0005874644    1.666    0.400
       106  -9.9933    182.6251     56.3220   3.3990841980e+01   3.2158627602e+01     0.319215    0.2843567  74.45 0.0007730926    1.180    0.153
       107 -11.5415    196.7601     47.6160   2.9770515502e+01   3.0141256174e+01    0.9585231    0.6530032  61.10  0.004172348    1.568    0.362
       108 -10.8223    198.7490     43.4514   2.8436187349e+01   3.0220183759e+01    0.7807103    0.4001151  70.04  0.003713791    2.144    0.534
       109 -11.1833    204.2536     38.4172   2.6528443142e+01   2.9621319367e+01    0.6259335    0.5893076  46.22  0.001609677    1.228    0.185
       110  -7.6178    174.7066     49.3601   3.3165255043e+01   3.4942551238e+01     0.188353    0.1237154  53.52 0.0005988274    1.585    0.369
       111  -7.3195    102.9474     43.7819   4.6327892958e+01   5.3526835813e+01    0.1945132    0.1187876  52.63  0.000347876    1.569    0.363
       112  -8.2535    221.5091     40.0359   2.5290436472e+01   2.5833157975e+01    0.2249153    0.1326352 -51.38 0.0005709155    1.578    0.366
       113  -8.4944    153.9206     33.7551   3.1497271963e+01   4.2077631640e+01    0.2253768     0.198591 -32.64 0.0003959111    1.160    0.138
       114  -8.8257    146.4087    222.1999   7.5891239615e+01   1.1435374917e+01      0.13484    0.1182667 -61.85 0.0009464099    1.689    0.408
       115  -8.3000     91.2638    247.3417   8.9993354308e+01   1.4278380346e+01    0.3098083    0.1147337  48.13  0.001472777    2.857    0.650
       116  -8.0260    249.6823    245.9642   6.0989065312e+01  -2.8144338671e+00    0.1573063   0.05498606 -15.34 0.0003354143    4.387    0.772
       117  -7.4812    176.5806    245.7765   7.3005131755e+01   4.7118331852e+00    0.1136636    0.1011135 -17.70 0.0002859457    1.518    0.341
