#   1 NUMBER                 Running object number                                     
#   2 MAG_AUTO               Kron-like elliptical aperture magnitude                    [mag]
#   3 X_IMAGE                Object position along x                                    [pixel]
#   4 Y_IMAGE                Object position along y                                    [pixel]
#   5 X_WORLD                Barycenter position along world x axis                     [deg]
#   6 Y_WORLD                Barycenter position along world y axis                     [deg]
#   7 A_WORLD                Profile RMS along major axis (world units)                 [deg]
#   8 B_WORLD                Profile RMS along minor axis (world units)                 [deg]
#   9 THETA_WORLD            Position angle (CCW/world-x)                               [deg]
#  10 FWHM_WORLD             FWHM assuming a gaussian core                              [deg]
#  11 ELONGATION             A_IMAGE/B_IMAGE                                           
#  12 ELLIPTICITY            1 - B_IMAGE/A_IMAGE                                       
         1 -10.4619     24.4498     65.7355   1.2096639726e+02   6.0175424010e+01    0.6873882    0.5386279 -41.04  0.004676857    1.063    0.060
         2  -8.5092     40.2881      1.6219   9.1299942364e+01   6.8038178686e+01    0.2612231    0.1135128  29.93  0.001138413    2.097    0.523
         3  -9.3504     39.0901      7.3791   9.4324830929e+01   6.7611560411e+01    0.3312305    0.2458863   6.56  0.001650061    1.033    0.032
         4 -10.3484     39.3274     29.5036   1.0332228259e+02   6.4827258472e+01     0.501828    0.3110512 -43.74   0.00257261    1.841    0.457
         5 -11.9472     43.8878     21.2192   9.8248967792e+01   6.5366901607e+01     1.001961    0.9239977 -54.66    0.0072204    1.829    0.453
         6  -9.9648     66.8313     32.1189   9.4099415719e+01   6.0634033382e+01     0.717501    0.4401402 -40.57  0.004029438    1.863    0.463
         7 -11.3205    128.4884     15.1510   7.1710472924e+01   5.0357478748e+01     1.063523    0.5612444 -33.74  0.005433854    2.128    0.530
         8 -12.1505     82.4797      7.1247   7.9636003124e+01   6.0651019611e+01     1.960017     1.056979   8.26   0.01000277    2.397    0.583
         9 -10.8493    131.9503      3.3099   6.7420644424e+01   5.0626239461e+01    0.8846558    0.2773919  59.49  0.003748276    2.410    0.585
        10 -11.6029    110.1504      4.0297   7.1816564697e+01   5.5354001163e+01     1.636003    0.5394325  51.19  0.007275689    2.293    0.564
        11 -10.6589    121.2232      3.9288   6.9562057926e+01   5.2966523758e+01    0.5551842    0.3814412  67.59  0.002520392    1.358    0.264
        12 -13.8863    163.9224     10.0789   6.4359811038e+01   4.2617175644e+01     3.299884     1.709987  66.92   0.01676004    1.621    0.383
        13  -9.6456     97.6095     28.5007   8.3343125072e+01   5.5545907069e+01     0.524341     0.272362 -11.40  0.002333167    2.720    0.632
        14 -10.6522     71.2553      5.5739   8.2279319471e+01   6.2823084984e+01    0.5795211    0.2799675  40.96  0.002746859    1.712    0.416
        15  -9.8990    117.0619     16.8442   7.4608834463e+01   5.2725775538e+01    0.5665381    0.2609104 -21.86  0.002648847    2.573    0.611
        16  -9.9293    111.4375     15.7367   7.5486940399e+01   5.4045802975e+01    0.5102546    0.2027369  46.71  0.002217106    2.116    0.527
        17  -9.5637     94.0577     17.7008   8.0436876571e+01   5.7426433447e+01    0.3865904    0.3723936 -65.08  0.002073432    1.356    0.263
        18  -9.9440     64.6977     16.8198   8.8890030837e+01   6.2822293772e+01    0.2680568     0.239363 -36.24  0.001425925    1.519    0.342
        19 -10.4711    248.7981     15.0155   5.6437590697e+01   2.2753362212e+01    0.3453085    0.2663784 -45.76  0.001966158    1.398    0.285
        20  -7.9953     20.1873     14.2036   1.0532525659e+02   6.8981391961e+01    0.4703906    0.2059385 -23.85  0.002542407    2.299    0.565
        21  -9.3827     69.7708     13.6639   8.5972747924e+01   6.2309405003e+01    0.3328209      0.24923  43.79  0.002190219    1.340    0.254
        22 -10.0972    203.4673      3.3547   5.8077511549e+01   3.4029042461e+01     0.668165    0.2057635 -40.28  0.002926557    3.011    0.668
        23 -10.0234    200.1710      7.8767   5.9418798833e+01   3.4324388253e+01    0.2460821    0.1772508  66.03 0.0006298897    1.283    0.220
        24  -8.1574     49.2104      6.8350   9.0200524833e+01   6.6259359929e+01    0.2231222    0.1211812  11.41  0.001238671    2.044    0.511
        25  -9.3920     55.3917      8.0298   8.8482780167e+01   6.5210551397e+01    0.3382787    0.2421851  66.74  0.001937548    2.781    0.640
        26  -9.9110     60.3884      2.0491   8.4261424192e+01   6.4973599102e+01    0.5678934    0.2469625  43.46  0.003094746    1.932    0.482
        27  -8.4630     51.8722      1.8388   8.7079143791e+01   6.6339011246e+01    0.2317598    0.1350115  34.63  0.001262293    1.435    0.303
        28 -10.2137    244.2886      7.7178   5.5409988323e+01   2.4554441483e+01    0.2753274    0.2503695   3.92  0.001948555    1.822    0.451
        29 -10.0938    249.5665      5.9501   5.4680446315e+01   2.3655743049e+01    0.5214188    0.2363423 -38.37  0.002826996    2.200    0.545
        30  -9.8611    244.1349      2.7778   5.4491386838e+01   2.5142424609e+01    0.3314481    0.1764162  71.14  0.001944226    1.695    0.410
        31  -9.1966    229.9028      5.8508   5.6205044688e+01   2.7846215213e+01    0.1773575    0.1460231  73.14  0.001216516    1.297    0.229
        32  -8.8742     11.5913     34.0461   1.1662823511e+02   6.6812500111e+01    0.3730212    0.2842626 -29.21  0.002416636    1.081    0.075
        33 -11.1875    155.2151     20.5540   6.8536598818e+01   4.3618341802e+01    0.9429379    0.3490203  58.65  0.003326753    2.207    0.547
        34 -10.3287    214.7400      3.8648   5.7121706689e+01   3.1418693186e+01    0.4163834    0.2450905  43.05  0.002182353    2.512    0.602
        35  -8.6448     16.8169      1.7229   1.0141053647e+02   7.0835917223e+01    0.1826657    0.1231912  26.80  0.001070745    1.556    0.357
        36  -8.6803     26.1374      2.5095   9.7564301967e+01   6.9736195268e+01    0.2039338    0.1477741  -9.65  0.001173659    1.134    0.118
        37  -9.2940    227.8629     78.6429   7.2053143944e+01   1.8169411305e+01      0.35589    0.3064188   4.60  0.001505262    1.668    0.400
        38  -9.0587    198.6676     54.9863   7.0747589126e+01   2.8717172679e+01    0.2560156    0.1929677  64.40 0.0003874302    1.267    0.211
        39  -7.9115     34.8190     52.6163   1.1319666111e+02   6.1646788828e+01    0.1497829    0.1072351  30.69 0.0007471885    1.606    0.377
        40 -10.3623      3.8049     76.2375   1.3088654976e+02   5.9489162071e+01    0.4250802    0.3716325 -24.58  0.002324059    1.225    0.184
        41 -10.0737     83.6297     47.8151   9.4238852534e+01   5.5598324948e+01    0.6466456    0.4434297  53.61  0.003292367    1.765    0.433
        42 -10.4646     81.6447     38.3961   9.1549678118e+01   5.7301007294e+01    0.5349946      0.31534 -48.40  0.002651345    2.324    0.570
        43  -8.6090    111.3249     46.0322   8.5649562306e+01   5.0483610528e+01    0.1907255    0.1754827  -9.45  0.001158371    1.116    0.104
        44  -8.8961     92.5242     45.1059   9.0585801413e+01   5.4370842865e+01    0.1942092    0.1264648 -30.79  0.001024826    1.569    0.363
        45 -10.2780      3.3790     39.8439   1.2199542628e+02   6.6392202860e+01    0.4330353    0.3456341 -49.92  0.002523758    1.338    0.253
        46  -9.8124    183.2115    246.3709   1.1527860018e+02  -4.1696967806e+00    0.3679329    0.1798341  22.64  0.001475656    3.050    0.672
        47  -9.0508    163.4063    244.1980   1.1887217419e+02  -4.6940431016e-01    0.1641399    0.1266584 -67.28 0.0009436704    1.674    0.403
        48 -10.2682     50.7548     34.9846   1.0095743366e+02   6.2597358487e+01    0.6308962    0.3928554 -48.85  0.003522374    2.155    0.536
        49 -10.6034    174.1145    241.9960   1.1639815627e+02  -1.9242233031e+00    0.3213075     0.264718 -21.39  0.001964238    1.397    0.284
        50  -9.2625    210.4998    224.5021   1.0625749312e+02  -5.1900613419e+00    0.1319364    0.1155265  12.41 0.0008106956    1.000    0.000
        51  -8.4712     44.4167     38.9021   1.0481629714e+02   6.2828747077e+01     0.259407    0.1615271  33.12  0.001321207    1.694    0.410
        52  -8.5760     38.4619     37.4436   1.0662244065e+02   6.3756025501e+01    0.2045662    0.1945275 -29.50 0.0008309612    1.462    0.316
        53  -9.3553    206.4952    220.5248   1.0632959360e+02  -3.8570791924e+00     0.238789    0.1197146 -30.32  0.001043156    2.360    0.576
        54  -9.9006    124.0140    206.0014   1.2128439472e+02   1.3955616396e+01    0.2015352    0.1831159  65.64  0.001156927    1.005    0.005
        55  -8.5872    238.6147    201.8040   9.6704023857e+01  -6.0975401255e+00     0.185445    0.1160687 -45.22 0.0009547467    1.725    0.420
        56 -11.5200     11.1231    141.8394   1.3906168446e+02   4.4477729640e+01     0.593565    0.3646827 -67.25  0.003545602    1.273    0.214
        57  -9.2163     40.8129    142.3620   1.3145231126e+02   4.1637142194e+01    0.2539046    0.2010807 -63.49  0.001104575    1.090    0.083
        58 -12.6998    241.1159    132.8166   8.2037057499e+01   5.7083520858e+00     1.420129     1.214017  56.85  0.005285238    1.315    0.239
        59  -7.9857     22.4881    125.5476   1.3383309195e+02   4.7365227390e+01    0.1272787    0.1025837 -63.12 0.0001850065    1.031    0.030
        60 -10.1724     11.7706    118.9203   1.3582870779e+02   4.9714837191e+01    0.3880325    0.2341408  62.28  0.002135706    2.152    0.535
        61  -9.5966     87.3649     30.6980   8.7030282286e+01   5.7258518808e+01    0.4369606    0.2777025  18.19  0.002325915    1.747    0.428
        62 -10.5231    225.3428     28.7389   6.1357138544e+01   2.6139398196e+01    0.4051204    0.3874996 -73.12  0.001706534    1.294    0.227
        63  -8.4883    125.4975     28.6585   7.6598920796e+01   4.9611408750e+01    0.2587597    0.2124131  20.28  0.001541448    1.297    0.229
        64  -8.7767     27.4909     35.5284   1.1039069869e+02   6.5213480864e+01    0.2453416    0.1624756 -18.19    0.0010937    1.304    0.233
        65  -9.1086    104.5210     26.0951   8.0688819342e+01   5.4420476732e+01    0.3674259    0.2551223  59.40  0.002067148    1.487    0.328
        66  -7.6258    192.7063    116.6544   8.7022704407e+01   1.9175471482e+01    0.1529175    0.1237192  -0.09 0.0002182952    1.666    0.400
        67  -8.0145     22.3446     23.3181   1.0803924881e+02   6.7532539909e+01    0.2101383    0.1071123 -29.37 0.0008871523    1.674    0.403
        68  -7.4424     19.6649     22.3233   1.0882989815e+02   6.7926522936e+01    0.1786905    0.1373735 -20.40   0.00133561    1.118    0.106
        69  -8.1040     14.5080    114.5089   1.3437622996e+02   5.0524232765e+01    0.1250178   0.09772492 -59.73 0.0001407663    1.038    0.036
        70  -9.4407     16.2104    104.0262   1.3212527513e+02   5.2761447941e+01    0.3338103    0.3251164  -1.76  0.002472697    1.255    0.203
        71  -8.3365    107.0368     21.5221   7.8489006411e+01   5.4393785416e+01    0.2019944    0.1118806  53.30  0.000886479    1.596    0.373
        72 -10.6554     11.5930    127.5053   1.3709772806e+02   4.7759568787e+01    0.4394067     0.172923 -54.85  0.002134812    2.007    0.502
        73  -9.2230     29.5879    102.0409   1.2760380398e+02   5.2136292566e+01    0.3818285    0.1232006 -43.73  0.001493134    2.978    0.664
        74  -8.8151     56.6998     98.4266   1.1817464307e+02   5.0066762131e+01    0.3479262    0.2381809  77.00  0.001628194    2.479    0.597
        75  -9.2380     46.7653     98.3501   1.2134153651e+02   5.1253285061e+01    0.2442423    0.1755838 -49.11  0.001392974    1.189    0.159
        76  -7.7932      8.0007     16.5366   1.1187889220e+02   6.9736973775e+01    0.1492985   0.07141524  -5.70 0.0006503639    2.499    0.600
        77  -7.8007     12.7425     15.0264   1.0906410849e+02   6.9558312048e+01    0.2308412    0.1117849  28.69  0.001427312    2.189    0.543
        78 -11.7132     42.8197     82.3344   1.1876193135e+02   5.5113292578e+01     1.086325    0.8252005   2.61  0.006159678    1.456    0.313
        79  -9.0590      2.3429     89.1780   1.3384527447e+02   5.6868858983e+01    0.2975233    0.2088753 -71.41  0.001964363    1.312    0.238
        80  -7.9655     82.6778     89.6927   1.0764947193e+02   4.8200462807e+01    0.1446963    0.1061394 -12.54 0.0007034035    1.643    0.391
        81  -8.8005     19.5971     88.6566   1.2810097364e+02   5.5873122669e+01    0.2332323    0.2032496 -65.47  0.001619876    1.188    0.158
        82  -8.9193     20.4288     83.6766   1.2675557041e+02   5.6865937935e+01     0.236426    0.1051643 -63.28  0.001137269    2.092    0.522
        83  -8.1093    101.3792     83.1737   1.0011127744e+02   4.6206949393e+01    0.2065151    0.1329891 -52.30 0.0009470441    1.701    0.412
        84  -9.1658    189.0361    247.6816   1.1434446265e+02  -5.3375501945e+00    0.1887101    0.1479823  31.63  0.001094282    1.088    0.081
        85 -10.5372     15.0121     75.2560   1.2674874554e+02   5.8997607174e+01    0.8999394    0.3941894 -27.03   0.00419674    2.837    0.648
        86  -9.0073     77.9948     78.4615   1.0590648114e+02   5.1220465139e+01    0.2706464    0.1923072 -58.40   0.00138427    1.669    0.401
        87  -9.0087     82.9523     69.2950   1.0152890610e+02   5.2138013859e+01    0.3131788    0.2326305   4.17  0.001658824    1.530    0.346
        88  -9.4715     74.7472     67.7475   1.0370212516e+02   5.3759429489e+01    0.5451161    0.3376066  14.13  0.002588087    2.077    0.518
        89 -10.5110     11.6796     70.6842   1.2688617911e+02   6.0141747940e+01    0.9285122    0.2923099 -50.79  0.004394979    2.221    0.550
        90  -9.3198     48.8702     61.8125   1.1081785955e+02   5.8439925170e+01    0.3587136    0.2586097 -33.07  0.001690315    1.204    0.169
        91  -8.3701     92.0202     56.5199   9.4586688582e+01   5.2725718947e+01    0.2665638    0.2240375 -66.67  0.001500893    1.637    0.389
        92  -9.3018     66.1763     54.0490   1.0214731621e+02   5.7460254439e+01    0.3781244    0.1944883 -48.97  0.001775299    2.279    0.561
