#   1 NUMBER                 Running object number                                     
#   2 MAG_AUTO               Kron-like elliptical aperture magnitude                    [mag]
#   3 X_IMAGE                Object position along x                                    [pixel]
#   4 Y_IMAGE                Object position along y                                    [pixel]
#   5 X_WORLD                Barycenter position along world x axis                     [deg]
#   6 Y_WORLD                Barycenter position along world y axis                     [deg]
#   7 A_WORLD                Profile RMS along major axis (world units)                 [deg]
#   8 B_WORLD                Profile RMS along minor axis (world units)                 [deg]
#   9 THETA_WORLD            Position angle (CCW/world-x)                               [deg]
#  10 FWHM_WORLD             FWHM assuming a gaussian core                              [deg]
#  11 ELONGATION             A_IMAGE/B_IMAGE                                           
#  12 ELLIPTICITY            1 - B_IMAGE/A_IMAGE                                       
         1 -10.2995    209.1084     33.9803   4.2414375894e+01   2.9477091479e+01    0.5051825    0.3187189   2.73  0.002288935    2.682    0.627
         2 -10.4413    142.7402     31.8441   5.1669325632e+01   4.5583277770e+01     0.522082    0.2871579 -39.34  0.001981996    1.911    0.477
         3 -10.3565     41.5532     21.8456   7.7782816550e+01   6.6871072998e+01    0.4305917    0.3669514 -71.64  0.002576835    2.414    0.586
         4 -10.5120     26.6753     21.4666   8.4491480084e+01   6.8742118510e+01    0.9961673    0.5013219 -10.13  0.004700924    2.642    0.621
         5 -10.4898     15.8897     17.4383   8.8047812792e+01   7.0456940565e+01    0.3765945    0.2483375   8.99  0.001332308    1.467    0.319
         6 -11.2179    166.0714     18.3930   4.3575294165e+01   4.1427173909e+01    0.3926306    0.2997423  27.97  0.001001597    1.507    0.336
         7 -12.4081    116.9619     22.3543   5.3643785870e+01   5.2673891422e+01    0.2752728     0.254881   3.47 0.0004153303    1.091    0.084
         8 -10.4099    127.9079     19.5137   5.0300058078e+01   5.0444223573e+01    0.4092893    0.2499506 -38.75   0.00094829    1.801    0.445
         9 -10.8158    182.6569     17.7729   4.1239575332e+01   3.7510544874e+01    0.6745365    0.3156856  37.16  0.001834735    3.144    0.682
        10 -10.0368    199.4593     17.2876   3.9209767642e+01   3.3606426804e+01    0.4710752    0.2062877 -28.31  0.002140303    2.318    0.569
        11  -9.7982    144.4634     17.5781   4.6623004105e+01   4.6713130614e+01    0.3220078    0.2727762  23.20  0.001915116    1.238    0.192
        12 -10.0317     60.6601     17.5088   6.7969472477e+01   6.4537516142e+01    0.4141195     0.242335  20.78   0.00216918    1.734    0.423
        13 -11.0473     67.6013     15.5171   6.4549925947e+01   6.3561790854e+01    0.3485324     0.308155 -24.96 0.0005627802    1.358    0.263
        14  -9.1426     69.4988     11.5650   6.2061054233e+01   6.3642797311e+01    0.2748359    0.1896114  57.32  0.001418942    1.810    0.447
        15  -9.7656     30.6824      4.3039   7.3877122181e+01   7.0614804545e+01    0.4770998    0.2058883 -27.02  0.001259047    2.073    0.518
        16  -9.7794     23.6896      1.3580   7.5683324434e+01   7.1853241378e+01    0.1924579    0.1148668  33.15 0.0001615266    1.758    0.431
        17 -11.5506      5.5531     16.1670   9.3001143009e+01   7.1521790546e+01     0.536416    0.4144088  -0.92  0.001150781    1.284    0.221
        18  -8.5916      6.0586      9.5222   8.9595165179e+01   7.2536007193e+01    0.4096823      0.20813  14.03 0.0009787149    2.028    0.507
        19 -10.4510     17.7812      1.8576   7.9044266403e+01   7.2482206120e+01    0.4811679    0.2557897  12.39  0.002107539    1.912    0.477
        20 -11.3552     16.2262      7.6421   8.3016907803e+01   7.1879069604e+01    0.3770975    0.2101723 -12.01  0.002123849    1.698    0.411
        21 -11.2472     24.8259      6.8094   7.8102099837e+01   7.1039117079e+01    0.2115134    0.1557325 -21.26 0.0003571134    1.222    0.182
        22 -11.9459     20.5493      6.1147   7.9918507197e+01   7.1623462522e+01    0.5980634    0.2936475  -8.32    0.0025547    2.560    0.609
        23 -11.2070    231.9177     15.8139   3.5832602121e+01   2.6510274197e+01    0.5998824     0.329373 -59.03  0.002055714    1.729    0.422
        24  -9.6108    225.6007     16.8942   3.6611568080e+01   2.7756444480e+01    0.2625394    0.2047528  -7.45  0.001060652    1.692    0.409
        25  -9.6668     45.0509     15.6265   7.3274033665e+01   6.7226149713e+01    0.4043217    0.2475566  39.32  0.002344901    1.768    0.435
        26  -9.7346    210.0035     13.9527   3.7321353952e+01   3.1536827712e+01    0.3022736    0.2275446  29.95  0.001366488    1.778    0.438
        27  -9.4899    211.8432      9.1849   3.5997948811e+01   3.1607396047e+01    0.3728884    0.2784885  66.05  0.002313395    1.335    0.251
        28 -10.0726    208.8826      4.6060   3.5154024358e+01   3.2719553264e+01    0.3282445    0.2265258  57.85  0.001483654    1.511    0.338
        29  -8.9114    206.3645      1.7461   3.4678169678e+01   3.3554707495e+01    0.1921861     0.151986 -80.22 0.0003323635    1.130    0.115
        30  -8.9233    112.3095     14.6127   5.1740995054e+01   5.4503273046e+01     0.228196    0.1541764 -21.27  0.001239793    1.552    0.356
        31 -10.4299    243.7438     14.1533   3.4545032198e+01   2.4210307182e+01    0.2989791    0.1785888 -82.14  0.001052525    1.683    0.406
        32 -11.0131    133.1473     12.8066   4.6959553046e+01   4.9854985440e+01    0.2461191    0.2195214   1.71 0.0002967321    1.183    0.155
        33  -9.3420    128.0661      8.5132   4.6360173988e+01   5.1424297193e+01    0.3416484    0.2031019  70.17  0.001147066    1.695    0.410
        34 -10.9280    175.2943     11.5578   4.0389811450e+01   3.9881366948e+01    0.4498514    0.2855875  43.13  0.001088564    1.716    0.417
        35  -9.9311     89.1297     13.2443   5.6887127311e+01   5.9640401093e+01    0.2098081    0.1798724  31.07 0.0004525914    1.070    0.065
        36  -8.4443     37.5554      9.7597   7.3593068577e+01   6.9028424606e+01    0.1410049    0.1221955  -0.73  0.000316523    1.294    0.227
        37  -9.0497     41.5532     11.0799   7.2500975133e+01   6.8302522046e+01    0.3052135    0.1692834  19.71  0.001133847    1.807    0.447
        38  -9.9195     53.5041     10.1404   6.7109820504e+01   6.6576021579e+01     0.426814    0.3182117   4.83  0.001876188    1.108    0.097
        39  -8.6737     48.0843      8.3955   6.8377641612e+01   6.7635724315e+01    0.5262666    0.3975313  32.10  0.002727549    1.329    0.248
        40  -9.8246     32.8784     12.5383   7.7175384974e+01   6.9295233609e+01    0.2192793    0.2126031  16.52   0.00132103    1.700    0.412
        41  -9.3504     27.3257     12.9242   8.0039906305e+01   6.9924349847e+01    0.2799159    0.2034076  47.76  0.001691834    2.402    0.584
        42  -9.0019    145.5584      9.4467   4.3787565048e+01   4.7203270042e+01    0.3262156    0.2254117  10.63  0.001673153    1.743    0.426
        43 -10.3939    147.3800     12.8140   4.4597416289e+01   4.6466191375e+01    0.3260535     0.216717  48.34 0.0005813548    1.406    0.289
        44  -9.8518    150.6168     11.8179   4.3784305988e+01   4.5780818841e+01    0.2002403    0.1905611  86.16 7.026025e-05    1.074    0.069
        45  -8.9545     75.4767     12.4995   6.0565036516e+01   6.2425512275e+01    0.2205968    0.1460079 -30.95  0.001247468    1.638    0.390
        46  -9.0527     79.0684     11.0872   5.8823231705e+01   6.1871698831e+01    0.3526936    0.1857696   5.61  0.001398815    2.399    0.583
        47  -8.6068     98.1904     11.9722   5.3988840897e+01   5.7856099682e+01    0.1601227   0.09708251 -19.00  0.000329151    1.704    0.413
        48  -9.0919    219.1544     11.9163   3.6009582219e+01   2.9700269178e+01    0.2488314    0.1465794 -36.62  0.001127331    1.600    0.375
        49  -9.6814    224.7617      9.1085   3.4894511339e+01   2.8760301843e+01    0.2142718     0.173806 -64.12  0.001418947    1.066    0.062
        50 -10.1467    192.1161      7.8727   3.7530859979e+01   3.6255254971e+01    0.3457294    0.2556862  84.04  0.001164997    1.260    0.206
        51 -10.8727    194.0858      3.8577   3.6301161981e+01   3.6169465832e+01    0.7308952    0.2243677  59.75  0.003002821    2.825    0.646
        52 -10.5938    164.9565      7.4882   4.0488616350e+01   4.2726134211e+01    0.3259437    0.2169509 -41.47 0.0004482644    1.571    0.363
        53 -10.9022    160.4385      3.0447   3.9737045728e+01   4.4183457441e+01    0.4412678    0.2901872  60.46  0.001929872    1.356    0.262
        54 -10.2135    202.7173      8.7683   3.6726362129e+01   3.3718561246e+01    0.2302872    0.1877092 -69.78            0    1.126    0.112
        55 -12.1319    118.7448      2.3583   4.5822650211e+01   5.4073957976e+01    0.4608157    0.3075955  66.51  0.001529793    1.430    0.301
        56 -10.6997    108.8432      5.9807   4.9146411957e+01   5.6037441304e+01    0.6456244    0.4904441  63.09  0.003841348    1.308    0.235
        57  -9.9001     86.4981      6.4740   5.4665012639e+01   6.0803706070e+01    0.3144037    0.2780963  41.61   0.00207388    1.171    0.146
        58 -10.0084     90.3748      1.8850   5.1675359787e+01   6.0371990814e+01    0.4067426    0.2276527  61.93  0.001482824    1.825    0.452
        59 -10.7868    248.1362      4.8109   3.2275865840e+01   2.4303881046e+01    0.3234217    0.2663237   4.56 0.0004814668    1.802    0.445
        60  -9.7172     92.1667      8.1030   5.3885967476e+01   5.9484091914e+01    0.2245741    0.1600887  43.13 0.0004580612    1.220    0.180
        61  -9.2511     73.7230      8.1755   5.9121562863e+01   6.3185530763e+01    0.3915524    0.2159258  59.02   0.00197051    2.175    0.540
        62  -9.3597     80.7789      1.9813   5.4212571064e+01   6.2340051364e+01    0.3647186    0.2096504  66.21   0.00159182    2.175    0.540
        63  -9.8909     68.6312      2.0498   5.7812769139e+01   6.4701817959e+01    0.3225704    0.2246782   0.09  0.001480237    1.336    0.251
        64 -10.4770     73.9782      1.8454   5.6085742686e+01   6.3696416905e+01    0.2941575    0.1977015  45.16 0.0008377167    1.329    0.248
        65  -8.7727    138.9212      6.9542   4.3998841025e+01   4.8995800920e+01     0.191129    0.1299347  32.78 -0.001320134    1.537    0.350
        66  -8.7668     98.0223      7.0467   5.1998995965e+01   5.8327722362e+01    0.2114726     0.126033  28.77 0.0005828885    1.639    0.390
        67 -10.4738    237.9827      3.4644   3.2669576397e+01   2.6519585648e+01    0.2840296    0.2444603 -43.41  0.001589828    1.216    0.177
        68  -8.9381    174.6261      5.6872   3.8813824714e+01   4.0576902099e+01    0.2336782    0.1519771 -62.11 0.0007994556    1.659    0.397
        69  -8.4756    171.0137      6.4730   3.9454989638e+01   4.1367799498e+01    0.2775321    0.1237485  53.34  0.001190293    2.091    0.522
        70  -9.7603     61.8217      5.2765   6.1638145770e+01   6.5657594884e+01    0.2474318    0.1840929   8.99 0.0007764209    1.138    0.121
        71  -9.4600     39.7288      3.7296   6.9441673091e+01   6.9417507872e+01    0.4518141    0.2939557   6.28  0.002827625    1.345    0.257
        72  -9.4427    224.2689      3.6687   3.3699720472e+01   2.9410896201e+01    0.2342986    0.1836835 -18.18 0.0008969955    1.552    0.356
        73 -10.9828    179.9517      2.3237   3.7304552607e+01   3.9608516970e+01    0.4326073    0.2459866 -88.69   0.00140005    1.869    0.465
        74 -10.3775    218.6890      2.7518   3.3918342717e+01   3.0716095680e+01    0.2864704    0.2185637  69.31  0.001414448    1.310    0.237
        75  -9.9873    145.5864      2.8367   4.1649167851e+01   4.7743469763e+01    0.4941048    0.1969095  58.22    0.0022035    2.070    0.517
        76 -10.3264     49.5475      2.4293   6.4700661231e+01   6.8027125541e+01    0.3236041    0.1652295  25.58 5.423064e-05    1.881    0.468
        77  -9.2333      3.1018      2.5365   8.7725510464e+01   7.3811864811e+01    0.2792636    0.1385362 -12.66  0.001509962    2.058    0.514
        78  -8.8068    127.8997      1.6368   4.3964365979e+01   5.2008453847e+01    0.2110339    0.1243107  48.49 0.0007453629    1.486    0.327
        79  -9.2264    186.1636      1.2977   3.6400959308e+01   3.8239099553e+01    0.2096829    0.1009298  71.41 0.0002646138    1.867    0.464
        80  -9.3818      3.5266    103.8590   1.1662118499e+02   5.3179273559e+01    0.7010458    0.1645345 -70.48  0.002548016    3.306    0.697
        81  -9.3894    201.4238    249.6115   9.2035864492e+01  -4.4871458583e+00    0.2141795    0.1521701  28.60 0.0006874777    1.193    0.162
        82  -9.2336      6.2419     93.7992   1.1421939470e+02   5.5407430114e+01    0.4459617    0.2202849 -77.45   0.00221945    1.935    0.483
        83  -9.6958      8.3598     98.6815   1.1431732817e+02   5.4136678925e+01    0.2224078    0.1652231 -86.10 0.0007719079    1.355    0.262
        84  -8.6956      4.4269     98.0000   1.1547557204e+02   5.4516886773e+01    0.3136089    0.1566661  21.06  0.001681043    2.500    0.600
        85  -8.9765     83.5440    117.7349   9.4464734121e+01   4.1567916826e+01    0.2569939    0.1852337  75.55 0.0008192062    2.011    0.503
        86 -10.0912      9.7695    117.9537   1.1668483987e+02   4.9443648575e+01    0.2433803    0.1806779   5.91  0.001482159    1.781    0.438
        87 -10.9471     54.6917    118.0817   1.0325864383e+02   4.5396365909e+01    0.2225397    0.2123052 -50.84 0.0002272916    1.109    0.098
        88  -9.3594     61.9057    115.0019   1.0040434576e+02   4.5271323779e+01    0.2143319    0.1862534 -55.37  0.000373388    1.017    0.017
        89 -10.2543     62.9578    110.8303   9.9153302370e+01   4.6150311902e+01    0.2971955    0.1834849 -48.56   0.00143505    1.415    0.293
        90  -8.4860    112.4828    114.5907   8.5301700844e+01   3.7339022437e+01    0.1524495    0.1451004 -35.42 4.270901e-05    1.024    0.024
        91 -10.4820     32.4254    112.5399   1.0905220718e+02   4.9041040621e+01    0.8141571    0.3891348  84.61  0.002514884    5.341    0.813
        92  -9.1502     31.6943    106.2921   1.0813906284e+02   5.0622342490e+01    0.2432219    0.1319886 -39.03   0.00117978    1.884    0.469
        93  -9.4317     36.7530    108.9629   1.0703687627e+02   4.9516663760e+01    0.4257607     0.127483 -53.04  0.001628673    2.517    0.603
        94  -9.4444     36.0315    103.7805   1.0625285861e+02   5.0838110253e+01    0.2825585    0.1846778  35.33  0.000822013    1.808    0.447
        95  -8.5969    121.8131    112.2431   8.2109176286e+01   3.6068343172e+01    0.2426026    0.1691181 -89.03 0.0006739405    2.614    0.618
        96  -9.1877    231.6680    110.3353   5.8302319757e+01   1.3045611159e+01    0.1452695    0.1041199 -61.52  0.000705219    1.733    0.423
        97  -9.5264    105.9546    109.9616   8.5925860706e+01   3.9612143341e+01    0.2251085    0.2110046 -40.29 0.0002983257    1.031    0.031
        98  -9.8401    129.2879    109.1644   7.9270659746e+01   3.5240211668e+01    0.3000926    0.1879718  53.25  0.001250237    1.866    0.464
        99 -10.0912    137.2510    107.2627   7.6678405388e+01   3.3987601775e+01    0.2718063    0.2574451  46.53 0.0005789398    1.133    0.117
       100  -9.7073    117.8987    105.6997   8.1390050681e+01   3.8296789250e+01    0.3524744    0.2319827 -24.30 0.0008961603    1.817    0.450
       101  -8.7916    153.6546    107.2169   7.2639315081e+01   3.0449310565e+01    0.2634833    0.1899781  21.53 0.0006273075    1.699    0.411
       102  -9.0806     91.9251    106.2907   8.9081595936e+01   4.2925890804e+01    0.2023465    0.1942402   0.45 0.0007877742    1.098    0.089
       103  -9.3267     51.7784    105.0573   1.0141347376e+02   4.8901466486e+01    0.4356117    0.2389269 -78.25  0.001745747    2.703    0.630
       104  -9.8777     50.7191     99.0380   1.0038587110e+02   5.0461756619e+01    0.2781321    0.1842121 -51.48  0.000331038    1.268    0.211
       105 -10.0125     74.3610    104.2872   9.3991788561e+01   4.6152873692e+01     0.353514    0.1631775 -52.95  0.001427107    1.940    0.485
       106  -9.3747    106.9623     87.5372   7.9202159187e+01   4.4350571384e+01    0.4216713    0.2522894  19.00  0.001634429    2.459    0.593
       107 -10.8600    103.8632     90.4928   8.1015596177e+01   4.4320111281e+01    0.5774899    0.4143242  74.90  0.001083168    2.341    0.573
       108 -10.2193    110.5611     99.5168   8.1710377111e+01   4.1088904942e+01    0.3901916    0.2902038 -12.22  0.001405949    1.631    0.387
       109 -10.8264    107.8688     96.5342   8.1625948691e+01   4.2256740729e+01    0.8100207    0.3418527 -39.69  0.002901247    2.325    0.570
       110 -10.3553    102.7347    101.6267   8.4583516556e+01   4.2091572545e+01    0.6009809    0.3799685  -3.49  0.001741003    2.805    0.643
       111  -9.9226    101.0067     98.4863   8.4207767095e+01   4.3108346565e+01    0.3656524    0.3023028  -9.07 -8.046779e-05    1.322    0.244
       112  -9.9769     66.3938    103.1247   9.6241228359e+01   4.7545024117e+01    0.3109136    0.2176154   2.31 0.0006337235    1.870    0.465
       113  -9.3501    175.1737    102.6718   6.6599904306e+01   2.6547990779e+01    0.3483396    0.2340915  21.28            0    2.020    0.505
       114  -8.9411     29.5637    102.6642   1.0813760175e+02   5.1680071412e+01    0.2504571   0.09725697 -58.01 0.0006907083    1.954    0.488
       115 -10.1385     57.2615     99.7102   9.8379973046e+01   4.9530249834e+01    0.3012189    0.2059026 -37.46  0.001497314    1.396    0.283
       116  -9.6623     77.4606     99.0296   9.1638328903e+01   4.6921722359e+01    0.4121599    0.2755329 -67.46  0.001551245    1.827    0.453
       117 -10.0889     16.4283     98.4785   1.1166047649e+02   5.3678643495e+01    0.3538964    0.2696171 -25.10  0.002212129    1.470    0.320
       118  -9.8788    124.6932     97.9107   7.7311236788e+01   3.8607214768e+01     0.395846     0.288917   5.68   0.00173939    1.806    0.446
       119  -7.9672    117.3125     98.3102   7.9452730628e+01   4.0024792244e+01    0.1580043    0.1194135  -6.35  0.000702853    1.628    0.386
       120  -9.5480     33.9344     97.6946   1.0569774539e+02   5.2488658300e+01    0.2310952    0.1655534 -62.16 0.0004050338    1.197    0.165
       121  -9.9061     33.2329     91.7988   1.0466654531e+02   5.3947314942e+01    0.4553738    0.2114703 -39.17  0.002049369    2.124    0.529
       122  -9.2023     35.5470     82.3085   1.0161489099e+02   5.5935828046e+01    0.2669792    0.1857184 -59.08 0.0006974621    1.285    0.222
       123  -8.9131     42.0306     80.8405   9.8878146613e+01   5.5627818891e+01    0.2382282    0.1963613  30.39  0.001430116    1.439    0.305
       124  -8.3363     38.4469     79.5261   9.9843445781e+01   5.6287767354e+01    0.2113805    0.1430084 -46.43 0.0005221635    1.203    0.169
       125 -10.4537     27.5751     90.9054   1.0643128307e+02   5.4641334678e+01    0.4623833    0.2808555 -79.57  0.001766242    1.957    0.489
       126 -10.9855     30.3748     85.0201   1.0413481397e+02   5.5778058685e+01    0.5879979    0.3816819 -22.42  0.002910398    1.729    0.422
       127  -9.2809    135.6417     96.3219   7.3969703885e+01   3.6620100322e+01    0.1589827    0.1260309 -81.99 5.929536e-06    1.768    0.434
       128  -8.6627     87.3465     96.2883   8.7757451587e+01   4.5980405021e+01    0.1527203    0.1113151 -13.74 0.0007023714    1.656    0.396
       129 -10.0603     41.8907     94.6434   1.0233683242e+02   5.2450920024e+01    0.3677792    0.2346825 -84.18  0.001213029    2.208    0.547
       130 -10.1950     23.4977     95.2999   1.0872157105e+02   5.3925880434e+01    0.2752892    0.2050786 -74.44 0.0007397077    1.301    0.232
       131  -9.1327     81.0061     94.9987   8.9402754401e+01   4.7297765880e+01    0.1789525    0.1655924 -25.60  0.000840365    1.050    0.048
       132  -8.9600    179.3648     93.8011   6.3311527157e+01   2.7260043578e+01    0.2270103    0.1398439 -26.05 0.0009481877    1.750    0.429
       133  -9.9880     47.1245     92.8666   1.0012761539e+02   5.2317685430e+01    0.4785791    0.2344204 -44.05  0.002171961    1.792    0.442
       134 -10.0426     43.6575     88.1735   1.0017767093e+02   5.3781291685e+01     0.318426    0.2209288  19.39 0.0004815587    1.684    0.406
       135  -9.8027     52.0072     94.0028   9.8740257610e+01   5.1501672774e+01    0.2055161     0.176492 -47.61            0    1.027    0.027
       136  -9.4745     48.4483     83.4258   9.7252701646e+01   5.4346519379e+01    0.3737465    0.2837213 -71.49  0.001742129    1.547    0.354
       137  -9.3850     52.4782     90.5527   9.7709462252e+01   5.2249769430e+01     0.247069      0.21709 -85.28 0.0009390577    1.378    0.274
       138  -9.5516     48.3103     88.0359   9.8511224138e+01   5.3308858421e+01    0.2174724    0.1990969  32.48            0    1.298    0.230
       139 -10.0510    116.8383     91.8148   7.7668126431e+01   4.1497946671e+01    0.2656971    0.2405416 -16.26 0.0002911536    1.070    0.065
       140 -10.1886    124.4131     87.9202   7.4406217855e+01   4.0729470157e+01    0.4597037    0.2826697 -40.21   0.00144914    1.554    0.356
       141 -10.2296    129.5370     85.6283   7.2343690687e+01   4.0089630013e+01     0.407991    0.3409483  47.32  0.001913061    1.265    0.210
       142  -9.6054    133.1073     81.8569   7.0256208658e+01   4.0039742567e+01    0.2362936    0.2207921 -12.36 0.0005113881    1.025    0.025
       143  -9.6083     87.7103     89.0010   8.5535291721e+01   4.7539089093e+01    0.3743523    0.2595331 -42.20   0.00087735    1.313    0.238
       144  -9.4976     87.6535     84.3253   8.4141854322e+01   4.8559242706e+01    0.3435789    0.2586092 -77.12  0.001590412    2.031    0.508
       145  -9.3342      8.6879     88.2547   1.1244189792e+02   5.6567735727e+01    0.5122056    0.2055684 -34.56  0.001951964    2.792    0.642
       146  -9.3533     16.2904     86.5948   1.0948216931e+02   5.6484917603e+01    0.4159054    0.1836585 -46.16  0.002029875    1.849    0.459
       147  -9.3025     94.8790     86.8400   8.2635498140e+01   4.6755880821e+01    0.3235307    0.2416118  32.71 0.0006948549    1.424    0.298
       148  -9.8188     75.3960     65.6077   8.2144120700e+01   5.4431338436e+01    0.3273701     0.221991 -25.79 0.0005711926    1.438    0.305
       149 -10.1075     80.3280     83.2744   8.6200676764e+01   5.0001353753e+01    0.5681338    0.3653014 -25.67  0.002613669    1.715    0.417
       150  -9.1480     76.0664     74.9009   8.5007160659e+01   5.2452890686e+01    0.3499922    0.2102675 -11.04  0.001392443    2.551    0.608
       151 -12.0153     79.7861     69.9403   8.2113797457e+01   5.2857203088e+01    0.2742371    0.2446249  -5.08 0.0003064293    1.072    0.068
       152 -10.0620     70.0405     86.6794   9.0646892496e+01   5.0828455482e+01     0.473114    0.2469048  27.00  0.001832184    2.248    0.555
       153 -10.5088     73.5202     81.1953   8.7843966525e+01   5.1515820901e+01    0.6174269    0.3362813 -39.95  0.002764692    1.670    0.401
       154  -8.8583     54.4946     86.9992   9.6077939604e+01   5.2825462991e+01    0.2108043   0.09118044 -37.31 0.0007252434    2.469    0.595
       155  -8.8364    181.4171     86.2101   6.0806273158e+01   2.8153862084e+01    0.2132981    0.1334603 -45.78 0.0004543979    1.584    0.369
       156 -10.3684    155.1772     84.6506   6.5818286242e+01   3.4520049282e+01     0.377639    0.2716155 -32.21 0.0009501335    1.358    0.263
       157 -10.5470    151.1151     80.2434   6.5417349685e+01   3.6265159212e+01    0.4693929    0.3328142  56.50  0.001860919    1.522    0.343
       158 -10.3094    118.5625     84.5407   7.4962475033e+01   4.2633404176e+01    0.3774817    0.2717665  14.91  0.001702082    1.722    0.419
       159 -10.5318     59.3399     83.3064   9.3363154309e+01   5.3050569847e+01    0.3500686    0.2628276  46.34  0.001200406    1.662    0.398
       160  -9.2447     53.5327     81.7419   9.4974976965e+01   5.4129376572e+01     0.269981    0.1597386 -40.02   0.00132164    1.493    0.330
       161  -9.3074     20.6865     81.5339   1.0684390912e+02   5.7348855647e+01     0.314326    0.2324074 -72.68  0.001884749    1.375    0.273
       162 -10.1490    167.8911     78.7788   6.1365220056e+01   3.2613027151e+01    0.3666342    0.2203232 -18.59   0.00147101    2.118    0.528
       163  -9.8253    106.1256     78.9606   7.6754483782e+01   4.6263396131e+01    0.4509456    0.2415241 -22.99   0.00164959    2.607    0.616
       164  -9.7057    110.6280     76.8628   7.4763263532e+01   4.5776199226e+01    0.3063908    0.2687477 -36.65 0.0007803675    1.119    0.106
       165  -9.7402      1.9917     79.2558   1.1315755060e+02   5.8993207931e+01     0.513475    0.1572661 -71.92   0.00197291    3.222    0.690
       166 -10.4695    179.9444     75.1702   5.7980757885e+01   3.0393318220e+01    0.6831177    0.3623283 -22.88  0.002647991    2.302    0.566
       167  -9.2038    174.2603     69.1058   5.7298946696e+01   3.2734423065e+01    0.2680086    0.2118458  56.80   0.00110098    1.304    0.233
       168  -8.9806    175.1344     75.1426   5.8879722038e+01   3.1530681961e+01    0.2174375     0.200008  12.42 0.0002883122    1.159    0.137
       169 -11.1128    169.5775     73.4526   5.9469104561e+01   3.3127040136e+01    0.5961961    0.2893324  57.16  0.001882546    2.189    0.543
       170  -9.0683     15.6018     79.4492   1.0824712270e+02   5.8177601231e+01    0.2930031    0.1431641 -12.23  0.001342212    2.945    0.660
       171 -11.1058     17.0784     73.9541   1.0646400990e+02   5.9323454757e+01    0.3632408    0.2315043 -47.42 0.0004516442    1.221    0.181
       172 -10.4953    158.0518     76.7513   6.2826890179e+01   3.5275264684e+01    0.2878536    0.2539518 -13.33 0.0002505852    1.161    0.139
       173  -9.0235    129.4332     77.7720   6.9917336913e+01   4.1621200085e+01    0.2078994    0.1425106 -24.07 0.0004419679    1.551    0.355
       174  -9.4153     61.6882     76.6884   9.0585610781e+01   5.4191083348e+01    0.3507055    0.1835925 -48.65  0.001446459    1.692    0.409
       175  -9.7114     64.5041     75.5430   8.9232514915e+01   5.4047399907e+01    0.5215665    0.3552529  78.57  0.002075204    3.500    0.714
       176  -9.3556    116.1852     76.9793   7.3225084665e+01   4.4610945005e+01    0.2458412    0.1641567 -14.60 0.0004308883    1.865    0.464
       177 -12.0694     53.0720     75.1069   9.3223382458e+01   5.5647173633e+01    0.2976344    0.2332206 -39.47 0.0002979461    1.078    0.072
       178 -10.2450     53.1262     70.2136   9.1711405696e+01   5.6688441209e+01     0.288267     0.197466 -54.03  0.000522327    1.453    0.312
       179 -11.8300    199.7410     71.8915   5.3659278414e+01   2.6311926209e+01    0.3358394    0.2741823 -23.36 0.0004582272    1.257    0.205
       180 -10.1407     83.4992     74.4985   8.2382070075e+01   5.1316504962e+01    0.3668472    0.2525772   3.08 0.0007553755    1.849    0.459
       181  -8.9847    127.4037     74.8438   6.9508886250e+01   4.2611039437e+01    0.3093328    0.1941834  29.24  0.001308202    1.889    0.471
       182 -11.0508     89.5090     72.3705   7.9719634916e+01   5.0696555893e+01    0.6166646    0.4963284 -56.08    0.0032197    1.457    0.314
       183  -9.2784     94.5266     71.0272   7.7675183204e+01   5.0043595537e+01    0.3449762    0.2673503 -51.90  0.001362449    1.449    0.310
       184  -9.2806     93.2884     67.3311   7.6808158115e+01   5.0981231858e+01    0.2344262    0.2053226 -35.12 0.0007421788    1.139    0.122
       185  -9.2623     68.9806     74.2330   8.7242506388e+01   5.3678206554e+01    0.2341705    0.1795212 -38.47 0.0005702472    1.150    0.131
       186  -8.2610     37.4495     75.4620   9.9129748721e+01   5.7295509932e+01     0.136007    0.1084611 -40.29 0.0002291765    1.029    0.028
       187  -8.7116     28.5992     75.2423   1.0240839168e+02   5.8154325578e+01      0.19808   0.09161131 -48.56 0.0009444723    1.677    0.404
       188 -11.1129    152.0740     72.5031   6.2839706907e+01   3.7413197914e+01    0.2942396     0.249358 -43.66  0.001513163    1.188    0.158
       189 -10.3030    145.0296     71.1244   6.4000101075e+01   3.9291674759e+01    0.6717665    0.3132787  38.64  0.002443134    2.527    0.604
       190  -8.7972    111.5394     70.4470   7.2387503906e+01   4.6806855297e+01    0.2869783    0.1367813 -27.29  0.001031968    2.544    0.607
       191 -10.5210     45.5588     68.9467   9.4176841654e+01   5.7857364813e+01     0.482974    0.2189297 -37.62  0.001046537    2.058    0.514
       192  -9.1118     49.6205     65.3036   9.1480584711e+01   5.8146398953e+01    0.2621846    0.1717073 -62.54  0.001157917    1.914    0.478
       193  -9.0299    101.1430     69.9183   7.5262170126e+01   4.8994408956e+01    0.2128074    0.1980576 -44.55  0.000368384    1.191    0.160
       194  -8.9282     10.1412     69.3832   1.0807332706e+02   6.0783637410e+01    0.2244531    0.1184916 -49.07 0.0006874027    1.416    0.294
       195  -8.6969    156.9969     68.6971   6.0609305619e+01   3.6899621500e+01    0.2095857    0.1917024  51.82 0.0006726852    1.119    0.106
       196  -9.7197    120.3863     67.0150   6.8792523132e+01   4.5554581010e+01    0.4730134    0.2916275 -30.87  0.002114719    1.609    0.378
       197  -8.5250     64.1872     69.3668   8.7378633060e+01   5.5385262335e+01    0.1806369    0.1288082  41.41 0.0006430864    1.668    0.400
       198 -11.5180     40.7839     38.4446   8.5378015856e+01   6.4335559322e+01    0.5159626    0.2807103 -12.84   0.00122093    2.346    0.574
       199 -10.2636     39.8323     58.0612   9.2972186240e+01   6.0750649395e+01    0.3602013    0.2934049  -4.55  0.001742228    1.226    0.185
       200 -10.3285     31.0637     53.0656   9.4942524548e+01   6.2650164783e+01    0.6642175    0.4342895  20.51   0.00317181    1.706    0.414
       201 -10.0163     46.9535     47.2680   8.6236628460e+01   6.2000856305e+01    0.3302347    0.1877708 -27.63 0.0008272009    1.664    0.399
       202  -9.0578     42.5816     44.6355   8.7048727191e+01   6.3019518856e+01    0.2224542    0.1724585 -33.74 0.0007240595    1.145    0.126
       203  -9.6768     44.4578     55.5003   9.0235348156e+01   6.0739844001e+01    0.3407529    0.2113122  -8.24  0.001507962    1.925    0.480
       204 -10.5043     42.3557     50.5164   8.9330142438e+01   6.1950459816e+01    0.5335228    0.1969859 -41.66  0.001551176    2.267    0.559
       205 -10.8302     37.7830     46.1804   8.9663644088e+01   6.3289117758e+01    0.3488013    0.3187034  67.86  0.001262792    1.726    0.421
       206 -11.3336     32.5821     64.5326   9.7916008823e+01   6.0139154769e+01    0.6896728    0.3858652 -15.87 0.0001380166    2.240    0.554
       207 -10.7870     31.3204     58.4040   9.6560280329e+01   6.1541413924e+01    0.4013382    0.2801388 -59.99  0.001730988    1.543    0.352
       208  -9.2967     14.5834     64.5176   1.0513926067e+02   6.1576116291e+01    0.3085781    0.2713145  57.48  0.002092938    1.561    0.359
       209 -10.2747      9.3683     61.7760   1.0656068191e+02   6.2494768318e+01    0.3749801    0.2374663 -46.37  0.001337347    1.191    0.160
       210 -11.0948      2.5644     67.2744   1.1055573094e+02   6.1656580023e+01    0.4581682    0.2002017 -49.23  0.002057321    1.651    0.394
       211 -11.1398      1.8598     61.9236   1.0964788438e+02   6.2862416198e+01    0.3073592    0.1924967 -49.78 0.0008043248    1.173    0.148
       212 -10.2573      5.8751     59.1401   1.0733983177e+02   6.3258688142e+01    0.2608071    0.1913838 -31.23 0.0007134306    1.238    0.192
       213 -10.0752     32.3244     41.7892   9.0388412709e+01   6.4690576556e+01    0.3349759    0.2318599 -51.91  0.001319047    1.588    0.370
       214 -10.3507    143.5731     66.4533   6.2856315946e+01   4.0425137516e+01    0.3388592    0.2910939  27.14 0.0008252211    1.198    0.165
       215  -9.2543    147.5389     64.4952   6.1341686612e+01   3.9822594869e+01    0.2468454    0.2054266   5.10 0.0007593568    1.327    0.246
       216 -10.9858    135.0326     64.5774   6.4257251729e+01   4.2709240416e+01    0.5898843    0.4378353  87.03  0.002672455    2.006    0.502
       217  -9.3655    106.2770     66.0458   7.2414778891e+01   4.8689790354e+01    0.3454991    0.1966528  32.48  0.001220918    1.959    0.490
       218 -10.4874     23.5603     62.8663   1.0106558847e+02   6.1278242091e+01    0.5235948     0.234344 -25.91  0.001781089    2.807    0.644
       219 -10.1639    203.6172     63.7013   5.0878037418e+01   2.6685307082e+01    0.4395417    0.2993462  73.71  0.001359736    1.668    0.401
       220  -8.5060    170.7921     64.8449   5.6702000026e+01   3.4242605362e+01    0.1960319    0.1662885 -61.06 0.0003282984    1.267    0.211
       221 -10.0553     83.0899     63.1919   7.8681478508e+01   5.3600518135e+01    0.3884709     0.289762 -55.85  0.001587254    1.674    0.403
       222  -8.0184     41.7129     65.2728   9.4533270668e+01   5.9060079651e+01    0.1142765    0.1035982 -85.41 0.0001605921    1.508    0.337
       223  -9.1179     98.7427     63.7180   7.3859900721e+01   5.0609753653e+01    0.4637356    0.1740101  40.16  0.001660811    2.804    0.643
       224 -10.1457    162.7485     56.3418   5.5671384220e+01   3.7479020676e+01    0.5963337    0.2113019 -30.90   0.00205523    2.866    0.651
       225  -8.4218    212.0142     61.0490   4.8980261773e+01   2.5164340322e+01    0.1620891    0.1458704 -47.23 0.0002943499    1.023    0.023
       226 -10.4437     70.5297     59.9616   8.1879831899e+01   5.6293284348e+01    0.2951016    0.2773196  85.32  0.000901655    1.494    0.331
       227  -8.9741     52.8501     61.1893   8.8880750965e+01   5.8581025467e+01    0.2357623    0.1832334  -7.29  0.000761631    1.279    0.218
       228 -10.0414    152.6705     59.6671   5.8714200582e+01   3.9381418881e+01    0.3472017    0.2696393  48.01  0.001112379    1.283    0.221
       229  -9.1859    149.6873     59.3111   5.9230440883e+01   4.0145083769e+01    0.2446868    0.1875405 -32.82 0.0003017712    1.292    0.226
       230  -9.8098    194.0094     60.6813   5.1530138112e+01   2.9370902261e+01    0.3560351    0.2022252 -32.64  0.001606975    1.699    0.411
       231  -8.8624    181.1107     58.6364   5.3053571597e+01   3.2731151481e+01    0.2571898    0.1889268 -46.73  0.001292561    1.352    0.260
       232 -10.2513    149.2127     54.8486   5.7906969203e+01   4.0941793255e+01    0.3722162    0.3297909  19.02 0.0002150564    1.170    0.145
       233  -9.6710    145.2809     53.5070   5.8305538530e+01   4.2075827166e+01    0.8382872    0.1717068 -29.18  0.001943707    6.446    0.845
       234  -9.3706     22.4439     58.0430   1.0013280018e+02   6.2387280025e+01    0.3033374    0.1893237 -50.30  0.001180494    1.295    0.228
       235  -9.9576     25.0985     54.2813   9.7865544276e+01   6.2945340989e+01    0.3714454    0.1385882 -50.33  0.001684192    2.076    0.518
       236  -9.2870    160.3744     60.7544   5.7484071876e+01   3.7374699912e+01    0.3348907    0.1984631 -34.48 0.0008930335    1.652    0.395
       237  -8.7148    170.7103     57.6899   5.4597811652e+01   3.5364199929e+01    0.2029396    0.1682223 -66.54 0.0002370347    1.334    0.250
       238 -10.0538    167.2096     56.5619   5.4901020430e+01   3.6373972129e+01    0.2526467    0.2360026  13.94 0.0002505851    1.124    0.110
       239 -10.0234    135.7353     56.5347   6.1433912010e+01   4.3849868916e+01    0.4899599    0.3108557  30.57  0.001758955    1.826    0.452
       240 -10.5884    105.1786     57.7434   6.9828773161e+01   5.0367123597e+01     0.248145    0.2213785  -9.63 0.0002327889    1.039    0.037
       241  -8.9966     60.3170     57.6318   8.4797715264e+01   5.8266967255e+01    0.2266546    0.2015838 -47.38  0.001366182    1.316    0.240
       242  -8.3817     48.4768     57.7302   8.9402622751e+01   5.9818007274e+01    0.1901466    0.1056835 -36.37 0.0008966992    1.564    0.360
       243 -11.2038    225.8548     55.4313   4.5777872876e+01   2.2894516311e+01    0.2841227    0.2202414 -46.10 0.0002473404    1.150    0.131
       244  -9.7236    127.9263     40.0851   5.7601804035e+01   4.8036778588e+01    0.2915219    0.2593198  53.42  0.001662783    1.139    0.122
       245 -11.8341    118.1949     53.8565   6.4852221486e+01   4.8233016040e+01    0.7768449    0.4255849  34.44  0.003268775    2.036    0.509
       246 -11.4234    125.0631     45.7216   6.0257870860e+01   4.7916718164e+01    0.4764025    0.3493666  18.29 0.0009457092    1.520    0.342
       247  -9.8216     14.1694     54.8668   1.0270383347e+02   6.3659913185e+01    0.3759415    0.1827547 -58.90  0.001180321    1.792    0.442
       248  -9.5090      8.4189     43.7291   1.0191742681e+02   6.6301806034e+01     0.248116    0.1488447 -57.24 0.0005264084    1.508    0.337
       249 -11.0777      5.0052     37.7908   1.0161363828e+02   6.7674244098e+01    0.4873523    0.4054573 -51.89  0.002910541    1.299    0.230
       250  -9.8415      5.1257     31.7641   9.9486283409e+01   6.8811970225e+01     0.393902      0.21232   1.21  0.002299317    2.054    0.513
       251 -11.5931     14.5048     39.2375   9.7595593934e+01   6.6761016761e+01    0.5495539    0.3917623 -65.28  0.003153604    1.816    0.449
       252 -10.7155      7.0398     50.3694   1.0451523803e+02   6.5039237071e+01    0.3125795    0.2772389 -73.94 0.0009409699    1.426    0.299
       253 -10.8271     11.5434     46.9199   1.0149029360e+02   6.5463234592e+01    0.7106447     0.122139 -50.27  0.002675029    3.245    0.692
       254  -8.1329    243.4739     55.5318   4.3784576521e+01   1.9145561238e+01    0.1298562    0.1125459 -49.35 0.0001354855    1.027    0.027
       255 -10.7093    191.5331     54.2718   5.0150259058e+01   3.0891407346e+01    0.3122784    0.2487998 -25.58  0.001679054    1.294    0.227
       256 -10.0457     88.9684     49.1270   7.1591939839e+01   5.4995906545e+01    0.6382396    0.3518277 -49.86  0.002713895    2.431    0.589
       257 -11.5192     94.3853     49.6049   7.0073814534e+01   5.3874129522e+01    0.6513464     0.426086 -15.45   0.00144018    1.660    0.398
       258 -10.4856     93.9810     45.1177   6.8491165639e+01   5.4657067025e+01    0.4275832    0.2778862  25.71 0.0003478066    1.636    0.389
       259  -8.6754     83.3357     52.6876   7.4777175467e+01   5.5443345581e+01     0.263264    0.1637796 -44.37   0.00110482    1.716    0.417
       260  -9.6252     79.9144     49.1510   7.4585168159e+01   5.6652199463e+01    0.6639205    0.2941855 -48.77  0.002493057    3.097    0.677
       261 -10.5600     71.9064     51.8188   7.8394887316e+01   5.7560128340e+01    0.4139764    0.3340969   5.11 0.0007929017    1.188    0.158
       262  -9.7148     52.6733     54.3091   8.6544223498e+01   5.9948266003e+01     0.252139       0.2103 -52.48  0.001089504    1.427    0.299
       263  -9.8387     53.6911     50.1417   8.4611344509e+01   6.0592160869e+01    0.2735021    0.1875161 -27.27 0.0003739092    1.279    0.218
       264  -8.7525      1.7451     55.3977   1.0813735485e+02   6.4268369586e+01    0.1508789   0.09907404 -18.41 0.0009459514    1.577    0.366
       265  -8.7130    106.5032     52.9372   6.7718316637e+01   5.0884882236e+01     0.215844    0.1783756  38.23 0.0005669213    1.205    0.170
       266  -9.6935     61.4783     52.0540   8.2319742860e+01   5.9140662717e+01    0.3039603     0.250455 -58.52  0.001307257    1.633    0.388
       267 -10.4539     65.9210     48.9624   7.9482037964e+01   5.9018228651e+01    0.3748812    0.2651631  -8.60  0.001618146    1.448    0.309
       268 -12.4282     61.8577     44.0668   7.9090993382e+01   6.0486394664e+01    0.4797693    0.2772556 -36.95 0.0004908902    1.582    0.368
       269 -10.2425     67.7944     44.1767   7.6916936668e+01   5.9534196466e+01    0.4728213    0.3113737  10.40  0.002418401    1.703    0.413
       270  -8.7473     21.8546     46.1484   9.6616369563e+01   6.4844852435e+01      0.19346    0.1263638 -30.32  0.001157921    1.268    0.212
       271  -9.7368     20.0098     50.4239   9.8836233555e+01   6.4145047576e+01    0.4338922    0.1761166 -49.04  0.001747198    1.867    0.464
       272  -9.3378     17.3467     46.3528   9.8701761219e+01   6.5164316082e+01    0.2702965    0.1612587 -37.28 0.0009189047    1.313    0.238
       273  -9.0192     25.4720     47.5145   9.5480200454e+01   6.4265145054e+01    0.2210286    0.1323213 -39.45 -9.07932e-05    1.315    0.239
       274  -9.7998     27.1836     44.1454   9.3540681033e+01   6.4758575743e+01    0.2327587    0.1375832 -42.01 0.0005712134    1.358    0.264
       275  -8.4486    212.4626     51.5471   4.6484001029e+01   2.6418232165e+01    0.1348813    0.1249605 -55.96 7.825782e-05    1.021    0.021
       276  -9.4375    175.3093     50.3439   5.1627661176e+01   3.5324103726e+01    0.2609787    0.2411077 -64.96 0.0007858615    1.094    0.086
       277  -9.6698    155.4807     50.5086   5.5262440419e+01   4.0079882894e+01     0.288429    0.2343375  15.59 0.0009545485    1.391    0.281
       278 -10.0290    153.0731     48.3702   5.5055942158e+01   4.0961715120e+01     0.388131    0.2238249  48.53  0.001087746    1.696    0.410
       279 -10.4214    114.3291     46.5017   6.3236931172e+01   5.0201294932e+01    0.4479027    0.2609183 -16.83  0.001475807    2.005    0.501
       280 -10.3538    180.3811     46.8877   4.9800104469e+01   3.4582022109e+01    0.6705145    0.1866349 -43.94  0.002080615    3.837    0.739
       281  -8.5506    175.9713     44.5255   4.9816531846e+01   3.5961775188e+01    0.2082595    0.1345902  60.81  0.001007236    1.524    0.344
       282  -9.3626    233.1220     46.4210   4.2783249498e+01   2.2553740936e+01    0.4529766    0.2593466 -68.63  0.002174871    2.096    0.523
       283  -8.3908    224.5185     48.5634   4.4260749182e+01   2.4132868094e+01    0.1311921    0.1193822 -56.38 0.0001782225    1.032    0.031
       284  -8.8992    197.0194     48.1676   4.7678584803e+01   3.0451287043e+01    0.2021835    0.1796281  35.52 0.0004276361    1.268    0.211
       285  -9.5717     31.7630     47.8780   9.2864091891e+01   6.3600664619e+01    0.1838601    0.1521136 -16.91 0.0004823357    1.108    0.097
       286 -11.9861    103.9433     39.3439   6.3371732183e+01   5.3459147269e+01    0.4999648    0.3581382 -34.46 0.0006405518    1.439    0.305
       287  -9.7365     83.6457     45.4848   7.1915716017e+01   5.6575253499e+01    0.2920346    0.2140148 -46.99  0.001017026    1.633    0.388
       288  -9.4369    245.8898     45.4984   4.1255145762e+01   2.0001678188e+01    0.3419812     0.197393 -78.42  0.001700576    2.168    0.539
       289  -8.5880    204.0681     46.4396   4.6257593669e+01   2.9040601597e+01     0.200108    0.1287314  60.87 0.0007826032    1.580    0.367
       290  -8.4534    164.7858     46.3865   5.2256119155e+01   3.8412781470e+01    0.1922989    0.1257224  49.13 0.0002759607    1.518    0.341
       291  -9.5912    200.0328     43.2959   4.5961000193e+01   3.0397347371e+01    0.2347798    0.2095507  -2.96 0.0004215334    1.301    0.231
       292  -8.8531    186.7269     44.1924   4.8067569944e+01   3.3424253351e+01    0.2990575    0.1779195  54.45  0.001423814    1.677    0.404
       293  -8.9915    149.8773     43.9082   5.4251169684e+01   4.2343931208e+01    0.2216047     0.181858  24.40 0.0005092695    1.305    0.234
       294  -9.0035    144.9138     42.6816   5.4837499145e+01   4.3696526556e+01    0.4231847     0.135055  61.97  0.001339887    3.573    0.720
       295  -9.2737     53.0743     42.9964   8.2095514338e+01   6.1950185562e+01    0.1994388     0.159994 -23.05  0.000472712    1.069    0.064
       296  -9.4864     91.0338     40.5780   6.7629886886e+01   5.5917498829e+01    0.3891145    0.1711042 -32.47  0.001631549    2.212    0.548
       297  -9.5608    192.2340     38.2211   4.5637769849e+01   3.2886669839e+01     0.465389    0.2760307   1.20  0.001859146    2.959    0.662
       298 -10.6217    228.2334     37.8459   4.1272607029e+01   2.4719887793e+01    0.3657458    0.2045994 -43.11 0.0004983384    1.574    0.365
       299  -8.6473    165.9412     39.6343   5.0002183134e+01   3.9026548501e+01    0.1895863    0.1699426  69.13 0.0004364844    1.101    0.092
       300  -8.3832    215.5012     39.4191   4.3048329868e+01   2.7343301169e+01    0.1312588    0.1184713 -65.91 0.0002189713    1.013    0.013
       301  -9.9153    186.5697     37.2248   4.6141483016e+01   3.4359324666e+01    0.2787987    0.2326511 -54.26 0.0006209997    1.181    0.153
       302 -10.0013    182.1932     38.8981   4.7239671445e+01   3.5196662684e+01    0.2549869    0.2088062 -56.00 0.0004496345    1.230    0.187
       303  -9.6210    176.6098     36.5681   4.7398842070e+01   3.6832548867e+01    0.4122226    0.2421501  76.74  0.001592235    1.919    0.479
       304  -9.1549     82.3770     38.6643   6.9621462774e+01   5.7854492131e+01    0.2141467    0.1890116 -30.16 0.0006435685    1.253    0.202
       305  -9.8245     25.1074     38.7228   9.2478402888e+01   6.5967195356e+01    0.2311893    0.1633777 -30.11 0.0004448105    1.105    0.095
       306  -8.8975    238.1219     37.8499   4.0280009548e+01   2.2600858830e+01    0.1958578     0.149738 -59.35 0.0006236371    1.166    0.143
       307 -10.3905    124.4287     31.0349   5.5166539024e+01   4.9985556942e+01    0.5075526     0.470544 -69.49  0.003030711    1.271    0.213
       308  -9.0671    133.0209     31.7562   5.3575278148e+01   4.7898784160e+01    0.2410008    0.2209425  71.57  0.001419082    1.168    0.144
       309  -9.4543    135.9488     36.4923   5.4600163107e+01   4.6628658625e+01    0.2569341     0.202865  -6.90 0.0004962988    1.360    0.265
       310 -10.6282    130.8423     35.5188   5.5350100908e+01   4.7949330718e+01    0.4988987    0.3753739  89.86 0.0006945946    1.783    0.439
       311  -9.7686    114.2142     35.6231   5.9260776664e+01   5.1729468516e+01    0.3518154    0.3190166 -66.05  0.002046946    1.371    0.270
       312  -9.4556    117.2061     32.8048   5.7481629960e+01   5.1416532494e+01    0.2208185     0.183915  36.22 0.0002861751    1.114    0.102
       313  -9.7283    115.8196    248.7810   1.0808871642e+02   8.1015052308e+00    0.1980611    0.1741343  41.47 0.0006574864    1.077    0.071
       314  -8.4742    192.3298    248.3277   9.3517454858e+01  -3.0200871157e+00     0.124816   0.08041826   5.96 0.0007051161    1.709    0.415
       315  -8.1390     95.2798     35.6245   6.4392136846e+01   5.5767366097e+01     0.132429    0.1067783 -56.86 6.611188e-05    1.705    0.413
       316  -9.0174     81.6117     32.1627   6.7198442277e+01   5.8919150524e+01    0.2556854    0.1770779  59.38 0.0008905843    1.953    0.488
       317 -10.2489     77.1093     34.6695   6.9737781613e+01   5.9401950481e+01    0.6671849    0.2311727  47.00   0.00256241    3.032    0.670
       318  -8.7598     75.6393     31.2806   6.8810261809e+01   6.0143663681e+01    0.2154045    0.2026184  85.85 0.0004385568    1.577    0.366
       319  -9.5407     71.4981     29.5322   6.9489191278e+01   6.1123369049e+01    0.2407232    0.2339644  -2.10  0.001069421    1.344    0.256
       320 -10.4198     75.3844     27.0427   6.7076977744e+01   6.0756690779e+01    0.3163107     0.264322  37.83 0.0007734483    1.275    0.216
       321  -9.5138    163.6262    245.9639   9.8585603614e+01   1.5327807259e+00    0.2245765    0.1072363 -37.15  0.001113355    2.550    0.608
       322 -11.0326     57.0303     34.0560   7.6826880912e+01   6.2839159103e+01    0.5179141    0.2985589  46.26  0.002604272    2.217    0.549
       323  -9.4075     55.5486     29.4589   7.5412196792e+01   6.3757232678e+01    0.1851421    0.1474006  -5.35 0.0005245933    1.034    0.033
       324  -9.8628     51.8875     28.9548   7.6660949954e+01   6.4378800692e+01    0.2168119    0.1707751  33.68 0.0003877089    1.441    0.306
       325  -9.9300     49.5022     25.3255   7.6005006646e+01   6.5257835088e+01     0.370372    0.2064954  24.92  0.000679554    1.820    0.450
       326  -8.9372     47.5520     34.4476   8.0841951903e+01   6.4137178105e+01    0.1888261    0.1106954  18.19 0.0001901091    1.837    0.456
       327 -12.2146    107.6906     29.2363   5.8484580340e+01   5.3961848747e+01    0.4810349    0.3391722 -21.34  0.002580193    1.434    0.302
       328  -8.6331    232.7862     31.8590   3.9416415776e+01   2.4477443744e+01    0.1841446    0.1265295 -62.40 0.0004441062    1.371    0.270
       329  -8.5585    203.3429     31.8271   4.2532971065e+01   3.1067309998e+01    0.1773984    0.1238238 -17.53 0.0009319803    1.679    0.404
       330 -10.8728    186.1995     30.5650   4.4337947566e+01   3.5255137505e+01    0.5076454    0.3333172  67.41  0.001352603    1.479    0.324
       331  -9.8098    178.9830     25.1854   4.3788304918e+01   3.7597352766e+01    0.3986719    0.1958812  84.36  0.001211546    2.706    0.630
       332  -9.8815    153.6203     31.3708   4.9531932369e+01   4.3023087948e+01    0.4205588    0.2137399  49.43  0.001869722    1.874    0.466
       333  -8.6765      1.3951    244.2406   1.2809775975e+02   2.2510065021e+01    0.1381985   0.07178233  81.79 0.0003628591    1.554    0.357
       334  -9.8209    202.8653    242.3356   9.0643231787e+01  -3.7114706650e+00    0.2056218    0.1553065 -10.78 0.0004188932    1.279    0.218
       335 -10.4184     33.1689     29.1932   8.4888816783e+01   6.6787944196e+01    0.4123614     0.365714 -40.56  0.002820438    1.491    0.329
       336  -9.9662     18.4527     24.4956   8.9909997959e+01   6.9077289347e+01     0.251287    0.1486549 -28.35 0.0008237053    1.351    0.260
       337 -10.3503     18.4537     21.4424   8.8562581890e+01   6.9579133028e+01    0.2605954    0.1611603  10.28  0.001304097    1.622    0.383
       338 -11.4569     19.1219     29.0750   9.1510775621e+01   6.8237332462e+01    0.3779906    0.2087841  24.80 0.0004165202    1.992    0.498
       339 -10.6339     27.6787     31.3106   8.8337714007e+01   6.7030511723e+01    0.2640661     0.207953 -43.42 0.0003132802    1.413    0.293
       340 -11.0729     23.5402     31.0000   9.0166320308e+01   6.7495072700e+01    0.3911654    0.1773978  28.13  0.002030068    2.416    0.586
       341  -9.3454    247.5685     30.2730   3.7726728777e+01   2.1576119428e+01    0.2186813    0.1932056  64.44 0.0008375254    1.328    0.247
       342 -10.0576     37.7279     26.4728   8.1614065845e+01   6.6676530709e+01     0.519683    0.2768454  44.48  0.002577409    2.786    0.641
       343  -7.9438    163.6364     30.6840   4.7652322280e+01   4.0679080799e+01    0.1479986   0.09755266  33.47 0.0007040785    1.766    0.434
       344  -9.5051     95.0155     29.5292   6.2026045600e+01   5.6616089629e+01    0.4337904    0.2179824  22.22  0.001694166    2.887    0.654
       345  -8.7461    100.1508     26.8157   5.9509296640e+01   5.5872907002e+01    0.1957117    0.1572822  36.86 0.0004215501    1.141    0.124
       346 -11.0164    222.1171     26.3016   3.9141912214e+01   2.7462993478e+01    0.3977413     0.319702  27.90  0.001332786    1.668    0.401
       347  -8.3024    195.7800     29.0274   4.2702494191e+01   3.3165024010e+01    0.1646203    0.1048272 -31.67 0.0004150261    1.570    0.363
       348  -9.5750     86.5538     35.8779   6.7147406401e+01   5.7463284666e+01    0.4151523    0.2242162 -11.64  0.001763863    2.407    0.585
       349  -9.8395    164.8803     25.6866   4.5940374572e+01   4.0944215487e+01    0.4797056    0.2611037 -70.12  0.001932728    2.845    0.649
       350  -9.3650    102.3985    241.2257   1.0982376066e+02   1.1307132600e+01     0.160958    0.1102328 -81.88 0.0009608846    1.754    0.430
       351  -8.4908    134.0030     27.5089   5.1900238120e+01   4.8159578331e+01    0.1870647    0.1196511 -86.43 0.0008091207    2.433    0.589
       352  -8.8933    207.8274     26.4056   4.0638349671e+01   3.0670330202e+01    0.1953262    0.1235119  72.04  0.000641284    1.556    0.358
       353 -10.1284    206.1415     23.0549   3.9972648603e+01   3.1437353462e+01    0.3754777    0.2014565  60.47  0.001575903    1.825    0.452
       354  -9.8156    146.0117     28.3901   4.9915603212e+01   4.5199594075e+01    0.5340433    0.2937151 -41.89  0.002066714    1.960    0.490
       355 -10.9050      2.0252     25.1797   9.8633604712e+01   7.0208006273e+01    0.2608266    0.1474126 -51.08 0.0006039556    1.537    0.349
       356  -9.6231    242.5729     24.6775   3.6922297492e+01   2.3266962262e+01    0.2792662    0.1833338  39.60   0.00153772    2.219    0.549
       357  -9.6933    159.0758     24.5414   4.6482447997e+01   4.2473881830e+01    0.2331428    0.1931742 -29.91  0.001344951    1.265    0.209
       358 -10.6541     62.2515     23.5768   7.0187493524e+01   6.3506839991e+01    0.4320724    0.2444346  28.83  0.002016857    1.730    0.422
       359  -9.5722    170.9537     23.4697   4.4394237972e+01   3.9718104938e+01    0.3335079    0.1717969  75.28 0.0009209982    2.090    0.521
       360 -10.8904    153.6895     22.9774   4.6850231304e+01   4.3943160123e+01    0.2596658    0.2314039  42.71 0.0002946757    1.102    0.093
       361  -9.0126    152.0322     18.2436   4.5610759737e+01   4.4829011372e+01    0.2433719    0.1837136   4.72 0.0007317635    1.555    0.357
       362  -9.4512    247.3882    239.2069   8.2197708077e+01  -9.3643285985e+00    0.1496377   0.09769483 -33.13 0.0009533952    1.697    0.411
       363 -10.0484    123.5534     22.6440   5.2317435832e+01   5.1132818090e+01    0.5310443    0.3099983 -88.46   0.00175737    3.331    0.700
       364  -8.9925     10.1441     22.6835   9.3381062148e+01   7.0084137763e+01    0.1547661    0.1111452 -22.92 0.0002660946    1.061    0.057
       365  -9.6331    132.2234     21.8710   5.0287145832e+01   4.9190147381e+01    0.2853578    0.2367479  56.23 0.0009839693    1.134    0.118
       366  -8.8583    221.0432    237.5153   8.6538582785e+01  -5.6356440711e+00    0.1794588    0.1005189  29.80 0.0008146407    1.556    0.357
       367  -8.9386    109.3841     21.8214   5.5195169918e+01   5.4431035301e+01    0.2493694    0.1758466  11.95  0.001001857    1.514    0.339
       368 -10.9802    104.9218     20.9548   5.5943415494e+01   5.5504716773e+01    0.2688457    0.2434273  55.82 0.0003374842    1.209    0.173
       369  -8.4675     85.7434     22.6966   6.1907716514e+01   5.9313889283e+01    0.1327422    0.0894857  14.80 0.0002427615    1.511    0.338
       370  -8.5488     31.5967    232.4990   1.2234066041e+02   2.1752759877e+01    0.1120922    0.0841295  73.02 0.0001024465    1.038    0.037
       371  -9.3350     36.1126     20.7714   7.9714754388e+01   6.7736725830e+01     0.219997    0.1454668 -25.16 0.0006016658    1.266    0.210
       372  -9.6269    218.5895     19.0696   3.7753038921e+01   2.9062837981e+01    0.3133323    0.2001656 -57.07  0.001676201    1.472    0.321
       373  -9.4581    214.2122     18.4409   3.8015204151e+01   3.0110483800e+01    0.2355484    0.1210642  80.73  0.001140216    2.031    0.508
       374  -9.6409    186.9934    231.0082   9.1835436879e+01   2.7848595056e-01    0.2085162    0.1387351   3.14  0.001139783    1.725    0.420
       375  -8.7635    161.9564    224.8007   9.5788908886e+01   5.1817827479e+00    0.2808971    0.1855842 -67.32  0.001407033    2.445    0.591
       376  -9.6433     93.4790     19.9648   5.8531492071e+01   5.8049321621e+01    0.2929649    0.2028792  40.58  0.001630276    1.300    0.231
       377  -8.6731    223.7153    225.0234   8.3925440764e+01  -4.3172126701e+00    0.1717689    0.1346991  -1.76 0.0005264704    1.059    0.056
       378  -8.5756    131.9981    225.5185   1.0198441372e+02   9.7649477547e+00    0.1903365    0.1132932  37.99 0.0004016406    1.499    0.333
       379  -8.5469      1.8268    224.3777   1.2711849635e+02   2.6203374541e+01    0.1183446   0.09752222  35.29 0.0002908747    1.571    0.364
       380  -9.0120    196.4669    222.5165   8.8598348703e+01   1.2282977915e-01    0.1296603    0.1074231   9.46 -3.080251e-05    1.024    0.023
       381  -9.1924     88.7552    221.0199   1.1028738702e+02   1.7022501111e+01    0.2128437    0.1677929  42.26 0.0005980495    1.203    0.169
       382  -7.7778    183.5058    219.5093   9.0620040962e+01   2.6318667488e+00    0.1301064    0.1129425  15.33 0.0008104499    1.027    0.026
       383  -9.0358    203.0249    217.8969   8.6536689397e+01  -1.8137135788e-01    0.1919859    0.1574763   6.35 0.0003450212    1.036    0.035
       384  -8.3387      2.3026    211.7072   1.2638375446e+02   2.8682487807e+01    0.1142448   0.06072539  66.71 0.0002423181    1.572    0.364
       385  -9.0808    230.9383    209.3085   7.9774961724e+01  -3.1302191245e+00    0.1786146    0.1368703  11.01 0.0004231857    1.129    0.114
       386  -9.8559     34.6630    200.7278   1.1937708367e+02   2.7930654366e+01    0.2865049     0.147483  73.91  0.001476937    2.042    0.510
       387  -8.4980    120.4136    199.1939   1.0057798725e+02   1.6716346975e+01    0.1799648     0.129488 -72.61 0.0007111111    1.641    0.391
       388  -9.6590      7.1425    194.2505   1.2443176525e+02   3.1925464810e+01    0.2594408    0.1726083  82.64  0.001734686    1.197    0.165
       389  -8.1766     92.4225    188.4641   1.0529546751e+02   2.3371305420e+01     0.133523    0.1233198  82.25  0.000368782    1.014    0.014
       390  -9.3135     55.3900    181.3928   1.1291248854e+02   2.9946907728e+01     0.218733     0.187016 -88.10 0.0004485226    1.018    0.017
       391  -9.8623     16.9945    174.9854   1.2093060026e+02   3.5364999466e+01     0.183468    0.1264393 -49.56 0.0006307594    1.686    0.407
       392 -10.1100      7.1685    174.8340   1.2305733807e+02   3.6209258060e+01    0.1872218    0.1313051  75.71  0.001082454    1.231    0.188
       393 -10.4926     17.6844    168.8958   1.2023853618e+02   3.6707409838e+01    0.2215792    0.1956681 -54.48  0.001552281    1.341    0.255
       394 -10.6186      6.5451    167.3457   1.2260790090e+02   3.7961766026e+01    0.3178038     0.219401 -17.17  0.001912956    2.344    0.573
       395  -9.5831    116.8006     15.2582   5.1016348107e+01   5.3425093431e+01    0.3207148    0.1897173  49.66 0.0009756747    1.490    0.329
       396 -10.5840     14.7186    166.0517   1.2065639697e+02   3.7615244638e+01    0.2821765    0.1809466 -39.48  0.001411918    2.068    0.516
       397 -11.7168     37.7407    159.3775   1.1447389599e+02   3.7093356005e+01    0.6058006    0.3693344  62.11  0.002693931    1.782    0.439
       398 -12.2960     30.3223    154.9244   1.1578212458e+02   3.8883690026e+01    0.7554281    0.4531951  52.52  0.002884959    1.782    0.439
       399 -10.6329     24.0994    162.6130   1.1814154914e+02   3.7618165010e+01    0.3459565    0.2007208  43.06  0.001942698    1.817    0.450
       400 -11.5103     14.6826    143.1639   1.1838871460e+02   4.3030142954e+01    0.6664926    0.3039118 -40.03  0.003025882    2.904    0.656
       401  -9.0503    179.4718     13.4460   4.0419933644e+01   3.8703280463e+01    0.2154243    0.1750053  64.01 0.0005378072    1.166    0.142
       402  -9.0899    139.6457     13.7749   4.6166556789e+01   4.8225833276e+01     0.234994    0.1524962  53.01 0.0007265368    1.380    0.276
       403  -9.9838      5.3839    141.3134   1.2055347540e+02   4.4131791581e+01    0.2902881    0.1677102 -56.09 0.0009361495    1.560    0.359
       404 -10.9507      2.2849    154.7276   1.2253730765e+02   4.1185223781e+01    0.6266874    0.1515892 -73.65  0.002460822    3.077    0.675
       405 -11.0303      4.6793    146.8758   1.2126584633e+02   4.2862452595e+01    0.4337907     0.275709  79.37  0.002067328    1.480    0.325
       406 -10.2316     45.8575    151.6871   1.1141501609e+02   3.8107607895e+01    0.3341419    0.1687012 -56.93  0.001597288    1.732    0.423
       407  -9.2072    249.3405    153.3203   6.5233910020e+01   2.6649297995e+00    0.1403745   0.09381154  -2.74 0.0007050019    1.717    0.418
       408  -8.4460    229.9976    147.7614   6.7260273796e+01   6.9319435675e+00    0.1676018    0.1183411  39.88 0.0004066137    1.566    0.362
       409  -9.4659     54.0967    146.0317   1.0840360454e+02   3.8569704230e+01    0.2017833    0.1736344 -68.19 0.0003215148    1.026    0.026
       410  -8.5042    154.9147     13.5294   4.3687003477e+01   4.4590101601e+01    0.1888228    0.1206765  66.58 0.0004062064    1.444    0.307
       411 -11.2013     12.4552    152.0597   1.1987080989e+02   4.1077819923e+01     0.464857    0.2748049  45.94  0.001652767    1.823    0.452
       412  -9.0735     41.8320    139.2052   1.1067700841e+02   4.1590982061e+01    0.2021278    0.1654475  87.52 0.0008672208    1.204    0.170
       413  -9.5936    236.0146    137.0103   6.3809066694e+01   7.6786926231e+00    0.2163727    0.1865415 -27.74 0.0005221588    1.056    0.053
       414  -8.6059    230.6655    137.2923   6.4772508360e+01   8.6141271774e+00    0.1345132    0.1094325 -64.05 0.0007023959    1.637    0.389
       415  -9.6529     34.5209    136.5209   1.1228474506e+02   4.2968655914e+01    0.2608809    0.2331597  38.84 0.0009734803    1.318    0.241
       416 -10.2252     15.3314    135.3192   1.1732143098e+02   4.4870148542e+01    0.2745942    0.1834411 -35.23  0.001199286    1.812    0.448
       417 -10.1107      3.4127    130.2813   1.1992020646e+02   4.6884132453e+01    0.3460322    0.1131817 -60.71 0.0009083376    2.216    0.549
       418 -10.4894      3.6932    135.0149   1.2034624286e+02   4.5738775551e+01    0.2887743    0.2334985 -88.37  0.001970541    1.111    0.100
       419 -10.4121      7.9624    133.1989   1.1903362815e+02   4.5896782890e+01    0.3001012    0.1643105 -35.65  0.001568133    2.318    0.569
       420 -10.7084     43.0979    131.1777   1.0906370602e+02   4.3439995171e+01    0.5974265    0.2288784 -48.28  0.002147631    2.477    0.596
       421  -8.4149    248.6778    133.6991   6.1035211416e+01   5.9667384180e+00    0.1369935   0.09754661  -2.78 0.0002726419    1.629    0.386
       422 -11.3885     28.6846    132.0147   1.1325207674e+02   4.4601563937e+01    0.2393077     0.206879 -76.68  0.000303211    1.065    0.061
       423 -11.5557     33.9219    128.7712   1.1129630233e+02   4.4928311921e+01    0.9017197    0.4005121 -35.50  0.003206444    3.317    0.698
       424 -10.2041     14.2065    113.6328   1.1478051563e+02   5.0193819879e+01    0.3692743    0.3396939  60.41  0.001990623    1.298    0.229
       425  -8.9679     30.0503    125.4978   1.1190310922e+02   4.6079540017e+01    0.1762028    0.1533486 -62.92 -0.0004212981    1.081    0.075
       426 -10.4140     32.8539    121.8572   1.1050973890e+02   4.6723710901e+01    0.4339541    0.3347953  28.52  0.002597196    1.553    0.356
       427 -10.5893     19.9465    110.2163   1.1251433862e+02   5.0615015518e+01    0.5245774    0.3782397 -84.40  0.003097475    1.372    0.271
       428 -11.1429     21.2727    119.7177   1.1358328226e+02   4.8210736083e+01    0.5028617    0.4155622  76.74  0.003208625    1.308    0.235
       429 -11.0281     27.6722    116.1356   1.1112008053e+02   4.8572628378e+01    0.5674055    0.3574937  83.39  0.002890394    1.943    0.485
       430  -8.7737     23.8598    133.4682   1.1478403383e+02   4.4654248823e+01    0.1592229      0.13075  24.47 0.0004370607    1.511    0.338
       431  -9.9223     61.2824    131.1112   1.0384198240e+02   4.1389255262e+01    0.3049432    0.2142376  26.65  0.001331593    1.660    0.397
       432  -9.7271     20.3026    131.0841   1.1544501497e+02   4.5519275183e+01    0.1813582    0.1355065 -72.03 0.0005089374    1.075    0.070
       433 -10.3544     12.8475    131.1144   1.1748460675e+02   4.6064350221e+01    0.1837704    0.1419733 -89.83  0.001165426    1.188    0.159
       434  -9.3194     59.8567    125.4002   1.0316335860e+02   4.2975628852e+01     0.242844    0.1728856 -68.55 0.0005783343    1.327    0.246
       435 -10.8382      6.4440    123.8908   1.1837238920e+02   4.8226215618e+01    0.3637887     0.228179 -43.83  0.002089473    1.648    0.393
       436  -8.8301    217.6173    125.2137   6.4204988029e+01   1.3253246580e+01    0.2150645    0.1272523 -27.81 0.0009508559    1.653    0.395
       437  -8.6551     95.1137    123.8485   9.2532573420e+01   3.8245826957e+01    0.2030807    0.1671444 -28.92 0.0002994234    1.274    0.215
       438  -8.8626     71.9786    123.7330   9.9244175265e+01   4.1801171359e+01    0.1865972    0.1850585 -73.53 0.0003883338    1.111    0.100
       439  -9.3223    236.9841    120.9905   5.9971389264e+01   1.0214211232e+01    0.2243703    0.1637733   2.48  0.001136173    1.697    0.411
       440  -9.1753    123.6731    121.0517   8.3924583227e+01   3.3715650527e+01    0.2362319    0.2137263  60.87  0.000403011    1.241    0.194
       441  -9.6519     93.5375    119.2789   9.1895375979e+01   3.9599291709e+01    0.2938566    0.2308166 -29.16  0.001115882    1.345    0.257
       442  -8.6995     61.8610    119.8776   1.0145281773e+02   4.4084535225e+01    0.1887722    0.1555613 -80.31 0.0003552501    1.283    0.221
       443  -8.9917     44.6670    119.8711   1.0664135266e+02   4.6064951076e+01    0.2151926    0.1844569  -7.49 0.0007409425    1.400    0.286
       444  -9.5498      1.9426     92.9160   1.1549589755e+02   5.5838937612e+01    0.1994082     0.177479 -80.04  0.000709589    1.211    0.175
       445  -9.2183      7.7307    107.1527   1.1579955406e+02   5.2158642499e+01     0.352978    0.1643483 -77.66  0.001699482    1.964    0.491
       446 -10.5174      2.1739    115.3589   1.1854362141e+02   5.0517279519e+01    0.5681558    0.2402959 -78.21  0.002694673    2.047    0.512
       447  -9.8663      4.4838    111.1035   1.1732472426e+02   5.1403027157e+01    0.4173496    0.1679405 -68.30  0.001300436    1.845    0.458
