#   1 NUMBER                 Running object number                                     
#   2 MAG_AUTO               Kron-like elliptical aperture magnitude                    [mag]
#   3 X_IMAGE                Object position along x                                    [pixel]
#   4 Y_IMAGE                Object position along y                                    [pixel]
#   5 X_WORLD                Barycenter position along world x axis                     [deg]
#   6 Y_WORLD                Barycenter position along world y axis                     [deg]
#   7 A_WORLD                Profile RMS along major axis (world units)                 [deg]
#   8 B_WORLD                Profile RMS along minor axis (world units)                 [deg]
#   9 THETA_WORLD            Position angle (CCW/world-x)                               [deg]
#  10 FWHM_WORLD             FWHM assuming a gaussian core                              [deg]
#  11 ELONGATION             A_IMAGE/B_IMAGE                                           
#  12 ELLIPTICITY            1 - B_IMAGE/A_IMAGE                                       
         1 -14.9073     14.0186    153.8449   1.4267424432e+02   4.1982731414e+01     9.699244     3.269523  86.95   0.03399333    4.544    0.780
         2 -13.2437    198.1779     28.4462   6.6661077506e+01   3.1519186799e+01     1.488605      1.34052  29.12  0.007125936    1.335    0.251
         3 -13.2076    212.5389      9.9173   6.0314776177e+01   2.9991448658e+01    0.9940093    0.8621857  52.31  0.006180389    1.329    0.248
         4 -11.6578      2.1244     11.7931   1.1951740995e+02   7.2709179914e+01    0.7463313    0.1414791 -51.83  0.002976481    4.045    0.753
         5 -11.6377      3.1224      3.6878   1.1532862604e+02   7.3927442815e+01    0.3807317    0.3336522  47.42  0.002946892    1.961    0.490
         6  -9.4626     18.8492    242.0942   1.4747508611e+02   2.3761040585e+01    0.1661432    0.0978374  66.68  0.000477537    1.229    0.186
         7 -11.3503    140.3051    249.9378   1.2631822450e+02   5.6944994124e+00    0.4796794    0.1685253  44.66   0.00220685    2.188    0.543
         8  -9.9303    122.1796    250.3949   1.2972897747e+02   8.4935567440e+00    0.1973538   0.09504353  41.75 0.0007157954    1.617    0.382
         9 -11.1939     98.8021    248.0082   1.3380092356e+02   1.2447019053e+01     0.397476    0.2924681 -86.84  0.002714008    1.518    0.341
        10 -11.4714     30.4156    248.9160   1.4590094946e+02   2.1307618013e+01    0.5273271    0.2733407  36.40  0.003073417    2.021    0.505
        11 -10.7239     35.8331    243.6341   1.4469559672e+02   2.1603113614e+01    0.3535347    0.1663712  42.00  0.002179964    1.803    0.445
        12 -10.4012     12.5107    249.5368   1.4884408100e+02   2.3137557593e+01    0.2372946    0.1090794  70.04  0.001553471    1.698    0.411
        13  -9.5077      2.3301    249.3276   1.5043999535e+02   2.4194721274e+01    0.1877465    0.1255248  61.65  0.001532094    1.107    0.097
        14  -9.9261      2.4911    246.4433   1.5030656246e+02   2.4669938568e+01    0.1711557    0.1394791 -87.08 0.0007892385    1.467    0.318
        15 -10.1810      5.8603    241.0034   1.4955417733e+02   2.5280839235e+01      0.17323    0.1291824  79.28 0.0004905754    1.190    0.160
        16 -10.6598     11.5571    240.0680   1.4858523102e+02   2.4874891893e+01    0.3092565    0.1456386  59.42  0.001836921    1.540    0.351
        17 -10.4592    183.1457    238.5201   1.1681701352e+02   3.3018913833e-01    0.1957096    0.1508566  14.15 0.0007674973    1.339    0.253
        18 -10.6713     50.7916    234.6696   1.4148246660e+02   2.1399448359e+01    0.2603011    0.1789082 -66.63  0.001398375    1.696    0.410
        19 -14.0255    104.7096    229.2189   1.3075679783e+02   1.4756223859e+01     5.522951          nan  44.30   0.01014653   13.308    0.925
        20 -12.5331     32.5691    231.9886   1.4457378951e+02   2.4066593397e+01    0.2674876    0.2274247 -84.55 0.0007838395    1.395    0.283
        21  -9.2052     55.4277    230.0058   1.4028640339e+02   2.1666492826e+01    0.2320138    0.1146092  55.21 0.0009156374    1.618    0.382
        22 -11.9048    247.2056    247.0698   1.0680952923e+02  -1.0471146637e+01    0.5938404    0.3574749  20.91   0.00391065    1.339    0.253
        23  -8.4786    152.3912    212.7767   1.1899530602e+02   9.5948573072e+00    0.1512047    0.1275978 -30.37 0.0003146525    1.445    0.308
        24 -12.3595      9.9565    206.7850   1.4721572334e+02   3.1229823215e+01    0.6108517     0.386311  31.56  0.002949236    1.923    0.480
        25 -11.3276     59.7417    198.1626   1.3664944354e+02   2.7350485440e+01    0.2525489    0.2269244 -71.98 0.0005068933    1.326    0.246
        26  -9.4402    192.0119    193.5023   1.0774324408e+02   5.5309269679e+00    0.4488741    0.2368276 -63.88  0.001296237    6.730    0.851
        27 -12.0463     13.0426    195.7429   1.4598322043e+02   3.3138719241e+01    0.2577903    0.1661853  61.23 0.0005086236    1.267    0.211
        28 -13.5753     38.0015    224.6775   1.4312650445e+02   2.4799047864e+01    0.7132971    0.5120716  65.56  0.002401673    1.043    0.041
        29 -11.6598     66.1316    189.8389   1.3439713086e+02   2.8236569267e+01    0.2620673    0.2270751 -70.07 0.0004245949    1.281    0.219
        30 -11.5105      3.0359    184.9041   1.4730408556e+02   3.6255039422e+01    0.6457624    0.2557271  84.45  0.003298143    2.365    0.577
        31  -9.2210     12.8069    232.8756   1.4804490860e+02   2.6031046334e+01    0.1502667   0.08504269  66.25 0.0004168136    1.297    0.229
        32 -10.5720     76.4881    177.1361   1.3051053509e+02   2.9509018565e+01    0.2295716    0.2114336  84.04 0.0003868696    1.124    0.110
        33 -13.0313     63.1973    175.0169   1.3333790286e+02   3.1851341854e+01    0.4900258     0.281835 -45.54  0.001936738    2.331    0.571
        34  -9.7627     96.5174    173.2800   1.2524484070e+02   2.7220426535e+01    0.2486577    0.2153356  63.04 0.0005002561    1.039    0.038
        35 -11.4731     84.1300    168.0621   1.2742504084e+02   3.0363920019e+01    0.5914453    0.5562086  35.13  0.003669719    1.252    0.201
        36  -8.6166      9.3036    233.3263   1.4865569185e+02   2.6301832750e+01   0.08764084   0.07408471 -70.02 0.0004286108    1.644    0.392
        37 -10.5053    229.7448    230.5221   1.0713641758e+02  -6.0914856039e+00    0.3419157    0.2125003 -57.49  0.001572943    4.207    0.762
        38  -9.7267     97.2205    152.0737   1.2155092354e+02   3.1839222640e+01    0.2900844    0.2662958 -40.68 0.0008511269    1.255    0.203
        39  -8.8744    100.0005    147.9973   1.2009040442e+02   3.2285922518e+01    0.2075455    0.1749098 -18.71  0.000313562    1.567    0.362
        40 -11.7786     85.5481    151.1978   1.2439150159e+02   3.3967215763e+01    0.2890234    0.2473392 -46.90 0.0007876436    1.310    0.236
        41 -12.0634     67.3250    143.5258   1.2789260873e+02   3.8466227314e+01    0.7123617    0.4277198  62.82  0.002313277    1.908    0.476
        42 -10.1807     96.1412    134.3634   1.1844880566e+02   3.6085916081e+01    0.2538719    0.2228037 -38.80  0.000475403    1.264    0.209
        43  -9.5007    109.1063    137.0163   1.1553519157e+02   3.3134212709e+01    0.4006237    0.2729281 -14.17  0.001611398    2.675    0.626
        44  -8.8361     78.1637    130.7209   1.2267709508e+02   3.9876779446e+01    0.2288252    0.1586796  61.96  0.001089896    1.601    0.375
        45 -10.5445     30.6938    131.2789   1.3599086441e+02   4.5616717109e+01    0.2457345    0.1950924  63.76 0.0005487949    1.272    0.214
        46 -11.5366     22.3587    126.6659   1.3768422394e+02   4.7431193099e+01    0.4106093    0.2279418  49.57  0.001428453    1.935    0.483
        47  -9.1683     84.8966    127.0336   1.2005765737e+02   3.9675339871e+01    0.2165963    0.1751587  78.27 0.0004614259    1.344    0.256
        48  -8.7020    106.2910    123.8861   1.1341969739e+02   3.6642800010e+01    0.1918271    0.1821137 -52.44 0.0002925968    1.076    0.070
        49 -10.2123    167.8459    112.9117   9.5265930247e+01   2.5587281177e+01    0.3322126    0.2779099 -81.67 0.0005939645    1.424    0.298
        50  -9.1766    203.2416    111.5836   8.7742378799e+01   1.7496027869e+01    0.2080341    0.1376309  41.41 0.0005362334    1.583    0.368
        51  -8.5756     42.3933     96.8063   1.2677997070e+02   5.2418745467e+01    0.2796749    0.1204772  56.07 0.0009593689    4.514    0.778
        52  -9.2993    157.9980     76.9784   8.7543672942e+01   3.4730283891e+01    0.1905328    0.1797298  58.01 0.0004604029    1.028    0.027
        53  -8.7365     45.8707     68.8793   1.1884377270e+02   5.8172322835e+01    0.1570889    0.1473873 -88.14 0.0002653414    1.273    0.215
        54 -11.1587      2.4705     62.7248   1.3415020935e+02   6.2998583777e+01    0.3598645    0.1563169 -55.91  0.001813491    1.682    0.406
        55  -8.7527     31.7912     62.1481   1.2241032110e+02   6.1037923393e+01    0.1702763    0.1600899 -69.58 0.0005809675    1.230    0.187
        56 -12.1202     10.8107     54.0545   1.2884847915e+02   6.4329199204e+01    0.4423429    0.2910891  30.99  0.002135568    1.850    0.460
        57 -11.9016      2.9906     38.5503   1.2822129838e+02   6.7854226504e+01    0.5104808    0.1791513 -61.62   0.00247882    2.464    0.594
        58  -9.2287    156.6775    249.6655   1.2324889425e+02   3.0994447487e+00    0.1183875   0.08422789  17.06 0.0007050413    1.707    0.414
        59  -9.5723     46.9070    249.2443   1.4313996939e+02   1.9308325615e+01    0.1737579    0.1053089  59.87 0.0004786543    1.208    0.172
        60  -9.3986     66.8844    250.0463   1.3972531930e+02   1.6616305880e+01    0.1729635    0.1245546  59.57 0.0005183803    1.014    0.014
