#   1 NUMBER                 Running object number                                     
#   2 MAG_AUTO               Kron-like elliptical aperture magnitude                    [mag]
#   3 X_IMAGE                Object position along x                                    [pixel]
#   4 Y_IMAGE                Object position along y                                    [pixel]
#   5 X_WORLD                Barycenter position along world x axis                     [deg]
#   6 Y_WORLD                Barycenter position along world y axis                     [deg]
#   7 A_WORLD                Profile RMS along major axis (world units)                 [deg]
#   8 B_WORLD                Profile RMS along minor axis (world units)                 [deg]
#   9 THETA_WORLD            Position angle (CCW/world-x)                               [deg]
#  10 FWHM_WORLD             FWHM assuming a gaussian core                              [deg]
#  11 ELONGATION             A_IMAGE/B_IMAGE                                           
#  12 ELLIPTICITY            1 - B_IMAGE/A_IMAGE                                       
         1 -13.5064    222.7832      7.8296   3.4536091290e+01   2.8761825784e+01     1.158547    0.9709603  51.19  0.004637865    1.445    0.308
         2 -14.2687    195.9544     38.5241   4.4934624672e+01   3.1477597243e+01     2.442071     1.553337  17.25   0.01059613    2.721    0.632
         3 -11.0919     74.7862     13.2707   6.1981876834e+01   6.2718233217e+01    0.4447255    0.2554632  61.90  0.001549099    2.466    0.595
         4 -10.7161     50.4988     13.8409   7.1454530132e+01   6.6873692304e+01    0.3083331    0.1479471   3.25   0.00110304    4.304    0.768
         5 -10.7089     70.2726      2.2296   5.8362118381e+01   6.4665554829e+01    0.3703994   0.07568796  50.92  0.001297842    3.808    0.737
         6  -8.1524     75.8621    221.1945   1.1274900363e+02   1.8712562092e+01    0.2629615    0.1249985 -58.55   0.00104786    2.248    0.555
         7 -19.4814     12.5769    146.8767   1.1974761206e+02   4.2420146242e+01     19.18113     4.672279 -76.70   0.06560997    3.918    0.745
         8  -8.0760     57.4907    211.5132   1.1563476535e+02   2.3104692356e+01    0.2469302    0.1448544  57.68 0.0008633677    1.558    0.358
         9  -9.8389     56.2432    208.6373   1.1562524249e+02   2.3867526034e+01    0.3507966    0.1710733  89.58  0.001606753    2.521    0.603
        10  -8.1945    168.3357    210.3125   9.1375657250e+01   6.1593700395e+00    0.1406595    0.1000183   4.20 0.0007045548    1.686    0.407
        11  -9.7288     42.0516    208.2387   1.1856181568e+02   2.5630674770e+01    0.2718369    0.1422154  71.11  0.001136835    1.965    0.491
        12  -9.7368     35.6656    208.6550   1.1990662483e+02   2.6249897971e+01    0.1542946    0.1005783  61.22 0.0008277255    1.324    0.244
        13 -10.5851    150.2268    207.6227   9.4823674238e+01   9.7572306398e+00    0.2586479    0.1661571  29.66 0.0007288553    1.503    0.335
        14 -10.9229     65.9863    207.1559   1.1339110461e+02   2.2945737177e+01    0.2195297    0.1869932 -89.46   0.00030952    1.114    0.102
        15 -11.6205     64.2066    202.3896   1.1327643916e+02   2.4203701695e+01     0.263405    0.2097057 -67.43 0.0003966107    1.291    0.226
        16 -10.8374     62.4033    250.3868   1.1796020423e+02   1.4916066567e+01    0.2281415    0.1268512  56.96  0.001388197    1.499    0.333
        17  -9.1303     93.2859    205.7958   1.0722367264e+02   1.9407593982e+01    0.2128863    0.1785506  44.73 0.0006169435    1.124    0.110
        18 -10.9126    193.0729    195.2852   8.3472370329e+01   4.5215303228e+00     1.011099    0.5044612 -59.63  0.003096156    5.567    0.820
        19 -10.1969     26.3449    203.4942   1.2141484447e+02   2.8321967251e+01    0.3594892    0.1057307  49.83  0.001557388    2.979    0.664
        20  -9.1348     96.3038    201.9785   1.0604597115e+02   1.9762609809e+01    0.1859318    0.1656642 -81.68 0.0008430293    1.143    0.125
        21 -12.4919     53.0001    197.0843   1.1519544370e+02   2.6768378883e+01    0.4951558    0.2881404 -45.00  0.002508983    2.316    0.568
        22  -9.9440     38.9258    199.8089   1.1850093583e+02   2.7791692696e+01    0.2060993    0.1526829  62.08  0.001047701    1.181    0.153
        23  -8.5065    186.6895    186.3557   8.3074213720e+01   7.2494110336e+00     0.148797    0.1322381   7.93 0.0007627616    1.016    0.015
        24 -11.5255    133.7718    196.1047   9.6598600682e+01   1.4867687587e+01    0.5049213    0.2617853 -67.81  0.001920628    3.146    0.682
        25 -11.6363    126.8784    192.2012   9.7540414105e+01   1.6869963961e+01    0.3831742    0.2722714  67.73  0.001865025    1.761    0.432
        26  -9.2716     32.5915    196.1606   1.1954045167e+02   2.9267647078e+01    0.1196404   0.06702089  52.18 0.0006555935    1.623    0.384
        27  -9.4465     81.0739    193.7640   1.0845654357e+02   2.3804693124e+01    0.4089836    0.2300033  68.74  0.001832307    2.271    0.560
        28  -8.5174     67.9036    192.8299   1.1137641036e+02   2.5828711318e+01    0.1773287    0.1320563  74.35  0.001012975    1.298    0.230
        29 -11.3199    149.3642    188.0856   9.1632784817e+01   1.3736099687e+01     0.519125    0.3838446 -82.39  0.002457677    2.041    0.510
        30 -11.0915     73.1049    187.7618   1.0954938265e+02   2.6270623667e+01    0.4946368    0.2605539  69.71  0.001897376    2.612    0.617
        31 -12.6896     64.1354    183.8305   1.1117655697e+02   2.8366510341e+01    0.7940894     0.670123 -47.81   0.00482594    1.377    0.274
        32  -9.5000     92.8166    184.8529   1.0445705448e+02   2.4064877964e+01    0.2717887    0.2288865  28.73 0.0008552226    1.291    0.225
        33 -10.9383     98.9237    180.9167   1.0237988363e+02   2.4003896305e+01    0.4827182    0.3427522   4.18  0.001502101    2.159    0.537
        34 -12.0512     49.0692    249.2212   1.2029707957e+02   1.6751703672e+01    0.1903873    0.1408559  82.98 0.0005337654    1.231    0.188
        35  -9.6426     59.7198    220.5126   1.1600478479e+02   2.0964104354e+01    0.2767505    0.2368557  -6.81  0.001800257    1.784    0.439
        36 -10.0166    187.8564    176.1637   8.0775830617e+01   8.9217666148e+00      0.35627    0.3211949 -33.48  0.001804169    1.170    0.145
        37  -9.2825    148.9819    176.2887   8.9497460683e+01   1.6241643663e+01    0.2368379    0.2021071 -61.80 0.0004406665    1.323    0.244
        38 -10.0113    146.6531    172.2973   8.9262895014e+01   1.7524232275e+01    0.3310866    0.2394446 -74.86  0.001040514    1.956    0.489
        39 -10.5265     56.2304    166.4929   1.1091635092e+02   3.3434011464e+01    0.4771666    0.2340861 -39.67  0.001917793    3.064    0.674
        40  -9.4332     84.2055    173.8814   1.0492895901e+02   2.7895039859e+01    0.2032965    0.1741751  78.72 0.0003731334    1.144    0.126
        41 -10.0225    131.0098    172.2372   9.3013849079e+01   2.0450891100e+01    0.2054191    0.1204506  38.53 0.0008329682    1.651    0.394
        42  -9.0074    193.9024    171.2207   7.8475160059e+01   8.7099413368e+00    0.2094431    0.2005807  44.31 0.0009577854    1.227    0.185
        43 -10.4297     53.7599    172.9475   1.1234500754e+02   3.2198521978e+01    0.3637758    0.2209706  73.87 0.0006485942    1.840    0.457
        44  -9.3262    185.5034    169.9367   7.9980744404e+01   1.0547196296e+01    0.2176889    0.1414016 -39.78 0.0005700765    1.543    0.352
        45 -10.1347    240.4594    168.9986   6.9081662454e+01   8.0397001392e-01    0.2081412    0.1175007 -33.86 0.0004293319    1.588    0.370
        46 -10.1577    137.7894    168.8974   9.0717500835e+01   1.9929557110e+01    0.3704663    0.2169725  37.67  0.001050286    1.668    0.401
        47  -9.5569    230.7562    167.7419   7.0547388220e+01   2.6460229753e+00     0.217487     0.100854 -45.33 0.0008935413    2.421    0.587
        48 -10.0983     51.7066    219.3786   1.1752910640e+02   2.2181578600e+01    0.3363862    0.1382769  56.04  0.001581819    2.356    0.575
        49  -9.8842     47.2667    173.1871   1.1395216703e+02   3.2899463663e+01    0.3828482    0.2702368 -44.55  0.001175772    1.691    0.409
        50 -11.6447     93.7347    151.3516   9.8633365969e+01   3.1798863414e+01    0.6965212    0.5370406 -25.22  0.002561796    1.613    0.380
        51 -10.7527    133.8646    145.3873   8.6752483915e+01   2.5952312966e+01     1.293772    0.3408963 -54.55  0.002954766    6.019    0.834
        52  -9.3267    112.6622    151.0278   9.3499440851e+01   2.8645147670e+01    0.2589717    0.2062137  56.60  0.000813356    1.340    0.254
        53  -9.2399    174.8137    149.3028   7.7792676438e+01   1.6761682537e+01    0.2340814    0.1975923  66.14 0.0006733245    1.451    0.311
        54  -8.4754    109.6633    148.2648   9.3731841090e+01   2.9834647663e+01    0.1515856    0.1156784  69.78 0.0002492913    1.588    0.370
        55  -9.3986    144.0036    146.6122   8.4467252151e+01   2.3652255932e+01     0.305014    0.1772445 -63.17  0.001138334    2.419    0.587
        56 -10.5392    105.8014    137.7656   9.2561732637e+01   3.3025799661e+01    0.5323402    0.3275085 -28.85  0.002135571    2.219    0.549
        57 -10.4899    105.9554    130.8681   9.0979052631e+01   3.4646626958e+01    0.3909082     0.327622 -61.99  0.001182829    1.215    0.177
        58 -11.5905     93.7920    137.3666   9.5844922733e+01   3.5181038309e+01    0.2931262    0.2648016 -37.82 0.0003117305    1.133    0.117
        59 -10.0640    135.8223    129.6511   8.2557247003e+01   2.9125225056e+01    0.4340251    0.1682399 -43.84    0.0014423    2.568    0.611
        60 -10.5229    113.8846    128.9863   8.8315981509e+01   3.3628109830e+01    0.3636133    0.3101886 -10.86 0.0008556593    1.334    0.251
        61  -8.2756     97.5275    129.4747   9.3069597466e+01   3.6463205713e+01    0.1501004    0.1440919 -67.47 0.0008091725    1.040    0.039
        62  -9.1916    160.9715    127.9482   7.5877032459e+01   2.4144994388e+01    0.2518035     0.201809 -85.37  0.001139662    1.712    0.416
        63 -10.3048    101.2353    124.7204   9.0905928743e+01   3.6957308120e+01    0.2901764     0.243294 -13.24 0.0005080425    1.372    0.271
        64 -10.7660    119.6837    122.7467   8.5188919406e+01   3.3962504535e+01     0.519407    0.3334585 -11.89  0.001900961    2.704    0.630
        65  -9.0238    135.0000    119.9884   8.0345621172e+01   3.1460961656e+01    0.2584565   0.08886195 -45.29 0.0005538111    2.867    0.651
        66  -9.3816    109.3754    118.2006   8.6966730701e+01   3.7006986881e+01    0.2503283    0.2123907  35.87 0.0002572019    1.215    0.177
        67 -10.2030     49.3137    216.6582   1.1778272435e+02   2.3026245354e+01    0.2742497    0.2494651 -48.68  0.001936146    1.472    0.321
        68  -9.9817    231.3572    113.7576   5.8416597270e+01   1.1751926768e+01    0.2569667    0.2408724 -15.31 0.0007889298    1.076    0.070
        69  -9.3853    167.5333    112.6924   7.0437516976e+01   2.5845606243e+01     0.319863    0.2482459  86.81  0.001420773    1.803    0.445
        70 -10.0380    134.8113    106.4023   7.6776596991e+01   3.4475286803e+01    0.4875673    0.1554005 -46.79  0.001439719    3.249    0.692
        71 -11.7757    118.4975    109.4150   8.2072794472e+01   3.7237040262e+01    0.6719327    0.5931826 -70.97   0.00329217    1.284    0.221
        72  -9.5691    205.3842    110.1710   6.2026739113e+01   1.7834562176e+01    0.3139244    0.2114351  39.09 0.0008835385    1.629    0.386
        73 -10.1674     72.0000    248.9256   1.1606653600e+02   1.3951115485e+01    0.2046917    0.1263741 -79.08  0.001270341    1.766    0.434
        74 -10.5705     72.0378    244.8035   1.1571325981e+02   1.4690937221e+01    0.2655604    0.1739977  80.36 0.0008726924    1.573    0.364
        75  -9.9683    184.4828    211.5114   8.8209731702e+01   3.2164731126e+00    0.1355982    0.1171128  17.01 7.873382e-05    1.013    0.013
        76  -8.6573    156.3026     82.3323   6.4555024463e+01   3.4364105613e+01    0.1588931    0.1215206  10.56  0.000403325    1.655    0.396
        77  -8.8719     64.8220     70.1510   8.7980955488e+01   5.5241415869e+01    0.1920342    0.1472666 -18.62 0.0003244953    1.288    0.223
        78 -11.5840    247.4303    243.7704   8.1808767934e+01  -1.0691467641e+01    0.5629818    0.2544882 -17.54   0.00282759    2.558    0.609
        79 -12.7656    180.1898     52.4718   5.1138797910e+01   3.3425159850e+01    0.7917204    0.7143476  -1.94 0.0008693301    1.262    0.208
        80  -8.5714     83.8787    245.6051   1.1352099386e+02   1.2962892240e+01    0.1593012    0.0852314  50.04  0.000887593    1.549    0.355
        81  -9.3392    167.9199    232.1591   9.4976271940e+01   2.5321118593e+00    0.2258197    0.1635011  26.37 0.0008040961    1.210    0.173
        82  -8.6566     58.0604    227.9904   1.1699134213e+02   1.9673505049e+01     0.162129      0.13288  66.47 0.0003396677    1.023    0.023
        83  -9.1599    189.4956     14.9973   3.9530124668e+01   3.5784822287e+01    0.1860866    0.1286174 -30.58  0.000578023    1.560    0.359
