#   1 NUMBER                 Running object number                                     
#   2 MAG_AUTO               Kron-like elliptical aperture magnitude                    [mag]
#   3 X_IMAGE                Object position along x                                    [pixel]
#   4 Y_IMAGE                Object position along y                                    [pixel]
#   5 X_WORLD                Barycenter position along world x axis                     [deg]
#   6 Y_WORLD                Barycenter position along world y axis                     [deg]
#   7 A_WORLD                Profile RMS along major axis (world units)                 [deg]
#   8 B_WORLD                Profile RMS along minor axis (world units)                 [deg]
#   9 THETA_WORLD            Position angle (CCW/world-x)                               [deg]
#  10 FWHM_WORLD             FWHM assuming a gaussian core                              [deg]
#  11 ELONGATION             A_IMAGE/B_IMAGE                                           
#  12 ELLIPTICITY            1 - B_IMAGE/A_IMAGE                                       
         1  -9.6466    209.4904     36.8393   4.1611910710e+01   2.9152414566e+01    0.6559048    0.4299672  -3.97  0.003099906    2.518    0.603
         2  -9.6154    202.3608     37.6095   4.2662502380e+01   3.0719939357e+01    0.9604046     0.284948 -34.58  0.003548554    3.070    0.674
         3  -9.3479    189.2290     25.4608   4.1138604561e+01   3.5329650173e+01    0.5320306    0.2529712 -55.98  0.002285779    2.397    0.583
         4 -10.2123    185.3138     33.8040   4.3886071569e+01   3.5281960025e+01    0.5275083    0.3667313   8.74  0.001895777    2.206    0.547
         5  -9.7905    248.7605     25.8507   3.5311954336e+01   2.1931923700e+01    0.5644602    0.3480543 -70.39  0.003284929    1.519    0.342
         6  -9.4225    241.2970     20.8724   3.4862059047e+01   2.4063058403e+01    0.4260125    0.2936759 -34.40  0.002624287    1.489    0.328
         7 -10.7797    165.4090     25.7371   4.4470227715e+01   4.1113870930e+01    0.9113958    0.4478786 -66.63  0.003378823    3.324    0.699
         8 -10.3802    105.2384     23.2320   5.5579547391e+01   5.5785701082e+01    0.6478792    0.4646547 -72.49  0.003227291    2.211    0.548
         9  -9.2128     94.9148     22.2755   5.8003218862e+01   5.8140050932e+01    0.6350098    0.2089655 -20.71  0.002130482    4.231    0.764
        10  -7.9448    199.3790     21.2769   3.8878330761e+01   3.3384706153e+01    0.7891207    0.4435182  30.12  0.002725044    3.243    0.692
        11  -8.1245    197.1936     14.4223   3.7388394289e+01   3.4643195724e+01    0.3260338    0.1793928 -83.96 0.0004954327    1.982    0.495
        12  -9.5229    206.6360     11.4016   3.5718383699e+01   3.2756758663e+01    0.5872125     0.390709 -29.37  0.002221223    1.655    0.396
        13  -9.9611    200.6183      9.3817   3.5797381957e+01   3.4358465998e+01    0.5727981    0.2579015  67.67  0.002016164    1.976    0.494
        14  -9.5381    136.2334     16.7582   4.6477292524e+01   4.9214995609e+01    0.5829687    0.2362307 -34.85  0.002472711    2.585    0.613
        15  -8.7853    132.0998     13.2742   4.6050570711e+01   5.0546775110e+01    0.2647268    0.2198078  38.77 0.0007314748    1.175    0.149
        16  -9.1340    144.2713      9.7828   4.2830822254e+01   4.7919978359e+01    0.3662152     0.281076  19.46  0.001471557    1.536    0.349
        17  -9.5876    138.7694      6.1385   4.2520582292e+01   4.9571954247e+01     0.716839    0.3973846 -44.97  0.003563495    2.074    0.518
        18  -8.9930    124.1488      6.5615   4.5178399466e+01   5.3038013756e+01    0.3322884    0.1932621 -35.79  0.001271035    1.932    0.482
        19 -10.1399    119.2396      4.9849   4.5538485194e+01   5.4323976336e+01    0.8689761    0.3737923  68.27  0.003777208    2.263    0.558
        20  -9.3260    135.9207      9.4827   4.4095778370e+01   4.9971315325e+01    0.3005047    0.2430815 -64.89 0.0008519676    1.407    0.289
        21  -9.4715    131.4699      9.4610   4.4860462834e+01   5.1044282450e+01    0.4064136    0.2911628 -89.69   0.00161811    1.595    0.373
        22  -9.5241    175.6577     17.2319   4.0611491982e+01   3.9521238598e+01    0.3963192    0.1939506 -42.91  0.001808695    2.068    0.517
        23 -10.2836     86.2315     16.6588   5.8202557244e+01   6.0570789867e+01    0.5791214     0.391243 -80.79  0.002538549    3.398    0.706
        24  -8.4840     90.0000     13.0102   5.5552443194e+01   6.0160906222e+01    0.2456205    0.1725311 -35.76  0.001133447    1.656    0.396
        25  -9.9576     86.1044     10.6698   5.5662816941e+01   6.1201876417e+01     0.476278    0.2823865  33.15  0.002536099    1.561    0.359
        26  -9.9255    219.5045     17.5042   3.5969190882e+01   2.9173850508e+01    0.4657688    0.2382441  60.66  0.002392108    1.959    0.490
        27 -10.0852    216.4299     14.2216   3.5488690637e+01   3.0224773035e+01    0.5840435     0.286338 -56.11  0.001790317    1.968    0.492
        28 -10.4043    117.7578     15.6973   4.9761427495e+01   5.3715635291e+01    0.8189858    0.4547074  67.93  0.003902039    1.861    0.463
        29  -9.4646    156.2292     14.8071   4.2575624393e+01   4.4524325420e+01    0.3144978    0.2496801  42.51  0.001579781    1.309    0.236
        30  -8.8614    227.1059     14.2166   3.4571999294e+01   2.7854232675e+01    0.3293825    0.1753927 -25.17 0.0007859131    2.235    0.552
        31  -7.9352    238.3149      9.6544   3.2723191661e+01   2.5944298345e+01    0.2406589    0.0921389 -40.94  0.001012003    2.170    0.539
        32 -10.3187    238.9067      4.0874   3.1523316565e+01   2.6408024655e+01    0.5929188    0.4959168 -29.39  0.004164464    1.459    0.315
        33  -9.5994    188.7186     12.4265   3.7779536268e+01   3.6860453005e+01    0.5091047    0.2236319  62.96  0.002157409    2.014    0.503
        34  -8.6814     64.2725     12.3725   6.3603305226e+01   6.5259902314e+01    0.2818549    0.1625852 -38.56  0.001491562    2.113    0.527
        35  -8.6053     71.3223     12.7654   6.1270401933e+01   6.3921503443e+01    0.2012791    0.1902358   8.48 0.0008948193    1.254    0.202
        36  -9.2715     30.8306     12.3836   7.8327313685e+01   7.0347444188e+01    0.2238434    0.1926917  11.63  0.001610365    1.322    0.244
        37  -8.1657    161.3423     11.2192   4.0777230850e+01   4.3616670759e+01    0.2386233    0.1415065 -39.75  0.001098132    1.779    0.438
        38  -8.9476     90.2873      1.8570   5.0728222263e+01   6.1087836735e+01    0.3249295    0.2158396  59.30  0.001691621    1.422    0.297
        39 -10.2123    106.7305      4.3033   4.7841014399e+01   5.7265047870e+01    0.9374328    0.4420743  32.76  0.004236764    2.336    0.572
        40  -9.8646     99.8719      5.2364   4.9771105170e+01   5.8727046694e+01    0.5682775    0.2949829  -0.26  0.002449994    2.524    0.604
        41  -9.9005     95.9766      3.4694   4.9984863375e+01   5.9728532472e+01    0.3067007    0.2745532  34.72 0.0005906588    1.077    0.071
        42  -9.3766     18.0112     10.3291   8.4203261066e+01   7.2061390068e+01    0.2649794    0.1889572 -22.29  0.001837088    1.130    0.115
        43  -9.4969    247.4288     10.3970   3.2234932725e+01   2.3974659581e+01    0.2065775    0.1760267 -75.84 0.0005131045    1.123    0.109
        44  -8.5025      8.6452     10.7546   8.9861865950e+01   7.2835646851e+01    0.1921428    0.1287513   6.64 0.0006698386    1.387    0.279
        45  -9.6028    221.2032      7.5295   3.3564118202e+01   2.9865010675e+01    0.6371853    0.2984557  46.71  0.002895468    3.095    0.677
        46  -8.3382    223.3965      2.1890   3.2214704106e+01   2.9922988340e+01    0.2035198     0.144667 -55.25 0.0005636711    1.239    0.193
        47  -8.9446    151.3429      9.2674   4.1597952709e+01   4.6242033512e+01    0.3142001    0.2677354  53.82  0.001489289    1.121    0.108
        48  -8.6352    177.4118      8.3653   3.7963294243e+01   3.9975388509e+01    0.2230308    0.2009652 -89.55  0.001445614    1.046    0.044
        49 -12.5613    181.7016      2.9452   3.6046929160e+01   3.9444301454e+01    0.2980057     0.242775  86.65 0.0004072752    1.060    0.057
        50 -10.5009     81.0007      2.7592   5.3644930439e+01   6.2960070664e+01    0.5024945    0.3829572  57.09  0.001526713    1.343    0.256
        51  -9.1102     68.8597      7.7179   5.9760242925e+01   6.4900460539e+01    0.2959902    0.2163947  35.37  0.001839955    1.168    0.144
        52  -8.1933    157.3214      7.1468   4.0114479242e+01   4.4972260990e+01     0.174429    0.1615088 -79.23 0.0007874193    1.108    0.098
        53  -8.4067     56.9969      5.6976   6.3105727552e+01   6.7244083889e+01    0.2430339    0.1626717  44.82  0.001470393    1.482    0.325
        54  -8.2572     38.0920      6.1164   7.1484676363e+01   7.0183339315e+01    0.1554874     0.150996 -38.74  0.001127854    1.729    0.422
        55  -8.5717    132.8004      3.9965   4.2776657775e+01   5.1185862122e+01     0.262312    0.2117782 -55.03 0.0009930357    1.418    0.295
        56  -8.4492    248.4087      4.3636   3.0957521531e+01   2.4422093478e+01    0.1478756    0.1300573  53.01 0.0005580147    1.545    0.353
        57  -9.1943     46.5765      3.2321   6.6101425471e+01   6.9226291494e+01    0.2654525    0.1936895 -27.14  0.001016452    1.507    0.337
        58  -7.7749     42.6500      1.2797   6.6784403239e+01   7.0043434866e+01    0.1820505    0.1064214  40.38 0.0005724782    1.637    0.389
        59  -7.6384     28.3719      4.3030   7.5375605422e+01   7.1704110644e+01    0.1245255   0.07224324   2.93 0.0007031537    1.754    0.430
        60  -8.5844    174.0772      1.5084   3.6472559464e+01   4.1399842594e+01     0.252186    0.1024202  66.99  0.001136422    2.056    0.514
        61  -8.8773    164.0093      1.4319   3.7596864799e+01   4.3838159520e+01    0.3576645    0.1061611  69.48  0.001366282    2.818    0.645
        62  -7.7462    157.8676      1.4052   3.8340464662e+01   4.5329806583e+01    0.1951035   0.09463172  58.47 0.0009388607    1.761    0.432
        63  -7.8044    144.1392      1.3542   4.0168200177e+01   4.8663263655e+01    0.1749036     0.109228  79.39 0.0005241177    1.536    0.349
        64  -7.9156     64.9401      1.4938   5.8109178944e+01   6.6213377302e+01    0.1832914    0.1062593  48.72   0.00102583    1.575    0.365
        65  -8.3198      8.3170      1.4788   8.5353208026e+01   7.4230606261e+01    0.2450435    0.0926435  28.04  0.001303096    2.665    0.625
        66  -8.6263    197.7544     90.6880   5.7072319431e+01   2.3680208785e+01    0.3822111     0.222849 -48.38   0.00166789    1.713    0.416
        67  -7.9687    122.9691     92.4605   7.4452638991e+01   4.0535238318e+01    0.2319041     0.152194  44.61 0.0004380352    1.544    0.352
        68  -8.3886    234.2961     88.9805   5.0910645065e+01   1.6002808166e+01    0.2386761    0.1740323 -42.55 0.0004148121    1.206    0.171
        69  -9.0132    234.2737     84.7491   4.9934972933e+01   1.6686079192e+01    0.4255505    0.1997951  53.28   0.00188494    2.346    0.574
        70  -8.9170    207.3163     86.3002   5.4331742773e+01   2.2267470206e+01    0.4264356     0.244201 -29.92  0.001809188    1.834    0.455
        71  -8.3349    202.9609     87.4594   5.5347283955e+01   2.3054504672e+01    0.3245946    0.2156085  59.47  0.001526716    1.604    0.377
        72  -9.4527    177.8037     87.1218   5.9863891786e+01   2.8956728427e+01    0.6245099    0.4088854 -12.04   0.00254932    2.258    0.557
        73  -8.2611    249.5303     84.4052   4.7877785533e+01   1.3672244498e+01    0.3633949    0.1664975 -52.62  0.001566044    2.312    0.568
        74  -8.4196    214.7280     85.5516   5.2967178070e+01   2.0740679569e+01     0.277196    0.1873971 -38.81  0.001048931    1.365    0.267
        75  -9.6505    219.3233     84.3508   5.1974484914e+01   1.9930386764e+01    0.4122994    0.3062228 -79.24 0.0005049617    1.615    0.381
        76  -8.9551    224.1539     83.8200   5.1136498643e+01   1.8970976790e+01    0.3948221    0.3133886 -54.83  0.002194626    1.193    0.162
        77  -9.4080    194.8377     82.8482   5.5550717874e+01   2.5709898371e+01    0.5735928    0.2825173 -32.54  0.002296887    2.090    0.522
        78  -7.6827    197.2861     80.3539   5.4479041113e+01   2.5563611943e+01     0.222752    0.1932183  73.61 0.0006578491    1.203    0.168
        79  -8.3767    171.7250     85.9381   6.0765002486e+01   3.0609132703e+01    0.2925315    0.2216359  67.69 0.0009744279    1.456    0.313
        80  -9.7740    148.9023     83.1292   6.4992104209e+01   3.6529871149e+01    0.4459157    0.2581363  49.47  0.001704817    1.721    0.419
        81  -8.1323    125.6763     84.3179   7.1264780290e+01   4.1601837669e+01    0.1542182    0.1242182 -83.50  0.000704424    1.670    0.401
        82  -9.8851    206.2289     72.8034   5.1093456050e+01   2.4734186943e+01    0.4165704    0.3893388 -53.80  0.001899371    1.031    0.030
        83  -8.4074    188.7233     76.7533   5.5009326031e+01   2.8175101319e+01    0.3334641    0.2354017 -36.86  0.001061514    1.385    0.278
        84  -8.9336    192.0303     71.9386   5.3152281216e+01   2.8186096185e+01    0.3877386    0.2716746 -21.22  0.001834621    1.679    0.405
        85  -9.1502    180.0684     78.8398   5.7157418486e+01   2.9877689604e+01    0.5311146    0.3313428  49.64  0.002393217    1.636    0.389
        86  -8.8597    184.8307     74.3432   5.5051167422e+01   2.9502183746e+01    0.3528073     0.284156 -65.21  0.001809842    1.322    0.244
        87 -10.3840    209.1127     76.7704   5.1652144766e+01   2.3438584633e+01    0.7853901    0.5104817 -41.27  0.003563389    1.426    0.299
        88  -9.4563    236.8620     76.7098   4.7740727737e+01   1.7410361553e+01    0.4634633    0.3517044 -57.34  0.002642361    1.241    0.194
        89  -9.5099    227.9543     75.6062   4.8654297766e+01   1.9461009379e+01      0.52886    0.3261554 -53.24   0.00262285    1.581    0.368
        90  -9.9595    147.1275     75.2791   6.3064863062e+01   3.8385030928e+01    0.6297739    0.3660555 -29.15  0.002609987    1.906    0.475
        91  -7.3875     22.4708     78.4032   1.0530275431e+02   5.8627881340e+01    0.1275399    0.1051848 -46.96 0.0001412182    1.018    0.017
        92  -9.2435    247.3516     75.6025   4.6196450575e+01   1.5445949618e+01    0.3317468    0.2252862 -58.18  0.001003787    1.430    0.301
        93  -8.2688    244.3643     71.6898   4.5680851660e+01   1.6634303759e+01    0.2002899    0.1113693 -48.58 0.0009936307    1.598    0.374
        94  -7.6929    242.5648     75.6624   4.6788049987e+01   1.6400091265e+01    0.2472562    0.1205361 -32.16  0.001111582    1.998    0.500
        95  -9.2617    218.5443     73.7044   4.9499790346e+01   2.1811489133e+01    0.3979669    0.2633279 -48.74  0.001077112    1.406    0.289
        96  -9.0423    200.4648     73.0225   5.2052472425e+01   2.6031248076e+01    0.5477775    0.2980035 -63.48  0.001783641    2.630    0.620
        97  -9.6555    196.1579     65.9770   5.0899196696e+01   2.8158113828e+01    0.6273132     0.460305 -76.74  0.001747232    1.567    0.362
        98  -8.3138    174.9648     71.6560   5.6127304680e+01   3.2317662040e+01    0.2470393    0.1812475  63.10 0.0005597347    1.394    0.283
        99  -7.8964    121.1843     74.4263   6.9416677297e+01   4.4497335101e+01    0.2128404    0.1453846  59.33 0.0009460445    1.689    0.408
       100  -8.7138    163.8860     62.7631   5.5708327697e+01   3.6455992089e+01    0.4367914    0.2291274 -50.96  0.001742923    2.200    0.545
       101  -8.6794    167.5624     71.6542   5.7568470492e+01   3.4107186036e+01    0.3649221    0.3178047 -20.73  0.001921893    1.236    0.191
       102 -10.2924    162.0403     67.5499   5.7489042009e+01   3.6129751203e+01    0.8809808    0.4305524  57.06  0.003507164    2.042    0.510
       103  -8.5806    158.3034     61.9282   5.6580220621e+01   3.7950292495e+01    0.4764913    0.2923831 -62.71  0.001767711    2.238    0.553
       104  -9.4614    134.4625     71.8170   6.5073117286e+01   4.1973065167e+01    0.4684982     0.257507 -47.79  0.001827901    2.002    0.501
       105  -8.2910    130.0550     70.7157   6.5852022248e+01   4.3184590295e+01    0.3093079    0.1839065  47.05  0.001127561    1.649    0.394
       106  -7.6357     83.5295     71.4836   8.0171029504e+01   5.2570130254e+01    0.1457403    0.1316389 -13.12 6.891746e-05    1.023    0.023
       107  -9.6300    247.9642     66.7502   4.4171860908e+01   1.6637909846e+01    0.3922507    0.2807795 -65.41  0.001254677    1.388    0.279
       108  -9.5362    244.8764     61.7689   4.3416018379e+01   1.7985595735e+01    0.4242906    0.3533385  68.79  0.002670658    1.323    0.244
       109  -9.3263    235.5302     66.8651   4.5648069471e+01   1.9180979457e+01    0.3859773    0.2058711 -33.54  0.001211872    1.789    0.441
       110  -8.1879    235.7501     59.3755   4.3907791080e+01   2.0230064221e+01    0.2799718    0.1113663  57.82  0.001194849    2.644    0.622
       111  -8.9483    222.0101     58.0323   4.5246987363e+01   2.3409117205e+01    0.4138558    0.2696821  89.66  0.002079828    1.793    0.442
       112  -8.6184    227.9792     66.5249   4.6508967081e+01   2.0845615445e+01    0.2984551    0.2238376  35.67  0.001021828    1.754    0.430
       113 -10.3984    230.0976     61.6049   4.5091867959e+01   2.1116297508e+01     0.502869    0.3502202 -59.35  0.002099714    1.380    0.275
       114  -9.0800    139.4043     77.7457   6.5674751687e+01   3.9749558327e+01    0.2766509    0.1930985  62.85 0.0007891069    1.623    0.384
       115  -9.4394    173.9416     64.3900   5.4263130155e+01   3.3746561078e+01    0.5301495    0.3407808  28.92  0.001753294    2.170    0.539
       116  -8.2402    207.1012     65.7054   4.9162309101e+01   2.5644466439e+01    0.2231317    0.1758386 -51.10 0.0004608087    1.191    0.160
       117  -9.4598    207.9976     61.4930   4.7968041990e+01   2.6076435504e+01    0.5841004    0.4090795  25.09  0.002298317    2.140    0.533
       118  -9.4153    214.3929     59.8354   4.6673180750e+01   2.4857901130e+01    0.7118304    0.3457297 -46.13  0.003152271    1.923    0.480
       119  -8.9659    213.5005     64.4622   4.7938110179e+01   2.4369535270e+01    0.4034573    0.2431692  86.69  0.001804964    2.190    0.543
       120  -9.6273    217.0832     62.8765   4.7058819823e+01   2.3798347037e+01    0.5072393    0.2660028  70.21  0.002265691    2.150    0.535
       121  -8.6701    187.7181     65.6272   5.2182309396e+01   3.0221715311e+01    0.4108448    0.1680232  59.86   0.00108417    2.478    0.596
       122  -8.6642    200.8729     62.6986   4.9315835395e+01   2.7552748691e+01    0.3338961    0.1912403 -25.23  0.001465238    2.046    0.511
       123  -8.3353    149.8241     64.1930   5.9068549833e+01   3.9641177277e+01    0.3676651     0.205124  75.59   0.00131418    2.913    0.657
       124  -9.7685    118.4696     59.3315   6.5191265031e+01   4.7776718529e+01    0.5457879    0.3515308  20.13  0.002337489    2.081    0.520
       125  -8.2947    114.1213     57.1433   6.5644406789e+01   4.9104208316e+01    0.2824759    0.2260611 -70.17  0.001354516    1.689    0.408
       126  -8.4670    189.0884     61.5191   5.0844380516e+01   3.0530005672e+01    0.2533773    0.2041013  -5.72 0.0009082252    1.568    0.362
       127  -8.1033    126.4351     61.1997   6.3699994902e+01   4.5660669353e+01    0.2057973    0.1366401 -47.58 0.0005092868    1.662    0.398
       128  -8.3875    181.5102     60.0831   5.1711005824e+01   3.2577937427e+01    0.2293349    0.1912052  -6.30  0.001201982    1.456    0.313
       129  -8.0301    134.0569     58.6849   6.0964086495e+01   4.4300089343e+01    0.2131273    0.1904317  45.66  0.001150579    1.080    0.074
       130  -8.9508    146.0904     56.5680   5.7512962033e+01   4.1759373947e+01    0.4784325    0.2768588 -11.70  0.001692406    2.718    0.632
       131  -8.6969    142.7009     53.5738   5.7306987998e+01   4.3036461129e+01    0.3095044    0.2909079  17.12  0.001745269    1.099    0.090
       132  -7.8450     56.1799     57.8941   8.5780633982e+01   5.9519186305e+01    0.2947651    0.0996545 -52.07  0.001024579    3.422    0.708
       133  -8.2255    201.6530     57.2996   4.7805257491e+01   2.8176746948e+01     0.213281    0.1764034 -45.69  0.001189432    1.156    0.135
       134  -9.7284    203.5641     53.9838   4.6682336040e+01   2.8210149929e+01    0.5831752    0.3398102 -86.67  0.002505992    2.352    0.575
       135  -8.1010    199.6952     52.6671   4.6886611396e+01   2.9309552532e+01    0.2299311    0.1756443 -19.21 0.0005797024    1.554    0.356
       136  -7.3975    191.0000     57.0024   4.9324091132e+01   3.0750929220e+01    0.2348299   0.07898547 -33.26 0.0008056013    2.964    0.663
       137 -10.2096    173.7367     52.3426   5.0859140644e+01   3.5626816059e+01    0.8838059    0.7010601  69.61  0.004705457    1.240    0.193
       138  -8.8633    159.5784     47.2390   5.1893167948e+01   3.9837165724e+01    0.3765536    0.2212619 -31.87  0.001360541    1.779    0.438
       139  -8.9699    156.7224     41.9467   5.0808438193e+01   4.1265057992e+01    0.3459982    0.2543402 -74.27 0.0009387383    1.631    0.387
       140  -9.9135    164.7380     46.2997   5.0671436852e+01   3.8696863136e+01    0.6168219    0.4069223 -86.43  0.002796609    1.976    0.494
       141  -7.7193     50.3124     56.3412   8.7641090983e+01   6.0595107713e+01    0.1421622   0.09022482 -19.41 0.0006919435    1.699    0.411
       142  -7.9742     42.2684     56.4056   9.1046394494e+01   6.1546406660e+01    0.1619504    0.1202941  31.12 0.0009375879    1.522    0.343
       143  -8.7663    249.7412     52.7306   4.0928280995e+01   1.8268184187e+01    0.3811814    0.2435957 -39.98  0.002170468    1.373    0.272
       144  -8.9128    185.4085     54.0511   4.9404330045e+01   3.2532375872e+01    0.3979532    0.2431235  66.49  0.001251785    1.648    0.393
       145  -9.7536    240.1984     52.8755   4.1946417765e+01   2.0210938538e+01     0.577071     0.298116  73.40  0.002761906    2.172    0.540
       146  -8.2773    245.0173     47.8374   4.0337714270e+01   1.9898795356e+01    0.2684483    0.1416017 -37.50  0.001137105    1.689    0.408
       147  -9.3933    243.9132     42.6891   3.9323655455e+01   2.0813226957e+01    0.4501635    0.3301868  65.98  0.002068684    1.473    0.321
       148  -7.8964    225.4128     53.2579   4.3697195746e+01   2.3337482639e+01    0.1835033    0.1091567 -46.73 0.0007241564    1.510    0.338
       149  -7.6292    220.2096     53.1989   4.4310799376e+01   2.4502793413e+01    0.1758866    0.1333433 -62.75 0.0002187265    1.250    0.200
       150  -7.7789    161.5594     53.6064   5.3438230733e+01   3.8431976670e+01    0.2080684    0.1408746  74.32 8.735078e-05    1.642    0.391
       151  -7.6878    158.7202     52.7006   5.3711736030e+01   3.9262839686e+01    0.1428772    0.1107845  24.71 0.0001630076    1.542    0.351
       152  -8.6243    213.5505     51.2639   4.4671783482e+01   2.6283434136e+01     0.231985     0.222752 -70.46 0.0006765661    1.111    0.100
       153  -8.4390    128.6538     52.1870   6.0129813600e+01   4.6587459129e+01    0.2015634    0.1785729 -19.05 0.0007254278    1.170    0.145
       154  -8.7709    120.1613     51.2371   6.1961814062e+01   4.8693304706e+01    0.3156947    0.2703803 -53.84  0.001474811    1.339    0.253
       155  -8.0190    190.8347     43.7257   4.5789270212e+01   3.2665808621e+01    0.2701198    0.2123057 -46.90  0.001044586    1.243    0.195
       156  -9.0579    189.3689     49.0396   4.7430377908e+01   3.2290428504e+01    0.3815503    0.2368276 -52.40   0.00133966    1.652    0.395
       157  -9.0062    185.1567     46.1786   4.7286005586e+01   3.3706763992e+01    0.3186805    0.2352353  54.63   0.00114295    1.359    0.264
       158  -8.6258    230.8644     50.0901   4.2332444128e+01   2.2586370818e+01    0.2047693     0.154108 -65.53 0.0004311986    1.240    0.194
       159  -8.7624    111.6380     49.2064   6.3550505530e+01   5.0915864245e+01    0.2429473    0.2178974 -89.53 0.0003558085    1.389    0.280
       160  -8.8998    220.3080     47.1443   4.2847687018e+01   2.5321321618e+01    0.5243865    0.2784355 -50.63   0.00251692    1.779    0.438
       161  -8.7625    154.1268     48.8840   5.3441730466e+01   4.0944338056e+01    0.2459578    0.1979381  57.99 0.0005082663    1.184    0.156
       162  -7.7362    227.4854     48.4825   4.2338528745e+01   2.3544506277e+01    0.1329826    0.1144015 -64.09 -9.114585e-06    1.014    0.014
       163  -7.9682    236.5403     47.1778   4.1056357199e+01   2.1764323720e+01     0.230344   0.09679702  71.44 0.0009907259    2.655    0.623
       164  -9.3220    214.5082     43.1033   4.2556547948e+01   2.7180487985e+01    0.4097261    0.3175062 -52.79  0.001532146    1.182    0.154
       165  -9.5459      2.8663    248.5964   1.2717458923e+02   2.1807869772e+01    0.3081217    0.1338712  55.37   0.00194391    1.697    0.411
       166  -9.1713    206.3872     42.3112   4.3348794037e+01   2.9162239615e+01    0.5802435    0.3770019 -58.68  0.002638856    1.537    0.349
       167  -8.6344    247.4831    248.5033   8.0944801026e+01  -1.0844369223e+01    0.1152216   0.08494972   4.55 0.0008103908    1.016    0.016
       168 -10.4079    219.8238     33.7395   3.9718391302e+01   2.7183229197e+01    0.6245245    0.3714825 -68.21  0.002918772    1.768    0.434
       169  -8.8315    215.9989     35.7727   4.0614048616e+01   2.7793162645e+01    0.2939231    0.2085206 -78.83  0.001120662    1.397    0.284
       170  -8.4336    139.5917     45.8373   5.5483092970e+01   4.4917915242e+01    0.2706611    0.2016665  67.37 0.0008775492    1.391    0.281
       171  -8.9388    231.4521     43.3109   4.0714270681e+01   2.3376004907e+01    0.3042057    0.1817036 -41.78  0.001078166    1.494    0.331
       172  -9.5662    226.5119     43.3172   4.1244261884e+01   2.4455727317e+01    0.4351507    0.2326862 -60.02  0.001975518    1.961    0.490
       173  -8.9821     27.3399     44.6414   9.3723887979e+01   6.5368786034e+01    0.2323693    0.2067153  69.59  0.001442764    1.747    0.427
       174  -8.0148    130.4844     39.4676   5.5376768112e+01   4.7973253925e+01    0.2363323    0.2023114 -35.22 3.148173e-05    1.245    0.197
       175  -8.8836    235.5974     40.8264   3.9727447531e+01   2.2810059922e+01    0.3987206    0.1385347 -49.41  0.001618132    2.686    0.628
       176  -8.4815    195.7851     40.9303   4.4366417556e+01   3.1849389654e+01    0.3477374    0.2315934 -50.74   0.00161768    1.465    0.317
       177  -9.5073    170.1230     38.6475   4.7509478886e+01   3.8391796174e+01    0.5180981    0.3546371 -28.14  0.002226213    1.584    0.369
       178  -9.2735    167.5188     34.4438   4.6700370313e+01   3.9564544827e+01    0.2542382    0.2368701 -73.58 0.0006803702    1.071    0.066
       179  -8.5631      3.8826     40.3514   1.0371115938e+02   6.7872616455e+01    0.1975144    0.1436264 -58.19  0.001318329    1.327    0.246
       180  -8.5505    140.1176     39.6204   5.3329696994e+01   4.5638509055e+01    0.2414379    0.1881431 -42.56 0.0006453801    1.373    0.272
       181  -9.3294    112.1649     36.1611   5.8668888677e+01   5.2659542810e+01    0.7288857    0.3040977 -46.07  0.002667574    3.273    0.694
       182  -8.9603    112.7585     28.9125   5.5828482813e+01   5.3436298396e+01    0.3502673     0.218343  33.56  0.001619751    1.647    0.393
       183  -7.7874     54.6921     40.6551   7.9959164521e+01   6.2860985326e+01    0.1385407   0.08991627  -8.88 0.0007043692    1.697    0.411
       184  -8.9480    129.1921     43.0076   5.6885087139e+01   4.7798850562e+01    0.4198594    0.1919953  49.81  0.001720266    2.004    0.501
       185  -8.4094    239.6868    230.3454   7.9288351643e+01  -7.5775086059e+00   0.09933735   0.09812526   7.61 0.0007046867    1.711    0.416
       186  -9.6709    185.1327     25.8983   4.1770797625e+01   3.6268639928e+01    0.4214023    0.3231978 -34.03   0.00155371    1.383    0.277
       187 -10.2855     32.5227    213.1776   1.1975518936e+02   2.5855425480e+01    0.4984886    0.2487473 -74.46  0.002038944    1.840    0.456
       188  -9.6044    182.5361     30.7291   4.3427529600e+01   3.6331974814e+01    0.3143118    0.2299445 -46.00 0.0008851203    1.367    0.268
       189  -8.9129    227.4365     37.3528   3.9767259849e+01   2.5030827425e+01    0.2332768     0.182096 -69.32  0.000592998    1.153    0.133
       190  -8.9904    103.5143     36.9618   6.1327590307e+01   5.4463982338e+01    0.4524945    0.2508968  21.22    0.0018352    2.603    0.616
       191  -8.8878    104.6258     31.7965   5.9047519592e+01   5.4899751542e+01    0.3873778    0.2018502 -33.23  0.001264035    2.010    0.503
       192  -8.5642     94.9127     37.5933   6.4109491798e+01   5.6197774579e+01    0.3606633    0.1853115  15.57  0.001182982    4.145    0.759
       193  -8.1408     65.7210     38.0279   7.4427575604e+01   6.1583956762e+01    0.2625013    0.1741894  -8.11 0.0008555632    1.651    0.394
       194  -8.1003     69.0161     34.7965   7.1825075814e+01   6.1523200746e+01    0.2122976    0.1562279   9.78  0.000571835    1.330    0.248
       195  -7.7474    191.4032     37.4758   4.4044318488e+01   3.3347933982e+01    0.2170472    0.1653558 -47.72 0.0001938843    1.282    0.220
       196  -8.6531    191.5132     33.9879   4.3104868430e+01   3.3760712548e+01    0.2769079    0.1918162  41.25 0.0009733547    1.729    0.422
       197  -8.9611    154.1460     35.5280   4.9295405469e+01   4.2729830268e+01    0.3522672    0.2624378  12.82  0.001791604    1.724    0.420
       198  -9.5121    158.7902     34.0100   4.8013076449e+01   4.1772599182e+01    0.3464992    0.2731727 -51.66  0.001142208    1.341    0.254
       199  -9.1382    248.5813     34.5664   3.7154993042e+01   2.0897383055e+01    0.2762116      0.22358  59.93  0.001290725    1.469    0.319
       200  -8.8960    243.5682     34.2253   3.7523560399e+01   2.1973751805e+01     0.422619    0.3241202 -35.52  0.002378691    1.343    0.256
       201  -9.1599    243.6299     30.3037   3.6676877785e+01   2.2448478793e+01    0.3007256    0.1833743 -87.67  0.001435204    1.681    0.405
       202  -8.4697    236.7899     34.1978   3.8137881625e+01   2.3405136715e+01    0.2937544    0.1615102 -78.66  0.001178566    2.083    0.520
       203  -8.2213    233.2045     31.3798   3.7848522535e+01   2.4525573203e+01    0.2492722    0.1193019  73.47  0.001210564    2.121    0.528
       204  -9.7796    131.6034     33.3740   5.3043357673e+01   4.8487673055e+01    0.4416742    0.3320753  50.10  0.002374627    1.218    0.179
       205  -8.5481    120.9242     34.8365   5.5990220536e+01   5.0825613765e+01    0.2270747    0.2034813 -15.11 0.0006231939    1.174    0.148
       206  -8.8303     89.5496     34.1134   6.4409149839e+01   5.7774224361e+01    0.2529556    0.1617549 -12.45 0.0006415264    1.769    0.435
       207  -8.9301     75.7790     34.1474   6.9066651038e+01   6.0418533768e+01    0.2512114    0.2393145  65.82  0.001230884    1.417    0.294
       208  -8.1670    229.2041     33.1155   3.8621845941e+01   2.5179131130e+01    0.2425725    0.1417515 -53.65 0.0006807088    1.550    0.355
       209  -7.3372    149.4513     33.5115   4.9519060226e+01   4.4134514954e+01    0.1387099    0.1294561  76.45 8.762386e-05    1.049    0.047
       210  -8.6115     98.4939     32.4853   6.1045381610e+01   5.6136828108e+01     0.276237    0.1327063 -29.22  0.001213213    2.172    0.540
       211  -8.6498     41.9566     33.1792   8.2481910502e+01   6.5828325387e+01    0.3129624    0.1355208  37.58 0.0008671967    2.544    0.607
       212 -10.1603     27.2249     30.8097   8.8564498203e+01   6.7895343138e+01    0.5134659    0.3598974  37.08  0.003161726    1.857    0.462
       213  -8.6643    203.9392     30.2462   4.0617399597e+01   3.1266601317e+01    0.3011229    0.2382535 -76.35  0.001778254    1.181    0.153
       214  -8.6725     82.8168     31.3987   6.5496716263e+01   5.9474870366e+01    0.1975203    0.1105013  35.99 0.0009481151    1.700    0.412
       215  -9.2657    174.4014     29.0744   4.4107767602e+01   3.8517688953e+01    0.4732019     0.284226 -70.45  0.002179246    2.060    0.515
       216  -8.5087    224.7743    184.7778   7.3590390675e+01   1.4077156853e+00    0.1706242    0.1573957 -38.01 0.0009945604    1.330    0.248
       217 -10.4848    101.0050    175.9963   9.9592453353e+01   2.5186911847e+01    0.2020991    0.1912133  72.36            0    1.003    0.003
       218  -8.7955    243.0488     16.4993   3.3805682952e+01   2.4198656048e+01    0.4022069    0.1692953  74.44  0.001990717    2.330    0.571
       219  -9.1810    250.6467    174.2713   6.6935791564e+01  -1.0142377617e+00    0.2978772    0.1056654 -36.60 0.0008097406    2.467    0.595
       220  -7.8150    155.6263     20.8373   4.4507256057e+01   4.4058466808e+01    0.2269741    0.1557826 -72.58 0.0006641203    1.710    0.415
       221  -9.9941    152.1283     27.4237   4.7123598748e+01   4.4195951139e+01    0.7877374    0.3447271  69.74  0.003130593    2.398    0.583
       222  -9.7064    148.2887     21.3259   4.5856694250e+01   4.5809636608e+01    0.5136216    0.3166867  77.68  0.002507151    1.709    0.415
       223  -8.3426     46.9985     28.7841   7.8309222884e+01   6.5859017951e+01    0.2175016    0.1513591 -42.92 0.0006941642    1.638    0.389
       224 -10.2546     30.4715     24.9154   8.4431764954e+01   6.8529915173e+01    0.4417675    0.2309179 -22.58  0.001999172    1.938    0.484
       225  -8.3074    211.2798     26.4449   3.8876790670e+01   3.0016349827e+01    0.3117239    0.2103771  66.12  0.001753164    1.444    0.307
       226  -7.9670    120.5866     26.8082   5.3184369911e+01   5.1876688925e+01    0.1888852    0.1227111 -40.54 0.0007109215    1.725    0.420
       227  -8.8014    228.1802     24.2997   3.6727522720e+01   2.6472778038e+01     0.410226    0.1755669 -55.77  0.001857106    2.329    0.571
       228  -8.0633    125.7838     25.7884   5.1664462644e+01   5.0769123406e+01    0.1901806    0.1620621 -75.98  0.001080814    1.394    0.283
       229  -9.4751    243.3022    174.4830   6.8217000780e+01   9.4576303000e-02    0.2297317    0.1847792  36.87  0.001244506    1.423    0.297
       230  -8.2022    242.5185    159.5026   6.5277096899e+01   2.6495020178e+00    0.2043016     0.146042  -5.17 0.0007829674    1.509    0.337
       231  -8.1131     87.7952     22.8674   6.0352636084e+01   5.9556843564e+01    0.1594856    0.1565503 -77.18 0.0004376477    1.316    0.240
       232  -8.2166     40.6765     22.6604   7.8449267151e+01   6.7635227237e+01    0.2115037    0.1945455  -9.60  0.001480087    1.351    0.260
       233  -8.2607    213.0491     21.8388   3.7592885065e+01   3.0145937925e+01    0.2079957    0.1476824 -69.05  0.001204722    1.310    0.236
       234  -9.2205    246.3111    158.6928   6.4477160759e+01   2.1555836620e+00    0.2082313    0.1542718 -35.15 0.0007479569    1.218    0.179
       235  -8.6772    235.2596    156.8508   6.5956640517e+01   4.3219991342e+00    0.2606152    0.1565286  30.66  0.001274741    1.878    0.467
       236  -7.1372    205.6690    155.2915   7.1082918410e+01   9.9908520934e+00    0.1368965    0.1174866 -82.22 0.0005473904    1.628    0.386
       237  -9.0363    240.6522    148.1133   6.3182127013e+01   4.8612147242e+00    0.2823852    0.1959676 -25.89 0.0005735143    1.309    0.236
       238 -10.0336    236.0227    145.4048   6.3372464368e+01   6.1345963750e+00    0.6032397    0.3719498   0.57  0.002589645    2.591    0.614
       239 -10.5170    241.3264    139.6089   6.1239869234e+01   6.1741532434e+00    0.5000702    0.3815281 -47.29  0.002097134    1.348    0.258
       240  -8.7400    210.5182    143.1833   6.7442614645e+01   1.1306247080e+01    0.4159769    0.3115519  87.67  0.001517096    2.259    0.557
       241  -8.8673    230.0204    143.4835   6.3977204223e+01   7.5519328520e+00    0.2001466    0.1383315  42.46  0.001033544    1.594    0.372
       242  -9.2646    231.1413    137.9973   6.2574576613e+01   8.3005250671e+00     0.219095    0.2026454  28.11 0.0005190371    1.189    0.159
       243  -8.3668    234.6731    136.3314   6.1613312261e+01   7.9358694827e+00    0.2012695    0.1825714  80.18  0.001186787    1.419    0.295
       244  -7.7935    211.4765    137.4519   6.5956405699e+01   1.2178615782e+01    0.1460722    0.1328186 -20.07 9.977599e-05    1.020    0.020
       245  -8.8478    230.6017    132.4518   6.1430140739e+01   9.3676958885e+00    0.2963853    0.2124285 -44.32 9.693178e-05    1.330    0.248
       246  -8.2191     58.7527     21.3826   6.9958921741e+01   6.5125556442e+01    0.3048625    0.1345872  32.07  0.001168295    2.294    0.564
       247  -8.5359     62.8703     20.1797   6.7779318348e+01   6.4587306346e+01    0.2158412    0.2032831 -32.65  0.001091651    1.426    0.299
       248  -8.5096     78.2875     20.4427   6.2355550691e+01   6.1733552519e+01    0.2161641    0.1545553 -45.24  0.001192384    1.840    0.457
       249  -8.4127    239.0265    131.9818   5.9943418634e+01   7.8804974525e+00    0.2063385    0.1804867 -36.32 0.0004574174    1.076    0.071
       250 -10.2376    248.1622    128.5377   5.7767078521e+01   6.8075720113e+00    0.4455218    0.3113048 -26.04  0.001076448    1.333    0.250
       251  -8.7572    236.2635    125.7796   5.9009291100e+01   9.4517034744e+00    0.3260037     0.216087 -21.55  0.001331946    1.610    0.379
       252  -9.7600    241.5567    122.5395   5.7458487446e+01   9.0104444979e+00    0.5869337    0.2495751 -47.10  0.002184086    2.398    0.583
       253  -8.7711    231.8700    121.1312   5.8667027715e+01   1.1090525271e+01    0.2620201    0.1863596 -31.94 0.0005516417    1.277    0.217
       254  -9.8450    235.7425    118.5983   5.7478180240e+01   1.0777391165e+01    0.3127468    0.2814758  11.22 0.0004087316    1.230    0.187
       255  -8.6242    127.1072     18.4639   4.8808143944e+01   5.1236784413e+01    0.2659736    0.1772232 -39.88  0.001080616    1.681    0.405
       256  -7.7186    162.4944    122.9849   7.2701589339e+01   2.5409210749e+01    0.2251509    0.1516102 -43.27 0.0003367978    1.454    0.312
       257  -8.4591     51.5636     19.0144   7.1844050693e+01   6.6582458090e+01    0.2472571    0.1493702  21.27  0.001364115    1.610    0.379
       258  -8.3818     48.4982     16.5089   7.1976761003e+01   6.7377271145e+01    0.3803947   0.09922824  36.80  0.001400799    3.801    0.737
       259  -8.7264     18.6502     17.3635   8.7227767665e+01   7.0936068187e+01    0.2399988    0.1872235   5.09  0.001701348    1.225    0.184
       260 -10.3681    245.3317    109.0930   5.3912353027e+01   1.0538261948e+01    0.4876392    0.4778002 -24.47   0.00209293    1.140    0.123
       261  -8.0625    166.5302     15.4523   4.1308065095e+01   4.1934009072e+01    0.2467235    0.0945069  57.01  0.001023024    2.258    0.557
       262  -9.5477    248.3767    120.0910   5.5895401703e+01   8.1634601032e+00    0.3842725     0.354428  41.72  0.001723052    1.262    0.208
       263  -7.8531    107.4779     15.5064   5.2024182925e+01   5.6095329053e+01    0.2253236    0.1203362  59.38 0.0008350966    1.735    0.424
       264  -8.0002    104.7091     13.6862   5.1980602879e+01   5.6895051753e+01    0.2094599    0.1666226  34.86 0.0006898714    1.128    0.113
       265  -9.3588    247.0138    114.8542   5.4944782225e+01   9.2760176889e+00    0.4705606    0.2693375  40.02  0.001695974    2.139    0.533
       266  -9.0653    206.0279    119.9606   6.2862216085e+01   1.6541327139e+01    0.3793471    0.2789751 -55.51  0.001204372    1.489    0.329
       267  -9.1843    221.8779    119.1692   5.9866800861e+01   1.3411182626e+01    0.2793536     0.244483  67.37 0.0006050887    1.338    0.253
       268  -7.7150    181.6707    118.2967   6.7263731941e+01   2.2135671615e+01     0.153267    0.1224529 -80.26 0.0003215984    1.636    0.389
       269  -8.4397    177.8382    115.8812   6.7464346503e+01   2.3465925601e+01    0.2367802    0.2106356  -1.01   0.00043302    1.222    0.182
       270  -8.4880    217.0044    112.7632   5.9187303325e+01   1.5548753078e+01     0.369111    0.2608196 -33.49  0.001850532    1.322    0.244
       271  -7.2610    164.4493     12.5044   4.0733829820e+01   4.2733779601e+01    0.2267769    0.1180177  70.14 0.0005455829    1.724    0.420
       272  -8.4634    223.7609    114.7867   5.8529810170e+01   1.3803198952e+01    0.2546277    0.1785209 -45.54 0.0008990795    1.338    0.252
       273  -9.5528    221.1252    110.2846   5.7908102959e+01   1.5132107557e+01    0.3525439    0.2764903 -65.67  0.000728316    1.481    0.325
       274  -8.8397    174.1296    113.0227   6.7529197840e+01   2.4866255530e+01      0.37481    0.2680952 -40.25  0.001732967    1.354    0.261
       275  -8.2082    228.1107    108.9401   5.6465023792e+01   1.3936862604e+01     0.201064    0.1729866 -56.19 0.0003708135    1.182    0.154
       276  -8.0097    211.9305    109.3605   5.9244507865e+01   1.7224949560e+01    0.1974262      0.18993  27.93   0.00113345    1.122    0.109
       277  -9.1612    192.8272    107.5629   6.2297718259e+01   2.1726241430e+01    0.5471773     0.340489  40.63  0.002414382    1.772    0.436
       278  -9.1595    193.4380    101.8281   6.0721256892e+01   2.2655710137e+01    0.5932772    0.3374236 -22.96  0.002320386    2.306    0.566
       279  -9.4039    236.4811    105.9824   5.4502007679e+01   1.2764576255e+01    0.3832596    0.2852057 -68.46   0.00128587    1.640    0.390
       280  -8.4215    237.1892    100.4712   5.3140864211e+01   1.3539788544e+01    0.4103995    0.2803313  45.87  0.002162199    1.687    0.407
       281  -9.2110    230.1000    103.5620   5.4906025914e+01   1.4449917835e+01    0.4815549    0.2670915  39.47  0.002150264    2.267    0.559
       282  -8.0628    225.4897    104.4867   5.5837286380e+01   1.5236320762e+01    0.2697184    0.1412145  52.89  0.001193606    2.111    0.526
       283  -8.5063    217.2926    106.2210   5.7576679035e+01   1.6645568918e+01    0.2293621    0.1752574 -23.40  0.001175219    1.367    0.269
       284  -9.8705    211.7627    100.6975   5.7165254342e+01   1.8799213487e+01    0.6119189     0.448167 -41.93  0.003120292    1.258    0.205
       285  -7.4383    202.3005    104.3175   5.9711958065e+01   2.0222771625e+01      0.14721    0.1161755   4.19  0.000388276    1.618    0.382
       286  -7.8784    141.7363    104.4087   7.2850261563e+01   3.3927934072e+01    0.2230155    0.1480766  35.02 0.0007973797    1.637    0.389
       287  -8.2413    249.8206    101.8356   5.1683473761e+01   1.0868635320e+01    0.1865183    0.1649538 -26.07 0.0004562825    1.136    0.120
       288  -8.1066    198.6413    100.9794   5.9538448915e+01   2.1641705383e+01    0.2187709    0.1829379 -35.71  0.001138534    1.141    0.124
       289  -9.7624    185.2991     98.9400   6.1543103954e+01   2.5043608046e+01    0.5336105    0.3197348 -32.54  0.001117343    1.710    0.415
       290  -8.2503    181.3482     93.7849   6.0959738819e+01   2.6911658765e+01     0.280016    0.2202546  81.96 0.0007089487    1.540    0.351
       291  -9.0125    186.9264     93.3526   5.9758470399e+01   2.5695719248e+01    0.4091328    0.3245741  76.22  0.002022696    1.458    0.314
       292  -9.0813    228.2447     89.9406   5.1995257777e+01   1.7104021902e+01    0.3334841    0.2048814 -37.48 0.0007975088    1.467    0.318
       293  -8.7608    227.9567     99.5688   5.4300711079e+01   1.5562971940e+01    0.2924213    0.2307679  34.33 0.0009430477    1.508    0.337
       294  -9.3893    231.2726     96.7356   5.3142800144e+01   1.5354275370e+01    0.4944612    0.2720734 -55.34  0.002178494    2.076    0.518
       295 -10.0297    247.7222     94.3918   5.0318122483e+01   1.2458258803e+01    0.6893522    0.3818532 -22.51  0.003088105    2.284    0.562
       296  -9.7130    241.8461     90.9241   5.0323080908e+01   1.4162860779e+01    0.5864881    0.3634638  34.52   0.00280823    2.304    0.566
       297  -7.7834    115.7942     97.9436   7.8086767363e+01   4.0872244551e+01    0.2138084    0.1209004 -43.48 0.0008635593    1.729    0.422
       298  -8.3509    219.9956     96.0690   5.4701301571e+01   1.7827247181e+01    0.3801292    0.1786495 -27.45  0.001444065    2.563    0.610
       299  -8.4677    160.6793     92.6889   6.5026726955e+01   3.1953981607e+01    0.2650917    0.2322635  18.69 0.0007631982    1.263    0.208
