#   1 NUMBER                 Running object number                                     
#   2 MAG_AUTO               Kron-like elliptical aperture magnitude                    [mag]
#   3 X_IMAGE                Object position along x                                    [pixel]
#   4 Y_IMAGE                Object position along y                                    [pixel]
#   5 X_WORLD                Barycenter position along world x axis                     [deg]
#   6 Y_WORLD                Barycenter position along world y axis                     [deg]
#   7 A_WORLD                Profile RMS along major axis (world units)                 [deg]
#   8 B_WORLD                Profile RMS along minor axis (world units)                 [deg]
#   9 THETA_WORLD            Position angle (CCW/world-x)                               [deg]
#  10 FWHM_WORLD             FWHM assuming a gaussian core                              [deg]
#  11 ELONGATION             A_IMAGE/B_IMAGE                                           
#  12 ELLIPTICITY            1 - B_IMAGE/A_IMAGE                                       
         1 -13.3569    205.3949     35.6652   5.4150350787e+01   2.8753129000e+01     1.402598    0.8945333 -28.48  0.005986363    1.544    0.352
         2 -13.9502    225.4011     15.8874   4.6350214452e+01   2.5970620953e+01     1.372292    0.9733371  32.41  0.001242167    1.764    0.433
         3 -13.2231      3.9083      7.4588   1.0502621442e+02   7.3591180245e+01     1.203564     0.567189 -44.05  0.007168811    1.566    0.361
         4 -12.2825    151.2620    246.6177   1.0896448596e+02   7.0614826258e+00    0.4819627    0.2721737  30.66  0.002957586    1.777    0.437
         5 -12.0419    143.7836    249.6160   1.1053768014e+02   7.7938804128e+00     0.455593    0.3400623 -55.83  0.003454058    1.824    0.452
         6 -12.7666    134.3586    239.9751   1.1113912503e+02   1.0463657054e+01      1.18191    0.8731331 -24.39  0.007972077    2.247    0.555
         7 -13.1409    120.5697    238.3819   1.1336078862e+02   1.2727147124e+01    0.7513214    0.6522164  64.27  0.003862719    1.198    0.165
         8 -12.6240    102.9784    230.2105   1.1566115553e+02   1.6487426052e+01    0.8930957    0.3740694  35.83  0.004547711    2.395    0.582
         9 -11.1948    110.3034    247.5737   1.1595939607e+02   1.2897378362e+01    0.3525745    0.2370894  59.25  0.002214308    1.249    0.199
        10 -10.6705     81.3465    248.1953   1.2081698460e+02   1.6713341258e+01    0.3815698    0.2014487 -85.05   0.00246929    2.338    0.572
        11 -11.7228     87.5471    248.5448   1.1982258624e+02   1.5853931325e+01    0.4939955    0.3084694  53.89  0.002196175    1.152    0.132
        12 -11.1767     82.8003    240.1771   1.1998922556e+02   1.7722744085e+01    0.4367897     0.197141  55.56  0.001533895    1.783    0.439
        13 -12.2696     88.7152    238.1380   1.1882618669e+02   1.7247001505e+01    0.6839913    0.3328701  70.61  0.003775083    2.551    0.608
        14 -11.1957     74.1578    243.5650   1.2167887397e+02   1.8324254662e+01    0.3515482    0.2455803  67.40  0.002733622    1.173    0.148
        15 -10.1851     77.5326    233.5534   1.2038721769e+02   1.9438655768e+01    0.2229933    0.1133317  51.87 0.0008103474    1.469    0.319
        16 -10.4915     69.2528    237.2940   1.2206653329e+02   1.9909125621e+01    0.2508848    0.1925073 -39.68  0.001061236    2.409    0.585
        17 -10.7945     73.8107    236.9871   1.2127518268e+02   1.9379761218e+01    0.2512349    0.1856694 -82.82 0.0008491056    1.470    0.320
        18 -12.2997     32.3930    230.6146   1.2781055229e+02   2.5271574192e+01    0.7321463    0.5990314 -26.90   0.00491602    2.649    0.623
        19 -12.5288     37.1250    206.3468   1.2565071382e+02   2.8932674790e+01     0.790613    0.4495439  45.24  0.005366069    1.508    0.337
        20 -14.8664     14.9857    241.9575   1.3105239680e+02   2.5235671921e+01     2.555877    0.8392301  43.97   0.01631229    2.113    0.527
        21 -10.5709    245.7979    240.7970   9.2798618951e+01  -6.2741537258e+00    0.1894096    0.0856954  16.27 0.0009575271    2.853    0.649
        22  -9.7204     53.4985    241.1552   1.2492255974e+02   2.1218230292e+01     0.149671    0.1215254  48.77 0.0009460843    1.379    0.275
        23 -10.7274     84.4304    230.2038   1.1892705532e+02   1.9057392684e+01    0.2305238    0.1795184 -65.15  0.001068567    1.615    0.381
        24 -12.0240     90.3498    223.6875   1.1732146161e+02   1.9297132260e+01    0.4627346    0.3751401 -67.53  0.003481578    1.510    0.338
        25 -11.1996     68.2167    245.7328   1.2280050039e+02   1.8740998329e+01     0.383401    0.1888342  61.17  0.002515672    1.668    0.401
        26 -14.6085     23.4634    219.8333   1.2877267531e+02   2.8004054015e+01     0.945456    0.8171836  39.82  0.008118243    1.602    0.376
        27 -11.4248    100.0321    247.8361   1.1769830819e+02   1.4281650498e+01    0.5395449    0.2881463  50.14      0.00359    1.362    0.266
        28  -9.4500     55.2317    235.5804   1.2430491007e+02   2.1892511437e+01     0.224451   0.09565862  55.61  0.001375556    1.770    0.435
        29 -11.7269     59.5018    247.0167   1.2429310349e+02   1.9607327714e+01    0.5715613    0.4624934  47.70  0.004837311    1.384    0.277
        30 -10.0157    153.8811    230.0235   1.0661152353e+02   8.8254200470e+00    0.1733649    0.1368646  43.98 0.0003504556    1.034    0.032
        31 -10.9798     97.2286    239.3051   1.1746606867e+02   1.5912060144e+01    0.3017431    0.2002654  79.64  0.001751033    1.628    0.386
        32 -10.9584     56.6541    228.3416   1.2360756261e+02   2.2894698746e+01    0.2116399    0.1596287  70.83 0.0002720039    1.105    0.095
        33 -10.6274     71.6505    219.6949   1.2035061376e+02   2.2466083731e+01    0.4350059    0.2152877  53.76  0.002641218    1.586    0.370
        34 -11.1157     79.0096    225.5508   1.1950455699e+02   2.0529935593e+01    0.3396068    0.2451452 -72.01  0.002487401    1.579    0.367
        35 -11.3212    113.4213    230.0367   1.1379261455e+02   1.5002742552e+01    0.3097479    0.2286673 -31.03  0.002017815    2.315    0.568
        36 -12.6552    103.2230    238.2774   1.1634821159e+02   1.5231456406e+01    0.5231596    0.4459699  57.16  0.002903053    1.184    0.156
        37 -11.3453    100.3752    223.9355   1.1553714829e+02   1.7844545555e+01    0.3801443    0.1777261  43.98  0.002139978    1.674    0.403
        38  -9.5295     65.1477    223.6796   1.2181047532e+02   2.2625145736e+01    0.3142776    0.1084337 -51.48  0.001290173    5.736    0.826
        39 -14.0727      7.2156    213.1086   1.3120853816e+02   3.0727060050e+01      2.27628    0.7977836 -85.25   0.01328434    2.529    0.605
        40 -10.0722    246.0000    220.5362   8.9694072239e+01  -4.4226653274e+00    0.2181211    0.0593522 -30.42 0.0009510074    4.067    0.754
        41 -10.6267     60.3133    220.2285   1.2241636361e+02   2.3805569336e+01    0.1866615    0.1393021  60.07 0.0003288423    1.059    0.055
        42 -10.8319    107.8049    217.1067   1.1349732285e+02   1.7860608125e+01    0.3826782    0.1687358  56.61  0.001378348    2.270    0.559
        43 -10.4979     50.7878    218.6272   1.2399180801e+02   2.5223226055e+01    0.4475037    0.1902643  87.69 0.0007852137    2.796    0.642
        44 -10.0072     46.7274    214.3512   1.2443227241e+02   2.6435554492e+01    0.3165162   0.09124825  47.81  0.001601713    2.479    0.597
        45 -12.2031    116.7708    249.1957   1.1501994463e+02   1.1761703762e+01    0.7647856    0.3464327  41.95  0.003775405    1.660    0.398
        46  -9.3074    116.7043    215.9881   1.1172425970e+02   1.6700004995e+01    0.2383339    0.1459309  20.77  0.001197276    2.815    0.645
        47  -9.9549     87.9541    212.2829   1.1671501681e+02   2.1533244476e+01    0.2393979    0.1378518 -69.00  0.001241032    1.935    0.483
        48  -9.5706     65.2261    205.0436   1.2034698961e+02   2.5848032272e+01    0.3320231    0.1292641  42.01  0.001304415    2.118    0.528
        49  -9.3275     58.5316    212.5301   1.2217725132e+02   2.5352585432e+01    0.1789574    0.1105171  55.19 0.0005921978    1.249    0.200
        50 -10.2948     55.9271    208.8783   1.2238387133e+02   2.6315191565e+01    0.3715414    0.1604594 -73.31  0.002096108    2.361    0.576
        51  -9.8868    111.0098    211.3772   1.1228242981e+02   1.8319309706e+01    0.1906779    0.1533453  79.79 0.0004127792    1.273    0.214
        52  -9.6765     99.5242    210.1935   1.1432911302e+02   2.0232736151e+01    0.2579978    0.1323454  71.83  0.001017093    2.748    0.636
        53  -9.4983    113.9785    204.5155   1.1093217298e+02   1.9013909613e+01     0.204158    0.1509391  83.90    0.0006008    1.507    0.337
        54  -9.5052     90.5546    204.9563   1.1550399309e+02   2.2438456582e+01    0.2816488    0.1189849  31.12  0.001206345    3.306    0.697
        55  -9.4603    106.6717    203.4952   1.1223011962e+02   2.0313535700e+01    0.1946072    0.1406342 -65.52 0.0005879609    1.576    0.365
        56 -10.5241     62.6444    208.6763   1.2112529356e+02   2.5523788767e+01    0.2800055    0.1887087  59.12  0.001136267    1.150    0.131
        57 -10.9125     45.4575    199.1718   1.2362903715e+02   2.9312592879e+01    0.3415968    0.2625715  17.60  0.002331326    2.093    0.522
        58  -9.6519    250.6237    200.2191   8.5598792232e+01  -3.0540731554e+00    0.1558701   0.09489319 -10.11 0.0006121405    1.647    0.393
        59 -10.6774    198.1186    245.1488   1.0098281906e+02   1.8406824992e-01    0.1746329     0.116806  27.37 0.0007333796    1.228    0.186
        60  -8.3304     97.7020    196.3027   1.1317734168e+02   2.2938973926e+01    0.1242096   0.07838459  66.79 0.0002184499    1.582    0.368
        61  -9.6486    249.5877    194.1102   8.4693546478e+01  -2.2415893868e+00    0.2543928    0.1248765  27.79  0.001344782    1.904    0.475
        62  -9.9960     30.9273    193.0921   1.2596727614e+02   3.2037420891e+01     0.261554     0.162746 -61.71  0.001004921    1.894    0.472
        63 -10.4861     35.6212    192.1000   1.2500747873e+02   3.1728804099e+01    0.3503622    0.1352046  36.68  0.001879187    2.455    0.593
        64  -9.4729     25.9826    192.7997   1.2688274113e+02   3.2598803633e+01    0.1935282    0.1116998  54.75  0.001312105    1.382    0.276
        65 -11.3477    181.2542    243.7636   1.0359571274e+02   2.8743384444e+00    0.3480582    0.1146621  48.17  0.001573083    2.881    0.653
        66  -9.0061     21.6967    193.2880   1.2771341019e+02   3.2932464404e+01    0.1628301    0.1227029 -87.37 0.0002465351    1.249    0.199
        67 -10.2744     19.0714    188.4749   1.2793490031e+02   3.4094457146e+01     0.305942    0.1321083 -89.05 -0.0001034644    2.075    0.518
        68  -9.1931    191.5812    191.6646   9.4221419338e+01   7.8280963673e+00    0.1425654    0.1240501 -43.43 0.0005272643    1.423    0.297
        69 -12.0324     50.9197    191.9471   1.2202984101e+02   3.0033373082e+01    0.3993963    0.3179426  56.47  0.001488329    1.177    0.150
        70 -10.1153     70.1714    187.2455   1.1776067807e+02   2.8522387890e+01    0.3593606    0.1900718  28.71            0    2.528    0.604
        71 -10.5983     10.0163    187.4738   1.2958289757e+02   3.5119456943e+01    0.2137151    0.1512422  75.95  0.001652588    1.031    0.030
        72 -12.0139     57.2084    184.5732   1.2014639620e+02   3.0695972140e+01     0.343302    0.2058123  47.04  0.001427089    1.459    0.315
        73  -9.0985     29.5566    183.9594   1.2563471582e+02   3.3926682382e+01    0.2132264    0.1654617 -35.42  0.001454161    2.226    0.551
        74  -9.6139     36.8537    180.3419   1.2392344735e+02   3.3870647693e+01    0.2308336    0.1446225 -68.48 0.0007363968    1.605    0.377
        75  -8.7388     27.2444    179.4071   1.2578553340e+02   3.5050371076e+01    0.1024026   0.07278005 -60.31  0.000692826    1.700    0.412
        76  -8.9067    110.3887    178.2215   1.0829609285e+02   2.4316414384e+01    0.1572209    0.1176277 -79.22 0.0003280844    1.463    0.317
        77  -9.4503     60.9932    177.5482   1.1870007475e+02   3.1611729414e+01    0.1820913   0.09952523  44.47  0.001032395    1.637    0.389
        78 -11.1715    248.6165    172.7931   8.0911739442e+01   3.3712100752e-01    0.4203177    0.2286042  24.13  0.002179633    1.883    0.469
        79 -10.7735     69.6305    172.6506   1.1634631195e+02   3.1476525647e+01    0.2150566    0.1853692  76.30  0.000394034    1.077    0.071
        80 -10.9864     53.9412    171.6226   1.1961650874e+02   3.3676644228e+01     0.298489    0.2112317  52.67 0.0009942376    1.264    0.209
        81 -11.2047      2.8221    172.5410   1.3021613308e+02   3.8609295753e+01    0.3618733    0.1901528  69.40  0.002390083    1.506    0.336
        82 -11.2813      9.4251    156.7115   1.2797260821e+02   4.1253917982e+01    0.4324395    0.1359361  71.21   0.00172025    4.077    0.755
        83  -9.3706     18.0714    172.4981   1.2717627320e+02   3.7299866473e+01    0.1873556    0.1456841  74.41  0.001317035    1.067    0.063
        84 -10.2895     20.0085    168.1984   1.2649892561e+02   3.7984377172e+01    0.1868329     0.126348 -69.72 0.0003902529    1.476    0.323
        85 -11.0773     12.2277    171.7970   1.2831103000e+02   3.7963843538e+01    0.3784246    0.1854101  64.81  0.002326637    1.707    0.414
        86 -11.1101     13.5685    166.9308   1.2774583310e+02   3.8820228959e+01     0.313673    0.1808266  31.46  0.002033866    2.011    0.503
        87 -12.2656      8.8326    164.4394   1.2856984082e+02   3.9727246104e+01    0.5763574    0.3596963 -36.53    0.0034344    2.984    0.665
        88  -9.8491     27.2618    171.5020   1.2522915403e+02   3.6622973518e+01    0.2396988    0.1808867 -55.02  0.001083941    1.713    0.416
        89  -8.7519     91.4745    168.4937   1.1106047346e+02   2.9203293016e+01    0.1289754     0.109414  69.28 0.0008100429    1.018    0.017
        90 -10.4769     39.8557    167.7338   1.2227835318e+02   3.6085024130e+01     0.272856    0.1992043  17.66  0.001180402    2.061    0.515
        91 -11.9976     77.8260    164.8003   1.1361702661e+02   3.1958030212e+01    0.4846762    0.4016652  51.42  0.003144499    1.178    0.151
        92  -9.3449     67.9755    166.1911   1.1598004230e+02   3.3018082463e+01    0.1896171    0.1365747  70.52  0.000436996    1.247    0.198
        93 -11.1177    245.7377    162.3181   7.9319445625e+01   2.1017114636e+00    0.2851161    0.2291841  41.48   0.00158311    1.356    0.262
        94 -11.1999    249.5005    160.9944   7.8453666946e+01   1.6132788431e+00     0.460977    0.1812437 -32.43   0.00207888    2.476    0.596
        95 -11.2132    248.4667    157.4866   7.7909784090e+01   2.2280033598e+00     0.754311    0.3673319  59.09  0.003016229    3.787    0.736
        96  -9.2235     37.2545    162.0338   1.2234312164e+02   3.7542810881e+01    0.1651932    0.1251148  86.93 0.0006171273    1.086    0.080
        97 -10.5364     23.8668    161.9756   1.2524293111e+02   3.8894618923e+01    0.1725905    0.1381746  66.33 0.0003577675    1.138    0.121
        98  -8.8481     43.0909    161.1809   1.2097818119e+02   3.7089669612e+01    0.1684819    0.1106129  68.15 0.0004555514    1.339    0.253
        99 -11.0771     25.9051    155.1372   1.2426197673e+02   4.0126636944e+01     0.248084    0.1900798  61.27 0.0009478505    1.188    0.158
       100  -8.9547     91.7250    156.3068   1.0928981521e+02   3.1669765635e+01     0.132188   0.09126631  74.41 0.0001743976    1.547    0.354
       101  -8.7326     64.7560    166.9786   1.1678119069e+02   3.3277365534e+01     0.147861    0.0938656 -72.83 0.0005617056    1.506    0.336
       102  -9.8237     32.1475    153.7912   1.2274670742e+02   3.9802234366e+01     0.174465     0.127024  73.21 0.0004883786    1.148    0.129
       103 -10.8933     12.2265    153.0403   1.2712379954e+02   4.1783439387e+01    0.2256785    0.1473387 -87.99  0.001080675    1.214    0.176
       104 -10.8157    249.6138    150.9590   7.6388488880e+01   2.8472898582e+00    0.4299951    0.2330626 -29.03    0.0022157    1.756    0.431
       105 -12.1184    243.6511    120.6130   7.0698551925e+01   7.9984093223e+00    0.8508096    0.5598916  86.09   0.00350223    3.493    0.714
       106 -11.9051    247.8005    142.4986   7.4892755525e+01   4.2633244591e+00    0.5202779    0.3792507  -4.06  0.003001312    1.314    0.239
       107 -12.4521    248.3794    133.8623   7.2934632376e+01   5.2925129253e+00     1.106346    0.4886019 -17.23  0.004316932    2.965    0.663
       108 -10.8449     92.2288    149.8166   1.0818618794e+02   3.2959861512e+01     0.314761    0.2753774  72.65  0.001292706    1.025    0.024
       109 -10.6977     23.6427    149.6828   1.2432033674e+02   4.1492021310e+01    0.2569392    0.1205977  48.84  0.001444738    1.952    0.488
       110 -10.4946     80.6745    148.4651   1.1073839394e+02   3.4998937319e+01    0.2281649    0.2039368  84.15 0.0004549116    1.044    0.043
       111  -9.8800     38.8931    148.6771   1.2070746517e+02   4.0203140110e+01    0.2195315    0.1380325 -61.39 0.0006086089    1.588    0.370
       112 -11.8161     68.2964    143.6745   1.1305016141e+02   3.7776397090e+01     0.675781     0.364314  74.14  0.002793498    2.446    0.591
       113 -12.6880      8.5334    132.2627   1.2644421236e+02   4.6491848571e+01    0.5857491    0.2727132 -52.11  0.003171786    2.471    0.595
       114 -13.4963      3.8902    122.3113   1.2679567147e+02   4.8982951136e+01    0.8610783    0.5791943 -89.86  0.005899224    1.162    0.139
       115  -9.1939    235.8180    146.1585   7.7604263567e+01   6.0060384263e+00    0.1845118    0.1391168   9.41 0.0005052478    1.293    0.226
       116  -9.1405     96.1547    145.8376   1.0660957172e+02   3.3183227189e+01    0.1993425    0.1650488  78.52 0.0003871417    1.166    0.142
       117  -9.7915     45.0473    139.6748   1.1824681446e+02   4.1503335000e+01     0.223586    0.1535393 -69.52 0.0003180651    1.315    0.240
       118  -9.2698     59.2140    146.9093   1.1568263669e+02   3.8246473711e+01    0.2023567    0.1280511 -45.81  0.001084659    2.021    0.505
       119  -9.8609    106.3845    135.7064   1.0232832045e+02   3.3638294661e+01    0.3586374    0.2596472  -6.80  0.001308726    2.493    0.599
       120 -11.6856     17.8720    132.7943   1.2421690129e+02   4.5642465354e+01     0.259355    0.2276385  86.78  0.001163095    1.161    0.138
       121  -8.5080     92.5711    133.4095   1.0535721215e+02   3.6453550644e+01    0.1334118    0.1236442  83.55 8.797915e-05    1.031    0.030
       122  -9.2520     44.3864    130.1239   1.1724202134e+02   4.3701268844e+01    0.1714643    0.1018186 -84.73 0.0004889697    1.604    0.376
       123  -9.0549     58.9446    127.7128   1.1311313494e+02   4.2544066260e+01    0.1737272      0.15183  82.05 0.0004385349    1.048    0.046
       124  -9.4452     67.0000    126.9898   1.1087836391e+02   4.1665098329e+01    0.2172464   0.06841925 -62.77 0.0005402626    2.946    0.661
       125  -8.6769     50.3388    122.6655   1.1465504785e+02   4.4719144751e+01    0.1359938   0.08508541  72.04   0.00070516    1.749    0.428
       126 -12.8201      9.1804    143.0690   1.2710504715e+02   4.4126627246e+01    0.6387538    0.1963276 -73.13  0.003071234    2.541    0.606
       127 -10.0814    249.5638    117.5232   6.9096495049e+01   7.2562902165e+00    0.2477896    0.1958567 -27.60   0.00070043    1.186    0.157
       128 -12.2234    248.0415    112.8487   6.8246857385e+01   8.1920324490e+00    0.5946034     0.539859  14.13  0.003686886    1.091    0.083
       129 -11.6920    248.2156    104.9037   6.6364154243e+01   9.2439482162e+00    0.8370934    0.3420688  52.89  0.003472457    2.603    0.616
       130 -12.6689      4.4906    142.7032   1.2814678099e+02   4.4560548647e+01    0.5174755    0.3439772 -72.53   0.00293908    1.344    0.256
       131 -12.6577      1.9821     87.9076   1.2401444861e+02   5.6715918483e+01     1.041507    0.1886017 -77.96  0.003047064    6.134    0.837
       132 -13.1964     12.3389    102.7468   1.2263193659e+02   5.2746911456e+01    0.9479758    0.6047983 -35.62  0.005747539    2.044    0.511
       133 -12.2943    248.5123    100.6533   6.5315382378e+01   9.7654000342e+00    0.6064757    0.4836101   7.09  0.003441934    1.297    0.229
       134 -10.4341    232.0237    116.3382   7.1540512960e+01   1.0965019033e+01    0.1961613    0.1780821  26.65 0.0008078084    1.104    0.094
       135  -9.3750    161.6894     79.6992   7.5043095669e+01   3.3289237308e+01    0.1574454    0.1205195  17.07 0.0002606059    1.604    0.377
       136 -12.4144      2.3536    102.4212   1.2544211440e+02   5.3462885241e+01     0.685808     0.160322 -69.67   0.00292778    2.899    0.655
       137 -10.5281    185.1646    248.4954   1.0352866792e+02   1.7555016758e+00    0.1944569    0.1352808  -5.17    0.0013301    1.965    0.491
       138 -11.9963    171.1655    248.7649   1.0587475309e+02   3.8188879066e+00    0.3889605    0.2147154  35.91  0.002490832    1.412    0.292
