#   1 NUMBER                 Running object number                                     
#   2 MAG_AUTO               Kron-like elliptical aperture magnitude                    [mag]
#   3 X_IMAGE                Object position along x                                    [pixel]
#   4 Y_IMAGE                Object position along y                                    [pixel]
#   5 X_WORLD                Barycenter position along world x axis                     [deg]
#   6 Y_WORLD                Barycenter position along world y axis                     [deg]
#   7 A_WORLD                Profile RMS along major axis (world units)                 [deg]
#   8 B_WORLD                Profile RMS along minor axis (world units)                 [deg]
#   9 THETA_WORLD            Position angle (CCW/world-x)                               [deg]
#  10 FWHM_WORLD             FWHM assuming a gaussian core                              [deg]
#  11 ELONGATION             A_IMAGE/B_IMAGE                                           
#  12 ELLIPTICITY            1 - B_IMAGE/A_IMAGE                                       
         1 -11.6348     25.4003     20.2540   2.9159177822e+02   7.4039206681e+00   0.02849748   0.01734655 -21.56  0.002600566    2.244    0.554
         2 -11.8207     26.6218     13.8915   2.9153936608e+02   7.4706900365e+00   0.02136276   0.01262573  47.14 0.0005542902    1.841    0.457
         3 -10.8686     66.4130     21.3155   2.9111911093e+02   7.1548692191e+00   0.01302495   0.01260743   7.15  0.001355523    1.039    0.037
         4 -10.8935    217.3786     16.2534   2.8932849303e+02   6.3374753511e+00     0.024781   0.01349979   5.07  0.002012623    2.688    0.628
         5 -10.8033     76.0068     16.7608   2.9097975780e+02   7.1522370443e+00   0.01635087   0.01132394 -22.45  0.001129838    1.743    0.426
         6 -10.0276     35.3193     20.7602   2.9147893319e+02   7.3408500212e+00   0.01554156  0.008411253 -63.19   0.00145231    1.846    0.458
         7 -11.4893    130.2706     14.7096   2.9033418096e+02   6.8617151727e+00   0.01874037   0.01783911 -20.56  0.002337124    1.061    0.057
         8  -9.8820    133.3091     11.3432   2.9027850474e+02   6.8831184616e+00    0.0107867   0.00791336 -41.21 0.0006098123    1.401    0.286
         9 -10.8991    108.1159     17.5198   2.9060953155e+02   6.9575669062e+00   0.01639825   0.01054138 -53.75 0.0004531608    1.508    0.337
        10  -9.8695    175.7735     11.8712   2.8978663321e+02   6.6303583506e+00   0.00979311  0.008647356 -32.27 0.0004453523    1.160    0.138
        11 -11.1435    119.8284     11.3873   2.9043602468e+02   6.9607953472e+00   0.01365176   0.01213614 -48.42 0.0005646828    1.111    0.100
        12 -12.0260     80.5404      7.3965   2.9087059970e+02   7.2346175436e+00   0.03296902   0.01592854 -37.05  0.000770762    2.607    0.616
        13  -9.5024     73.6131     10.7804   2.9097180494e+02   7.2354416237e+00  0.008914661  0.006393143 -77.08 0.0003525891    1.547    0.354
        14  -9.8483      1.7193      7.7665   2.9179368055e+02   7.6851882520e+00    0.0159051  0.009008426  81.00  0.001186227    3.071    0.674
        15  -9.9555    161.0205      8.0364   2.8993550008e+02   6.7605523557e+00   0.00952897  0.009496379 -21.50            0    1.011    0.011
        16 -10.2343      9.2643      7.6816   2.9170498296e+02   7.6427363878e+00   0.01805071   0.01128642 -17.51  0.001668669    2.184    0.542
        17 -10.8708    127.6242      6.4201   2.9031521942e+02   6.9731740907e+00   0.01490158   0.01085929  89.30 0.0008450801    1.662    0.398
        18 -10.8414     75.1289      4.7508   2.9091790070e+02   7.2965990376e+00   0.01918645   0.01022281 -63.55  0.001531937    1.884    0.469
        19  -9.4693     59.9570      5.2477   2.9109807470e+02   7.3785436150e+00   0.01880362  0.005949249  24.26  0.001299693    3.440    0.709
        20  -9.7889     91.7418      4.0394   2.9071965881e+02   7.2087180072e+00  0.009260805   0.00830169 -57.58 0.0004462401    1.103    0.093
        21 -11.8422     27.5427      2.8782   2.9146256198e+02   7.5931210644e+00   0.02705451   0.01452626  26.42  0.002010371    1.872    0.466
        22 -10.6548    167.1247    233.8461   2.9121795713e+02   4.1034524135e+00   0.01142742    0.0111587 -58.27 0.0007428618    1.021    0.021
        23 -10.0169    243.0300    247.6529   2.9041868279e+02   3.5032937711e+00   0.01108315  0.009216835 -82.98 0.0005261156    1.304    0.233
        24 -10.9838    246.9165    250.1755   2.9038865685e+02   3.4514774226e+00   0.02230815   0.01026187  24.29   0.00153036    2.263    0.558
        25 -10.7681    250.4927    244.7988   2.9031499286e+02   3.4931539345e+00   0.02789855   0.01011786 -65.13  0.002088997    2.931    0.659
        26 -12.2702    231.9812    246.9985   2.9054303653e+02   3.5749447591e+00   0.02957277    0.0218449 -25.10  0.003175389    1.544    0.352
        27 -12.1231    225.9712    246.3598   2.9060900118e+02   3.6171981949e+00   0.03700225   0.01954402 -35.31  0.003206938    2.350    0.575
        28 -11.1658    181.4780    247.8019   2.9113446859e+02   3.8582163983e+00   0.03110366  0.007572528 -52.82  0.002082849    3.536    0.717
        29  -9.3532    168.4499    250.5612   2.9130234681e+02   3.9015829261e+00  0.006610748  0.006312988 -28.52 5.631971e-05    1.049    0.047
        30 -10.2677    127.9025    249.6669   2.9176839566e+02   4.1465247107e+00    0.0119688  0.008548364 -50.20  0.001166686    1.375    0.273
        31  -9.9095     72.7983    249.9603   2.9241107840e+02   4.4613544894e+00   0.01083656  0.008398088 -33.66  0.001196074    1.372    0.271
        32 -10.2908     32.2506    249.1150   2.9287782953e+02   4.7049032849e+00   0.02093569  0.009233897 -39.37  0.001630944    2.821    0.645
        33 -11.6354     27.8833    246.1431   2.9291099048e+02   4.7646095240e+00   0.02859237    0.0130594 -68.25  0.002384167    2.416    0.586
        34 -11.3127     14.3140    244.4797   2.9305902100e+02   4.8620558650e+00   0.02183825   0.01092845 -70.00  0.001855332    2.240    0.554
        35 -12.0099     22.2375    249.0401   2.9299390051e+02   4.7634238924e+00   0.02349322   0.01620558  33.19  0.002294173    1.437    0.304
        36 -10.8630     17.5005    247.4809   2.9303976346e+02   4.8088191329e+00   0.01179808   0.01098633 -26.30 0.0009434714    1.091    0.083
        37 -10.6278     11.4828    250.1271   2.9312550301e+02   4.8126726092e+00   0.01460322  0.007896089  44.21  0.001345841    1.955    0.488
        38 -10.0289     79.5446    231.2720   2.9222131722e+02   4.6396931574e+00   0.01177827  0.009018049  25.63 0.0005675842    1.316    0.240
        39 -10.4910     12.1907    238.2265   2.9304659112e+02   4.9469902052e+00   0.01291436  0.007643711  51.41 0.0007571199    1.948    0.487
        40  -9.5568    235.9922    230.4905   2.9039773921e+02   3.7433506609e+00  0.009560854  0.006575572  23.27 0.0004685136    1.487    0.327
        41 -10.2847     86.3106    233.4645   2.9215564456e+02   4.5751469035e+00   0.01204016  0.008210671  85.94  0.001184009    1.899    0.473
        42  -9.7109     53.6715    234.6897   2.9254277031e+02   4.7492088288e+00  0.007033801  0.004916441 -27.13 0.0007041064    1.664    0.399
        43 -10.3529    152.2718    228.3309   2.9135771820e+02   4.2535117916e+00   0.01328248  0.007487422 -50.02  0.001267798    1.735    0.424
        44 -10.9653    144.3286    227.2348   2.9144354901e+02   4.3122151332e+00   0.01640083   0.01004016 -82.47  0.001466769    2.093    0.522
        45 -10.3173    178.3049    228.3288   2.9105503344e+02   4.1028109473e+00  0.007041582  0.004880731 -29.71 0.0007036097    1.653    0.395
        46 -10.4954    129.8220    226.8487   2.9160997345e+02   4.4006196228e+00   0.02019275  0.009813588  45.17  0.001749238    2.243    0.554
        47 -10.9625    115.9806    226.5038   2.9176893482e+02   4.4846580525e+00   0.01784089   0.00711095 -66.59  0.001380881    2.736    0.635
        48 -10.3137    190.5329    226.4828   2.9090187566e+02   4.0534182321e+00   0.01228536   0.01077712 -59.59 0.0007589296    1.129    0.114
        49  -9.4728    139.9867    227.4474   2.9149531541e+02   4.3348651089e+00   0.01014815  0.006485358  26.32  0.001021816    1.574    0.365
        50 -10.3718     88.1093    227.1129   2.9209686789e+02   4.6386015256e+00   0.01075847  0.008846241 -28.70   0.00122601    1.293    0.227
        51 -10.6644     66.4359    226.4110   2.9234492705e+02   4.7718521365e+00    0.0143144  0.009968095  27.57 0.0008773978    1.437    0.304
        52  -9.4955      6.6600    227.2959   2.9304603567e+02   5.1059216400e+00  0.006980191  0.004916827  59.32 0.0004964487    1.658    0.397
        53 -10.4893     81.4663    224.6993   2.9215979554e+02   4.7050143606e+00   0.01302998   0.01175743  87.62 0.0009048825    1.181    0.154
        54 -10.8744     13.0595    222.2012   2.9294125148e+02   5.1283513051e+00   0.01166957  0.009990588 -39.42 0.0003368929    1.180    0.153
        55 -11.4258    141.4611    221.3748   2.9144191673e+02   4.3969067926e+00   0.02614545   0.01497813 -18.12  0.002195492    2.692    0.628
        56  -9.1381     51.6580    222.6798   2.9249472896e+02   4.9004621168e+00  0.007146975  0.004894394 -27.06 0.0007049935    1.721    0.419
        57 -10.4488    174.0154    219.9627   2.9105491005e+02   4.2248505851e+00   0.01013714   0.01002841  28.45 0.0005763165    1.022    0.022
        58  -9.8644    165.5748    220.4835   2.9115615992e+02   4.2676835522e+00  0.006555667  0.006376584 -42.59 8.039963e-05    1.016    0.015
        59  -9.5214     21.8317    220.3681   2.9282821805e+02   5.0991778960e+00  0.008802431  0.006329851  10.26  0.000411646    1.545    0.353
        60  -9.7040    250.3105    219.0434   2.9016299305e+02   3.7931829746e+00  0.009499246  0.008318705 -57.68 0.0006381082    1.127    0.113
        61  -9.1444    233.5139    219.4949   2.9036072990e+02   3.8853899459e+00  0.006535648  0.006468029 -38.63 0.0008105078    1.004    0.004
        62 -11.1603    192.6137    216.5157   2.9081810656e+02   4.1571382543e+00   0.02110506   0.01262543 -26.86  0.001924492    2.191    0.544
        63  -9.6735     50.2566    218.4069   2.9248560621e+02   4.9582246689e+00   0.01243465   0.00663003  19.63  0.001004528    2.062    0.515
        64 -10.8803     10.0432    216.9330   2.9294505576e+02   5.2069724980e+00    0.0163512   0.01253929  53.44 0.0009052631    1.414    0.293
        65 -10.6113    201.5683    215.9496   2.9071064888e+02   4.1118107982e+00   0.01210102  0.009991882   4.51  0.001384534    1.304    0.233
        66  -9.5430    137.2025    215.6212   2.9145710118e+02   4.4884118382e+00  0.009365186  0.006372203   9.82 0.0009433081    1.680    0.405
        67  -9.8274     30.9823    215.1685   2.9269074227e+02   5.1069501093e+00   0.01182092  0.006893467  52.49  0.001091363    2.023    0.506
        68 -10.4083    208.9727    212.1458   2.9060185150e+02   4.1130619378e+00   0.01118352  0.009562658 -59.17 0.0004895092    1.156    0.135
        69 -10.5220    169.9553    213.1312   2.9106129077e+02   4.3277380350e+00    0.0104917  0.008990124  59.30  0.001221903    1.253    0.202
        70 -10.9671    123.4245    221.5235   2.9165261991e+02   4.4995075344e+00   0.01345115   0.01281732  49.37 0.0009955224    1.074    0.069
        71  -9.9641    212.7846    211.6816   2.9055478034e+02   4.0963481404e+00   0.01150043  0.008222722  85.32 0.0006655941    1.747    0.427
        72 -12.0216      4.2848    207.4588   2.9295578740e+02   5.3502766314e+00   0.02488805   0.02054561  89.91  0.002857903    1.347    0.258
        73  -9.8534    217.9477    207.5166   2.9046986831e+02   4.1147726031e+00   0.01861613  0.006343981 -44.88  0.001307865    3.307    0.698
        74 -11.2435     20.5445    211.4206   2.9278998930e+02   5.2106374367e+00   0.01721237   0.01206306  76.82 0.0007708635    1.828    0.453
        75  -9.3979    150.3017    205.3087   2.9124312273e+02   4.5324403712e+00  0.006913608  0.004914345 -28.72 0.0004636171    1.602    0.376
        76  -9.2851     27.5482    205.4906   2.9267314139e+02   5.2392678830e+00   0.00656866  0.006397619  71.07 0.0008079943    1.056    0.053
        77  -9.5397    238.5288    201.4489   2.9019446055e+02   4.0658129850e+00  0.006600912  0.006360182 -27.98 9.261669e-05    1.037    0.035
        78  -9.0243     34.6599    200.7277   2.9256196073e+02   5.2536870722e+00  0.006849061  0.004965361 -22.96  0.000258499    1.609    0.378
        79 -11.3579    214.7956    198.9967   2.9045550184e+02   4.2319969067e+00   0.01222769  0.008732851   3.64 0.0007931984    1.634    0.388
        80 -10.7618    227.1729    196.7900   2.9029847609e+02   4.1858099239e+00   0.01375667  0.009850957 -36.13 0.0008919303    1.497    0.332
        81 -11.1945    232.5099    191.4680   2.9020460314e+02   4.2166292062e+00   0.02046254    0.0121486 -24.51  0.001832028    2.298    0.565
        82 -11.8079    192.0538    194.7301   2.9069430699e+02   4.4134423923e+00   0.01732189   0.01389985  67.40  0.001945812    1.416    0.294
        83  -9.7722    202.9269    195.8863   2.9057482519e+02   4.3369620107e+00   0.01025679  0.008729883 -30.29 0.0006342118    1.225    0.184
        84 -10.6376    215.6273    194.7286   2.9042028659e+02   4.2767379686e+00   0.01160288  0.009656051 -32.55 0.0005827331    1.253    0.202
        85 -10.5238    163.3142    191.1199   2.9100693714e+02   4.6219488229e+00   0.01424008  0.004950062 -55.05  0.001095354    2.614    0.617
        86  -9.1736     60.2677    192.6838   2.9221578553e+02   5.1995788500e+00  0.006650785   0.00503626  67.34 0.0002515205    1.553    0.356
        87  -9.6700      7.0000    195.9864   2.9285592764e+02   5.4680719173e+00   0.01096578  0.003736689 -62.93 0.0006180736    2.911    0.656
        88 -11.7128    187.4630    189.3932   2.9071574888e+02   4.5020521943e+00   0.01981268  0.008419675 -56.22  0.001677543    2.199    0.545
        89  -9.3221    205.6133    190.2008   2.9050956874e+02   4.3874141098e+00  0.009471165  0.005781568 -50.75 0.0005590261    1.599    0.374
        90 -10.8333    225.8569    189.1208   2.9026784113e+02   4.2824969558e+00   0.01445103  0.008746437 -18.53  0.001284114    2.347    0.574
        91  -9.5055    179.3203    189.3454   2.9081015417e+02   4.5498114550e+00  0.007197052  0.004850808 -29.49 0.0007049515    1.730    0.422
        92 -10.3333    218.3994    187.6892   2.9034592410e+02   4.3423987612e+00   0.01332143  0.006622999 -68.56  0.001151081    2.204    0.546
        93 -10.1795    166.7656    183.3952   2.9092058392e+02   4.6917000466e+00  0.009725518  0.008823599  15.83 0.0006531884    1.120    0.107
        94  -9.4914     61.6220    184.7876   2.9215292998e+02   5.2835699482e+00  0.009501968  0.006387069 -77.40 0.0009510293    1.692    0.409
        95 -12.1450     16.2677    183.0641   2.9267104159e+02   5.5650048882e+00   0.02102751   0.01717014 -87.49  0.001777633    1.359    0.264
        96 -10.0035    236.4749    182.4688   2.9010463166e+02   4.2980934432e+00  0.006537441  0.006448918 -34.08  0.000287965    1.002    0.002
        97  -9.2449     58.3469    182.2980   2.9217623243e+02   5.3314107506e+00  0.007036574  0.004933822 -25.14 0.0005709081    1.679    0.404
        98  -9.9071    250.4717    190.0235   2.8998732480e+02   4.1291198679e+00   0.01013463  0.006503758 -63.62 0.0005608935    1.560    0.359
        99 -11.7166    224.2988    178.2718   2.9022096207e+02   4.4175114749e+00   0.01565335   0.01471985  14.96 0.0005719957    1.075    0.069
       100 -11.9720    244.8667    177.4101   2.8997683671e+02   4.3080889659e+00   0.01678846   0.01049729 -41.77  0.001668304    1.680    0.405
       101 -10.8670    200.2655    176.5817   2.9049019922e+02   4.5766091659e+00   0.01210815  0.007360222 -41.71 0.0009377192    1.738    0.425
       102  -9.2990     70.1940    177.5967   2.9201018323e+02   5.3176981315e+00   0.00853762  0.006388479   6.97  0.000413302    1.490    0.329
       103  -9.9738    211.3664    174.8755   2.9035092525e+02   4.5320113960e+00   0.01019029   0.00548583 -50.27 0.0009427406    1.811    0.448
       104  -9.0986     51.3285    175.7815   2.9221913415e+02   5.4476579895e+00  0.006589707  0.004749303  51.20 0.0002976774    1.506    0.336
       105  -9.0605     36.2828    178.6510   2.9241154158e+02   5.5010356412e+00  0.006878602  0.005023764  67.44 0.0007016395    1.650    0.394
       106 -10.4983      2.1586    180.1161   2.9281789777e+02   5.6804725247e+00   0.01128839  0.009679576  40.98 0.0005143971    1.183    0.155
       107  -9.7656    183.3468    173.3101   2.9066735652e+02   4.7127397468e+00  0.007108797   0.00491928 -25.94 0.0004552042    1.708    0.414
       108 -11.6644    248.2450    182.9131   2.8997057807e+02   4.2245888632e+00    0.0211144   0.01348997 -14.27  0.001982125    2.127    0.530
       109  -9.7675    193.3374    172.3290   2.9054529231e+02   4.6661918594e+00  0.007178734  0.004885274 -27.65 0.0007051943    1.731    0.422
       110  -9.5332     59.6307    171.8194   2.9209877147e+02   5.4458279171e+00  0.009330242   0.00635025 -77.59 0.0009405803    1.666    0.400
       111  -9.6338     74.4884    171.4973   2.9192375528e+02   5.3638112105e+00  0.006626378  0.006376793 -30.88 0.0001259355    1.036    0.035
       112 -10.2884    197.0216    169.2427   2.9048396716e+02   4.6806643212e+00  0.008879002  0.005615317  25.46 0.0005699669    1.600    0.375
       113  -9.8643      4.5825    167.7258   2.9271587873e+02   5.8106023784e+00   0.01333206  0.005946937 -57.97   0.00114425    2.116    0.527
       114  -9.7993    209.9994    166.3269   2.9031560521e+02   4.6392160189e+00  0.009311526  0.008683141  13.20 0.0005056932    1.087    0.080
       115 -10.5963     51.5919    164.5588   2.9214912112e+02   5.5766138785e+00    0.0207359  0.009958685 -28.77  0.001496879    3.517    0.716
       116 -10.7355     40.9502    165.0599   2.9227612353e+02   5.6321526503e+00   0.00956291  0.009457875  85.48            0    1.031    0.030
       117 -10.4057     10.0057    165.1107   2.9263708835e+02   5.8098040928e+00  0.009603353  0.009540937  87.17 0.0003779027    1.024    0.024
       118  -9.1147    229.5060    164.5402   2.9007816336e+02   4.5467078650e+00  0.006624417  0.006360588 -28.24 0.0001459848    1.042    0.040
       119 -10.6191     36.3188    161.7523   2.9231037495e+02   5.6973033228e+00   0.02056421  0.009028603 -55.99  0.001769468    2.134    0.531
       120 -10.9756    246.5012    162.4731   2.8986830721e+02   4.4719801843e+00   0.01098228  0.008645969  41.18 0.0007296035    1.289    0.224
       121 -11.1563    247.9285    158.9527   2.8983061617e+02   4.5045481807e+00   0.01618852   0.01311346  80.11  0.001522225    1.417    0.294
       122  -9.9530    238.4003    158.7779   2.8994026541e+02   4.5619387555e+00  0.009771969  0.005733346 -50.35 0.0006972575    1.665    0.399
       123  -9.7993     48.7346    158.6212   2.9214699111e+02   5.6621212359e+00  0.009621982    0.0058682  36.86 0.0009477397    1.625    0.385
       124 -10.1889      7.9997    158.4516   2.9262079692e+02   5.8987722359e+00  0.009723785  0.006540555  23.57 0.0005080644    1.518    0.341
       125 -10.6076     22.7546    156.2576   2.9243571569e+02   5.8393364159e+00   0.01692108   0.01404882 -20.35  0.001949279    1.306    0.235
       126 -10.1887     23.6915    152.6784   2.9240345034e+02   5.8755514598e+00   0.02621222   0.01337157  -4.74  0.001817449    4.013    0.751
       127 -10.8183    178.4468    152.0396   2.9059698344e+02   4.9882233343e+00   0.01985012   0.01301837 -67.43  0.002034818    1.575    0.365
       128  -9.7733    217.5147    154.8325   2.9015935044e+02   4.7290511978e+00   0.01295961  0.005135219  22.74 0.0009915178    2.783    0.641
       129 -10.0339    205.2835    152.4601   2.9028734184e+02   4.8276133899e+00   0.01169292  0.008176339 -51.16  0.001240756    1.400    0.285
       130  -9.8514    197.0510    153.5264   2.9038947223e+02   4.8630154910e+00   0.01031567    0.0065112  26.48  0.001032673    1.593    0.372
       131  -9.1882    151.6576    153.3167   2.9091639815e+02   5.1286971825e+00  0.007084844  0.004932893  60.87 0.0007048616    1.713    0.416
       132 -10.3934     10.2071    152.4527   2.9255931111e+02   5.9558145305e+00   0.01555491  0.009776573  52.56  0.001092067    1.825    0.452
       133  -9.4079     92.9790    148.0148   2.9156806001e+02   5.5299300039e+00   0.00807397  0.007897625  13.08  0.000994414    1.027    0.027
       134  -9.5179    233.5288    147.0000   2.8992624568e+02   4.7269604399e+00   0.01024353  0.006459389 -62.10  0.001024838    1.571    0.363
       135 -10.4173    206.9044    145.9714   2.9022959857e+02   4.8935458881e+00   0.01133073  0.009610618  25.91 0.0007157204    1.186    0.157
       136  -9.3851     37.5046    146.4869   2.9220548254e+02   5.8679341643e+00  0.006522576  0.006476293 -42.75 0.0001353001    1.009    0.009
       137 -11.2316      7.7257    145.2086   2.9254506086e+02   6.0543142333e+00   0.01470478  0.009989054  41.08 0.0008280828    1.496    0.331
       138 -10.6591      2.9998    143.8104   2.9259183477e+02   6.0977616195e+00   0.01335584  0.009366687   9.81 0.0007707778    1.605    0.377
       139  -9.8255    213.0206    141.4684   2.9013147771e+02   4.9103115500e+00   0.01531479   0.00663581 -34.20  0.001056409    3.672    0.728
       140  -9.9465     37.5021    142.3276   2.9218068874e+02   5.9162988509e+00   0.01167855  0.006097337  26.76  0.001066354    1.920    0.479
       141 -11.0356     12.1143    141.4758   2.9247162942e+02   6.0724497857e+00   0.01369178  0.009163696 -23.42  0.001353742    1.839    0.456
       142 -10.2950    236.1051    138.6722   2.8984634911e+02   4.8086520328e+00   0.01091188  0.009228995 -82.28 0.0005809469    1.270    0.213
       143 -11.2216     57.4976    138.5027   2.9192473638e+02   5.8454249981e+00   0.02063213    0.0123287  56.69 0.0007253121    2.087    0.521
       144 -11.8078      3.6665    136.0309   2.9253767789e+02   6.1843635115e+00   0.03228028   0.01389528 -45.77  0.001748877    2.424    0.588
       145 -11.6069      9.1396    136.7779   2.9247830233e+02   6.1441838171e+00   0.01306997   0.01123242 -23.19 0.0002507859    1.231    0.188
       146  -9.6597     44.2500    138.2701   2.9207779195e+02   5.9245544821e+00   0.01063931  0.005766556 -78.33 0.0009015654    2.410    0.585
       147 -10.3458     22.1428    136.2726   2.9232364536e+02   6.0751888809e+00   0.01283195  0.008402129  44.60  0.001308186    1.594    0.373
       148  -9.8699    138.3592    135.2752   2.9096321904e+02   5.4153416814e+00   0.01215381  0.008208204   8.39 0.0007935325    1.721    0.419
       149  -9.4105     79.6825    133.3131   2.9163512095e+02   5.7776309904e+00  0.006932792  0.004978497  62.07 0.0007036073    1.645    0.392
       150 -10.3531    249.6626    130.3347   2.8963877529e+02   4.8265943513e+00   0.01221648    0.0103138  65.68  0.001412073    1.303    0.233
       151  -9.4209     67.7273    133.9947   2.9177854999e+02   5.8387655708e+00  0.008458037  0.005763086 -62.12 0.0008740212    1.454    0.312
       152 -11.9913     36.4490    131.0413   2.9212559048e+02   6.0535575168e+00   0.02190141   0.01647412 -56.83  0.002081482    1.300    0.231
       153 -10.1915     74.0022    129.2477   2.9167702825e+02   5.8576915735e+00   0.01149741  0.009444613 -54.99 0.0006782053    1.195    0.163
       154  -9.9154     19.5525    139.4988   2.9237310027e+02   6.0526045517e+00  0.006510823  0.006451863 -72.69 2.603378e-05    1.021    0.021
       155  -9.8144      1.2787    126.9031   2.9251109207e+02   6.3042031829e+00   0.01313632  0.006146586 -70.66   0.00107362    2.496    0.599
       156 -10.5974     44.6110    125.8608   2.9199947113e+02   6.0667038415e+00   0.01090913  0.009053984   4.09 0.0005993408    1.294    0.227
       157 -10.4902    219.5127    124.5721   2.8995463884e+02   5.0687394138e+00   0.01116069   0.01094824 -48.75 0.0005083221    1.010    0.010
       158 -11.6991     10.4120    122.4724   2.9237811636e+02   6.3031427639e+00   0.02680956   0.01692952  -0.73  0.002531235    2.090    0.522
       159 -10.8523     18.0411    116.0268   2.9225064347e+02   6.3341274351e+00   0.01469407   0.01305989 -79.29 0.0008810048    1.175    0.149
       160 -12.2780     16.5763    109.0223   2.9222590723e+02   6.4239648034e+00   0.02781642   0.02061724  67.76  0.001919251    1.613    0.380
       161  -9.7583     20.7326    121.7612   2.9225348372e+02   6.2519808172e+00  0.008751196  0.007463053  65.61 0.0003706662    1.283    0.221
       162  -9.5840     56.2946    121.6413   2.9183801297e+02   6.0483301807e+00  0.006985981  0.005006066  66.66  0.000703172    1.699    0.411
       163  -9.7992    221.5409    119.9924   2.8990357362e+02   5.1101082147e+00   0.01025422  0.006389965 -60.47 0.0008614807    1.574    0.365
       164  -9.5593     41.0203    120.4865   2.9200923966e+02   6.1498706701e+00   0.00992374  0.006501387  26.78 0.0004394549    1.532    0.347
       165  -9.2285    166.5102    118.9906   2.9053785980e+02   5.4412894496e+00   0.00929747   0.00487392 -39.10 0.0004840254    2.192    0.544
       166 -10.1693     54.4675    117.6253   2.9183531564e+02   6.1055442203e+00    0.0126152  0.008139452  19.89 0.0009122516    1.636    0.389
       167 -10.1222    179.1746    116.3643   2.9037468918e+02   5.3982974707e+00   0.01074894   0.00883143 -46.10 0.0004856099    1.210    0.173
       168 -10.1569     35.2284    114.2868   2.9203975517e+02   6.2553139805e+00   0.01633212  0.009852557 -64.20  0.001534379    1.668    0.400
       169  -9.9573     38.2827    111.3370   2.9198650224e+02   6.2719817830e+00   0.01226944  0.009315108 -28.52 0.0007406481    1.451    0.311
       170 -10.6633     35.5780    109.4718   2.9200690717e+02   6.3092509739e+00   0.01417449  0.009421648 -69.09  0.001181023    1.575    0.365
       171  -9.5354     66.5511    113.0079   2.9166679362e+02   6.0894381751e+00  0.009365993  0.006470968 -63.63 1.556085e-05    1.447    0.309
       172  -8.6971    212.5126    112.4835   2.8996350335e+02   5.2497298694e+00  0.006600174  0.006400343 -30.86 0.0008101878    1.026    0.025
       173  -9.8783     42.3513    110.7093   2.9193529223e+02   6.2558130695e+00  0.009768265  0.008200905 -89.00 0.0006869516    1.311    0.237
       174  -9.6061    167.4680    108.9997   2.9046680312e+02   5.5517446963e+00    0.0100543  0.006421597 -60.98 0.0005023813    1.541    0.351
       175 -10.2065    242.0058    108.1739   2.8959470516e+02   5.1282627240e+00   0.01150131  0.006801232  51.30 0.0006705425    1.950    0.487
       176 -10.9824     23.3485    107.2417   2.9213625710e+02   6.4056478531e+00   0.01343601   0.01134879  82.15 0.0002834946    1.320    0.243
       177  -9.3887    126.8612    106.8050   2.9092662618e+02   5.8126554894e+00  0.008791667  0.007385251  55.75  0.001008171    1.272    0.214
       178 -10.1757     61.9687    107.0298   2.9168447877e+02   6.1853584135e+00   0.01082873  0.007532496 -29.64 0.0006205615    1.643    0.391
       179  -9.1623     49.6148    107.2976   2.9183017189e+02   6.2535537864e+00  0.007204597  0.004817697  57.88 9.809303e-05    1.775    0.437
       180 -10.7472      6.2951    106.3153   2.9232970550e+02   6.5146114977e+00   0.01494785   0.01055843 -36.65  0.001030236    1.516    0.340
       181 -10.8460      2.5459    105.4463   2.9236826818e+02   6.5462844688e+00     0.014088   0.01121044  16.86 0.0005948489    1.305    0.234
       182  -9.7437    223.3200    103.9639   2.8978666895e+02   5.2857818407e+00  0.009337693  0.008294029 -62.01 0.0004692707    1.120    0.107
       183 -10.1584     92.8117    103.5104   2.9130375965e+02   6.0480084073e+00   0.01815289   0.01144343 -86.96  0.001702714    2.101    0.524
       184 -11.1458     70.3547    102.5123   2.9155964951e+02   6.1894107234e+00   0.01925579   0.01106921  10.17  0.001078422    2.178    0.541
       185 -10.6338    247.8163    102.1806   2.8949117665e+02   5.1639897384e+00   0.00961309  0.007728083 -28.30 0.0008589577    1.339    0.253
       186  -9.7742    120.3510    101.3079   2.9096955261e+02   5.9142067670e+00   0.01071969  0.007313618 -27.61 0.0006675816    1.724    0.420
       187 -10.2616     36.6722    101.3586   2.9194565154e+02   6.3972132756e+00   0.01267737  0.008099561  23.70 0.0007089217    1.602    0.376
       188  -9.8312     27.9073    100.8867   2.9204509527e+02   6.4532218429e+00  0.009353303  0.008437896 -16.34  0.001119756    1.155    0.134
       189 -10.8789      3.8826    100.7877   2.9232485411e+02   6.5927271117e+00   0.01786247  0.009914404  37.49  0.001141532    1.783    0.439
       190 -11.5647     20.4797     98.0928   2.9211507029e+02   6.5284810356e+00   0.02688282    0.0126762 -62.46  0.002281037    2.096    0.523
       191 -10.7566     15.8087     95.7143   2.9215536836e+02   6.5830206658e+00   0.02458294  0.007637612 -60.98  0.001784721    3.032    0.670
       192 -10.0437     92.5942     96.2370   2.9126274277e+02   6.1337530175e+00   0.01277151   0.00657738 -67.40  0.001134923    2.065    0.516
       193 -12.1208      8.5949     94.3493   2.9223140391e+02   6.6404141692e+00   0.02151462   0.01233185 -45.52  0.002066777    1.775    0.437
       194 -10.0563      7.1636     88.8216   2.9221508515e+02   6.7128740150e+00  0.009606503  0.008594996  64.61 0.0003046516    1.194    0.162
       195 -10.8108    109.1316     93.5555   2.9105387222e+02   6.0692039176e+00   0.01417286  0.008939275 -58.41  0.000292941    1.541    0.351
       196 -10.3571      1.8537     93.4241   2.9230455766e+02   6.6899600188e+00   0.01927019  0.007623574 -44.34  0.001482468    2.782    0.641
       197  -9.3226    115.6692     91.2777   2.9096401290e+02   6.0578049890e+00  0.006852451  0.004921766  58.24 0.0003344679    1.600    0.375
       198 -10.5775     96.4825     90.2605   2.9118160562e+02   6.1806746320e+00   0.01679065  0.009018118 -20.90  0.001301163    3.118    0.679
       199 -10.4489     65.7908     98.2188   2.9158718837e+02   6.2656508024e+00   0.01792308  0.007751324  14.62  0.000729506    3.261    0.693
       200  -9.3049     77.6433     89.6873   2.9139787627e+02   6.2962735545e+00  0.007161844  0.004902166 -25.74 0.0007043933    1.739    0.425
       201 -11.1946     46.5294     83.7794   2.9172550020e+02   6.5445788902e+00   0.03088113   0.01929682 -76.12  0.002635275    1.851    0.460
       202 -11.0211     85.5790     82.6070   2.9126291243e+02   6.3326261722e+00   0.02011147   0.01148011 -69.11  0.001562286    1.882    0.469
       203 -10.7660    118.1965     83.2671   2.9088653261e+02   6.1361878333e+00   0.01493723    0.0105632 -27.26  0.001030801    1.632    0.387
       204 -11.5932     23.8962     78.4040   2.9195749725e+02   6.7375248525e+00   0.01983042   0.01424646 -71.88  0.001407605    1.475    0.322
       205 -11.6578     19.9139     82.0734   2.9202592359e+02   6.7178465628e+00   0.01560954   0.01311975 -84.43 0.0003552594    1.291    0.225
       206 -11.3886     15.9805     81.5275   2.9206857350e+02   6.7468436343e+00   0.01823675   0.01326882 -35.18  0.001168047    1.475    0.322
       207 -10.9866     75.1872     81.6399   2.9137833461e+02   6.4039347560e+00   0.01815051  0.008616309 -59.70  0.001607878    2.025    0.506
       208 -11.7825     72.1652     78.5622   2.9139515591e+02   6.4571422600e+00   0.02182545   0.01392798 -29.21 0.0004560739    1.892    0.472
       209 -10.0443      6.9721     83.0000   2.9218253361e+02   6.7816070330e+00   0.01822181  0.008832026 -33.47  0.001096283    2.889    0.654
       210 -10.2968      2.4611     72.0302   2.9216963355e+02   6.9349903333e+00   0.01345832  0.008836776 -34.43 0.0008592411    1.708    0.414
       211 -10.7744      3.4707     78.5060   2.9219655253e+02   6.8539622198e+00   0.02135025   0.01088095  34.78  0.001446455    1.908    0.476
       212 -12.0497      5.8774     73.8713   2.9214075073e+02   6.8939446403e+00   0.02942704    0.0240349  14.89  0.003394956    1.274    0.215
       213  -9.8827     36.1017     77.6710   2.9181064720e+02   6.6756796643e+00  0.008984295  0.008483978  -0.89 0.0004062515    1.078    0.072
       214 -11.5753    151.0037     78.6349   2.9047640558e+02   5.9997884596e+00   0.01209405   0.01122597  57.66 0.0003361622    1.121    0.108
       215  -9.8385    193.4748     77.3379   2.8997401290e+02   5.7682333617e+00   0.01138399  0.006183328  26.16  0.001057333    1.858    0.462
       216 -11.7868    108.3187     74.8140   2.9095101629e+02   6.2915389895e+00   0.02868634   0.01126112 -53.69  0.001287593    2.368    0.578
       217 -11.7439     62.7686     72.1381   2.9146631658e+02   6.5860320073e+00   0.02319434   0.01823467 -74.41  0.002181176    1.346    0.257
       218  -9.8701     54.5588     72.4624   2.9156406233e+02   6.6296746036e+00   0.01024514  0.006518065 -64.94 0.0005335119    1.590    0.371
       219 -10.0671    121.6040     76.2015   2.9080444140e+02   6.1984837937e+00  0.009735779  0.005771145 -50.98 0.0009452758    1.643    0.391
       220 -10.9155     40.3817     73.0506   2.9173304458e+02   6.7046572418e+00   0.01532255   0.01238375 -87.05 0.0006174846    1.381    0.276
       221 -11.0574     77.7724     71.9103   2.9128989199e+02   6.5019785239e+00   0.01517247   0.01220672  53.19 0.0003554999    1.330    0.248
       222 -10.9514     31.2288     66.3895   2.9180002169e+02   6.8347972438e+00   0.01477346   0.01201687 -63.37 0.0009288753    1.227    0.185
       223 -11.2967     25.6321     68.5021   2.9187800205e+02   6.8425247227e+00   0.01756469   0.01738037  12.70  0.001725365    1.018    0.017
       224 -10.8508     20.7319     66.1310   2.9192102547e+02   6.8982975349e+00   0.01676729  0.009487906  30.23  0.001617404    1.738    0.425
       225 -11.0503    152.3360     72.0617   2.9042143223e+02   6.0683546446e+00   0.01436319  0.009720074  24.67 0.0009678959    1.499    0.333
       226 -10.2699    115.8681     70.9900   2.9084005794e+02   6.2922142931e+00   0.01528416  0.009473053 -63.42 0.0009595727    1.614    0.380
       227  -9.5792    175.1717     70.7837   2.9014775466e+02   5.9506217748e+00  0.009187579  0.007420183 -32.63 0.0003243704    1.305    0.234
       228 -10.0364    145.2850     71.6701   2.9050124205e+02   6.1138045091e+00  0.006811371  0.005030481  66.24 0.0004209136    1.613    0.380
       229 -11.4070     69.0440     67.5605   2.9136567114e+02   6.6029337410e+00   0.01731595    0.0142985 -51.79 0.0008538963    1.190    0.160
       230 -11.4015     49.2183     70.6376   2.9161546394e+02   6.6816935158e+00   0.02168425    0.0087047  32.69  0.001315582    2.357    0.576
       231 -10.2061     50.7061     67.6613   2.9158027944e+02   6.7076686213e+00   0.01280511  0.009386083 -26.82     0.000812    1.546    0.353
       232  -9.0402    215.3495     70.6703   2.8967938801e+02   5.7184047371e+00  0.007171554   0.00491592  61.45 0.0007048605    1.766    0.434
       233 -11.3785    130.4303     65.5681   2.9063775888e+02   6.2707685831e+00   0.02224035    0.0125679 -76.33  0.002010048    2.164    0.538
       234 -10.9994     94.6262     68.7225   2.9107418211e+02   6.4415172048e+00   0.01367309  0.008048676 -38.17  0.000944496    1.897    0.473
       235 -10.5969     37.2237     67.2852   2.9173540057e+02   6.7898264678e+00    0.0173779   0.01131601 -48.34  0.001789374    1.519    0.342
       236  -9.2185    171.3384     68.2517   2.9017719351e+02   6.0022652081e+00  0.006708766  0.004981253 -19.99 0.0006941112    1.569    0.363
       237 -11.3367     41.1867     63.6913   2.9166762427e+02   6.8087007877e+00   0.01827779   0.01073544  76.01  0.001532452    2.742    0.635
       238 -10.1351      6.9364     67.9792   2.9209315847e+02   6.9562823236e+00   0.01009016  0.009573618   8.16   0.00124603    1.066    0.062
       239 -11.1041      2.4649     64.8719   2.9212679292e+02   7.0181040341e+00   0.02402386  0.008469146 -46.00  0.001766871    3.028    0.670
       240 -10.1547    156.2951     66.4439   2.9034158030e+02   6.1105780350e+00  0.009399519  0.005961433  39.07 0.0009411745    1.581    0.368
       241 -10.9151    119.2816     65.6987   2.9076851932e+02   6.3338633815e+00   0.01409147   0.01081683 -20.55 0.0001808539    1.480    0.324
       242 -10.6649    123.0205     61.7628   2.9070131064e+02   6.3578840329e+00   0.01501869   0.01060398  16.45  0.001145314    1.513    0.339
       243 -10.0832     14.8229     66.2946   2.9199099752e+02   6.9304363474e+00   0.01142805   0.00883136   9.16 0.0003979591    1.405    0.288
       244 -10.6444     83.0420     51.5473   2.9110634988e+02   6.7079131356e+00   0.01097167  0.009044592 -78.25 0.0004533741    1.294    0.227
       245 -11.2980     84.2125     62.8611   2.9116052623e+02   6.5698085950e+00   0.02181336   0.01736059  69.98  0.001885172    1.446    0.308
       246 -10.9279     86.1123     57.8666   2.9110841774e+02   6.6168014917e+00   0.01924216    0.0118762 -53.89   0.00104561    1.566    0.362
       247 -10.1673     87.0082     52.5219   2.9106591608e+02   6.6736592168e+00   0.01234156  0.009370261  47.58  0.001092568    1.382    0.277
       248 -10.4455     76.6565     65.1945   2.9126266942e+02   6.5864070955e+00   0.01716419  0.007344047  41.98  0.001412313    2.427    0.588
       249 -10.7235    174.3505     63.7918   2.9011532553e+02   6.0365205410e+00   0.01421154    0.0108717  51.74 0.0005938494    1.404    0.288
       250 -10.5580    170.0692     61.2895   2.9015016271e+02   6.0904192379e+00   0.01052823  0.008711865 -60.18 0.0002629574    1.196    0.164
       251  -9.6021    170.3114     57.7188   2.9012589231e+02   6.1304405637e+00   0.00905272  0.005649609 -61.56 0.0001982271    1.582    0.368
       252  -9.7313    165.5570     64.5317   2.9022219577e+02   6.0790019527e+00  0.006557557  0.006390378 -36.20 8.820952e-05    1.016    0.016
       253 -11.5028     58.9561     76.3237   2.9153586899e+02   6.5594430990e+00   0.02589742   0.01374337  55.48  0.001740882    2.502    0.600
       254 -10.4850     51.9112     62.4113   2.9153477374e+02   6.7616732352e+00   0.01324073  0.009325943 -35.87  0.001254253    1.532    0.347
       255 -11.1585     10.9411     62.4344   2.9201323428e+02   6.9976189278e+00    0.0136172   0.01169208 -31.81 0.0003979992    1.203    0.169
       256 -10.2743     71.8292     61.7906   2.9129859812e+02   6.6538307594e+00   0.01413749   0.00976755  42.96 0.0002447515    1.487    0.328
       257 -10.6293     70.2382     58.5689   2.9129785751e+02   6.7004289374e+00   0.01337868  0.008762999 -42.97 0.0008903722    1.572    0.364
       258 -10.6650     32.5995     61.1581   2.9175270854e+02   6.8876424300e+00   0.01890013   0.01110175 -35.57  0.001543013    1.977    0.494
       259 -10.8388     27.2942     61.2555   2.9181523306e+02   6.9170961386e+00   0.02068524  0.009138959  26.26  0.001462649    2.281    0.562
       260  -9.7984     92.8561     61.1690   2.9104954328e+02   6.5394511070e+00   0.00934903  0.007497095 -31.81 0.0004160572    1.321    0.243
       261 -11.4711     57.6022     59.3975   2.9145029639e+02   6.7638065253e+00   0.02069919    0.0140605 -58.88  0.002185879    1.439    0.305
       262 -11.5443    135.6409     50.5092   2.9048662328e+02   6.4153162600e+00   0.01988326   0.01267382  70.37  0.001085608    2.176    0.540
       263 -11.0136    137.1424     57.8533   2.9051321172e+02   6.3213877155e+00   0.02424769   0.01366598 -17.58  0.001807993    2.837    0.647
       264 -10.6435    137.5452     54.5145   2.9048847180e+02   6.3577955588e+00   0.01197324   0.01047348  -4.55 0.0005177317    1.214    0.176
       265 -10.9494     64.5242     60.0567   2.9137345678e+02   6.7161716760e+00   0.01584398  0.009103983  31.62  0.001120116    1.707    0.414
       266 -10.0504     18.2405     59.5518   2.9191075190e+02   6.9890513078e+00   0.01207015  0.008238852 -80.50 0.0006078065    1.711    0.415
       267 -10.4866    114.2241     57.2214   2.9077663321e+02   6.4615604205e+00   0.01619939  0.009393919  18.00  0.001313046    1.905    0.475
       268  -9.7401    117.5342     54.5295   2.9072187767e+02   6.4736251901e+00   0.01092355  0.006408016 -60.92 0.0001087292    1.673    0.402
       269  -9.5851     80.7504     57.0467   2.9116606442e+02   6.6573291320e+00   0.00906016  0.008285447 -56.92 0.0004057863    1.081    0.075
       270 -10.1192    122.0236     56.0183   2.9067846164e+02   6.4303325819e+00   0.00979631  0.009585066 -68.41 0.0003971563    1.030    0.029
       271 -10.7939     99.5441     55.8960   2.9093990102e+02   6.5619531512e+00   0.02269655      0.01033  17.80  0.001533186    2.667    0.625
       272 -11.5515     38.0925     51.7379   2.9163217004e+02   6.9653353699e+00   0.02916233   0.02279139 -22.75  0.002796544    1.425    0.298
       273  -9.8246     44.5240     51.5223   2.9155578711e+02   6.9307327058e+00   0.01037266  0.009854786 -44.81  0.000670643    1.040    0.038
       274 -10.7911     46.1182     47.0861   2.9151059809e+02   6.9730295883e+00   0.01313811  0.009346779 -66.16 0.0002689179    1.428    0.300
       275 -12.5553    127.9573     51.4974   2.9058213822e+02   6.4484032907e+00   0.01834281    0.0128575 -52.26 0.0003330548    1.393    0.282
       276 -11.9979      4.7904     52.4318   2.9202522873e+02   7.1491715924e+00   0.03515661   0.02486151 -10.96  0.003627715    1.737    0.424
       277 -11.0276     12.9565     49.9753   2.9191515095e+02   7.1306765630e+00   0.01718013  0.009782942 -54.56  0.001660046    1.686    0.407
       278 -12.1437      8.6743     45.6598   2.9193934051e+02   7.2054342924e+00    0.0252612    0.0215862   7.65  0.001602649    1.229    0.186
       279 -10.1683      6.8012     40.9281   2.9193289952e+02   7.2711448670e+00   0.01338765  0.008395446 -59.20 0.0008377851    1.554    0.356
       280 -10.0081    157.7249     52.0746   2.9023862818e+02   6.2690098931e+00  0.009513774   0.00834228 -49.77 0.0004195469    1.125    0.111
       281 -11.4485     51.4752     47.2710   2.9144916058e+02   6.9399614174e+00   0.03480109   0.01532418 -68.13  0.002838586    2.534    0.605
       282 -12.3197    142.2079     46.7518   2.9038750377e+02   6.4208190813e+00   0.02480642   0.02181749 -70.46  0.002612234    1.159    0.137
       283 -10.7334    114.8606     49.4472   2.9072255754e+02   6.5480965861e+00   0.01376827   0.01064161 -42.50 0.0008468943    1.310    0.237
       284 -11.2656    101.4763     49.1157   2.9087668604e+02   6.6294614940e+00   0.02246182   0.01148131  46.66  0.001989464    2.175    0.540
       285 -10.1085     98.3526     44.6992   2.9088662882e+02   6.6988002456e+00   0.01367612   0.00913594 -32.60 0.0008022134    1.700    0.412
       286 -10.8705     76.9509     49.9753   2.9116800449e+02   6.7613823420e+00   0.01087314  0.007571006 -28.81  0.001112928    1.651    0.394
       287  -9.3591    162.7366     47.6359   2.9015356497e+02   6.2914040033e+00  0.007037297  0.004756853 -34.46 0.0006984093    1.643    0.391
       288 -11.4263    154.8667     47.8650   2.9024664829e+02   6.3344398015e+00   0.01200721    0.0097237  44.53 0.0004077291    1.268    0.212
       289  -9.4203    104.3379     46.2997   2.9082640716e+02   6.6455722766e+00  0.007006526    0.0049353 -25.56 0.0006846006    1.662    0.398
       290  -9.6684     91.6187     45.8688   2.9097221460e+02   6.7242014975e+00  0.009490863  0.006363859 -79.61 0.0009424801    1.744    0.427
       291  -9.9813     17.5214     44.9004   2.9183145656e+02   7.1632973843e+00   0.01736728  0.009554915  71.85 0.0008003432    3.250    0.692
       292  -9.8585    233.1656     45.1643   2.8931877689e+02   5.9104727780e+00  0.009897021  0.008522139 -35.23 0.0004457082    1.189    0.159
       293 -10.2409    119.4967     39.3091   2.9060762602e+02   6.6388681865e+00    0.0115912  0.009936221 -30.83  0.000431264    1.211    0.174
       294 -10.5814    122.5501     44.4018   2.9060259237e+02   6.5620820745e+00   0.01869374    0.0128185 -65.87  0.001075895    1.483    0.326
       295  -9.8161    123.4071     38.7809   2.9055884788e+02   6.6223291729e+00   0.00945507   0.00579883 -50.01 0.0003709968    1.598    0.374
       296  -9.5280     86.6879     45.2174   2.9102584202e+02   6.7602906190e+00    0.0103816  0.005545053  13.06 0.0008122055    2.334    0.572
       297 -10.8224     64.0943     41.5235   2.9126739017e+02   6.9337880239e+00    0.0130865   0.01013844 -61.05 0.0009745683    1.277    0.217
       298 -11.0895     68.7686     38.3106   2.9119355850e+02   6.9440635370e+00   0.02068217   0.01173409 -55.47  0.002005527    1.692    0.409
       299  -9.8457    163.2881     42.3352   2.9011528876e+02   6.3496880809e+00  0.006997419  0.004853993 -31.24 0.0004063477    1.630    0.387
       300  -9.8310     56.4082     42.1766   2.9136103649e+02   6.9706076791e+00  0.009658397   0.00643167 -80.05 0.0009542226    1.770    0.435
       301 -10.2629     24.1092     41.6592   2.9173510526e+02   7.1629598740e+00   0.01234329   0.01173121  48.41  0.001478692    1.077    0.072
       302 -10.3939    225.7900     40.2237   2.8937485355e+02   6.0106932572e+00   0.01702111   0.01054415  56.49  0.001624395    1.965    0.491
       303 -10.5933     95.5322     40.3411   2.9089338490e+02   6.7656982018e+00   0.01654946   0.01003741  47.58  0.001611062    1.794    0.443
       304 -10.0614     90.1373     40.2881   2.9095601844e+02   6.7975367591e+00   0.01240078  0.008316635  74.32 0.0006534525    1.994    0.498
       305 -10.2998     44.1463     39.6881   2.9148929224e+02   7.0702794177e+00   0.01372727  0.009115216 -57.87   0.00106483    1.466    0.318
       306 -11.7321     82.6149     36.8721   2.9102331054e+02   6.8806967408e+00   0.01928198   0.01379554  36.74 0.0009859377    1.395    0.283
       307  -9.4227     19.3651     37.8549   2.9176773497e+02   7.2344556827e+00  0.009443742  0.005666346 -50.55 0.0004867617    1.626    0.385
       308 -10.6009      1.7335     37.6275   2.9197234746e+02   7.3386242904e+00   0.03059972   0.01321965 -34.12  0.000739849    3.683    0.728
       309 -10.8738      9.1345     33.6678   2.9186217519e+02   7.3419793075e+00   0.01769283   0.01585342 -61.51  0.001387213    1.110    0.099
       310 -10.7363      8.9641     25.5849   2.9181576002e+02   7.4367617036e+00   0.01857143   0.01129405 -20.59  0.001439722    2.268    0.559
       311 -10.1937      1.5095     31.4967   2.9193826538e+02   7.4110693525e+00   0.01206502   0.01041483  54.47 0.0005348239    1.224    0.183
       312 -11.5914      5.8521     29.9694   2.9187838056e+02   7.4037985737e+00   0.02092836   0.01576947 -34.23  0.001345058    1.416    0.294
       313 -10.3660    111.1247     34.8806   2.9067869079e+02   6.7387589489e+00    0.0166595   0.01160523 -89.71 0.0003288041    1.789    0.441
       314  -9.5520    112.3179     31.6943   2.9064563928e+02   6.7688104147e+00   0.01447465  0.006204528  34.25 0.0004530804    2.226    0.551
       315 -10.8714    102.3947     36.7876   2.9079198768e+02   6.7671995398e+00   0.01797367  0.009745702  26.96  0.001055156    1.846    0.458
       316 -10.7982    105.9332     34.2740   2.9073561390e+02   6.7758697303e+00   0.01431854   0.01232872  21.51  0.000832053    1.176    0.150
       317 -11.0734     24.4307     35.5033   2.9169447928e+02   7.2325570613e+00   0.01512833   0.01162505  41.07 0.0005418606    1.322    0.243
       318 -10.9640     76.4016     33.6512   2.9107650917e+02   6.9540051822e+00   0.01382823   0.01061481  -5.16  0.001133638    1.497    0.332
       319  -9.9902     31.9438     33.8668   2.9159691749e+02   7.2082347899e+00   0.01529985  0.008796123  16.25  0.001109603    1.972    0.493
       320 -10.0605     14.1339     33.6953   2.9180393357e+02   7.3128683920e+00   0.01105831  0.007898679  48.37  0.001172214    1.492    0.330
       321 -11.0203     56.0773     30.9276   2.9129745555e+02   7.1030640830e+00   0.02838852   0.01218826 -38.46  0.002141663    3.050    0.672
       322 -11.3353    145.2370     31.6849   2.9026167660e+02   6.5780187049e+00   0.01146627   0.01120364  79.91  0.000262967    1.052    0.049
       323 -10.2406     97.9027     31.9877   2.9081558789e+02   6.8488978378e+00  0.009855011  0.009573638 -45.33 0.0003167577    1.017    0.017
       324  -9.4660    178.1576     31.1674   2.8987491570e+02   6.3928062605e+00  0.009327495  0.007706172  62.50 0.0007097216    1.334    0.250
       325 -10.6177     49.9961     29.3365   2.9135892893e+02   7.1566431335e+00   0.02455499  0.008223639 -57.56  0.001877403    2.712    0.631
       326 -10.6773     82.1066     29.3836   2.9098431024e+02   6.9705249618e+00   0.01355314  0.009102572  88.45  0.001323553    1.937    0.484
       327 -10.5296     66.1350     29.8448   2.9117352774e+02   7.0575207029e+00  0.009788147  0.008703919  52.12 0.0003587833    1.172    0.146
       328 -10.6711     70.8627     26.1346   2.9109607211e+02   7.0732409113e+00   0.01933012   0.01091403   8.50  0.001708839    2.315    0.568
       329 -10.3499    153.0869     27.2364   2.9014343266e+02   6.5840393440e+00   0.01344326   0.00871485  76.56  0.001255828    2.156    0.536
       330  -9.2226    124.5560     27.9776   2.9048056103e+02   6.7409896396e+00  0.009191422  0.004861773 -38.98 0.0003449655    2.169    0.539
       331  -9.6227    172.9799     27.4972   2.8991316832e+02   6.4654547764e+00   0.01001198  0.004712491  48.46 0.0008100616    2.523    0.604
       332  -9.6405    131.7851     26.2059   2.9038560521e+02   6.7196148390e+00  0.009166823  0.007360794 -30.87 0.0003811199    1.325    0.245
       333 -11.6913     60.9522     24.2402   2.9120042212e+02   7.1524954243e+00   0.02471812   0.01360954 -76.01  0.002198718    2.240    0.554
       334  -9.4732    113.0361     25.2206   2.9059838167e+02   6.8397426806e+00  0.009577814  0.008703171 -39.87 0.0005377571    1.099    0.090
       335  -9.9011    112.6889     21.9944   2.9058305329e+02   6.8791734909e+00   0.01066213  0.008765902  39.25 0.0005118977    1.228    0.185
       336 -10.5569     16.9412     24.2764   2.9171471548e+02   7.4059994105e+00   0.01201806   0.00916295 -51.71 0.0003837107    1.285    0.222
       337 -10.5493      1.3988     24.2263   2.9189602564e+02   7.4960758081e+00   0.01501765  0.006325707 -62.67  0.001237026    2.352    0.575
       338 -10.6878     99.7771     22.8327   2.9073874908e+02   6.9442479116e+00   0.01709478   0.01317385 -32.83  0.001451532    1.387    0.279
       339 -10.5883     54.3144     23.2860   2.9127221340e+02   7.2019080462e+00    0.0119538   0.01134726  -2.91 0.0005358291    1.069    0.065
       340 -10.2633     84.1292     22.3990   2.9091877868e+02   7.0398531375e+00   0.01142125  0.008546539 -47.84 0.0005731693    1.323    0.244
       341  -9.4498     86.9813     19.0062   2.9086511873e+02   7.0627046504e+00  0.009701245  0.007474976 -35.54 0.0005057259    1.366    0.268
       342 -10.1624    137.1287    247.3000   2.9164699892e+02   4.1206861790e+00   0.01194001   0.00854982 -50.18   0.00075177    1.372    0.271
       343 -10.7747      6.3917    245.2560   2.9315582874e+02   4.8986037540e+00   0.01787251   0.01113043 -72.77  0.001067279    1.771    0.435
       344 -10.7099    123.7012     21.8917   2.9045396834e+02   6.8165298120e+00   0.01564383  0.008997505  24.91 0.0009181649    1.771    0.435
       345 -11.4246      8.2696    241.3557   2.9311081466e+02   4.9331582880e+00   0.02359734   0.01537857  73.33  0.002246623    2.096    0.523
       346  -9.2937     45.4996     20.5303   2.9135863699e+02   7.2847733407e+00  0.006543889  0.006434915 -29.95 0.0002839421    1.006    0.006
       347 -10.2186    115.4500    244.6801   2.9188348546e+02   4.2764578837e+00   0.01197257   0.00663281 -67.77  0.001106226    1.908    0.476
       348 -10.1563    167.3173     19.0483   2.8992834402e+02   6.5963164486e+00  0.009418325  0.008696933 -56.87 0.0007117322    1.072    0.067
       349  -9.8860    104.3015     18.7030   2.9066114917e+02   6.9659421052e+00   0.01364616  0.006219202 -44.20 0.0008422512    2.351    0.575
       350  -9.3570     50.2122     18.7934   2.9129317665e+02   7.2777169248e+00  0.008754674  0.007361466 -26.31 0.0002588892    1.260    0.207
       351 -10.0350     19.3434     18.8023   2.9165384675e+02   7.4556721346e+00   0.01434967   0.01029992  18.89  0.001510075    1.456    0.313
       352  -9.7501     20.0006     15.4625   2.9162615049e+02   7.4906303538e+00   0.01054073  0.008389403  -9.12 0.0006032317    1.414    0.293
       353  -8.9855    151.6360     18.7458   2.9010930345e+02   6.6909149307e+00  0.006822635  0.004970662 -19.17  0.000413229    1.625    0.385
       354  -9.7299     81.5929     17.7393   2.9092041398e+02   7.1085760313e+00   0.01395078  0.005761031 -57.03  0.001158451    2.261    0.558
       355 -10.3801    109.7389    243.2023   2.9194110553e+02   4.3266355104e+00   0.01515607   0.01024421  63.69  0.001310423    1.839    0.456
       356 -10.0737      5.3581     18.1886   2.9181359487e+02   7.5433407062e+00  0.009261094  0.006303499 -77.39 0.0007474332    1.666    0.400
       357 -10.2115      9.8030     16.5294   2.9175170905e+02   7.5369977572e+00   0.01158448  0.008964879 -59.98 0.0005190732    1.274    0.215
       358 -10.4006     71.9974    243.9535   2.9238464755e+02   4.5358101070e+00    0.0104046  0.009831487 -30.01 0.0006799501    1.063    0.060
       359 -11.4632     34.8215    241.5238   2.9280279489e+02   4.7783680507e+00    0.0263563   0.01679033  20.92  0.002667713    1.645    0.392
       360  -9.3557     24.4877    232.4753   2.9286928146e+02   4.9430956479e+00   0.01175662  0.008514401  36.38  0.001270836    1.378    0.274
       361  -9.4998    166.4570     14.5223   2.8991114899e+02   6.6537827932e+00  0.006604019  0.006361193 -31.94 0.0001020962    1.034    0.033
       362  -9.9618     99.6572     14.1132   2.9068778064e+02   7.0460715792e+00  0.009711292  0.008050112 -54.69  0.001118692    1.185    0.156
       363  -9.5636    137.0083     19.9991   2.9028739296e+02   6.7612916706e+00   0.00785907  0.007738755 -40.80 0.0003657249    1.004    0.004
       364  -9.1758     90.3005     13.2316   2.9079169764e+02   7.1104696351e+00  0.006412257  0.004951069 -19.18 0.0002678196    1.471    0.320
       365 -10.5365     31.6121    237.2235   2.9281458256e+02   4.8468562622e+00   0.01413656   0.01010054  63.44 0.0007696153    1.671    0.402
       366 -10.1767     29.1233    232.8870   2.9281777052e+02   4.9116157650e+00   0.01702062   0.01131518  52.72  0.001726935    1.693    0.409
       367 -12.0497    155.9264    241.5223   2.9139397126e+02   4.0790817170e+00   0.01859656   0.01324703   0.57  0.001262886    1.668    0.400
       368 -11.7675     19.7905    239.0567   2.9296306875e+02   4.8936009818e+00   0.02705189   0.02185179  43.81  0.003108215    1.268    0.211
       369 -11.2550    146.9805    244.0452   2.9151303476e+02   4.1015266665e+00    0.0138753  0.009396958  26.20 0.0009320839    1.486    0.327
       370  -8.9176     51.3226     11.3112   2.9123531918e+02   7.3580973170e+00  0.007008786  0.004910422 -27.37  0.000400403    1.652    0.395
       371 -11.5894     73.9751    238.5184   2.9232928072e+02   4.5875885402e+00   0.02859432   0.02071632  34.89   0.00312177    1.374    0.272
       372 -10.5612    174.1621    238.8355   2.9116594867e+02   4.0047399871e+00   0.01695602   0.01239922  -3.11   0.00178975    1.619    0.382
       373 -10.9583    177.5631    234.9578   2.9110325815e+02   4.0300957546e+00   0.01479113   0.01105483 -25.90  0.001153646    1.509    0.337
       374 -10.9389    160.0396    235.6641   2.9131118222e+02   4.1233447640e+00   0.01350929   0.01125877 -19.29 0.0008583759    1.302    0.232
       375  -9.7465    135.6655    236.7077   2.9160083204e+02   4.2522434784e+00  0.006951876  0.004948954 -25.19 0.0003669338    1.638    0.389
       376 -10.6330     73.7189    232.9890   2.9229933736e+02   4.6533521985e+00   0.01655546   0.00933193  34.61  0.001295884    1.737    0.424
       377 -11.3015    153.4191    233.8733   2.9137746618e+02   4.1824699833e+00   0.01487957   0.00893698 -41.80  0.001010613    1.762    0.432
