#   1 NUMBER                 Running object number                                     
#   2 MAG_AUTO               Kron-like elliptical aperture magnitude                    [mag]
#   3 X_IMAGE                Object position along x                                    [pixel]
#   4 Y_IMAGE                Object position along y                                    [pixel]
#   5 X_WORLD                Barycenter position along world x axis                     [deg]
#   6 Y_WORLD                Barycenter position along world y axis                     [deg]
#   7 A_WORLD                Profile RMS along major axis (world units)                 [deg]
#   8 B_WORLD                Profile RMS along minor axis (world units)                 [deg]
#   9 THETA_WORLD            Position angle (CCW/world-x)                               [deg]
#  10 FWHM_WORLD             FWHM assuming a gaussian core                              [deg]
#  11 ELONGATION             A_IMAGE/B_IMAGE                                           
#  12 ELLIPTICITY            1 - B_IMAGE/A_IMAGE                                       
         1 -10.4782     26.3882     21.4738   8.1165547475e+01   6.9175056237e+01    0.4565463    0.2838538  11.17  0.002057977    1.544    0.352
         2 -11.5273     34.4890     29.2119   8.0637663640e+01   6.7025853483e+01    0.6888763    0.4414474  12.36  0.004042581    1.527    0.345
         3 -10.7408     24.7892     29.9956   8.5693053691e+01   6.8004626788e+01    0.4483841    0.2645565 -42.88  0.002161615    1.598    0.374
         4 -11.8199     14.5894     37.9706   9.3906325742e+01   6.7542787517e+01    0.8974083    0.4808544 -55.86  0.004008642    1.952    0.488
         5 -11.6468     18.6333     28.5442   8.8222775449e+01   6.8856046328e+01    0.4126279    0.3039419 -51.41  0.001042418    1.649    0.394
         6 -10.5784     42.8247     22.9625   7.4011196659e+01   6.6838711370e+01    0.6989916     0.410078  54.87  0.002413679    3.432    0.709
         7 -10.4155     74.1314     27.7729   6.3850301890e+01   6.0971518892e+01    0.6707217    0.4601382  -6.26  0.003699661    1.551    0.355
         8 -13.0483     62.0015     44.2826   7.5033145316e+01   6.0689733808e+01    0.4705218    0.3636508 -38.26 0.0005903772    1.359    0.264
         9 -11.3974      5.5098     36.8402   9.8124211170e+01   6.8400255160e+01    0.7957159    0.4136616 -55.20  0.003940846    1.757    0.431
        10 -12.6457    107.6136     28.8515   5.4464628213e+01   5.3877489833e+01    0.4742812    0.4209189  18.69  0.002893742    1.108    0.098
        11 -10.0113    232.4437     23.5230   3.4500941841e+01   2.5459021184e+01    0.5282341    0.2418286 -81.62  0.002384527    2.732    0.634
        12 -11.0531    231.3542     15.5380   3.2910191700e+01   2.6608194733e+01    0.5719938    0.2497623 -57.14  0.002533809    2.117    0.528
        13  -9.0773    225.8416     15.8787   3.3419574510e+01   2.7733064397e+01     0.256997    0.1560892 -41.42 0.0009495917    1.527    0.345
        14 -11.0312    218.3074     19.0474   3.4747784260e+01   2.8999463246e+01    0.5090753    0.2931619 -68.07  0.001936159    1.680    0.405
        15 -11.0279    211.1353     15.4058   3.4570986952e+01   3.0983305703e+01    0.6116175    0.3343535  85.65  0.003243183    1.773    0.436
        16 -11.5258      2.0000     25.0032   9.5764368139e+01   7.0770386015e+01    0.2623949     0.153847 -49.95 0.0005941328    1.548    0.354
        17  -8.6134     69.3200     12.0858   5.8660956703e+01   6.3680135448e+01    0.2318243    0.1701581  -3.25 0.0006805422    1.348    0.258
        18 -11.1925     61.8877     16.8250   6.3409670809e+01   6.4540055047e+01    0.6004171     0.308071  26.74  0.002928387    2.069    0.517
        19 -10.9299    164.2019     20.1453   4.1014381965e+01   4.1414221547e+01    0.3445146    0.2595308  83.62  0.001701592    1.251    0.201
        20 -10.9254    166.5080     17.5681   3.9982963397e+01   4.1129644455e+01    0.4118152    0.2508485 -13.57  0.001913817    2.206    0.547
        21  -8.9215     23.5840      1.6043   7.2614051518e+01   7.2153483896e+01    0.3673164     0.152018  38.61  0.001909685    2.442    0.590
        22 -10.2474     13.6543     11.1543   8.3074941338e+01   7.2042974811e+01    0.2353204    0.1744201  -9.69 0.0005353716    1.015    0.015
        23 -11.1232      6.1784     16.4423   8.9849405276e+01   7.1905145525e+01    0.4066757    0.3505366 -57.43  0.002442226    1.780    0.438
        24 -11.3941     24.9327      6.9588   7.4788172315e+01   7.1342117860e+01    0.2079062    0.1591669 -18.40 0.0003928581    1.237    0.191
        25 -11.4663     20.6385      6.5255   7.6836233018e+01   7.1916496344e+01    0.2842422    0.2175973 -15.43  0.001888992    1.173    0.147
        26  -9.3645    202.3413      8.8493   3.3855927059e+01   3.3643878684e+01    0.2643653    0.2449964 -40.48 0.0008771323    1.287    0.223
        27  -9.5937    199.7943     18.5567   3.6387969348e+01   3.3192396514e+01    0.2709319     0.233417 -14.50  0.001217922    1.497    0.332
        28  -9.5337    200.9471     13.8411   3.5153593445e+01   3.3440143163e+01    0.1901372    0.1658484 -57.44 0.0002647296    1.154    0.133
        29 -10.7130    182.5541     17.9644   3.8107069273e+01   3.7264780190e+01    0.4771687    0.3112018  30.63  0.001123434    2.246    0.555
        30 -10.8543    175.9063     12.0734   3.7339352886e+01   3.9443804536e+01     0.628645    0.4209627  59.78    0.0035902    1.410    0.291
        31  -9.8140    110.7261     16.5684   4.9227347035e+01   5.4495818646e+01    0.3784625     0.198509  28.80 0.0006310544    2.369    0.578
        32 -10.0711    117.0442     15.3588   4.7446738631e+01   5.3159592411e+01    0.3292184    0.2112722  48.53 0.0008731098    1.368    0.269
        33  -8.9434     97.7472      7.1992   4.8637309127e+01   5.8257303044e+01    0.3212143    0.1660421   9.64  0.001393882    2.792    0.642
        34 -10.2327     98.5430     13.1138   5.0753836985e+01   5.7556121384e+01    0.4105396    0.2392412  63.53  0.002103148    1.716    0.417
        35 -11.2586    243.8421     13.6184   3.1600178749e+01   2.4267152499e+01    0.3205563    0.2808225 -61.35  0.001847882    1.207    0.172
        36  -9.7320    247.4987      9.5332   3.0552740321e+01   2.3993677184e+01    0.2045167    0.1789685 -44.56  0.001060613    1.346    0.257
        37 -10.2753    248.1494      4.8381   2.9607287778e+01   2.4373770048e+01    0.2490479    0.1985715 -77.72  0.000281214    1.104    0.095
        38 -10.0524    249.7986      1.5731   2.8888128396e+01   2.4396450503e+01    0.2486916    0.1344607 -89.46 0.0007826059    1.687    0.407
        39  -7.7351     85.1062      8.7926   5.2472687889e+01   6.0833799937e+01    0.2501604    0.1590828  71.35  0.001303999    2.009    0.502
        40  -9.5419     89.0500     12.9878   5.3137551236e+01   5.9616669592e+01     0.241073    0.2012451   3.47 0.0006321449    1.215    0.177
        41  -9.5143     90.3008      9.0285   5.1194213829e+01   5.9714919338e+01    0.3035966    0.1755576  32.43  0.001408513    1.685    0.407
        42  -9.2234     88.4734      6.3310   5.0560595986e+01   6.0337656458e+01    0.3027609    0.1657018  49.77  0.001126115    1.514    0.340
        43 -10.0939     32.4364     12.7661   7.3986030828e+01   6.9639335750e+01    0.2220924    0.1967658   1.04 0.0008312295    1.319    0.242
        44 -10.3465    145.7946     12.1419   4.1323971042e+01   4.6646509443e+01    0.4037204    0.2738558  60.48  0.001504564    1.287    0.223
        45 -10.4878    133.0686     12.7201   4.3547472907e+01   4.9637377410e+01    0.1987673    0.1905391 -19.10 0.0002778573    1.185    0.156
        46  -9.8523     78.9974     11.6503   5.5425299911e+01   6.1823917659e+01    0.2142276    0.1609115   4.27 0.0002161671    1.337    0.252
        47  -8.7843     75.0485     12.4779   5.6989020935e+01   6.2530717918e+01    0.2311242    0.1783405  50.74 0.0009005709    1.300    0.231
        48  -9.3716     43.2452      9.5896   6.7414336469e+01   6.8464600639e+01    0.3990787    0.1424037  35.03  0.001787146    2.649    0.622
        49  -8.7550     49.0178      8.0117   6.4200457990e+01   6.7714643058e+01    0.2027326      0.16473  52.52 0.0008293293    1.642    0.391
        50 -10.6962     56.0117     11.5365   6.3153939088e+01   6.6157372261e+01    0.2656606    0.1800795 -17.56 0.0006090307    1.450    0.310
        51  -9.1863     51.4577     11.5099   6.4926207415e+01   6.6932147132e+01    0.2858167    0.1755674 -24.31  0.001677832    1.618    0.382
        52  -8.7080     53.0366      7.9682   6.2582031264e+01   6.7044395339e+01    0.2997706    0.1461015 -10.57 0.0009062858    2.513    0.602
        53  -9.3599    219.2611     12.2848   3.3180050026e+01   2.9541182360e+01    0.2760294    0.1625041 -48.09   0.00160402    1.511    0.338
        54 -10.6293    192.2109      7.9822   3.4590282829e+01   3.6038850931e+01    0.4813692    0.3507113 -60.58  0.001894726    1.282    0.220
        55 -10.5659    195.8911      3.8909   3.3270985150e+01   3.5595386682e+01    0.4560595    0.2936514  67.51  0.001964331    1.433    0.302
        56  -9.6096    224.3810      9.1633   3.2104989753e+01   2.8776834185e+01    0.2430951    0.1655117 -55.99 0.0006317872    1.262    0.207
        57  -9.0385    165.7663      9.4417   3.7833321723e+01   4.2110059801e+01    0.2231782    0.1735469 -35.09  0.001360292    1.414    0.293
        58  -9.6569    128.3477      8.6243   4.3012359980e+01   5.1123025259e+01    0.4157129    0.2024105  67.49   0.00175047    1.851    0.460
        59  -9.4501    119.9570      9.0017   4.4647903335e+01   5.3059987827e+01    0.2892981    0.1876865 -14.06 0.0009074087    1.813    0.448
        60 -10.8554    218.2635      3.3521   3.1327120347e+01   3.0688637475e+01    0.3687817    0.3019214  29.03  0.001078821    1.836    0.455
        61 -10.3940      9.9946     14.5107   8.6773081990e+01   7.1888173264e+01    0.2555451    0.1770288   3.03  0.001759939    1.273    0.214
        62 -10.3494    232.4864      6.0262   3.0863861162e+01   2.7407294120e+01    0.3959693    0.1769938 -35.82  0.002119242    2.106    0.525
        63 -10.6707    236.4817      6.9730   3.0780825263e+01   2.6484727796e+01    0.2605167    0.1987758 -59.62  0.001257519    1.104    0.095
        64 -10.9119    237.4603      2.9950   2.9921330590e+01   2.6703890300e+01    0.4218338    0.2276971 -89.52  0.002480663    1.700    0.412
        65  -9.4128     62.0277      5.5290   5.8108734863e+01   6.5683246694e+01    0.3265436     0.189609  28.98  0.001170626    1.561    0.359
        66  -9.6173     74.4143      8.0591   5.5240962088e+01   6.3078089028e+01     0.297648    0.1680767  43.08  0.001109605    1.487    0.328
        67 -10.4997     73.9664      2.8450   5.3056171585e+01   6.3621185246e+01    0.2830713    0.2514768 -15.63  0.001414823    1.296    0.228
        68 -10.2425     69.3054      2.1302   5.4140032248e+01   6.4599878756e+01     0.410727    0.1853554  31.22  0.001824789    2.248    0.555
        69 -11.7859     15.2643      4.7362   7.8863061782e+01   7.2753105422e+01    0.4440884    0.2478636 -32.74  0.001523655    1.634    0.388
        70 -10.0026    168.9399      5.6560   3.6431042299e+01   4.1705168361e+01    0.4972735    0.2006891 -57.53  0.001990378    3.222    0.690
        71 -10.9812    160.1403      2.5273   3.6598543287e+01   4.4070248624e+01    0.5301374    0.2290575  66.32  0.002513641    1.920    0.479
        72  -9.2908    107.0319      6.3121   4.6245442034e+01   5.6257652396e+01    0.3798247    0.2420981 -36.93  0.001185996    1.822    0.451
        73  -8.7710    109.0067      1.0000   4.3889422587e+01   5.6224873562e+01    0.2490963    0.1146669  69.27 0.0008908343    2.115    0.527
        74 -10.4068    209.2313      4.1955   3.2211200062e+01   3.2574693627e+01       0.3234    0.2781285   4.33  0.001391273    1.686    0.407
        75  -9.0775    206.3978      1.7269   3.1886096593e+01   3.3443590260e+01    0.2118926    0.1354932 -82.59 0.0007447057    1.390    0.280
        76 -10.4724     30.8104      3.1145   6.9780490632e+01   7.1017864233e+01    0.2469263    0.1789704 -36.61 0.0007841203    1.797    0.444
        77  -9.9681    153.1922      4.3509   3.7977115660e+01   4.5570390632e+01    0.2367345    0.2049492 -50.93   0.00153798    1.251    0.200
        78 -10.1176     39.7289      4.2126   6.6212985814e+01   6.9593722512e+01    0.3392324    0.2301492  28.45  0.002206598    1.256    0.204
        79 -11.3213    179.6775      2.0602   3.4349720430e+01   3.9503512120e+01    0.2553759    0.1746447  75.86 0.0005595383    1.261    0.207
        80  -9.3591    119.4544      1.7242   4.2221501338e+01   5.3767347413e+01    0.1830983    0.1549028  48.55 0.0005160618    1.076    0.071
        81 -10.4141    115.8055      1.9616   4.2955824399e+01   5.4594378660e+01    0.2493009    0.1770522  65.48 0.0003481563    1.241    0.194
        82  -8.7599      3.0127      2.8971   8.5196347613e+01   7.4187810108e+01    0.1748974   0.09663612 -14.88 0.0006541336    1.603    0.376
        83 -10.3685     90.3140      1.7774   4.8237316731e+01   6.0310331574e+01    0.3334965    0.1515575  58.26  0.001268637    1.877    0.467
        84  -9.0442     55.8062      1.9512   5.8587007258e+01   6.7138811775e+01    0.1761861     0.125117  15.97 0.0003283802    1.233    0.189
        85  -9.5196     50.6959      1.8129   6.0432510584e+01   6.8046360657e+01     0.301524    0.1309006  41.10 0.0009040299    1.933    0.483
        86  -8.8325     80.0394      1.5333   5.0762535665e+01   6.2494099145e+01    0.4454029    0.1387572  60.52  0.001735544    3.197    0.687
        87  -8.8564    128.1071      1.3544   4.0652284902e+01   5.1772346421e+01    0.1950678     0.100786  63.41 0.0009819552    1.604    0.377
        88  -9.8677     43.4477    119.2923   1.0326508422e+02   4.6836639968e+01    0.3254209    0.2136972  43.09 0.0009013771    1.719    0.418
        89  -9.5214    201.5041    249.5141   8.6846089633e+01  -5.7455080845e+00    0.2163286    0.1653185  13.65 0.0005929111    1.055    0.052
        90  -9.8066     67.5531    118.5414   9.5327513655e+01   4.4024361788e+01    0.2772215    0.2404237  81.17 0.0005550929    1.313    0.239
        91  -9.7505     70.5639    116.3948   9.3877523723e+01   4.4121528403e+01    0.3736338    0.2609326  76.73  0.001249997    2.088    0.521
        92 -10.5359      3.4063    116.6572   1.1561323099e+02   5.0750136984e+01    0.3025987    0.2711684 -59.14  0.001431437    1.145    0.127
        93  -9.3108     83.5279    117.0335   8.9915700518e+01   4.1961195168e+01    0.2319482    0.1423467 -54.01 0.0006755496    1.545    0.353
        94 -10.0614     28.3991    116.0612   1.0757228632e+02   4.9106821635e+01    0.2737324    0.2290964 -61.74  0.001334179    1.011    0.011
        95 -10.1753     32.5594    112.6133   1.0559812807e+02   4.9586332087e+01    0.4074388    0.2611533 -88.64   0.00199624    1.880    0.468
        96  -9.6116     62.3722    115.3202   9.6288317851e+01   4.5534683962e+01    0.3001299    0.2102655 -89.43 0.0008439439    1.922    0.480
        97  -8.6980     46.1251    114.6400   1.0148672318e+02   4.7701377199e+01    0.1820884    0.1320622   2.03 0.0004442866    1.716    0.417
        98  -8.1749     52.3198    113.3470   9.9168727048e+01   4.7303300446e+01    0.1528234    0.0977604 -33.29 0.0007049089    1.733    0.423
        99  -9.1138    121.1330    111.8379   7.7426364192e+01   3.6178882001e+01    0.2449923    0.2203593 -84.83 0.0009583069    1.271    0.213
       100  -8.8801     48.6687    111.4830   9.9992712006e+01   4.8193329028e+01    0.2465636    0.1178059 -59.54 0.0006762905    1.848    0.459
       101  -8.0375     40.3597    112.2505   1.0292945438e+02   4.8912176046e+01    0.1387049   0.09557462 -29.96  0.000256981    1.609    0.379
       102 -10.1868     62.8474    110.7739   9.5104276849e+01   4.6586094242e+01    0.2649791    0.2028569 -55.66 0.0002570491    1.198    0.165
       103 -10.3435      2.3668     80.2773   1.1043317313e+02   5.9425413749e+01    0.4584262    0.1935643 -65.43   0.00163938    1.886    0.470
       104  -9.4390      6.7613     89.1956   1.1039236961e+02   5.7134903004e+01    0.4579018    0.2797661 -73.95   0.00135464    1.517    0.341
       105  -9.7318      1.9839     92.3345   1.1264481808e+02   5.6650294649e+01     0.349205    0.2085915  40.01  0.001770041    2.087    0.521
       106  -9.9005      1.6854     87.5386   1.1196748780e+02   5.7785441354e+01    0.3907037    0.1070379 -62.05  0.001627847    2.458    0.593
       107  -9.4340      8.5002     98.5434   1.1135285745e+02   5.4826532939e+01    0.4361926    0.1421778 -70.07  0.001744158    2.651    0.623
       108 -10.0405      4.1497     98.1229   1.1279346528e+02   5.5170937090e+01    0.5150698    0.2603662 -55.50  0.001686246    1.529    0.346
       109 -10.6968      7.1007    107.4096   1.1318693418e+02   5.2778756599e+01    0.5441663    0.2106827 -49.77   0.00186618    2.139    0.532
       110 -10.0842      2.4836    108.9844   1.1491048878e+02   5.2658506475e+01     0.579248    0.1465173 -61.98  0.002334133    2.585    0.613
       111 -10.7500    116.6703    106.9886   7.7365518830e+01   3.8181466342e+01    0.5871657    0.3952059  -0.26  0.002261904    2.467    0.595
       112  -8.7717    103.5227    108.0185   8.1474105214e+01   4.0550079599e+01    0.2347521    0.1471657 -45.26 0.0005920309    1.537    0.349
       113  -9.2170     36.8497    107.8843   1.0325408664e+02   5.0340653161e+01    0.3160832    0.1849333 -36.26  0.001517169    1.807    0.447
       114 -10.6356     38.2017    102.3729   1.0165814708e+02   5.1548475721e+01    0.4442623    0.3746981 -48.53  0.001738828    1.036    0.035
       115  -9.6903     43.4055     99.8537   9.9274904890e+01   5.1611474355e+01    0.4245447    0.1495812  38.15  0.001601041    3.183    0.686
       116  -9.2682    183.9274    107.1543   6.1318640624e+01   2.3314788298e+01    0.2185953    0.2076714 -46.16 0.0003205105    1.006    0.006
       117  -9.2563     93.0586    106.0000   8.4129785958e+01   4.2952538233e+01    0.3139082    0.2194778  36.47 0.0009819431    1.493    0.330
       118  -8.8608     92.9996    103.3098   8.3423106120e+01   4.3583814875e+01    0.2025375    0.1897118  22.72 0.0001571241    1.102    0.093
       119  -8.9871     44.6055    106.2905   1.0027019611e+02   4.9923289887e+01    0.3812151    0.1713096  20.36  0.001550031    2.771    0.639
       120 -10.0824     71.5354    104.1493   9.0605105681e+01   4.6939280009e+01    0.4306384    0.2834237  27.65  0.002036741    1.665    0.399
       121 -10.0492     72.5307    100.0291   8.9206696631e+01   4.7759153379e+01     0.321317    0.1805162 -62.94 0.0009918378    2.078    0.519
       122 -10.2092     63.4670    104.4454   9.3394340154e+01   4.8032275838e+01    0.2943683    0.2318386 -10.03 0.0005708875    1.460    0.315
       123 -10.4995    100.8778    103.0146   8.0909446667e+01   4.2193544701e+01    0.5671437    0.3635315 -24.94 0.0009572084    1.996    0.499
       124  -9.6130    101.0545     98.6967   7.9648704160e+01   4.3127505697e+01    0.3166819    0.2556916 -16.93 0.0009294683    1.377    0.274
       125  -9.4565     87.4334    102.0376   8.4841706901e+01   4.4860032057e+01    0.4404156     0.201152  47.45  0.001612533    2.607    0.616
       126 -10.5010    108.9219     98.6954   7.7289041181e+01   4.1583905860e+01    0.5435411    0.4382287 -86.19  0.001816979    1.667    0.400
       127  -8.9094    106.7927     91.2135   7.5747325712e+01   4.3621868805e+01    0.2492769    0.1995713 -43.99 0.0005318843    1.231    0.187
       128  -8.7958     57.5398     99.9668   9.4333457829e+01   4.9896829005e+01    0.2189603    0.1276182 -53.18 0.0006340377    1.535    0.349
       129 -10.3843     20.0111     77.4561   1.0291481869e+02   5.8979280875e+01     1.251938    0.3745674 -64.63  0.004513571    3.378    0.704
       130 -10.6376     17.4807     98.8327   1.0825847551e+02   5.4174985789e+01    0.8715887    0.3527032 -29.11  0.003313313    3.611    0.723
       131 -10.2521    115.8564    248.4469   1.0380721721e+02   7.0069756097e+00     0.251393    0.2066557  33.76 0.0007968913    1.116    0.104
       132 -10.7029     21.9152     87.6331   1.0444648657e+02   5.6499149060e+01    0.3855147    0.2760768  32.18  0.002249703    1.649    0.394
       133 -10.9998     30.5358     85.5154   1.0070006233e+02   5.6269221504e+01    0.5407763    0.4842741 -47.92  0.003446135    1.080    0.074
       134 -11.5534     31.4999     93.0669   1.0205615592e+02   5.4417332842e+01    0.6726943    0.4732783  14.09 0.0008608226    1.636    0.389
       135 -11.2966     39.6683     57.7990   8.9165416745e+01   6.1322373627e+01    0.3014113    0.2569819 -48.74 0.0008618451    1.279    0.218
       136 -11.8546     43.6297     49.5666   8.4593669608e+01   6.2416682258e+01    0.8773987    0.7583051  -8.49  0.002068699    1.068    0.064
       137 -11.3625     47.5292     89.9005   9.5398295331e+01   5.3494766418e+01    0.8668737    0.6466523 -23.09  0.002986887    1.397    0.284
       138 -10.7969     43.4828     88.4750   9.6536101777e+01   5.4284285975e+01    0.4050069    0.2440319  22.22   0.00051898    1.861    0.463
       139 -10.0215     32.3871     48.0978   8.9031215153e+01   6.4000299783e+01    0.2912841    0.2433086  67.49  0.001213451    2.003    0.501
       140  -8.5107    192.3008    248.3155   8.8424231621e+01  -4.2865216256e+00    0.1248695   0.08242057   2.38 0.0002379157    1.614    0.381
       141  -8.9556     30.4988    247.4939   1.2051271740e+02   1.8377152203e+01    0.1150983    0.0866783  65.96 -8.482993e-05    1.010    0.010
       142 -11.7502      2.2878     66.3388   1.0766284324e+02   6.2546099525e+01    0.4688983    0.2219603 -64.16  0.001175063    1.778    0.438
       143 -11.1712      6.1020     60.2770   1.0460750889e+02   6.3654482323e+01    0.9824197    0.5336569  26.01  0.005515886    2.168    0.539
       144 -10.4317     25.7806     46.4300   9.1481535345e+01   6.4983113592e+01    0.8188589    0.3670754 -22.33  0.003394371    3.074    0.675
       145 -11.2584     14.3665     56.5954   9.9944836768e+01   6.3906815504e+01      0.48503    0.2841629 -67.87  0.001386458    1.985    0.496
       146 -11.5534      9.0243     51.7979   1.0102936967e+02   6.5248170139e+01    0.7187421    0.3768562   2.75 0.0007309826    2.168    0.539
       147 -10.9163     30.4978     52.9944   9.1565829580e+01   6.3255789330e+01    0.6905667    0.2624136  35.43  0.002364943    3.041    0.671
       148 -11.9789     32.2143     64.0135   9.4301216492e+01   6.0853103070e+01    0.6835597    0.4772293 -26.47  0.003939752    1.323    0.244
       149 -11.3414     24.1131     56.0644   9.5407673982e+01   6.3244925258e+01     1.072551     0.346883 -50.70  0.003552377    2.449    0.592
       150  -9.6168    163.1920    246.2396   9.3867848971e+01   2.8750013456e-01    0.2088984    0.1247689  -2.37 0.0008470483    2.756    0.637
       151  -8.4384      1.3746    244.1950   1.2555883669e+02   2.1978339751e+01    0.1496211     0.077007  81.69  0.000427922    1.619    0.382
       152 -11.0976    117.6579     97.9543   7.4558625491e+01   3.9952919834e+01    0.2730391    0.2584488  22.20 0.0002829716    1.067    0.063
       153 -10.4411     50.0215    101.6924   9.7368981113e+01   5.0418986667e+01    0.4277178    0.3358231 -89.16  0.002270607    1.578    0.366
       154  -9.4010    125.8862     97.1326   7.2051810491e+01   3.8374424693e+01    0.2390179    0.2203465 -82.95  0.001154458    1.217    0.179
       155  -8.7764     63.8225     96.7558   9.1331679746e+01   4.9802246181e+01    0.1927237    0.1698568 -85.98 0.0007750758    1.357    0.263
       156  -8.7469    155.5269     96.0275   6.4380875071e+01   3.1937345326e+01    0.2317086    0.1497524 -39.86 0.0005735763    1.521    0.342
       157  -8.9008    130.1838     96.1121   7.0613339755e+01   3.7649310247e+01    0.2354884    0.2068769   1.54 0.0005706294    1.260    0.206
       158  -9.1059     86.8268     96.1844   8.3419997451e+01   4.6299138367e+01    0.2159367    0.1706682 -22.62  0.000813527    1.348    0.258
       159  -9.2064     12.9310     95.6177   1.0929678216e+02   5.5250474929e+01    0.2554841    0.1694402 -73.10  0.001442781    1.389    0.280
       160  -8.7611     80.0307     94.6877   8.5236840155e+01   4.7793397753e+01    0.2009307    0.1892192   9.40 0.0004198093    1.089    0.082
       161  -8.6851    166.9246     94.4697   6.1463011658e+01   2.9606624527e+01    0.2191391    0.1503014  50.85 0.0003724423    1.492    0.330
       162 -11.6478    127.3240     86.0495   6.8425293146e+01   4.0314587354e+01    0.7648712    0.4182022  36.93  0.001747428    2.036    0.509
       163  -9.8007     86.9492     88.2462   8.1083018482e+01   4.8030632368e+01    0.3621654    0.2953585  26.98 0.0009509687    1.267    0.211
       164 -10.8259     80.8622     83.6199   8.1726080860e+01   5.0087511355e+01    0.3509366    0.3139769  -3.88  0.000760402    1.105    0.095
       165 -10.0573     16.6051     87.7892   1.0647527371e+02   5.6850831590e+01    0.3395483    0.2413804 -65.17  0.001167025    1.248    0.199
       166  -8.8660     97.5002     87.5139   7.7479685094e+01   4.6233498873e+01    0.2567449     0.142287 -54.77 0.0009365292    2.099    0.524
       167  -8.8444     94.0086     87.7528   7.8653032998e+01   4.6845862028e+01    0.1971681     0.181606  23.38            0    1.099    0.090
       168 -10.5749     65.4170     85.7738   8.7760386929e+01   5.2075420034e+01     0.338948    0.2727385 -52.53  0.001833374    1.235    0.190
       169 -10.3078    155.2831     84.2996   6.1152643693e+01   3.4227454022e+01    0.4656385    0.3335077 -12.50  0.001399059    1.864    0.464
       170 -11.1763    150.4171     80.6602   6.1190810229e+01   3.6037095007e+01    0.5783154    0.2850702  56.57   0.00223373    2.145    0.534
       171  -9.2149    105.6135     80.3061   7.2777475149e+01   4.6099767817e+01    0.4608238    0.1370248 -38.80  0.001369214    3.590    0.721
       172 -10.2072    133.1955     82.8339   6.5944086833e+01   3.9618736268e+01    0.4740204    0.2446318 -53.47  0.001218592    2.425    0.588
       173  -8.5639    101.5342     88.9514   7.6662837877e+01   4.5146197913e+01    0.2127062    0.1452845 -42.38 2.876541e-05    1.426    0.299
       174 -10.7221     74.3120     81.5527   8.3356528426e+01   5.1620781275e+01    0.8350239    0.5234058 -33.60  0.003895573    1.611    0.379
       175  -9.9738     55.7322     83.4541   9.0632502656e+01   5.3940340734e+01    0.4218141    0.3313616 -41.11  0.002339463    1.135    0.119
       176  -8.2366     59.2657     80.2943   8.8410891787e+01   5.4158523737e+01     0.140765   0.09854877 -23.61 0.0001850344    1.509    0.337
       177  -9.4300     38.4967     79.8134   9.6199297856e+01   5.6791625537e+01     0.332666     0.215091 -27.25  0.001370307    1.591    0.372
       178 -10.2465     45.2628     81.5018   9.4039017200e+01   5.5670065151e+01    0.9207956    0.3185189  22.60   0.00326839    3.720    0.731
       179  -8.6197    101.6033     81.2858   7.4297797770e+01   4.6714884501e+01    0.3045864    0.1400474 -47.74   0.00114388    2.275    0.560
       180  -8.4035     62.6617     79.8319   8.7019602297e+01   5.3777932651e+01    0.1922622    0.1259315 -56.79  0.000604893    1.629    0.386
       181  -9.4054    136.9382     78.8859   6.3828377677e+01   3.9503240125e+01    0.2293286    0.2065759  14.81 0.0008137762    1.191    0.161
       182  -8.9924     89.8482     78.3045   7.7078968428e+01   4.9587455991e+01    0.3026379    0.2207509  86.97 0.0007845418    2.497    0.599
       183  -9.9642     88.5100     72.8256   7.5753242311e+01   5.0928244869e+01    0.4173294    0.2574062 -30.01  0.001440545    1.721    0.419
       184  -9.6988     58.6403     88.7925   9.1046911367e+01   5.2351112590e+01    0.3991834    0.2212357 -68.08  0.001615163    2.527    0.604
       185  -8.0955     94.3086     78.3186   7.5643793961e+01   4.8741108142e+01    0.2102225    0.1236728 -42.48 0.0003283219    1.665    0.399
       186  -9.5539     93.2510     74.0398   7.4608064793e+01   4.9791795649e+01    0.2708354    0.2258295 -29.62 0.0005103342    1.164    0.141
       187 -10.0796     94.2721     70.1343   7.2999523493e+01   5.0344531538e+01    0.4777693    0.3128577 -42.24   0.00226976    1.530    0.346
       188 -12.9201     53.0246     74.7616   8.9124123230e+01   5.6193084200e+01    0.6151077    0.3252651 -50.87 0.0007492065    1.759    0.431
       189 -10.7893     45.3090     68.4418   9.0236957608e+01   5.8495211882e+01    0.4577735    0.2538576 -34.95 0.0003426592    1.718    0.418
       190 -10.8715    180.4831     73.8733   5.3272972042e+01   3.0108023381e+01    0.4474884    0.3192615 -12.97  0.001297593    1.891    0.471
       191 -10.5902    170.2495     73.4692   5.5041898845e+01   3.2597561694e+01    0.3240204    0.2512634 -32.89 0.0007195472    1.327    0.247
       192  -9.1765    110.9424     76.8236   7.0113842037e+01   4.5669325313e+01    0.2667117    0.2187661 -33.09 0.0007273857    1.213    0.176
       193  -9.3713     28.4725     75.9939   9.9168997401e+01   5.8614238552e+01    0.3314689    0.1684274 -44.23  0.001037021    1.651    0.394
       194 -10.8853    145.3344     53.5412   5.4180245649e+01   4.1754163988e+01    0.6629565     0.351969  37.36  0.002675497    2.326    0.570
       195 -10.4794    137.4963     73.0378   6.1923740771e+01   4.0431742474e+01     0.408432    0.2837358 -34.40 0.0007302692    1.474    0.322
       196 -10.5030    145.1683     71.7268   5.9742707966e+01   3.8861514395e+01    0.6601928    0.4235584  19.22  0.002625592    2.487    0.598
       197 -10.9361    144.1379     66.3452   5.8352155017e+01   4.0019264348e+01    0.3832999    0.3410926  51.18 0.0007819689    1.100    0.091
       198  -8.8077     80.9960     76.4299   7.9443555935e+01   5.1565303219e+01    0.2147862    0.1399529  34.52  0.001015296    1.575    0.365
       199  -9.8770     64.2134     74.9420   8.4953616903e+01   5.4590742022e+01    0.3192473    0.2871834 -89.82  0.001284568    1.482    0.325
       200  -9.2715     68.9223     74.6028   8.3121105891e+01   5.3941454069e+01    0.2204197    0.1780076 -27.48 0.0003927813    1.157    0.136
       201  -9.4138     50.4078     83.2495   9.2565052244e+01   5.4665126001e+01    0.2311082    0.2226397  28.43  0.001100669    1.203    0.169
       202  -7.7973     12.3178     74.6973   1.0537306772e+02   6.0132172787e+01    0.1153261   0.09398455  73.20 0.0002395959    1.623    0.384
       203  -9.5609    173.3696     69.0496   5.3241999305e+01   3.2587867085e+01    0.2848251    0.2145863  59.40 0.0006155606    1.324    0.245
       204  -8.5958    152.3923     73.2418   5.8596312414e+01   3.6887863205e+01    0.2110755    0.1350006 -47.88 0.0007099642    1.625    0.385
       205 -12.2884     79.5676     69.9815   7.7838151176e+01   5.3103928628e+01    0.3574913    0.2792537   6.92 0.0003080534    1.377    0.274
       206  -9.7372     83.0711     64.0412   7.4624575847e+01   5.3607261170e+01    0.4693097    0.2482844 -49.76  0.001237007    2.181    0.542
       207  -9.1299    199.8609     71.0401   4.9350967942e+01   2.6075705431e+01    0.2425907    0.1957771 -10.27  0.001066519    1.586    0.370
       208  -9.0225    111.4754     71.2650   6.8181167143e+01   4.6599334264e+01    0.2752401    0.1448668 -33.04  0.001111045    2.025    0.506
       209  -9.5234    175.0531     75.0208   5.4566309991e+01   3.1196706412e+01    0.2472482    0.2073178  63.93 0.0003062568    1.204    0.169
       210 -10.3324    101.8410     70.3179   7.0707501511e+01   4.8795011361e+01    0.3311881    0.2644746  30.85  0.001540078    1.251    0.201
       211 -10.5788    119.7858     68.0876   6.4856801998e+01   4.5351484347e+01    0.5066836    0.3435443  25.32  0.001345102    1.786    0.440
       212  -9.6199     10.6282     69.1594   1.0480345661e+02   6.1467404964e+01    0.2133444    0.1495051 -36.90 0.0001357025    1.220    0.180
       213 -10.7987    134.8653     65.4958   6.0225209553e+01   4.2346289646e+01    0.4329405    0.4061355 -55.42  0.002409702    1.118    0.106
       214 -10.7914    142.0262     59.9373   5.6859030412e+01   4.1562295420e+01    0.3140085    0.2808089  40.86 0.0003139692    1.116    0.104
       215  -9.6967    105.6814     65.8420   6.8075559905e+01   4.8812597521e+01    0.4575139    0.2571633  59.15  0.001715462    2.298    0.565
       216  -9.3441     75.1043     66.0229   7.8077132272e+01   5.4642512136e+01    0.2080505    0.1891493 -14.50 0.0003422021    1.028    0.028
       217 -11.2913     97.3781     63.8835   6.9920335077e+01   5.0876261334e+01    0.3092826    0.2595803   2.08 0.0001282172    1.235    0.190
       218  -8.9371     59.5075     56.5204   8.0589887793e+01   5.8936942387e+01     0.241725    0.1735834 -20.33 0.0006298576    1.364    0.267
       219  -9.2603     64.9998     56.6584   7.8521355922e+01   5.8062210314e+01    0.1837853    0.1594848  12.55 0.0003187663    1.106    0.096
       220  -9.6970     61.8612     52.4307   7.8186047384e+01   5.9319089379e+01     0.356572    0.3214027  74.84   0.00128568    1.636    0.389
       221 -10.1925     66.3171     62.1243   7.9951290686e+01   5.6833072768e+01    0.4449188    0.3124259 -51.74   0.00111486    1.605    0.377
       222 -10.2847     70.7034     60.1686   7.7642518476e+01   5.6487856113e+01    0.3681261     0.265587  36.09 0.0009409587    1.418    0.295
       223  -9.1762    202.9872     63.0354   4.6893774696e+01   2.6611465240e+01    0.2096018    0.1881913 -70.24 0.0004161275    1.022    0.022
       224  -9.6017    193.9456     60.5601   4.7586364409e+01   2.9066290312e+01    0.3234421    0.1985502 -34.12 0.0004581869    1.646    0.392
       225 -10.2215    161.7222     60.3790   5.2964922834e+01   3.6762994577e+01    0.5182119    0.3058825 -11.25  0.001999737    2.864    0.651
       226  -8.8788     77.4406     62.1263   7.5908883794e+01   5.4972323091e+01    0.2098004    0.1314871 -38.05 0.0007696069    1.545    0.353
       227  -9.4226    151.0961     60.7177   5.5164856966e+01   3.9268787750e+01    0.2927723    0.1774159  53.84  0.001326936    1.590    0.371
       228  -9.8526     53.3093     60.5122   8.4441205547e+01   5.9069047223e+01    0.3358474    0.2843284 -78.73 0.0009216248    1.759    0.431
       229  -9.6803     56.0244     52.9908   8.0695085881e+01   6.0101172388e+01    0.2357028    0.1554996  16.04 0.0004429897    1.616    0.381
       230 -10.0991    177.3363     57.2610   4.9323864102e+01   3.3484004615e+01    0.3899693    0.1794856  56.66  0.001228676    2.095    0.523
       231 -10.2668    171.0322     58.8493   5.0834442261e+01   3.4756064496e+01    0.3029248    0.2808404 -70.35 0.0008899379    1.048    0.046
       232 -10.0382    167.1693     56.5013   5.0856589911e+01   3.6040974383e+01    0.2492599    0.2241674 -68.06 0.0002991137    1.105    0.095
       233  -8.5081    240.8051     59.4576   4.1395824269e+01   1.9006179993e+01    0.1496793    0.1190975  58.36 0.0009169828    1.468    0.319
       234  -9.0916    105.9320     58.5915   6.5547165775e+01   5.0009781683e+01    0.3843199    0.2389698   0.97  0.001517304    2.678    0.627
       235  -8.2363    198.7652     58.0096   4.6238191096e+01   2.8332246639e+01    0.1695656    0.1097579 -38.21 0.0002885302    1.494    0.331
       236  -9.7683    130.0931     57.4817   5.8820282506e+01   4.4765487618e+01    0.5349643     0.248309  64.45  0.001909735    2.862    0.651
       237  -9.4416    136.5599     55.3878   5.6652797854e+01   4.3569842150e+01    0.2996187    0.2395202 -29.80  0.001414159    1.314    0.239
       238 -10.8482    118.0505     52.7869   6.0257366713e+01   4.8267814061e+01    0.5016964    0.2784081 -35.07  0.001240679    1.861    0.463
       239 -11.5390    124.6266     46.3292   5.6456983440e+01   4.7712574937e+01    0.7210349    0.6294372  -5.64  0.002366501    1.234    0.189
       240  -8.8314    111.1857     56.5004   6.3349507829e+01   4.9214442519e+01    0.2023191    0.1382433  50.23 0.0005089669    1.435    0.303
       241 -10.3224     93.6958     54.7235   6.7870514091e+01   5.3195218877e+01    0.3590826    0.2743431  -2.73 0.0009302198    1.450    0.310
       242  -8.6758     98.5141     54.9355   6.6463763070e+01   5.2175663778e+01    0.2008404    0.1380904 -33.70 0.0003458468    1.474    0.322
       243  -9.8328     81.1841     55.3930   7.2213839501e+01   5.5500454913e+01    0.3669616    0.2795976  29.90  0.001178456    1.274    0.215
       244  -9.1798     83.4632     50.9877   6.9828971769e+01   5.5814289853e+01    0.2917714    0.2082511 -32.53  0.001536842    1.393    0.282
       245 -10.1023    202.6903    242.1493   8.5461042507e+01  -4.8595346290e+00    0.2283572    0.1469193  22.78  0.000449321    1.345    0.257
       246 -10.2332     87.9022     32.4128   6.1284478935e+01   5.7668948777e+01    0.6942338    0.3769801  57.50  0.002653935    2.095    0.523
       247  -9.7929     71.5647     51.1943   7.4071829924e+01   5.7938058150e+01    0.6414909    0.4035074 -25.89   0.00261794    1.624    0.384
       248 -11.0258     55.8726     34.0563   7.3322546228e+01   6.3272733327e+01    0.3968249    0.3592597  57.13  0.001526373    1.593    0.372
       249 -11.1010     51.9322     29.3659   7.2937921041e+01   6.4576915445e+01    0.4650362    0.2482179 -16.90            0    2.247    0.555
       250 -10.5364     77.7178     34.5029   6.5397582775e+01   5.9397573626e+01    0.6046837    0.3680971  28.13 0.0005458552    1.672    0.402
       251  -9.0529    247.1506    239.3663   7.6906697127e+01  -1.0321812914e+01    0.1541957   0.09570206  34.61 0.0009544382    1.766    0.434
       252  -8.4060    189.3133    239.6747   8.7662996203e+01  -2.5666311247e+00    0.1143263   0.09766777  56.90 0.0007041732    1.663    0.399
       253  -8.9199    191.1725     54.1062   4.6335601168e+01   3.0669345323e+01    0.2035575    0.1894443  26.51 0.0008912481    1.292    0.226
       254 -10.3148    174.5429     50.5590   4.7945264600e+01   3.5132593406e+01    0.3450565    0.3150769  11.66 0.0007152871    1.310    0.237
       255  -9.0655    106.6914     52.8729   6.3350049169e+01   5.0773515632e+01    0.2327195    0.1760806  37.27 0.0002372808    1.270    0.212
       256  -9.4282    164.6017     51.9375   5.0012475149e+01   3.7333743389e+01    0.2843855    0.2043951  61.00 0.0006983031    1.336    0.252
       257  -8.7680     87.0572     51.7759   6.8928683598e+01   5.4994530592e+01    0.1929163     0.161066  31.76 0.0003048303    1.144    0.126
       258  -9.5759     88.3022     48.6648   6.7378773187e+01   5.5250456496e+01    0.2753899      0.23068 -83.61  0.001472319    1.791    0.442
       259  -9.2366     76.2212     51.9935   7.2696321319e+01   5.6983624385e+01    0.2464072    0.1567633  25.11 0.0006388791    1.668    0.400
       260  -8.5894    244.9867     50.4976   3.9059674665e+01   1.9427861134e+01    0.1616477    0.1167845  76.64 -8.885766e-05    1.450    0.310
       261 -10.9910    153.4950     48.5770   5.1056581121e+01   4.0505211504e+01    0.4687755    0.3178471  70.56  0.001302138    1.525    0.344
       262  -8.7586    181.4933     49.0089   4.6435417952e+01   3.3686715436e+01    0.2082581    0.1327623 -36.94  0.001025544    1.572    0.364
       263  -8.0854    137.3345     49.2715   5.4540242523e+01   4.4295701882e+01    0.1463692    0.1048727  30.52 0.0006987124    1.596    0.373
       264 -10.5013    114.4377     46.4026   5.9002152172e+01   5.0037257704e+01    0.3766228    0.2545808 -29.62  0.001341022    1.555    0.357
       265  -8.7753    112.8295     41.2189   5.7601079413e+01   5.1129569681e+01    0.1936191    0.1669402  41.39 0.0002670921    1.072    0.067
       266  -9.2715     96.5826     48.9143   6.4888931789e+01   5.3534995341e+01    0.2162878    0.1751361  29.35 0.0004395742    1.174    0.148
       267  -8.2544    214.5592     48.5239   4.1882433255e+01   2.6116187764e+01    0.1305593    0.1167514 -67.69 0.0002639279    1.045    0.043
       268  -9.1705    202.5017     47.0983   4.3019916381e+01   2.9031762762e+01    0.2655691    0.1907961  39.96 0.0009407855    1.786    0.440
       269  -8.3495    196.8215     48.3709   4.4080629211e+01   3.0165662542e+01    0.1815683    0.1167338  55.06 0.0003940866    1.613    0.380
       270  -9.8809     81.6789     44.0552   6.7818584068e+01   5.7252586743e+01    0.3697012     0.210604  26.13  0.001513335    2.021    0.505
       271  -9.0534    234.8848     46.9944   3.9312714472e+01   2.1961765456e+01    0.1843414    0.1554194 -63.91 0.0003529713    1.018    0.018
       272  -8.0425     84.2607     47.3371   6.8202979259e+01   5.6248151706e+01    0.1397589    0.1004578   2.80 0.0002830278    1.581    0.368
       273  -8.6250      3.3951     45.8858   1.0200156305e+02   6.6772047108e+01    0.3174325    0.1299176 -21.98  0.001453462    2.830    0.647
       274  -8.3104    164.3455     46.3121   4.8445572360e+01   3.8190623849e+01    0.1448397    0.1046672  32.03 0.0007046285    1.709    0.415
       275 -10.1311    244.7926     44.1676   3.7751327411e+01   2.0323647467e+01    0.3288308     0.275623 -79.59  0.002220814    1.126    0.112
       276  -9.6232    157.8742     44.4337   4.9025195640e+01   4.0017407222e+01    0.3249029    0.1288486 -44.88  0.001225032    2.707    0.631
       277  -9.9350     94.0440     44.9896   6.4217535856e+01   5.4655773666e+01    0.4237739     0.205947  44.56  0.001509216    1.935    0.483
       278  -9.5158     90.5080     40.4971   6.3613769996e+01   5.6035791155e+01    0.4437724    0.3007574 -49.72  0.002229689    1.891    0.471
       279  -9.2569    141.4306     43.5678   5.1877138092e+01   4.4113370677e+01    0.5605754    0.1981268  46.27  0.001973757    2.917    0.657
       280 -10.0982    128.9213     41.1675   5.3751475941e+01   4.7418253374e+01    0.4820257    0.2886427 -60.40  0.002062038    2.443    0.591
       281  -8.9580    123.8379     38.3651   5.3954648581e+01   4.8981134365e+01    0.2600765    0.1535614  48.78 0.0002141343    1.554    0.357
       282  -8.8376    120.4589     38.2549   5.4698940256e+01   4.9781284996e+01    0.2888048     0.169985 -37.92  0.001168273    1.815    0.449
       283  -8.6792    108.5016     43.4430   5.9521913715e+01   5.1786998958e+01    0.2385313    0.2225908 -85.27 0.0009133591    1.274    0.215
       284 -10.7144    103.0446     42.9687   6.0845779846e+01   5.3048532892e+01       0.3258    0.2782525  39.97 0.0003374416    1.094    0.086
       285 -11.7425    103.6325     38.7341   5.9137113112e+01   5.3508661997e+01     0.269434    0.2520669  57.16 0.0002876527    1.162    0.139
       286  -8.4752    209.5239     42.9609   4.1158225590e+01   2.7998028938e+01    0.1948782    0.1215023 -37.71  0.001019157    1.552    0.356
       287  -9.2854     53.6990     49.3563   8.0291859014e+01   6.1091818018e+01    0.2545292    0.1986618 -50.04  0.001464479    1.518    0.341
       288  -9.3168    221.1021    237.4921   8.1238723851e+01  -6.7357298085e+00     0.177573    0.1035436  29.10 0.0005926529    1.540    0.351
       289 -11.7825     41.6244     38.0947   8.1065657823e+01   6.4685145332e+01    0.3409426    0.2117765  -8.93 0.0009211136    1.781    0.438
       290  -9.0271     32.5404     42.5142   8.6921133859e+01   6.5010975674e+01    0.2026385    0.1361159  16.65 0.0005410101    1.494    0.331
       291 -10.0810     35.9259     41.1731   8.4854770900e+01   6.4863551169e+01    0.2269322    0.1787343  15.25 0.0007050351    1.261    0.207
       292 -10.0295    228.3999     38.8408   3.8177761978e+01   2.4408831622e+01    0.4280605    0.1564371 -42.78  0.001410642    2.292    0.564
       293  -9.0879    222.6444     40.4683   3.9126335347e+01   2.5430585191e+01    0.2198791    0.1110513 -35.98  0.001077979    1.884    0.469
       294 -10.5797    137.1536     97.4514   6.9192517952e+01   3.5828058614e+01    0.4275993    0.3318649 -41.51  0.001898749    1.270    0.213
       295  -9.2844    158.0838     38.9930   4.7388803307e+01   4.0686328420e+01    0.2622924    0.1934247 -43.12 0.0007464496    1.402    0.287
       296  -8.5897    165.7372     39.3503   4.6227097265e+01   3.8783250530e+01    0.1789076    0.1324347 -23.37 0.0006778552    1.547    0.354
       297  -9.3281    164.2870     36.2065   4.5561905402e+01   3.9535204014e+01    0.3900057    0.1959218  61.55   0.00175949    1.825    0.452
       298 -10.3409    146.3289     29.0669   4.6429249629e+01   4.4751148264e+01    0.8951116    0.4715043  33.59   0.00296616    2.624    0.619
       299 -10.2854    136.2026     37.3135   5.0944022620e+01   4.6190102657e+01    0.5443951    0.3159227  49.97  0.002323444    1.597    0.374
       300 -10.7376    131.8031     35.3933   5.1223633361e+01   4.7481651776e+01    0.3992162    0.3173933 -50.45            0    1.399    0.285
       301  -9.7438    238.8540     37.1992   3.6832406791e+01   2.2439567149e+01    0.2391571     0.184144  65.70 0.0009430493    1.440    0.306
       302 -10.1833    178.0081     36.8982   4.3693269421e+01   3.6138347978e+01    0.3812377    0.2552347 -68.27  0.001714946    1.638    0.389
       303  -8.0084    192.6755     37.6615   4.1916073561e+01   3.2564416766e+01    0.1320421    0.1011695  33.18 0.0007051227    1.723    0.420
       304  -9.5775    185.9777     36.4876   4.2487198385e+01   3.4291388774e+01    0.3295208    0.1969421 -67.43  0.001568374    1.922    0.480
       305 -10.8945    186.7829     32.5439   4.1358446668e+01   3.4592773001e+01    0.6474088    0.3829536  26.14  0.002722108    3.174    0.685
       306  -8.8402     84.5581     37.2475   6.4233567616e+01   5.7689253558e+01    0.3088135    0.1233236  32.47   0.00107165    3.410    0.707
       307  -9.0777    214.4672     35.5276   3.8858884298e+01   2.7862576694e+01    0.2131299    0.1272065 -19.55 0.0008166525    2.337    0.572
       308 -10.2964    116.3656     33.6535   5.4063344358e+01   5.1310727814e+01    0.4580656     0.261558  27.93 0.0005857301    2.232    0.552
       309  -9.5056    223.2037     34.5092   3.7731187045e+01   2.6078538335e+01    0.2446922    0.1689651 -59.99 0.0008159575    1.284    0.221
       310  -9.0666     96.1836     35.0726   5.9857961001e+01   5.5599228309e+01     0.279541    0.1597297  45.69 0.0008645114    1.595    0.373
       311  -9.4673    209.5661     33.3506   3.8876234211e+01   2.9231853800e+01    0.2699934    0.1922188 -32.49  0.001548466    1.504    0.335
       312  -9.8591     67.8217     44.4883   7.2895975121e+01   5.9690938530e+01    0.5506352    0.3822574 -12.49  0.002939265    1.517    0.341
       313 -11.1883    153.9571     32.6261   4.6201850353e+01   4.2482291703e+01    0.2396528    0.2212036  75.68 0.0001688587    1.009    0.009
       314 -11.6584    105.0201     20.8972   5.2150524786e+01   5.5345606810e+01    0.2454111    0.2283596  60.78 0.0003020321    1.146    0.127
       315  -8.5561    139.8611    236.8701   9.7341734863e+01   5.4390647767e+00    0.1750597    0.1380838  51.36 0.0004295071    1.295    0.228
       316  -9.1459     43.5117     32.0437   7.7715943981e+01   6.5406165695e+01    0.2253209    0.1540055 -49.30 0.0004971562    1.919    0.479
       317 -10.5970    248.8077     29.9502   3.4492134078e+01   2.1351694929e+01    0.3619945    0.2507294 -18.84   0.00213264    2.073    0.518
       318  -9.6594    233.7221     30.7623   3.5927526694e+01   2.4314295859e+01     0.360213    0.1699523  51.74  0.001721006    2.721    0.632
       319  -9.8600    124.1844     29.4839   5.0854303643e+01   4.9995266879e+01    0.6182477     0.195173  60.90   0.00217296    3.047    0.672
       320 -10.0080    109.2461     22.5553   5.1756663451e+01   5.4218451987e+01    0.2465482    0.1725402  42.60 0.0005474329    1.290    0.225
       321  -8.7509     32.3163    232.5270   1.1919960305e+02   2.1142104090e+01    0.1872537   0.09523096 -77.54 0.0006230844    1.866    0.464
       322 -10.1413    221.8400     27.1069   3.6214313058e+01   2.7288350759e+01    0.4117549    0.2248559 -49.07  0.002220506    1.616    0.381
       323  -9.8122    187.5004    231.0074   8.6628332169e+01  -9.3854782856e-01    0.3477372    0.1876563  15.40  0.001578083    2.354    0.575
       324  -9.0335    177.5303    231.3115   8.8689183458e+01   5.3612415162e-01    0.2391042    0.1054381  34.96  0.001079678    2.021    0.505
       325  -8.7065    163.2464    226.9631   9.0947313125e+01   3.5144703643e+00    0.1592217     0.112815 -44.46 0.0008779319    1.569    0.363
       326  -9.0203    223.7626    225.1262   7.8641231928e+01  -5.3260065821e+00    0.1973523    0.1502564  26.91  0.000709461    1.301    0.231
       327  -8.8389    182.1393     28.1432   4.0806217788e+01   3.6221676544e+01    0.1893517    0.1683956  63.42 0.0004207175    1.163    0.140
       328  -8.8888    134.0149     27.5056   4.8194343406e+01   4.7892450770e+01    0.1919831    0.1870606 -24.78 0.0005594075    1.127    0.113
       329  -9.6219    207.8704     26.5214   3.7450230856e+01   3.0446149988e+01    0.2437248    0.1854949 -85.28 0.0004028625    1.192    0.161
       330  -9.8149    206.7801     22.4316   3.6602509658e+01   3.1169752058e+01    0.4102941    0.2383164  50.61  0.001470432    2.023    0.506
       331  -8.7418    166.0847     26.3592   4.2497599319e+01   4.0277214501e+01    0.1963539    0.1154242  83.40 0.0009247037    1.847    0.458
       332  -8.6847    161.5378     26.5639   4.3222752116e+01   4.1353152292e+01    0.1336166    0.1201061  73.84 5.059903e-05    1.025    0.024
       333  -8.9918     10.5824     24.0813   9.0658169804e+01   7.0307304248e+01    0.3373263    0.1107624 -45.43  0.001594972    2.463    0.594
       334  -8.6634    131.8407    225.2052   9.7401423423e+01   8.8583520935e+00    0.1759875    0.1505316   6.62 0.0004439884    1.288    0.223
       335  -9.7213    241.1960     25.3090   3.4156850479e+01   2.3442121107e+01     0.274205    0.1461983  73.89  0.001531267    1.860    0.462
       336 -10.6067    174.2458     22.7507   4.0388343516e+01   3.8719542175e+01    0.4628714    0.3464459  82.13  0.001911683    1.237    0.191
       337  -8.9548    169.5280     23.0429   4.1093596836e+01   3.9818877668e+01    0.2185318    0.1229351 -35.21 0.0001678639    1.840    0.457
       338  -8.0136      1.6875    224.2731   1.2457533118e+02   2.5907585055e+01     0.117341   0.06145874  62.86 0.0002118835    1.555    0.357
       339 -10.0153     62.2026     23.1177   6.6117662819e+01   6.3729453791e+01    0.3572285    0.2490562   8.09   0.00126122    1.421    0.296
       340  -8.7307     66.2558     23.3407   6.4721500449e+01   6.2982350002e+01    0.1997444    0.1408827  -4.85 0.0005253017    1.424    0.298
       341  -9.1348     70.0000     19.4014   6.1678288414e+01   6.2762640909e+01    0.3393003    0.1543079 -35.24  0.001549649    2.391    0.582
       342  -8.4497    161.6472    223.7032   9.0764784080e+01   4.3476393920e+00    0.1378401   0.09751797   3.29  0.000703447    1.690    0.408
       343  -9.4679     66.9825     16.2297   6.1316042021e+01   6.3681340898e+01    0.2566615    0.1703108  38.14 0.0009242349    1.320    0.242
       344  -9.3050    188.9723     22.3379   3.8484275570e+01   3.5276479832e+01    0.2600027    0.1905714  -2.02   0.00142227    1.996    0.499
       345  -9.8948    153.6105     22.9942   4.3389987330e+01   4.3667655709e+01    0.2479817    0.1752373  63.08 0.0003482058    1.268    0.212
       346  -8.6992    125.0539     23.4449   4.8614958955e+01   5.0466945688e+01    0.1936168    0.1212609  61.81 0.0001144959    1.460    0.315
       347 -12.0757    117.0549     22.2049   4.9865147505e+01   5.2467442985e+01    0.2961138    0.2274082  30.33 0.0004705794    1.322    0.244
       348  -8.7193     85.6429     23.2451   5.8294453443e+01   5.9250459444e+01    0.2557453    0.1222156 -34.22 0.0008321513    2.249    0.555
       349  -8.6273     84.0194     20.0335   5.7461636811e+01   5.9942006597e+01    0.1508812    0.1309756   7.75            0    1.109    0.098
       350  -8.3478     79.8017     22.5164   5.9787308074e+01   6.0512199741e+01    0.2547716    0.1546058 -43.64  0.001291562    2.114    0.527
       351  -9.2344     88.6227    220.9347   1.0633905102e+02   1.6355367563e+01    0.2140694    0.1731693  31.00 0.0005683952    1.293    0.227
       352  -8.6598    203.0678    217.7086   8.1275682838e+01  -1.1635087740e+00    0.1791332     0.141461  15.47 0.0002188376    1.119    0.106
       353  -9.6096    132.1433     21.1965   4.6483471136e+01   4.9024739446e+01    0.2401578    0.2126122  67.36 0.0008152267    1.058    0.055
       354  -9.5556     95.3351     21.6345   5.4904019798e+01   5.7392858652e+01    0.2114455    0.1873254 -21.05 0.0003097984    1.236    0.191
       355  -9.1947     91.5581     19.9381   5.5260615442e+01   5.8382497898e+01    0.3184196    0.1749615  21.65  0.001098137    2.318    0.569
       356  -8.6754    242.2439    209.8054   7.2577721742e+01  -5.6161764049e+00    0.1666364    0.1385919 -77.94 0.0009337481    2.660    0.624
       357  -8.0891    145.4706    210.4588   9.2125022267e+01   9.4998057982e+00    0.1381265    0.1264827  30.79 9.822311e-05    1.021    0.021
       358  -8.8949    230.9311    209.2838   7.4491770082e+01  -3.9601591217e+00    0.1765108    0.1385309   4.79 0.0003859148    1.108    0.098
       359  -8.3625    194.3259    209.3506   8.1519066201e+01   1.5979412812e+00    0.1433757    0.0957311  -3.07  0.000423453    1.758    0.431
       360  -8.4048    123.8932    206.1087   9.6313879424e+01   1.3992044390e+01    0.1754404    0.1565422   1.69            0    1.252    0.202
       361  -9.2560     35.2046    201.3887   1.1617600319e+02   2.7550363022e+01    0.1763541   0.09904842  46.44 0.0009458964    1.639    0.390
       362  -8.1950    120.4033    199.4626   9.6074191317e+01   1.5992733313e+01    0.1406413    0.1294961  61.34  0.000124925    1.085    0.078
       363  -9.0937      7.5371    195.3220   1.2173625305e+02   3.1634911856e+01    0.3417892    0.1307425  48.50  0.001679145    2.337    0.572
       364  -8.2554    241.6771    193.7256   6.9668031799e+01  -3.0975075158e+00      0.12906   0.08566589  -2.69 0.0003001523    1.578    0.366
       365  -8.7724      5.6949    182.9452   1.2128579755e+02   3.4618159125e+01    0.1699743    0.1244995 -89.44 0.0003032091    1.093    0.085
       366  -9.5645     36.9779     18.8530   7.4773611908e+01   6.8221681578e+01      0.39025     0.216579   2.17  0.001471408    2.260    0.558
       367  -9.9550     43.2784     15.6089   7.0355561570e+01   6.7742988855e+01    0.3840456    0.1747592  36.80  0.001689731    2.042    0.510
       368  -9.1056    144.2641     17.5381   4.3216772009e+01   4.6492526770e+01    0.2574846    0.1820673  26.45  0.001120489    1.726    0.421
       369  -8.8273     55.3260    181.1134   1.0930875358e+02   2.9971538606e+01    0.1926676    0.1532457 -81.96 0.0005029829    1.152    0.132
       370 -10.6367    100.9993    176.0025   9.6943817896e+01   2.4579147145e+01    0.2050094    0.1965674  77.44  0.001160545    1.004    0.004
       371 -10.3308     16.0123     17.8081   8.4940145647e+01   7.0827534410e+01    0.3599168    0.1660785  19.11  0.001194028    2.215    0.549
       372  -9.9019      7.8458    174.3795   1.2015111053e+02   3.6447202792e+01    0.2245369    0.1368745 -89.34 0.0007300021    1.386    0.279
       373  -9.3050    103.6661     16.0476   5.0648637105e+01   5.6140378462e+01    0.1822027    0.1533768  43.17 0.0001810086    1.030    0.029
       374  -9.5918     18.6687    174.2177   1.1756925719e+02   3.5565412549e+01    0.2166572    0.1811622   3.21 0.0009297869    1.637    0.389
       375 -10.2234      7.0062    166.5082   1.1971422770e+02   3.8383667390e+01    0.2452711    0.1978757 -19.27  0.001095839    1.726    0.421
       376 -10.9325     15.0760    165.4101   1.1763909808e+02   3.7998253630e+01    0.4301817    0.2639544  10.65  0.002307332    2.315    0.568
       377 -11.9872     37.0412    159.3202   1.1131248567e+02   3.7436149831e+01     0.904095    0.3756785  40.67    0.0038764    2.423    0.587
       378 -12.0463     30.8695    154.7886   1.1240924956e+02   3.9186069322e+01    0.6520212    0.3701056  48.01  0.003294125    1.857    0.461
       379  -7.9968    127.6512     14.2901   4.5023163300e+01   5.0776114556e+01     0.131625   0.09635683 -75.80 0.0007026583    1.665    0.399
       380 -10.0465     24.3957    162.8577   1.1503178173e+02   3.7800578512e+01    0.2316194    0.1703289  43.67 0.0004124175    1.440    0.306
       381  -8.7132     20.6937    160.6662   1.1575289230e+02   3.8671344478e+01    0.1841505    0.1325788  69.71  0.000739405    1.351    0.260
       382 -10.2761      9.6414    158.1437   1.1832846120e+02   4.0195727475e+01    0.3526451    0.1657264  74.69  0.001059617    2.433    0.589
       383 -10.6627      2.0524    154.8222   1.1995205649e+02   4.1549717505e+01    0.5812654    0.1548164 -74.49  0.002258577    2.941    0.660
       384  -8.4086     84.8247     14.3865   5.4885088805e+01   6.0365105672e+01    0.1826646   0.09887563  43.54 0.0009270071    1.586    0.369
       385  -9.5264    249.1960    153.7693   6.0474322146e+01   2.2241099751e+00    0.1847369    0.1387188 -12.07 0.0005697511    1.349    0.259
       386 -10.8503      5.2445    146.7823   1.1839613951e+02   4.3278905374e+01     0.609638     0.325316  60.23  0.003145302    2.042    0.510
       387  -9.9299      3.1929    140.5593   1.1833895336e+02   4.4932343410e+01    0.4421506    0.2215554  50.52  0.001273987    2.206    0.547
       388 -10.2863     19.3777    151.7877   1.1514904718e+02   4.0970816050e+01    0.2897766    0.2422926 -13.37  0.001308087    1.564    0.361
       389 -10.8346      2.8944    131.3731   1.1747397037e+02   4.7192828789e+01    0.5955795     0.226626 -73.26  0.001545231    2.088    0.521
       390 -11.0713      7.4424    123.9583   1.1529011891e+02   4.8724741908e+01    0.5742033    0.1886647 -51.13  0.001877521    2.595    0.615
       391 -10.7285     13.2916    145.4623   1.1610005516e+02   4.3020302265e+01    0.4700323    0.2211712 -53.37   0.00218482    1.963    0.490
       392 -10.7563     18.4942    140.4905   1.1408880495e+02   4.3844854459e+01    0.3391155    0.2352696  35.70  0.001414348    1.627    0.385
       393  -9.9279     14.1419    150.1480   1.1637067992e+02   4.1800718299e+01    0.2658323    0.2188075  73.84 0.0009170261    1.184    0.155
       394  -9.0497     45.9669    151.4261   1.0781035459e+02   3.8448956988e+01     0.203566    0.1634544 -70.46 0.0002821285    1.104    0.094
       395  -9.1720     54.2093    145.8752   1.0461776605e+02   3.8885698758e+01    0.2212048    0.2004288 -30.75 0.0002649675    1.246    0.197
       396  -8.1180    202.6823    144.6855   6.6626457797e+01   1.2106998447e+01    0.1492753    0.1112304  -3.05 0.0002591851    1.649    0.394
       397  -9.3574     41.3425    138.9485   1.0727093854e+02   4.2109643468e+01    0.2280624    0.1830557  53.43  0.001292931    1.345    0.257
       398  -9.3156    235.9772    136.7001   5.8980901862e+01   7.3518918595e+00    0.1807659    0.1722772 -19.10 0.0005801733    1.125    0.111
       399  -9.0792    230.7717    137.1429   5.9923948914e+01   8.2079737149e+00    0.1893253     0.151465 -12.75 0.0007601184    1.316    0.240
       400  -9.5461     34.1792    136.5285   1.0901937508e+02   4.3449076607e+01    0.3330525    0.2618462  42.80  0.001929319    1.405    0.288
       401 -11.2093     28.7470    132.0365   1.0997705944e+02   4.5087111890e+01    0.2401754    0.2138263 -86.56 0.0003310188    1.097    0.088
       402  -8.6868     74.9679    136.0700   9.6732494833e+01   3.8569494448e+01    0.2489039    0.1709998 -29.54   0.00113029    1.794    0.442
       403 -10.2182      9.6623    151.5771   1.1769859599e+02   4.1792850864e+01     0.266058    0.2079637  19.15 0.0007985609    1.611    0.379
       404  -8.2954     83.5450    135.5933   9.4086616915e+01   3.7375098056e+01    0.1475888    0.1410735 -71.50 9.663282e-05    1.030    0.029
       405  -8.4781     49.7923    135.3448   1.0416479375e+02   4.2082403722e+01    0.1700094    0.1352688   8.74 0.0001253674    1.536    0.349
       406 -11.4168     43.5022    131.0735   1.0534826804e+02   4.3869331340e+01    0.6066756    0.4773563 -35.69  0.002457977    1.375    0.273
       407 -10.2906      9.8446    131.2761   1.1546368211e+02   4.6767751370e+01    0.3829754    0.1647485 -59.87  0.001747861    1.841    0.457
       408  -9.5656     12.8317    127.1589   1.1407767701e+02   4.7576525117e+01    0.2314364    0.1557943 -67.81 0.0007578558    1.205    0.170
       409  -9.1809     61.8605    131.0445   9.9707672376e+01   4.1672765436e+01    0.2207195    0.1851287  82.24 0.0005919908    1.304    0.233
       410  -9.1972     20.4775    131.1564   1.1232372921e+02   4.6009877297e+01    0.1962184     0.110413 -69.34 0.0009926354    1.476    0.322
       411  -8.3787    232.6877    128.6593   5.7756675013e+01   9.3505789486e+00    0.1398062     0.102949  -6.61 0.0007046324    1.698    0.411
       412 -10.2770     88.5489    128.0309   9.0945855008e+01   3.8440988627e+01    0.2579646    0.2218502  36.53 0.0002354372    1.223    0.182
       413 -10.7546     33.5099    125.0203   1.0743331508e+02   4.6407544453e+01    0.5578336    0.2739342 -80.89   0.00230513    2.421    0.587
       414  -8.7753    248.7750    133.9718   5.6421852332e+01   5.5966718252e+00    0.1842214   0.09372673 -37.36 0.0004991546    1.646    0.393
       415  -8.9425     59.8272    125.2016   9.9187811425e+01   4.3409917916e+01    0.2156857    0.1858701 -82.25 0.0007063958    1.199    0.166
       416  -9.2380    103.2861    123.9706   8.5625617843e+01   3.6844232705e+01     0.236634    0.2161175  33.47  0.000311776    1.137    0.120
       417  -9.0841     72.0029    123.5583   9.5022039947e+01   4.2139529654e+01    0.2256619     0.188341 -56.69 0.0004597246    1.111    0.100
       418  -8.7868    131.3024    122.9875   7.7580622923e+01   3.1548685880e+01     0.213595     0.194934 -41.11 0.0002688107    1.070    0.065
       419  -9.2629     39.0408    122.9645   1.0534342655e+02   4.6379111818e+01    0.2097667    0.1850453 -60.30 0.0005899805    1.025    0.024
       420  -8.1560     84.3184    122.2997   9.0916010675e+01   4.0546728312e+01    0.1536499    0.1150631 -21.40 0.0003952866    1.618    0.382
       421 -11.8905     20.7547    108.5045   1.0881897771e+02   5.1591958046e+01     1.204426    0.4391387 -41.24  0.004728136    2.943    0.660
       422  -9.1170     13.8945    109.6742   1.1128866295e+02   5.1799651245e+01    0.1845866    0.1559286  83.06 0.0004603414    1.270    0.213
       423 -10.5576     13.8268    113.5878   1.1190190919e+02   5.0848058463e+01    0.4238444    0.2708284  42.41  0.002058899    1.836    0.455
       424 -10.9710     21.8803    120.7294   1.1040623732e+02   4.8491955240e+01    0.3769102    0.3039446 -78.17 0.0002970775    1.134    0.118
       425 -10.8897     21.0912    116.1024   1.0994472459e+02   4.9699296481e+01    0.3425635    0.2561099 -18.42 0.0003566463    1.598    0.374
       426  -8.7954    220.9377    121.1673   5.7992898640e+01   1.2914787022e+01     0.217404      0.17882 -57.21 0.0006884609    1.271    0.213
       427  -8.9950    124.0772    121.0900   7.9034072638e+01   3.3471828574e+01    0.2860045    0.2072709  48.05 0.0009774567    1.443    0.307
       428  -9.8000     93.6719    119.1378   8.7304137461e+01   3.9735041518e+01    0.2915173    0.2455254  -8.00  0.001157584    1.366    0.268
