#   1 NUMBER                 Running object number                                     
#   2 MAG_AUTO               Kron-like elliptical aperture magnitude                    [mag]
#   3 X_IMAGE                Object position along x                                    [pixel]
#   4 Y_IMAGE                Object position along y                                    [pixel]
#   5 X_WORLD                Barycenter position along world x axis                     [deg]
#   6 Y_WORLD                Barycenter position along world y axis                     [deg]
#   7 A_WORLD                Profile RMS along major axis (world units)                 [deg]
#   8 B_WORLD                Profile RMS along minor axis (world units)                 [deg]
#   9 THETA_WORLD            Position angle (CCW/world-x)                               [deg]
#  10 FWHM_WORLD             FWHM assuming a gaussian core                              [deg]
#  11 ELONGATION             A_IMAGE/B_IMAGE                                           
#  12 ELLIPTICITY            1 - B_IMAGE/A_IMAGE                                       
         1 -15.2034     44.1585    203.2159   1.3074095028e+02   2.8292318923e+01     11.91627     4.235168  81.24   0.03118749    5.954    0.832
         2 -12.9921    198.1330     33.6352   6.0073534496e+01   3.1267578243e+01     1.271898     1.180408  22.32  0.006635633    1.183    0.155
         3 -13.6414    214.5112     16.3626   5.3249136441e+01   2.9119582381e+01     1.446529      1.03407  24.05  0.007413194    1.845    0.458
         4 -12.0903      2.4667     13.7741   1.1326889229e+02   7.1682804139e+01    0.8655867    0.2367554 -59.52  0.003620445    3.603    0.722
         5 -11.3077    125.9664    245.7895   1.1965576195e+02   9.9824566730e+00    0.3024323    0.1740975  72.42  0.001664155    2.523    0.604
         6 -11.7058    139.2553    249.4190   1.1771973746e+02   7.4748662169e+00    0.4194886    0.1897968  42.42  0.002358278    1.664    0.399
         7 -12.7141    106.7154    243.1576   1.2276420653e+02   1.3193532155e+01    0.6310111     0.301771  41.68  0.003665377    1.671    0.401
         8 -11.3947     93.2524    249.8909   1.2566377233e+02   1.4053317479e+01    0.3903478    0.2508168  61.40  0.002753186    1.290    0.225
         9 -11.3892    100.4519    249.3943   1.2440165142e+02   1.3135397514e+01    0.4322387    0.2252737  57.01  0.002060192    1.635    0.388
        10  -9.2191     62.9875    250.4843   1.3072436407e+02   1.7885810890e+01    0.1566631   0.07723187  45.47 0.0004413896    1.553    0.356
        11 -11.3011     39.3773    246.7575   1.3429371608e+02   2.1234480475e+01     0.371999    0.2872531  33.96  0.002988065    1.748    0.428
        12 -11.0171     29.7201    247.3640   1.3583736330e+02   2.2185491273e+01    0.3264597    0.2749785 -67.53  0.002853442    1.746    0.427
        13  -9.9523     33.7412    247.9919   1.3524211846e+02   2.1654906441e+01    0.1712026    0.1149112  88.28 0.0008313346    1.361    0.265
        14 -11.9933     18.4330    232.6648   1.3693355873e+02   2.5756405729e+01    0.6380466    0.1826948  42.04  0.003611715    2.560    0.609
        15 -11.4759     17.5601    249.8408   1.3780144342e+02   2.3044978982e+01    0.5591167    0.3506322  27.23  0.004026743    2.495    0.599
        16 -10.6059     12.8453    245.6169   1.3834424906e+02   2.4180999961e+01    0.2853711    0.1412385 -84.72  0.001952704    1.820    0.450
        17  -9.9978      8.6893    250.4354   1.3914200595e+02   2.3819126039e+01    0.2596183    0.1049776  47.09  0.001463042    1.774    0.436
        18 -11.1668      2.1442    247.9589   1.4001690195e+02   2.4823517367e+01    0.6201397    0.1669444 -84.22   0.00340189    3.468    0.712
        19 -11.5291     17.8624    242.9531   1.3747240932e+02   2.4115051263e+01    0.4690261    0.1161445  53.32  0.001895617    2.648    0.622
        20 -12.2024     11.9422    237.9939   1.3818121921e+02   2.5504829703e+01    0.4344135    0.2423713  77.69 0.0008189774    1.376    0.273
        21 -10.8014     95.1654    243.2001   1.2477538446e+02   1.4816848798e+01    0.2519512    0.1393527 -72.45   0.00157978    2.175    0.540
        22  -9.5405     55.9805    240.9772   1.3126338702e+02   2.0252238496e+01    0.1575603    0.1145022  63.38  0.000327685    1.018    0.018
        23 -10.6665     46.9696    234.9888   1.3238880667e+02   2.2302632796e+01    0.4088268    0.1585787  66.78   0.00214221    2.674    0.626
        24 -14.5622     96.7757    228.3382   1.2313806824e+02   1.6980641684e+01     4.389703    0.2190172  43.02   0.01219711    6.892    0.855
        25 -10.1513    249.3955    249.1540   9.9086993900e+01  -8.9394587926e+00     0.189282    0.1575088  -2.70  0.001528745    1.376    0.273
        26 -13.6853     36.5728    217.2231   1.3307095846e+02   2.6554025373e+01     0.761212    0.5556619  70.38  0.002561952    1.014    0.014
        27 -12.5096     30.0067    225.1251   1.3466002250e+02   2.5861863900e+01    0.2615945    0.2254224  80.27 0.0007941339    1.331    0.248
        28 -13.1058      9.8648    206.7313   1.3714264614e+02   3.1132152343e+01    0.7201611    0.4792428  42.80  0.003418061    1.535    0.349
        29 -10.7001    227.2983    203.2454   9.5391390326e+01  -6.4400928203e-01    0.3193821    0.2327433 -54.08 0.0008765229    2.295    0.564
        30  -9.4991    192.2064    193.3198   1.0006639949e+02   6.8119933740e+00    0.3561903    0.2027852 -65.28  0.001240494    5.255    0.810
        31 -11.3824     58.1627    192.9225   1.2717678623e+02   2.8623745373e+01    0.3045382    0.2252255 -51.60  0.001104106    1.768    0.435
        32  -8.3161    181.5251    192.4534   1.0197568023e+02   8.8801871336e+00    0.1331939    0.1134567  31.50 7.746244e-05    1.014    0.014
        33 -11.5812     64.5164    185.4747   1.2516276945e+02   2.9306688148e+01    0.2529313    0.2371364 -88.41 0.0008199239    1.268    0.211
        34 -10.7370     74.9046    173.6637   1.2162691066e+02   3.0348858880e+01    0.2237122    0.2063269  84.94 0.0004159751    1.152    0.132
        35 -13.0448     61.5882    170.9880   1.2424231290e+02   3.2657372389e+01    0.4640271     0.261687 -48.03  0.001589317    2.285    0.562
        36 -11.6787     82.9898    164.9972   1.1869571709e+02   3.1032011229e+01    0.5968952    0.4825547  55.87  0.003695712    1.148    0.129
        37  -9.7223     40.3485    229.1127   1.3314569826e+02   2.4050648107e+01    0.2246475    0.1156388  57.10 0.0007108292    1.476    0.322
        38 -12.3320     67.5277    143.9635   1.1940174807e+02   3.7761578565e+01    0.7832197    0.4961527  76.16  0.002958472    1.811    0.448
        39  -9.6918     96.2667    149.7281   1.1324877414e+02   3.2298518294e+01     0.238715    0.2354066 -78.84 0.0007604466    1.154    0.134
        40  -9.0226     99.2170    145.8656   1.1186921269e+02   3.2663740577e+01    0.2044823    0.1825492 -35.39 0.0003845301    1.324    0.245
        41 -11.8603     84.5819    148.5840   1.1590543063e+02   3.4349933060e+01    0.2746097    0.2316706 -52.75 0.0005411381    1.282    0.220
        42 -10.9215    149.5927    228.7924   1.1346994418e+02   8.8066401733e+00    0.3408566    0.1152373  39.32  0.001483669    2.480    0.597
        43 -11.5295     57.2902    131.8557   1.2021414658e+02   4.1773875603e+01    0.9606017    0.3492838 -78.39  0.002808971    5.563    0.820
        44 -10.3154     95.5763    132.5329   1.1035299811e+02   3.6202125445e+01    0.2514164    0.2221644 -26.68 0.0009196835    1.359    0.264
        45  -8.7576    106.0004    122.7202   1.0564402479e+02   3.6613668772e+01    0.1831438    0.1726707  54.05 0.0002643777    1.073    0.068
        46  -9.2610    108.5688    135.4915   1.0761333639e+02   3.3349445771e+01    0.3102869    0.2179873 -11.69  0.001356625    2.494    0.599
        47  -9.6423    167.6939    112.8468   8.8140838743e+01   2.5954716617e+01    0.3291267    0.2601473 -63.55  0.001186593    1.515    0.340
        48  -8.7500    203.4950    111.4867   8.0456318617e+01   1.8013211609e+01    0.1496896    0.1402064   6.48 0.0008102344    1.038    0.036
        49 -11.1605    242.7325     95.2608   6.9860452161e+01   1.1885957210e+01    0.3060003    0.2124457  62.94  0.001556109    1.677    0.404
        50 -11.8035      6.8527    226.2198   1.3850508659e+02   2.7960036743e+01    0.3495652      0.23508  75.01  0.002883357    1.073    0.068
        51 -10.6500     12.9676     61.5664   1.2167836762e+02   6.1579682804e+01    0.2510724    0.1160752 -52.93  0.001056799    1.640    0.390
        52 -10.5158      2.0000     50.5333   1.2362665529e+02   6.4495181214e+01    0.3864575   0.05067635 -67.06  0.001153727    5.909    0.831
        53 -10.6240    184.2313    249.2675   1.0991651980e+02   6.0094774398e-01    0.2205374    0.1119854  37.69  0.001293196    1.494    0.330
        54 -10.7133    162.7471    249.5681   1.1366007352e+02   3.8692494996e+00    0.2957477   0.08447739  43.13  0.001302109    2.629    0.620
        55  -9.7929     19.6041     35.7933   1.1239683397e+02   6.6444505106e+01    0.1646244   0.09890451 -62.93 0.0009532818    1.684    0.406
        56 -10.8312     16.6051     25.3999   1.1032467800e+02   6.8646661448e+01    0.2219633    0.1944501  44.35 0.0006170807    1.606    0.377
