#   1 NUMBER                 Running object number                                     
#   2 MAG_AUTO               Kron-like elliptical aperture magnitude                    [mag]
#   3 X_IMAGE                Object position along x                                    [pixel]
#   4 Y_IMAGE                Object position along y                                    [pixel]
#   5 X_WORLD                Barycenter position along world x axis                     [deg]
#   6 Y_WORLD                Barycenter position along world y axis                     [deg]
#   7 A_WORLD                Profile RMS along major axis (world units)                 [deg]
#   8 B_WORLD                Profile RMS along minor axis (world units)                 [deg]
#   9 THETA_WORLD            Position angle (CCW/world-x)                               [deg]
#  10 FWHM_WORLD             FWHM assuming a gaussian core                              [deg]
#  11 ELONGATION             A_IMAGE/B_IMAGE                                           
#  12 ELLIPTICITY            1 - B_IMAGE/A_IMAGE                                       
         1 -14.8766    246.1224      6.0401   1.6066850522e+01   2.4360290011e+01     1.321066    0.7168398 -28.68  0.008074509    1.571    0.364
         2 -12.0269      1.7116     25.0232   9.4058800663e+01   7.3735082136e+01    0.4716564    0.1595318 -73.62  0.001878846    2.844    0.648
         3 -12.4869     13.4184     12.7854   7.9204942908e+01   7.5785220993e+01    0.3496203    0.2048515 -32.71  0.001433098    1.645    0.392
         4 -12.8622     15.8870      6.4553   7.3306572437e+01   7.6832115130e+01    0.5049612    0.2819681 -33.49   0.00256363    1.765    0.434
         5 -13.6823      6.5367     11.0184   8.4831448737e+01   7.6695846096e+01    0.9917596    0.4715676 -43.30  0.004892132    1.819    0.450
         6 -12.7386     10.4144      2.0288   7.5917551155e+01   7.8257902996e+01     1.058307    0.2495155  21.86  0.003452795    4.744    0.789
         7 -12.7094     19.8647     13.8629   7.4125569691e+01   7.4914768896e+01    0.4209284    0.1895435 -41.11  0.001888294    2.121    0.528
         8 -12.7930     25.2127      4.0541   6.3367549164e+01   7.6079247300e+01     0.489623    0.3161002   6.43  0.002507671    1.835    0.455
         9 -13.8011     12.4573     23.2024   8.4663416733e+01   7.3573057605e+01    0.7305424    0.2758231 -45.77  0.003107531    2.296    0.564
        10 -12.3637     84.5860    244.7841   9.1393209253e+01   1.5473676001e+01    0.3118841    0.1660197  46.76  0.001686423    1.684    0.406
        11 -12.9570    248.9320    225.2318   5.8341097814e+01  -8.0689771736e-01    0.6063565    0.2491939  -8.79  0.002981086    3.475    0.712
        12 -13.2941    234.3329    245.7281   6.3418062573e+01  -1.3489581463e+00    0.5390543     0.257701 -17.87  0.003630096    1.947    0.487
        13 -12.4173    240.3174    239.1693   6.1608327116e+01  -1.3059997560e+00    0.2628697    0.1374366 -11.78  0.001428723    1.662    0.398
        14 -13.0067    243.8723    234.9100   6.0478169488e+01  -1.2450099419e+00    0.3231114    0.1584722 -16.89  0.002194344    1.796    0.443
        15 -12.7951    243.0119    245.4042   6.2050323609e+01  -2.1483080719e+00     0.530821    0.2288219 -13.69   0.00324063    2.408    0.585
        16 -12.4512    247.6897    239.1939   6.0503917310e+01  -2.0155420240e+00    0.3745042    0.1859173 -13.26  0.002018857    1.751    0.429
        17 -11.8026    249.9930    232.9111   5.9285252685e+01  -1.6468471405e+00    0.2797947    0.1426567 -16.78  0.001550418    1.646    0.392
        18 -11.6309    248.8719    250.0050   6.1793482028e+01  -3.1057943595e+00    0.3605418    0.1397506  22.37  0.002316181    2.066    0.516
        19 -11.4085    248.8909    244.8892   6.1104876229e+01  -2.6497136033e+00    0.2491167    0.1420624  -2.15  0.001922666    1.313    0.238
        20 -12.5735    225.7734    248.2186   6.5090291258e+01  -7.4949143738e-01    0.2802865    0.1760163  13.00  0.001831576    1.114    0.102
        21 -12.8652    212.9010    247.8522   6.7125843249e+01   5.8612113938e-01    0.4059727    0.1897536   9.95  0.002405507    2.134    0.531
        22 -11.4878     74.4716    250.2248   9.3886952255e+01   1.5727559170e+01    0.3530759   0.08828527  34.19  0.001634628    2.478    0.597
        23 -12.0555     65.2643    249.0559   9.5717520513e+01   1.6869753820e+01     0.391459    0.1630993  38.41  0.002249126    1.675    0.403
        24 -11.6602     50.4216    250.0995   9.8837641293e+01   1.8193977372e+01     0.423362     0.127375  28.13   0.00206497    2.414    0.586
        25 -11.5833     44.8239    245.0663   9.9750191725e+01   1.9544492208e+01    0.3484961    0.1547979  51.11  0.001729177    1.887    0.470
        26 -12.0647     36.8300    248.6736   1.0155701061e+02   1.9711050216e+01    0.4308965    0.1642598  44.05  0.002490705    1.825    0.452
        27 -12.0558     20.3784    249.0883   1.0489938623e+02   2.1101324663e+01    0.3609231    0.1598387  38.21  0.001849717    1.502    0.334
        28 -12.0549     12.1653    248.9791   1.0653165198e+02   2.1801842218e+01    0.3853802     0.138546  39.56  0.001782035    1.742    0.426
        29 -11.5649      3.5423    250.3151   1.0824958454e+02   2.2270113270e+01    0.3229882    0.1507412  17.90  0.001829906    2.208    0.547
        30 -12.6285      3.2620    243.0365   1.0817963790e+02   2.3483683811e+01    0.4533083    0.2048736  57.30  0.002412166    1.728    0.421
        31 -12.0301    116.1770    244.4470   8.4798663090e+01   1.1932266711e+01    0.2837836    0.1314429  42.80  0.001566278    1.988    0.497
        32 -12.1517     57.4409    242.1767   9.6948557672e+01   1.8770232491e+01    0.4353235    0.1577852  44.58  0.002289274    2.096    0.523
        33 -12.6374     16.1050    240.4389   1.0552360412e+02   2.2890894076e+01    0.5809602    0.1743542  41.74  0.002829056    2.046    0.511
        34 -11.9703      6.7002    236.2853   1.0735452588e+02   2.4357504106e+01      0.38766    0.1827783  57.36  0.001572781    1.689    0.408
        35 -12.1332      4.8893    228.3085   1.0756501753e+02   2.5890744653e+01    0.4305099    0.1832856  56.89  0.001875909    1.848    0.459
        36 -11.9511      2.1788    220.6358   1.0798817244e+02   2.7480350661e+01    0.3377934    0.1730245  75.33  0.001498466    1.857    0.461
        37 -11.1545     87.7107    250.5477   9.1179870891e+01   1.4255293730e+01     0.343834   0.08776927  27.56  0.001429715    3.089    0.676
        38 -10.2458     49.5173    243.4758   9.8690353636e+01   1.9348992495e+01    0.1140771   0.08070887  40.42 9.669128e-05    1.046    0.044
        39 -12.0640     29.5984    240.7719   1.0274177387e+02   2.1669418505e+01    0.4103419    0.1826883  51.64  0.002002985    1.786    0.440
        40 -12.7307    226.2354    240.7680   6.4020412191e+01  -6.3039508581e-02    0.2596954    0.1365419  -9.44  0.001734437    1.782    0.439
        41 -11.9804     72.8030    240.1914   9.3552894708e+01   1.7484269990e+01    0.3715042    0.1649844  44.76  0.002010002    1.844    0.458
        42 -12.0358    107.7406    240.2200   8.6145019648e+01   1.3537748769e+01    0.3823875    0.1267363  39.71  0.001811704    2.394    0.582
        43 -10.9034     64.7283    240.2885   9.5284075667e+01   1.8326768655e+01    0.2547469    0.1313058  49.60  0.001522147    1.713    0.416
        44 -11.1143     38.2665    240.4142   1.0091058070e+02   2.0935449612e+01    0.2879496    0.1271514  43.72   0.00133456    1.632    0.387
        45 -10.8908    128.9863    240.3212   8.1763464260e+01   1.1011744117e+01    0.1950759   0.05311906  42.84 0.0007049973    4.311    0.768
        46 -10.4478    215.3198    239.3130   6.5593874103e+01   1.2149043958e+00    0.1099071   0.06024678   3.06 0.0003969596    1.650    0.394
        47 -10.5226    220.3367    238.3198   6.4636583327e+01   7.9182197586e-01    0.1110451   0.05952634   2.99 0.0006050839    1.706    0.414
        48 -11.4757     45.1959    237.3227   9.9293498037e+01   2.0795298763e+01    0.2973968    0.1345525  43.55  0.001551373    1.631    0.387
        49 -11.8193     82.0449    236.4935   9.1293437103e+01   1.7067300461e+01    0.3144656    0.1343952  45.79  0.001650895    2.064    0.515
        50 -12.3324    231.6472    234.5465   6.2306934697e+01   9.1893418286e-03    0.2712769    0.1385359  -6.00  0.001737131    1.897    0.473
        51 -11.6581     95.3204    235.4713   8.8347718189e+01   1.5717484114e+01    0.3101454    0.1327112  40.54  0.001641197    1.867    0.464
        52 -11.7990     14.2813    231.9654   1.0567120217e+02   2.4498426185e+01    0.3818652    0.1755367  52.60  0.001893821    1.673    0.402
        53 -11.4870     11.2147    225.7606   1.0615785164e+02   2.5849183075e+01    0.3521709    0.1478645  45.65  0.001430125    1.678    0.404
        54 -11.4680     59.7736    232.2337   9.5841791683e+01   2.0191685177e+01    0.3694943    0.1055151  43.18  0.001684616    2.565    0.610
        55 -11.3437     39.7637    231.0039   1.0015611255e+02   2.2405732648e+01    0.3010515    0.1628508  61.96  0.001834155    1.806    0.446
        56 -11.2464     48.6370    230.5959   9.8190913581e+01   2.1611866921e+01    0.3252199    0.1515456  55.90  0.001798368    2.051    0.512
        57 -12.2711     25.6799    228.6844   1.0312349059e+02   2.4107513330e+01    0.4894211    0.2280425  60.70  0.002844857    1.966    0.491
        58 -10.7220     32.3398    229.3430   1.0170049273e+02   2.3391996938e+01     0.244043   0.09716776  50.85  0.001315333    2.019    0.505
        59 -12.2795    237.0366    227.8063   6.0511768590e+01   1.3644755539e-01    0.2701457    0.1268584 -14.56  0.001652064    2.100    0.524
        60 -10.1800      1.3316    235.1325   1.0843226606e+02   2.4968927087e+01    0.1400522   0.07565824  69.23   0.00093291    1.677    0.404
        61 -10.6431     32.7702    236.1371   1.0189224420e+02   2.2169090600e+01    0.2635049   0.08220035  53.54  0.001266036    2.756    0.637
        62 -11.4995     18.8883    221.9497   1.0437119900e+02   2.5909618585e+01    0.3183855    0.1555937  55.87  0.001592419    1.693    0.409
        63 -12.1570     12.2151    217.0766   1.0569926053e+02   2.7361243871e+01    0.4615137    0.2132728  50.80  0.002346722    1.651    0.394
        64 -10.6421     55.0277    222.0274   9.6246624252e+01   2.2479554720e+01    0.2021966    0.1048548  50.82  0.001141143    1.701    0.412
        65 -11.1665     43.7004    221.3149   9.8779170724e+01   2.3756795983e+01    0.2713942     0.133085  50.54  0.001532814    1.721    0.419
        66 -10.0095     63.6465    221.3191   9.4232576275e+01   2.1689566362e+01    0.1303378   0.06725135  50.02 0.0005429445    1.748    0.428
        67 -11.5590    239.2933    218.5887   5.8815416014e+01   8.4433658647e-01    0.1886654   0.09720346 -10.61  0.001195449    1.809    0.447
        68 -11.4128     34.9348    217.4058   1.0057366455e+02   2.5321260757e+01    0.3219082    0.1793683  61.94  0.001922726    1.702    0.413
        69 -10.7884     24.3040    217.4403   1.0299573913e+02   2.6278719327e+01    0.2446333     0.118702  56.60  0.001403802    1.769    0.435
        70 -12.3511    248.4707    214.7514   5.6857579433e+01   2.8171823364e-01    0.3255692    0.1462617 -20.47  0.002015837    1.987    0.497
        71 -11.8782      2.4473    212.4835   1.0776255398e+02   2.8979491977e+01    0.3741632    0.1885062  71.95  0.001708343    1.825    0.452
        72 -11.1259      1.3992    206.2444   1.0786650324e+02   3.0253156276e+01    0.2507837   0.09805334 -82.87  0.001265072    2.671    0.626
        73 -10.2111     44.5071    212.9818   9.8114775454e+01   2.5227157244e+01    0.1681457   0.07568061  64.48 0.0008096885    2.518    0.603
        74 -11.0534     21.6241    211.2294   1.0336490334e+02   2.7687816585e+01    0.2695267    0.1777705  72.62  0.001768816    1.466    0.318
        75 -11.0494     28.9673    211.4466   1.0166932730e+02   2.6999013443e+01    0.2320183    0.1305592  65.23  0.001374067    1.699    0.411
        76 -10.4844     36.1586    207.7207   9.9788992386e+01   2.7052143026e+01    0.2103165    0.1078824  44.97  0.001180355    1.532    0.347
        77 -12.4730     12.5518    205.4388   1.0526816893e+02   2.9562861797e+01    0.5471375    0.2243449  46.39  0.002966823    1.807    0.447
        78  -9.9410     31.3314    201.6745   1.0063014081e+02   2.8697510150e+01    0.1333225   0.06593993  51.75 0.0007050878    1.707    0.414
        79 -10.4468     18.7177    201.3564   1.0366299911e+02   2.9868840905e+01    0.2014357   0.09165242  50.92 0.0009362042    1.763    0.433
        80 -10.2979    250.5763    200.2225   5.4301998037e+01   1.5629048659e+00    0.1500568   0.07682956 -17.71 0.0009553211    1.664    0.399
        81 -12.4353      3.5062    196.9970   1.0716108640e+02   3.1930951318e+01     0.436918    0.1844762  56.56  0.002351672    1.913    0.477
        82 -11.3915      9.2276    198.0437   1.0582301545e+02   3.1293781396e+01    0.2431722    0.1161175  59.24  0.001188426    1.774    0.436
        83 -12.3028      4.1390    188.6948   1.0678917337e+02   3.3587036036e+01    0.6114026    0.1623989  55.15  0.002602926    2.964    0.663
        84 -10.5056     25.7850    203.2008   1.0204493709e+02   2.8893848274e+01    0.2208522   0.06780869  53.00 0.0009510211    2.793    0.642
        85 -11.7718     17.0905    189.8663   1.0359926533e+02   3.2353418584e+01    0.2820836     0.141377  74.09  0.001422469    1.977    0.494
        86 -11.1124     11.5192    190.9752   1.0503282823e+02   3.2564176405e+01    0.1690933    0.1060451  86.12   0.00102712    1.583    0.368
        87 -10.6090     24.3081    186.4562   1.0160501864e+02   3.2466055754e+01    0.2243145    0.1174281  65.59  0.001184733    1.838    0.456
        88 -12.1181     11.7051    184.0973   1.0473758866e+02   3.3996586733e+01    0.3325363     0.175877  76.70  0.001711138    1.824    0.452
        89 -11.6864      5.1886    182.9036   1.0635894302e+02   3.4731551835e+01     0.286149    0.1358484  51.12  0.001340102    1.688    0.408
        90 -11.6887      1.9134    178.1991   1.0706160371e+02   3.5966755990e+01    0.3595984    0.1673384  80.13  0.001877234    2.041    0.510
        91 -10.6865     17.0983    181.4169   1.0323424490e+02   3.4148511685e+01    0.2556407    0.1269601  70.08  0.001318418    1.957    0.489
        92 -10.7414     23.1808    179.9690   1.0156427629e+02   3.3958162255e+01    0.2215617    0.1026466  59.83  0.001081527    2.025    0.506
        93 -11.6126      9.1133    177.8382   1.0517801815e+02   3.5538205152e+01    0.1994906    0.1332613  55.15  0.001022222    1.244    0.196
        94 -11.0095     18.5313    174.5048   1.0252980420e+02   3.5544552236e+01     0.240624   0.07340661  34.70  0.001038446    2.401    0.584
        95 -12.3541      6.4830    171.4210   1.0564656921e+02   3.7135932128e+01     0.350266    0.1677841  80.99  0.001792664    2.015    0.504
        96 -10.8228     11.2073    172.2031   1.0440390851e+02   3.6622518165e+01    0.1849274    0.1142313  54.35  0.001070962    1.368    0.269
        97 -11.0135      1.4356    170.2426   1.0696187196e+02   3.7737628935e+01    0.2607155   0.09929817 -76.32  0.001215857    2.584    0.613
        98 -11.5648      2.7465    165.8440   1.0647285286e+02   3.8633840244e+01    0.3842643   0.09628723  38.96  0.001615602    2.722    0.633
        99 -11.8858     10.9106    166.7760   1.0425857313e+02   3.7860628275e+01    0.2526397    0.1298386  44.23   0.00134286    1.611    0.379
       100 -10.1550     19.6835    164.3428   1.0167816530e+02   3.7742385059e+01    0.1416881   0.07387901  54.92 0.0004655698    1.713    0.416
       101 -11.8595      5.8449    161.3184   1.0545434689e+02   3.9456184493e+01    0.2286354    0.1447461  71.11  0.001321801    1.419    0.295
       102 -12.3974     10.1940    155.5311   1.0396244273e+02   4.0498575405e+01    0.3043204    0.1585335  87.12  0.001547321    1.857    0.461
       103 -12.3118      3.9423    153.2106   1.0569342760e+02   4.1455747234e+01    0.2768224    0.1637424 -79.68  0.001530039    1.638    0.389
       104 -12.0314      7.8546    143.8389   1.0411226889e+02   4.3431790560e+01    0.4110242    0.1143849  61.26   0.00140454    3.885    0.743
       105 -11.5796      2.3986    143.2801   1.0577125167e+02   4.3900468154e+01    0.2347826    0.1079651 -79.57   0.00106496    2.042    0.510
       106 -12.0848      4.1291    136.8848   1.0495771333e+02   4.5345400399e+01    0.3206407    0.1531775  79.61  0.001518171    2.001    0.500
       107 -10.7038    247.8279    129.5988   4.2181364398e+01   1.0072097039e+01    0.1345804    0.1128866  54.53 0.0008112475    1.705    0.413
       108 -11.2846      2.5146    126.5219   1.0500527576e+02   4.7986461157e+01     0.239511    0.1013682  78.92   0.00103245    2.317    0.568
       109 -11.3959    248.5116    118.9673   3.9996166912e+01   1.1281723566e+01    0.1857459   0.09380703 -30.44  0.001037217    1.608    0.378
       110 -11.2117    248.3895    107.1536   3.7626116735e+01   1.2754384342e+01     0.173181    0.0861036 -38.07 0.0008861741    1.753    0.430
       111 -11.1641    249.3948     98.2015   3.5668972147e+01   1.3695558226e+01    0.1733051   0.08638243 -37.39 0.0009480978    1.687    0.407
       112 -11.1416    242.5040     92.9990   3.5367416912e+01   1.5435523402e+01     0.175864   0.07691936 -46.33 0.0008104049    2.538    0.606
       113 -11.3838    249.4907     87.9866   3.3529753381e+01   1.4918122565e+01    0.1849661   0.09393475 -31.45 0.0008430309    1.572    0.364
       114 -10.8904    243.3082     82.6733   3.3066831852e+01   1.6574854125e+01    0.1205722   0.07897563 -51.21 0.0007038164    1.655    0.396
       115 -11.9658    248.6848     74.4959   3.0754640455e+01   1.6658806012e+01     0.324709   0.06367508 -34.97  0.001215611    3.442    0.709
       116 -11.3185      2.5262     66.4966   1.0061005235e+02   6.3374327625e+01    0.2470305    0.1123785  84.32  0.001040202    2.370    0.578
       117 -12.4827      3.0484     49.8770   9.8120421008e+01   6.7595570007e+01    0.5337715    0.2140113 -72.99  0.002300165    2.183    0.542
       118 -11.4333      8.4376     44.2312   9.3672996307e+01   6.8785382894e+01    0.2637505    0.1079409 -65.81   0.00113705    2.081    0.520
       119 -10.8688    248.3171     43.6797   2.4124685373e+01   2.0214232057e+01    0.1227744   0.06954683 -52.06 0.0005543137    1.661    0.398
       120 -12.1106      2.5162     40.2980   9.6830463923e+01   7.0005853283e+01    0.4069577    0.1997088 -70.51   0.00195178    1.798    0.444
       121 -11.9086      3.1032     33.1319   9.4943870702e+01   7.1740390963e+01    0.3376135    0.1363331 -59.77  0.001465426    1.993    0.498
       122 -10.7713    203.0045    249.4897   6.8991745997e+01   1.4467979138e+00    0.1615658    0.0761928  24.81 0.0009807113    1.593    0.372
       123 -10.8758    169.0088    250.0000   7.5076652581e+01   5.0975901110e+00    0.1853546   0.04653464  30.55 0.0008076165    2.978    0.664
       124 -11.0955     27.0881    248.6275   1.0353511927e+02   2.0595881886e+01    0.2551455    0.1015102  44.09  0.001119283    1.715    0.417
       125 -11.6117    127.7356    247.8532   8.2793388757e+01   1.0110963877e+01    0.2245736      0.10785  43.77  0.001251496    2.111    0.526
       126 -11.0977    110.0190    248.5119   8.6436702664e+01   1.2058558901e+01    0.1823357   0.08343855  29.75  0.001031494    1.587    0.370
       127 -12.1978    143.4790    247.5940   7.9653957386e+01   8.3183413887e+00    0.3352866   0.08167899  30.52  0.001412107    3.030    0.670
       128 -12.6504     97.4948    245.0851   8.8718384350e+01   1.3985655789e+01    0.4214181    0.1669439  42.55  0.002201846    2.128    0.530
       129 -11.5512     77.1970    246.7061   9.3080680121e+01   1.5979814432e+01    0.1910492    0.1008819  40.39  0.001145307    1.436    0.304
