#   1 NUMBER                 Running object number                                     
#   2 MAG_AUTO               Kron-like elliptical aperture magnitude                    [mag]
#   3 X_IMAGE                Object position along x                                    [pixel]
#   4 Y_IMAGE                Object position along y                                    [pixel]
#   5 X_WORLD                Barycenter position along world x axis                     [deg]
#   6 Y_WORLD                Barycenter position along world y axis                     [deg]
#   7 A_WORLD                Profile RMS along major axis (world units)                 [deg]
#   8 B_WORLD                Profile RMS along minor axis (world units)                 [deg]
#   9 THETA_WORLD            Position angle (CCW/world-x)                               [deg]
#  10 FWHM_WORLD             FWHM assuming a gaussian core                              [deg]
#  11 ELONGATION             A_IMAGE/B_IMAGE                                           
#  12 ELLIPTICITY            1 - B_IMAGE/A_IMAGE                                       
         1 -11.4485     79.7922     23.5607   9.5333348024e+01   6.1444804028e+01    0.8155321    0.3086997  36.48   0.00315825    3.030    0.670
         2  -9.2215    144.2926     24.9734   7.8934073412e+01   4.6812155617e+01    0.4240259    0.2566133  -6.29  0.001673333    2.136    0.532
         3  -9.1509     28.0424     22.2767   1.1598683224e+02   6.8933419995e+01    0.6816776    0.3464922 -18.77  0.003386421    2.576    0.612
         4  -9.6116     64.4853     14.1905   9.6521472125e+01   6.5383384115e+01    0.4724111    0.2650667  15.18  0.002045486    2.338    0.572
         5  -8.7041    127.6438     16.9180   7.9387836327e+01   5.1896328058e+01    0.2826687    0.2373387  -2.70 0.0003832614    1.248    0.199
         6  -9.3428     79.2513     12.9465   9.0699272613e+01   6.2925178584e+01    0.3817376    0.2278808  51.57  0.001279491    1.780    0.438
         7  -9.1078     74.4794     13.5278   9.2586203038e+01   6.3736668558e+01    0.3433844    0.2075922  14.58  0.001146005    1.948    0.487
         8  -9.5363    134.0406     13.6145   7.6799631028e+01   5.0669749505e+01    0.2961259    0.2255396  32.96  0.000256227    1.312    0.238
         9  -8.2337    137.3172     10.2654   7.4911944967e+01   5.0185504953e+01    0.2297724    0.1717681 -14.68 0.0005947544    1.454    0.312
        10  -9.1442    125.1860     10.2920   7.7330049257e+01   5.3186474123e+01    0.2458812    0.1965422   5.84 0.0004070526    1.323    0.244
        11  -9.2276    106.8775     12.4950   8.2465308303e+01   5.7247541656e+01    0.4983446    0.2270817  26.02  0.001806669    3.326    0.699
        12  -8.4243     96.8614     12.6417   8.5198986981e+01   5.9421945873e+01    0.3075816    0.1881154   9.69  0.001045557    1.964    0.491
        13  -7.9486    112.8142     11.4790   8.0578553227e+01   5.6001504914e+01    0.2818281     0.150867  23.65  0.001191983    2.369    0.578
        14  -8.4611     34.5407      9.3668   1.0695843214e+02   7.0294286007e+01    0.2524776    0.1832928   9.60  0.001702427    1.331    0.249
        15  -9.3330     32.1986      5.8351   1.0629607469e+02   7.1075039696e+01    0.2690527    0.1804647  -6.21 0.0003476542    1.404    0.288
        16  -9.2263     40.5510      6.6082   1.0272780824e+02   6.9937162011e+01    0.3979207    0.2199413 -10.09  0.001776641    2.152    0.535
        17  -9.5452     46.7766      6.4350   9.9848315295e+01   6.9113258891e+01    0.2139193    0.1801012  -4.14 0.0002658687    1.100    0.091
        18  -8.5455     75.7646      3.9756   8.7544251339e+01   6.4590343239e+01    0.2058945    0.1316561  19.76 0.0004357572    1.564    0.361
        19  -9.2032     70.8840      8.9105   9.1624969403e+01   6.4940407800e+01    0.3922786    0.1350693  36.75  0.001525953    3.213    0.689
        20  -8.2954     78.5219      6.5154   8.7884881149e+01   6.3796913156e+01     0.253893    0.1165172  50.49 0.0008954505    2.116    0.527
        21  -8.3128    156.0131      7.0456   7.0586272848e+01   4.5689298921e+01    0.1659616    0.1587862  59.43 0.0005132227    1.055    0.052
        22  -8.7855    119.3197      6.8820   7.7218207767e+01   5.4927743142e+01    0.2542192    0.1844437  39.54 0.0002040428    1.269    0.212
        23  -8.5328    100.4798      6.4518   8.1492613211e+01   5.9286757975e+01       0.2333    0.2266121  22.17 0.0007505207    1.157    0.136
        24 -10.2428      7.8121      5.3322   1.1897924799e+02   7.3442554087e+01    0.5043709    0.2378111   4.69  0.002797512    2.742    0.635
        25  -8.5292    105.0665      1.8716   7.8344440074e+01   5.8692772619e+01    0.3469215    0.1561518  54.27  0.001575513    1.926    0.481
        26  -8.6875    111.1674      4.6017   7.8088748880e+01   5.7053744889e+01    0.2313056    0.1581184  33.66  0.000383545    1.386    0.279
        27  -8.7889    110.6450      1.6910   7.6977078539e+01   5.7434267725e+01    0.2197837    0.1716818  28.74  0.001026224    1.195    0.163
        28  -7.9415     91.0022      4.9572   8.3378941696e+01   6.1461326288e+01    0.2026119    0.1745942  22.93 0.0006444545    1.006    0.006
        29  -8.4950    143.1056      2.2497   7.0951173795e+01   4.9452302704e+01    0.2103829    0.1933973   7.04 0.0003069512    1.172    0.147
        30  -7.6861    134.4403      3.4624   7.2892140137e+01   5.1538129181e+01     0.136663    0.1243999  52.67 6.735182e-05    1.019    0.018
        31  -7.7728     57.4011      2.7983   9.3538114937e+01   6.7943851334e+01    0.1730078    0.1009857 -13.93 0.0009515545    1.670    0.401
        32  -9.1856    130.9659      6.9372   7.4862950522e+01   5.2090092380e+01    0.3828466    0.3239049 -38.94  0.001329432    1.310    0.237
        33  -7.8507    150.3116      4.2831   7.0516917449e+01   4.7422961387e+01    0.1455188   0.09365635  40.27 0.0002037279    1.571    0.364
        34  -8.3377      3.2917      1.6434   1.1984435446e+02   7.4344650860e+01    0.1841217    0.1194207   6.57  0.001326458    1.626    0.385
        35  -8.4720    158.9245      1.6444   6.8329506841e+01   4.5415499692e+01     0.301625   0.09376922  60.73  0.001101479    2.544    0.607
        36  -7.3525     82.6779     93.6893   1.1839473948e+02   4.7669985737e+01    0.1409378    0.1074601 -22.20 0.0003218617    1.650    0.394
        37  -9.7401    187.4103    249.7009   1.2272631230e+02  -6.9360802382e-01    0.3068592    0.1098081  43.74  0.001491285    2.142    0.533
        38  -8.4452    237.0011     92.5048   8.2971147151e+01   1.3265561578e+01    0.1994837    0.1275645 -87.48 0.0008105948    2.575    0.612
        39  -7.9118    109.8493     91.0191   1.0970327301e+02   4.3413390730e+01    0.2804433     0.199027  12.49  0.001223054    2.103    0.525
        40  -8.3716     96.7859     90.2135   1.1325473428e+02   4.6049884588e+01    0.3619733    0.2335595   6.40  0.001394128    3.030    0.670
        41 -10.0365      8.3291     77.3294   1.3901576554e+02   5.9257882351e+01    0.7748163    0.1882898 -47.22  0.003107581    3.637    0.725
        42 -10.2545     37.5279     81.0600   1.2989659718e+02   5.6228790104e+01    0.5864503    0.3238963 -21.64  0.002698649    2.964    0.663
        43  -8.8616     87.9238     79.1550   1.1282351856e+02   4.9983879157e+01    0.4924167    0.3106078   2.03  0.001893085    3.201    0.688
        44  -7.7581    184.3862     78.1950   8.8106199499e+01   2.8443253076e+01    0.2203723    0.1401908 -45.00 0.0004893258    1.590    0.371
        45  -8.9830     49.1368     77.3210   1.2509054959e+02   5.5858341553e+01    0.3234679    0.2151243  -6.95  0.001394904    2.198    0.545
        46  -7.4284    127.2940     83.3640   1.0269536025e+02   4.1354274879e+01    0.1566725    0.1215754  -1.74 0.0007029745    1.710    0.415
        47  -9.8072     28.5435     69.3223   1.3041690914e+02   5.9606106388e+01    0.4595258    0.2150473 -31.47  0.002091952    2.886    0.653
        48  -9.1055     23.7163     74.2792   1.3319796240e+02   5.8906982566e+01    0.3925243    0.1337998 -53.77  0.001402268    2.190    0.543
        49  -8.4762     23.7920     69.6401   1.3219478323e+02   5.9913540805e+01    0.2947208    0.2004352 -83.49  0.001216939    1.629    0.386
        50  -7.4168    120.3356     76.2832   1.0241008098e+02   4.4285084861e+01    0.1515182    0.1187072   9.35 0.0007010519    1.621    0.383
        51  -7.7797    107.4131     75.3943   1.0579017364e+02   4.7150740980e+01    0.2955961    0.1287489  32.73 0.0009625835    3.417    0.707
        52  -8.1419     74.9361     74.2890   1.1557181040e+02   5.3113654371e+01     0.184087    0.1689238  20.45 0.0004520896    1.192    0.161
        53  -8.2994    105.1879     68.0560   1.0410735240e+02   4.9050633321e+01    0.3948205    0.2396358 -17.33  0.001549039    2.573    0.611
        54  -7.0086    116.6578     68.6701   1.0100409528e+02   4.6554550383e+01    0.1557489    0.1172274   6.22  0.000705122    1.746    0.427
        55  -8.3525     83.9609     64.2145   1.0948019990e+02   5.3735617324e+01    0.3570839    0.2305681   7.21  0.001543447    2.497    0.600
        56  -8.8015     17.3408     62.8613   1.3307442205e+02   6.1833945837e+01    0.4015051     0.163036 -32.92  0.001777626    3.247    0.692
        57  -7.1773    148.4893     63.4948   9.1198915529e+01   4.0081474632e+01    0.1519433     0.150345  67.54 1.267938e-05    1.015    0.015
        58  -9.8826     61.9938     61.1557   1.1604483635e+02   5.7709948434e+01    0.7936419    0.3137024  26.93  0.001820589    3.612    0.723
        59  -8.8971     38.9594     57.9850   1.2363914784e+02   6.1070253074e+01    0.2399555    0.1571203  -4.87   0.00129425    2.019    0.505
        60  -7.6997    194.3836     59.7196   8.0962249624e+01   2.8878509947e+01    0.1975847    0.1475172 -19.94 0.0003079186    1.496    0.331
        61  -8.3004     25.8540     60.1376   1.2922437184e+02   6.1789823483e+01    0.1701398    0.1168887 -40.22 0.0003994001    1.312    0.238
        62  -8.0418    110.9502     58.4833   9.9201816193e+01   4.9662596541e+01    0.2395465    0.1957693  -0.76 0.0006284854    1.382    0.277
        63  -7.9657     49.2038     58.4403   1.1989404175e+02   5.9873397671e+01    0.1688409     0.118117  44.80  0.000957237    1.761    0.432
        64  -8.0556     98.7513     56.4484   1.0212259328e+02   5.2516828244e+01     0.193631    0.1334988  31.38 0.0007393903    1.580    0.367
        65  -9.8684     75.1530     50.3918   1.0772463789e+02   5.7853723837e+01    0.3966906    0.2761397  -6.23 0.0002559425    1.825    0.452
        66  -8.1831    118.3910     51.2463   9.4572536013e+01   4.9300364223e+01    0.2469135     0.211167  16.37 0.0006577479    1.229    0.187
        67  -6.8361    163.3393     51.3393   8.4084102471e+01   3.8276479994e+01    0.1634098    0.1155068  25.56 0.0007050406    1.764    0.433
        68  -9.3505     45.5938     48.9433   1.1827483053e+02   6.2193229596e+01    0.3443876    0.2359792 -17.49   0.00116169    1.646    0.393
        69  -7.5596    106.8242     48.4083   9.6803253304e+01   5.2289009526e+01    0.2005798    0.1289959  35.93 0.0008593149    1.635    0.389
        70  -9.6594     11.3781     46.6655   1.3158576067e+02   6.5588828286e+01    0.5534437     0.261017 -31.30  0.001605971    2.299    0.565
        71  -8.3149      6.8279     47.6271   1.3370564037e+02   6.5650096597e+01    0.1771131    0.1514225  71.77 0.0004172853    1.510    0.338
        72  -9.3701     56.7296     42.4005   1.1160004806e+02   6.2058254331e+01    0.4137345    0.2248098 -22.38  0.001485589    2.448    0.592
        73  -9.0972    249.3824     45.4761   6.9718093035e+01   1.7256072614e+01    0.2433225    0.2318057 -58.21 0.0002237888    1.095    0.087
        74  -9.0885      3.2528     40.2863   1.3341326027e+02   6.7316732321e+01    0.3438895   0.06708343 -51.28  0.001495867    2.864    0.651
        75  -8.0648    113.5587     42.1633   9.2571136847e+01   5.1843636204e+01    0.3571291    0.1948678  21.82  0.001278344    3.129    0.680
        76  -7.6689    123.8839     39.8438   8.8979398761e+01   4.9839804582e+01    0.2305485    0.1874238  19.91 0.0006832393    1.304    0.233
        77  -9.6136     92.3643     38.5079   9.7432208200e+01   5.6836006985e+01    0.4052768    0.2886197  35.14  0.001130656    1.414    0.293
        78  -8.7574     87.6890     37.7000   9.8619167709e+01   5.7858508885e+01    0.2509945    0.2119517  -3.69 0.0006561346    1.143    0.125
        79  -9.0746     61.7961     36.9114   1.0752813561e+02   6.2324336776e+01    0.2690155    0.1854127  40.97  0.001524864    1.649    0.393
        80  -9.2908     67.0515     37.7028   1.0585222302e+02   6.1397484326e+01    0.2909833    0.2005809  21.17  0.001054223    1.592    0.372
        81  -8.5963     70.6717     35.6762   1.0370110249e+02   6.1165965915e+01    0.2057243    0.1551081  18.32  0.001178415    1.383    0.277
        82  -7.7950    105.6049     37.1912   9.2908082500e+01   5.4336178051e+01    0.3253916    0.1379761  33.24  0.001084495    3.477    0.712
        83  -8.9538     56.7650     34.8560   1.0867280263e+02   6.3396278504e+01    0.4347814    0.2416384 -14.58  0.001654385    2.709    0.631
        84  -9.2071     38.4517     35.3985   1.1645943147e+02   6.5550531182e+01    0.4084902    0.2028563  16.41  0.001635544    2.726    0.633
        85  -7.5833     19.0389     35.9727   1.2519563443e+02   6.7197075168e+01    0.1625374    0.1278386 -42.62 0.0003320467    1.025    0.024
        86  -8.8157     22.9133     35.8877   1.2343884284e+02   6.6913818492e+01    0.2522945     0.177764 -20.54  0.000838269    1.414    0.293
        87  -8.9838     22.0063     32.0509   1.2253760853e+02   6.7711511412e+01     0.217865     0.171504 -27.50 0.0003433342    1.122    0.109
        88  -9.3661      6.4446     33.6970   1.3019953560e+02   6.8448916187e+01    0.3207673    0.1670391 -27.58  0.001339788    1.974    0.493
        89  -7.7692    190.4005     33.6686   7.3913418787e+01   3.3611727352e+01    0.1901531    0.1452797 -13.50 0.0008082299    1.525    0.344
        90  -8.0141     74.2728     33.3772   1.0145679109e+02   6.0944860920e+01    0.1379157   0.09418157  -6.23 0.0006999394    1.692    0.409
        91  -9.0788      1.7979     28.7307   1.3090376565e+02   6.9646619376e+01    0.4532616    0.1262961 -61.09  0.002062065    2.824    0.646
        92  -8.4175    247.5071    249.5373   1.1274555842e+02  -9.7836611163e+00    0.1114734   0.07911006  21.71 0.0001505474    1.024    0.023
        93  -8.9964     42.5211     27.1299   1.1142989717e+02   6.6550655899e+01    0.3464598    0.2478402 -29.94  0.001537237    1.171    0.146
        94  -7.6887    162.2596     27.0540   7.6318036677e+01   4.1897198745e+01     0.194827    0.1857464 -28.67 0.0003924934    1.113    0.101
        95  -8.7082    205.5215    248.9798   1.1955490399e+02  -3.4628585060e+00     0.145227    0.1115255 -26.45   0.00103986    1.614    0.380
        96  -8.6022     44.2271     92.1558   1.3003205244e+02   5.3064539623e+01    0.3178941     0.213425  -4.22  0.001683369    2.263    0.558
        97  -8.7985     63.7226     22.9966   1.0089956436e+02   6.4271415810e+01    0.1842687    0.1463263 -20.62  0.001144152    1.113    0.102
        98  -8.5148     45.9975     21.3876   1.0742849880e+02   6.7060552190e+01     0.279966    0.1462902 -34.92  0.001227298    1.667    0.400
        99  -7.6186    129.1551     22.5776   8.1226220891e+01   5.0880911508e+01    0.2072464    0.1169329  46.61 0.0009280641    1.656    0.396
       100  -8.4879     92.9054     20.8776   8.9952250361e+01   5.9262576696e+01    0.2107368    0.1640738  18.34 0.0005120409    1.249    0.199
       101  -7.3814    155.6903     20.6653   7.5303259306e+01   4.4368538315e+01    0.1536461    0.1029329  32.73 0.0007043144    1.677    0.404
       102  -8.4547    140.3290     20.0912   7.7954907739e+01   4.8388308703e+01    0.2406789    0.1767848  47.60 0.0003658118    1.270    0.213
       103  -8.3674      9.4864     19.6624   1.2407772022e+02   7.0888298864e+01    0.2405648    0.1486925 -19.97 0.0008375428    1.587    0.370
       104  -8.4038      5.0203     19.0275   1.2612354892e+02   7.1277469675e+01    0.1700106    0.1235153 -38.75 0.0003269515    1.025    0.024
       105  -8.4018     61.6546     27.0429   1.0348548725e+02   6.3973624393e+01    0.2204362    0.1683076  15.93  0.000410327    1.312    0.238
       106  -8.8484    150.7410    248.7457   1.2893949749e+02   5.2951739105e+00     0.198089   0.07015874  49.96 0.0009016693    2.435    0.589
       107  -7.3280    151.6591     17.7177   7.4990570308e+01   4.5744676647e+01    0.1526492   0.09891822  37.76 0.0007012245    1.631    0.387
       108  -9.2838     65.2612    246.9823   1.4338010840e+02   1.8158821029e+01    0.1901713    0.1399909  72.54 0.0003576166    1.119    0.107
       109  -8.0813    129.3037     13.6816   7.7788179279e+01   5.1835830911e+01    0.2167365    0.1407665 -25.80 0.0005850306    1.618    0.382
       110  -9.4509    175.0337    243.7580   1.2409450497e+02   2.0433249470e+00    0.2372737    0.1696605 -62.69 0.0009895271    2.075    0.518
       111  -7.6982     90.3146    242.6974   1.3883406678e+02   1.5447617203e+01     0.118039    0.0651084  64.38 0.0002553993    1.616    0.381
       112  -9.4191    188.1933    234.0804   1.2046860761e+02   1.1403053770e+00     0.218826    0.1701697 -54.59  0.001450035    1.780    0.438
       113  -7.3687    132.0144    233.0432   1.3046630840e+02   1.0623436067e+01    0.1416508    0.1141934  54.74 0.0003527169    1.041    0.039
       114  -7.9588     11.6676    207.3303   1.5005899386e+02   3.1303420231e+01    0.1163782   0.05304058  66.21 0.0007052018    1.722    0.419
       115  -7.5872    186.4779    179.4305   1.1184704850e+02   9.6079386591e+00    0.1383708    0.1228816  37.00 8.972215e-05    1.015    0.014
       116  -7.3701    133.7027    147.6624   1.1700145105e+02   2.6308181352e+01    0.1422441    0.1183042  -6.31 0.0007032113    1.656    0.396
       117  -7.7071    167.2979     13.3359   7.0982085003e+01   4.2105634320e+01    0.1492784    0.1009497  35.50 0.0002960809    1.653    0.395
       118  -9.0563     67.2166    144.6497   1.3266243332e+02   3.8205551807e+01    0.4492199    0.2556017  66.23   0.00216675    2.013    0.503
       119  -7.0843    142.3451     10.2888   7.3998960022e+01   4.8908866737e+01    0.1516124   0.09413526  37.98 0.0007023943    1.654    0.395
       120  -7.1254    143.6909    126.6619   1.1005701689e+02   2.8699696170e+01    0.1525408    0.1231161  -0.45 0.0007043716    1.684    0.406
       121  -7.7541    128.0172    125.3152   1.1357167640e+02   3.2277385591e+01    0.2012357    0.1844561  58.90 0.0004040769    1.071    0.066
       122  -8.3038    132.5044    124.4917   1.1226625950e+02   3.1533211136e+01    0.1492142    0.1454564  79.47 2.246461e-05    1.030    0.029
       123 -10.1824    241.4535    121.4568   8.9246357928e+01   7.7694097851e+00    0.2910998    0.2583992  41.72 8.264743e-05    1.186    0.157
       124  -7.6482    181.4555    120.4870   1.0006698831e+02   2.1405378649e+01    0.1516259    0.1487972  26.54 0.0008088162    1.013    0.013
       125  -7.7177    120.3328    118.3427   1.1389885975e+02   3.5357865125e+01    0.2301354    0.1848541  -4.48   0.00109738    1.750    0.429
       126  -8.6307      2.6252    109.3640   1.4492831451e+02   5.2508581200e+01    0.3038814    0.1292077 -41.54  0.001491596    3.103    0.678
       127  -8.4781    250.3795    108.1822   8.4761579180e+01   7.9425749168e+00    0.2099286     0.114326 -41.41 0.0009491462    1.750    0.428
       128  -7.5634    188.3980    107.5099   9.5338414663e+01   2.2192965519e+01    0.1520967    0.1478887  -8.15 0.0001239559    1.043    0.041
       129  -6.8855    160.3105    107.3340   1.0132010695e+02   2.8933348412e+01    0.1590711    0.1251574   7.76 0.0007043518    1.677    0.404
       130  -7.9051    133.6966    106.7832   1.0758917485e+02   3.5087609246e+01    0.2425638    0.1978301 -26.65 0.0009663838    1.397    0.284
       131  -8.1046    123.9315    107.1761   1.1020742497e+02   3.7074805272e+01    0.2802486     0.214227  22.51 0.0008517205    1.648    0.393
       132  -7.5888    108.8291    106.7416   1.1414376115e+02   4.0173734834e+01    0.2391696    0.1631985  -9.48 0.0009419086    2.717    0.632
       133  -8.8821     14.0143    105.8037   1.4136891801e+02   5.2565250113e+01    0.1905259    0.1106043 -39.45  0.001087085    2.091    0.522
       134  -7.6289     94.0789    103.2007   1.1740199609e+02   4.3642994023e+01    0.1907233    0.1150996  39.40 0.0008658532    1.774    0.436
       135  -7.5473     70.1586    104.1528   1.2460399162e+02   4.7156404762e+01    0.1863558    0.1520747  80.70 0.0004357087    1.333    0.250
       136  -9.6779    244.3086    102.1146   8.4221740234e+01   1.0158668784e+01     0.260439    0.2117886  66.41  0.000699378    1.408    0.290
       137  -7.3725    129.5013     97.5206   1.0618123114e+02   3.7956543570e+01    0.1519786    0.1480306  -7.44 9.125709e-05    1.086    0.079
       138  -9.8495     19.8622     91.8724   1.3764826960e+02   5.5281085640e+01    0.4306219    0.1820382 -43.84  0.002063254    2.539    0.606
       139  -8.7752     16.2410     94.9897   1.3923740574e+02   5.4839838712e+01    0.1837521    0.1379768  84.67 0.0005115885    1.315    0.240
       140  -9.4430     12.2860     93.5952   1.4023503158e+02   5.5418259068e+01     0.248851    0.1901131 -55.63 0.0007532797    1.217    0.178
