#   1 NUMBER                 Running object number                                     
#   2 MAG_AUTO               Kron-like elliptical aperture magnitude                    [mag]
#   3 X_IMAGE                Object position along x                                    [pixel]
#   4 Y_IMAGE                Object position along y                                    [pixel]
#   5 X_WORLD                Barycenter position along world x axis                     [deg]
#   6 Y_WORLD                Barycenter position along world y axis                     [deg]
#   7 A_WORLD                Profile RMS along major axis (world units)                 [deg]
#   8 B_WORLD                Profile RMS along minor axis (world units)                 [deg]
#   9 THETA_WORLD            Position angle (CCW/world-x)                               [deg]
#  10 FWHM_WORLD             FWHM assuming a gaussian core                              [deg]
#  11 ELONGATION             A_IMAGE/B_IMAGE                                           
#  12 ELLIPTICITY            1 - B_IMAGE/A_IMAGE                                       
         1 -12.8659    242.7443    100.4094   5.9452298796e+01   1.0523411230e+01     4.452468    0.7985221 -35.43   0.01194475    4.732    0.789
         2 -11.3560    209.4810     22.7737   4.4193824903e+01   2.9721837409e+01     2.203884    0.8388522  61.20  0.008889116    2.411    0.585
         3 -11.8652    246.0266     11.9548   3.8154383576e+01   2.2306594951e+01     2.127104    0.2111756  63.07  0.006300527    5.898    0.830
         4 -12.7466    226.5915     49.8226   4.9161398046e+01   2.1999945458e+01     2.651778     1.081886 -45.91   0.01049174    2.306    0.566
         5 -12.2825    136.0637     38.5897   6.0994883671e+01   4.6539388173e+01     1.220616    0.8497556  63.51  0.005878551    1.473    0.321
         6  -9.6570    249.9647     28.8823   4.1647211262e+01   1.9409711620e+01    0.7628261    0.1492593 -34.89   0.00241829    3.729    0.732
         7 -10.9727    250.1360      4.9929   3.6319356887e+01   2.2168248138e+01    0.5773622    0.1618914 -34.22  0.001758324    2.918    0.657
         8 -10.6696    119.1858      9.8997   5.4073921575e+01   5.4001651970e+01     0.685868    0.3981484  43.01  0.002724183    1.569    0.363
         9  -8.6300    195.6116      9.8103   4.2253464020e+01   3.4647279896e+01     0.444916    0.1887143 -39.35  0.001917612    2.249    0.555
        10  -9.8668    210.3000      8.0577   4.0289997938e+01   3.1155944587e+01    0.4070832    0.1924188 -35.25  0.001368406    2.025    0.506
        11  -8.8078    143.8624      7.2129   4.8421138035e+01   4.8162569980e+01    0.4248952    0.1973163  -3.28  0.001608537    3.322    0.699
        12  -8.0457    226.7323      7.2898   3.8628850392e+01   2.7264688082e+01    0.2082574    0.1383306 -40.45 0.0005391332    1.430    0.301
        13  -9.8665    183.5055      3.4096   4.1808863181e+01   3.8356060741e+01    0.3696546    0.2134191 -35.74  0.001249442    1.777    0.437
        14  -7.2098    239.9872      2.7828   3.6551512543e+01   2.4670766280e+01    0.1415219   0.09161065  81.83            0    1.435    0.303
        15  -8.1003    210.5812      1.7323   3.8658865455e+01   3.1727981125e+01    0.1804242    0.1076366 -44.28 0.0009388634    1.593    0.372
        16  -7.7344    205.1227      2.1978   3.9272996205e+01   3.3026632004e+01    0.1717702    0.1627253  74.24 0.0004591281    1.173    0.148
        17  -7.2908    171.6589      2.2892   4.2868752963e+01   4.1491397208e+01     0.141901   0.09383736 -69.18 0.0007023003    1.646    0.392
        18  -8.5518     69.8678    165.8396   1.1206567909e+02   3.2093298061e+01    0.1818105    0.1662945 -69.98 0.0003257167    1.193    0.162
        19  -7.4062    132.7039    162.2657   9.6324726833e+01   2.2356910770e+01    0.1450215    0.1116471  73.89 0.0001843696    1.512    0.339
        20  -8.7732    204.9883    169.0082   8.1924338179e+01   6.5440479421e+00    0.2081917    0.1893171   9.84            0    1.003    0.003
        21  -9.0208     69.6516    145.3116   1.0907524379e+02   3.6964826422e+01    0.3374887    0.2395075  59.02  0.001388742    1.451    0.311
        22  -9.1329     66.3289    143.6990   1.0968603822e+02   3.7806114213e+01     0.385464    0.2192302 -69.40  0.001736973    1.649    0.393
        23  -7.2578    162.2618    141.3801   8.4920709782e+01   2.0756114368e+01    0.1571241    0.1211595  -8.38 0.0006979341    1.675    0.403
        24 -10.1596    116.2699    245.5594   1.1189936871e+02   9.1489294483e+00     0.209838    0.1864316  64.67  0.000384748    1.163    0.140
        25 -11.0831    237.9656     71.2668   5.3053680013e+01   1.6185019994e+01     1.157854    0.3652452 -45.72  0.003917567    3.106    0.678
        26 -10.9581    238.0972     44.1728   4.6417706327e+01   2.0090257148e+01     0.502995    0.3574528  50.26  0.001654024    1.633    0.388
        27  -7.7361    134.2656    119.7629   8.6497520024e+01   3.1527402957e+01     0.253987     0.127255  34.60 0.0008974166    2.411    0.585
        28  -8.6741    150.5739    117.9088   8.1939890632e+01   2.8341407427e+01    0.2716413    0.2224484  55.48 0.0005077959    1.263    0.208
        29  -9.7645    206.8415    114.8910   6.9039456312e+01   1.5935020316e+01    0.2907069    0.2721577  24.50 0.0003046331    1.100    0.091
        30  -8.3659    168.0178    113.4943   7.6693330930e+01   2.5245170103e+01    0.2998495    0.2169894 -56.75 0.0006271715    1.545    0.353
        31  -7.2422    113.2178    113.3404   9.0499756839e+01   3.7316864935e+01     0.150086    0.1148209 -27.25 0.0002024675    1.527    0.345
        32  -9.0495    211.6853    111.4207   6.7273291365e+01   1.5463198553e+01    0.2923148    0.1837217 -32.63 0.0006327263    1.544    0.352
        33  -9.1869    226.0150    110.5995   6.4564532816e+01   1.2415675724e+01    0.3637971    0.2513833 -86.88  0.001559204    2.388    0.581
        34  -8.5159    205.3682    110.0807   6.8098790065e+01   1.7149957279e+01    0.2785597    0.2035079  40.55  0.001191879    1.449    0.310
        35 -10.9892    181.4016     79.7769   6.4514238224e+01   2.8450005752e+01     0.990247     0.652485 -43.70  0.002353112    1.502    0.334
        36 -10.3571    187.6107    102.7393   6.9634473552e+01   2.2699756157e+01    0.8257472    0.2621611 -38.72  0.002537863    3.023    0.669
        37  -9.8755    186.3275     93.2083   6.7307805508e+01   2.4793775173e+01    0.7301769    0.2753704 -41.49   0.00244031    2.561    0.609
        38  -8.4110    220.2941    104.5252   6.4028793257e+01   1.4733104059e+01    0.2625608    0.2235376 -25.92 0.0005637782    1.138    0.121
        39  -8.4583    210.4898    104.9644   6.5854571940e+01   1.6891439673e+01    0.3535703    0.1895861  47.65  0.001453547    1.948    0.487
        40  -9.6573    201.4068    102.0425   6.6765958450e+01   1.9539553098e+01    0.5437847     0.368857 -77.32  0.002017462    2.306    0.566
        41  -7.7636    143.3112    103.3074   7.9825161659e+01   3.3110156937e+01    0.1600178    0.1269708   4.06 0.0007023879    1.619    0.382
        42  -8.3166    118.9247    230.8985   1.0976503759e+02   1.1195121877e+01    0.1767088     0.152056  37.50 0.0002920603    1.232    0.188
        43  -9.0379    151.4163     98.2932   7.6420086344e+01   3.2269737674e+01    0.3269424    0.2648553  17.78  0.001020019    1.466    0.318
        44  -8.0337    136.7805     95.3587   7.9241868992e+01   3.6274668880e+01    0.2397965    0.1933049  68.26  0.001118107    1.427    0.299
        45  -7.8397     95.9100     93.6985   9.0314804754e+01   4.5070465898e+01    0.1871364    0.1838894  54.09 0.0002443554    1.087    0.080
        46  -9.2254    163.0033     90.6063   7.1514495064e+01   3.1013351897e+01    0.5971135    0.3253724  32.61  0.002114933    2.533    0.605
        47  -7.6247    152.8515     91.7934   7.4210970291e+01   3.3240606301e+01    0.2086995    0.1840468 -76.71 0.0003148753    1.275    0.216
        48  -8.9960    145.5639     87.8455   7.4817379093e+01   3.5766367317e+01    0.3297205    0.2599086 -49.01  0.001063483    1.296    0.228
        49 -10.4725    221.4244     81.5979   5.8020892808e+01   1.8351224886e+01     1.674702    0.7225865 -61.82  0.003606168    8.405    0.881
        50  -7.8027    204.4056     59.2395   5.4712039396e+01   2.6043957099e+01    0.2104376    0.1278257 -44.84  0.000349698    1.590    0.371
        51  -9.8249    215.2168     70.2490   5.6019706073e+01   2.1663234334e+01      1.01172    0.4170567 -55.08  0.003167056    3.645    0.726
        52  -9.8140    200.2974     67.3866   5.7608299370e+01   2.5794334372e+01    0.3516687    0.2500443  43.86 0.0008444286    1.539    0.350
        53 -10.5651    206.6616     64.3684   5.5762107229e+01   2.4687778938e+01    0.5098637    0.4427555 -32.62  0.001706601    1.160    0.138
        54  -8.3871    228.1611    221.3975   8.7522854212e+01  -5.4415442568e+00    0.1917743    0.1608314 -20.61 0.0003297255    1.321    0.243
        55  -8.4855      4.6218     83.7465   1.1831950078e+02   5.7853070776e+01    0.1691147   0.09339822 -78.08 0.0009415632    1.610    0.379
        56 -10.3046    161.9034     80.3824   6.8763104933e+01   3.3222285526e+01    0.3569039    0.2963878 -18.54 0.0005512396    1.315    0.240
        57  -7.6676    128.6610     78.3392   7.6251271967e+01   4.1585926864e+01    0.2597089    0.1795774   7.43 0.0008989636    2.176    0.541
        58  -9.4360    189.3040     74.4924   6.1509796549e+01   2.7380231807e+01    0.2797917    0.2594922 -58.04 0.0003039625    1.065    0.061
        59 -10.2064    111.2998     73.0730   7.9426143930e+01   4.6429687930e+01    0.2538447    0.2387666  19.53 0.0002919291    1.066    0.062
        60  -7.2416    122.7241     71.2688   7.5594593038e+01   4.4296517160e+01     0.143758    0.1215719 -79.36 -0.000275831    1.482    0.325
        61 -11.3574    181.8752     64.1029   5.9878383606e+01   3.0995068478e+01    0.6006444    0.4120723  10.98  0.002251832    2.213    0.548
        62  -8.6026    223.6515     66.7350   5.3870378050e+01   2.0193276262e+01    0.3157701    0.2495881 -82.13  0.001307657    1.382    0.276
        63  -9.7112    171.8654     65.2051   6.2111898814e+01   3.3375654053e+01    0.3896484    0.2566972  59.17  0.001316233    1.517    0.341
        64  -9.0018    226.6145    203.7534   8.4658628925e+01  -2.8157033852e+00    0.2391389    0.2265456 -46.54   0.00155295    1.492    0.330
        65 -10.5677    168.5621     57.5758   6.0434884687e+01   3.5461883944e+01    0.6468315    0.4806946 -73.24  0.002978207    1.644    0.392
        66  -8.6101    216.9639     57.8598   5.2503711528e+01   2.3150327113e+01    0.2717198    0.1997615 -51.21 0.0009299719    1.300    0.231
        67 -10.1553    162.4927     50.9874   5.9566225280e+01   3.8045231180e+01    0.5208321    0.3199336 -68.48  0.002033338    2.417    0.586
        68 -11.2828    157.7135     45.2530   5.8671936023e+01   4.0124166627e+01     1.202052    0.6604869  50.61  0.005092863    1.740    0.425
        69 -12.0687    142.0852     41.5493   6.0687124312e+01   4.4625860029e+01      1.04536     0.722295  74.60  0.004824212    1.694    0.410
        70  -8.9257    214.7621    198.4930   8.5876417127e+01  -3.6510511700e-02    0.2383748    0.2008777  35.41  0.000369381    1.208    0.172
        71  -8.4772    197.4579     45.8224   5.2035661668e+01   2.9775724067e+01    0.2956881    0.1812454 -36.82  0.001038667    1.592    0.372
        72  -8.0122    113.8326     48.8958   7.0328067311e+01   5.0241736044e+01    0.1939046    0.1723288 -60.00 0.0004273453    1.329    0.248
        73  -8.1413    188.3428     45.7637   5.3410205588e+01   3.2122475033e+01     0.395564    0.1384098 -42.08  0.001358695    2.789    0.641
        74  -9.7933    249.8185     41.3015   4.4512006796e+01   1.7834725354e+01    0.4036233    0.1857072 -50.12 0.0008328031    1.992    0.498
        75  -9.7109    119.4900     38.0672   6.4805101055e+01   5.0596594405e+01    0.3669153    0.2319211 -45.45  0.001688359    1.807    0.447
        76 -10.4272    246.1879    196.4400   7.9810062842e+01  -4.9843682288e+00    0.2242389    0.1889875   4.73  0.000262316    1.080    0.074
        77  -9.4109    152.6520     34.0097   5.5960618740e+01   4.2967562423e+01    0.2894295    0.1842691  39.02  0.001312367    1.677    0.404
        78  -8.3794    235.8413    196.9453   8.1721268839e+01  -3.3831860708e+00    0.2107164      0.16805  63.11   0.00115571    2.042    0.510
        79  -9.1357    182.7904     27.0256   4.8756824065e+01   3.6020640317e+01    0.2029281    0.1852071 -64.94 0.0007094858    1.086    0.079
        80  -9.1289    136.8822     25.1620   5.6042874630e+01   4.8057502262e+01    0.2073642    0.1892032 -87.74  0.000247151    1.204    0.169
        81  -8.3755    199.8077     50.7908   5.3075654617e+01   2.8465099030e+01    0.2920569    0.1737563 -51.57  0.001093237    1.743    0.426
        82  -7.4920    228.5000     20.5206   4.1659106267e+01   2.5357301939e+01    0.1346595    0.1154783 -70.51 6.079478e-05    1.008    0.008
        83  -7.5405    139.2975     18.6937   5.3258396446e+01   4.8180038897e+01    0.1393369    0.1063148 -67.18 0.0003837975    1.589    0.371
        84  -7.8454    167.2384     15.3884   4.7471902481e+01   4.1366378002e+01    0.1718291    0.1658511  39.53   0.00102904    1.119    0.106
        85  -8.9221    134.5645     12.9071   5.2090165985e+01   4.9959854685e+01    0.2320641    0.1658001  52.33   0.00122343    1.247    0.198
        86  -8.8516    215.9347    193.9843   8.4805390217e+01   4.4089740074e-01    0.1963648    0.1697152  10.71 0.0003343619    1.017    0.016
        87  -8.7403    216.2852    189.0724   8.3794352774e+01   1.1346255976e+00    0.2290526    0.1789462  38.24 0.0002832917    1.264    0.209
        88 -10.1009    184.1473    185.0511   8.9357266720e+01   7.7716699917e+00    0.2414602    0.2312663  -9.99 0.0003281677    1.110    0.099
        89  -7.4417     53.2923     11.6619   7.4988879132e+01   6.7103052079e+01    0.1091912   0.09651895 -45.47 0.0003639423    1.646    0.392
        90  -8.2945    136.3509    185.1921   9.9641509111e+01   1.6835206248e+01    0.2136899    0.1740158  36.80 0.0003814373    1.201    0.168
        91  -7.6758    242.5554    184.4982   7.8117486660e+01  -2.7295789586e+00    0.1300168    0.1105607  -0.24 -5.607986e-06    1.044    0.042
        92 -12.6674     25.9989    177.7886   1.2329659365e+02   3.4587934767e+01    0.7805032     0.722572 -34.02  0.005710812    1.590    0.371
        93  -9.2108     69.3298    181.1417   1.1415392380e+02   2.8694939741e+01    0.2096519    0.1847506  61.70 0.0003490337    1.146    0.128
        94 -11.9488     40.2687    168.7569   1.1932911850e+02   3.5106913115e+01    0.9017639    0.7262038 -85.40  0.003434798    1.071    0.066
        95  -7.4168    190.4846    166.5339   8.4330181123e+01   9.8649979408e+00     0.145439    0.1349895  16.24 9.617257e-05    1.002    0.002
