#   1 NUMBER                 Running object number                                     
#   2 MAG_AUTO               Kron-like elliptical aperture magnitude                    [mag]
#   3 X_IMAGE                Object position along x                                    [pixel]
#   4 Y_IMAGE                Object position along y                                    [pixel]
#   5 X_WORLD                Barycenter position along world x axis                     [deg]
#   6 Y_WORLD                Barycenter position along world y axis                     [deg]
#   7 A_WORLD                Profile RMS along major axis (world units)                 [deg]
#   8 B_WORLD                Profile RMS along minor axis (world units)                 [deg]
#   9 THETA_WORLD            Position angle (CCW/world-x)                               [deg]
#  10 FWHM_WORLD             FWHM assuming a gaussian core                              [deg]
#  11 ELONGATION             A_IMAGE/B_IMAGE                                           
#  12 ELLIPTICITY            1 - B_IMAGE/A_IMAGE                                       
         1 -13.9352     57.1972     63.8456   6.1483843603e+01   5.7899404026e+01     2.304952     1.317692  17.61  0.009710599    2.349    0.574
         2 -14.9028      6.3560     70.8159   8.8210686422e+01   6.2805316984e+01     1.166026    0.8273687 -42.97  0.006591816    1.259    0.206
         3 -15.1644    218.7111     15.3928   1.8645027342e+01   3.1149932054e+01     1.570677    0.9733014 -40.80   0.01136405    1.665    0.399
         4 -14.8613    189.5939     23.2095   2.2232578139e+01   3.5644772011e+01     1.246898    0.6869739 -65.53  0.007720113    1.607    0.378
         5 -13.7468    187.8274     11.1269   1.9989427647e+01   3.7274377216e+01    0.5169118    0.4172689 -48.33  0.003487982    1.391    0.281
         6 -13.1339      7.8065      2.6278   6.1705524542e+01   7.4785186337e+01    0.6414869    0.3929263  39.81  0.003983226    1.699    0.411
         7 -15.8797     11.1125     23.5253   6.9824243863e+01   7.1486866327e+01     1.868459     1.113912 -15.35  0.008870252    1.793    0.442
         8 -14.5217     27.1926     11.7669   5.4679474366e+01   7.0831218679e+01    0.9003093    0.5749359  12.72  0.005294038    1.673    0.402
         9 -13.9061    122.1399     36.7911   3.4077065488e+01   4.8339038520e+01    0.8952571    0.4773716  42.20  0.003061295    2.304    0.566
        10 -13.3562    242.4685     35.0412   2.0427173366e+01   2.4992203791e+01    0.5244244    0.3752319 -86.58  0.002807175    1.286    0.222
        11 -14.7320    166.6103     28.8894   2.5676632524e+01   3.9611172194e+01     1.014547    0.6774741  79.21  0.004530819    1.299    0.230
        12 -14.5385    147.8607     29.7695   2.8173729539e+01   4.3489043860e+01     1.128709    0.6642534  72.97  0.004551111    1.485    0.327
        13 -12.8415    139.8271     21.4267   2.7180156995e+01   4.6160887470e+01    0.7526037    0.2431942  65.28  0.002374754    2.524    0.604
        14 -12.8192    120.6145     25.7581   3.1256177313e+01   4.9961480263e+01    0.5875533    0.4075893  51.33  0.002875624    1.432    0.302
        15 -15.2019     99.1571     11.4374   3.0861751290e+01   5.6212850338e+01     1.413034    0.7365403  62.00  0.004255619    1.516    0.340
        16 -12.2008     85.5794     13.9128   3.4565951963e+01   5.9005512233e+01    0.3822111    0.3124346 -52.67  0.001916845    1.467    0.318
        17 -11.6267     70.9532     16.4266   3.9306104009e+01   6.1937697413e+01    0.2215495    0.2080061 -25.36 0.0007792509    1.302    0.232
        18 -12.3254     60.2501     15.0921   4.2123918841e+01   6.4310947008e+01    0.5226411    0.2458774  38.98  0.002504875    2.027    0.507
        19 -11.7202    175.8247     13.7235   2.1495825115e+01   3.9376048812e+01    0.2165163    0.1306489 -66.42 0.0001865615    1.443    0.307
        20 -11.7268     46.7675     12.8004   4.6088672616e+01   6.7226295723e+01    0.2870411    0.2074638  48.56  0.001289395    1.186    0.157
        21 -13.8584     41.8661      4.3507   4.4198642092e+01   6.8997070985e+01    0.6666986    0.4608097  34.18  0.003533519    1.224    0.183
        22 -11.2005    123.1200     10.6691   2.6659447813e+01   5.0920287657e+01    0.2603652    0.1551077 -79.14  0.001206975    1.810    0.448
        23 -12.2612     74.9707      9.1979   3.5475271001e+01   6.1759207640e+01    0.3532583    0.2465845   2.60  0.001727985    1.967    0.492
        24 -11.7724    167.9218      9.6825   2.1337498697e+01   4.1385305928e+01    0.1679873    0.1566647 -56.99  0.001322952    1.385    0.278
        25 -12.4934    152.9309      8.6431   2.2538283217e+01   4.4612232130e+01    0.2589698    0.2280873  71.20  0.001538134    1.295    0.228
        26 -14.6444    212.4238     40.8918   2.3655887305e+01   2.9317562292e+01     1.789207    0.5482128  75.89  0.007493314    4.241    0.764
        27 -10.8722     80.3589      7.1136   3.3383325439e+01   6.0765831938e+01    0.1580847    0.1459299  63.88  0.001131345    1.160    0.138
        28 -10.2145     59.5032      6.4917   3.8821149306e+01   6.5283311866e+01    0.1247992   0.09542338  46.75 0.0008100686    1.053    0.050
        29 -12.4061    118.6229      2.4805   2.5016749809e+01   5.2635745772e+01    0.4392318    0.1963077  86.24  0.002077925    2.425    0.588
        30 -11.1762     67.5833      2.7447   3.4943699189e+01   6.3896504450e+01    0.2675777    0.1486576  39.95  0.001503118    1.725    0.420
        31 -12.0529    169.6970      1.7258   1.9489356775e+01   4.1779831133e+01    0.3299933   0.08577318  68.16  0.001512359    3.011    0.668
        32 -10.7352    182.9289      1.4740   1.8444652197e+01   3.9171925880e+01    0.1616948   0.08514117  80.75 0.0007005513    1.575    0.365
        33 -11.7928     80.0028      1.4981   3.1437400454e+01   6.1301630291e+01    0.5417128   0.08283982  57.99  0.001938113    3.581    0.721
        34 -11.2567     61.4441      1.4863   3.6153856007e+01   6.5299003040e+01    0.3566553   0.09848745  60.65  0.001404594    2.962    0.662
        35 -12.0602     40.6314    137.3064   8.6397748280e+01   4.2977662550e+01     0.347541    0.2408763  58.34  0.001561996    1.733    0.423
        36 -12.4443     51.5699    248.4006   9.6579003036e+01   1.3237795483e+01    0.4436145    0.3950678 -28.28  0.002775921    1.268    0.212
        37 -12.1573      2.8920    249.5573   1.0846910043e+02   1.7607396534e+01    0.4173631    0.2767755  35.79  0.001834109    1.288    0.224
        38 -13.7849      9.8021    245.6818   1.0665264166e+02   1.7879831843e+01    0.9741818    0.4818854  45.70  0.003695354    1.718    0.418
        39 -12.7247    246.2559    134.3401   3.6596573733e+01   1.0453149663e+01     0.296819    0.2047878 -84.10  0.001848802    2.307    0.566
        40 -12.0649     44.1569    132.8171   8.4279293583e+01   4.3771257579e+01      0.22372     0.173363 -27.40 0.0008558187    1.339    0.253
        41 -10.8223      5.4299    128.8258   9.8580988492e+01   4.8329679709e+01    0.2981647    0.1386578 -36.33  0.001203521    2.221    0.550
        42 -12.1089    136.1892    132.2063   5.5152838628e+01   2.8599516772e+01    0.5011901    0.2439535  39.76  0.002017361    2.136    0.532
        43 -12.5430    223.4837    128.0152   3.8372167422e+01   1.4567060454e+01      0.21199    0.1671071  85.61  0.001400205    1.639    0.390
        44 -13.2932    112.2065    116.7614   5.7820099570e+01   3.6582387542e+01    0.6005988    0.3886565  33.00  0.002199811    1.641    0.391
        45 -11.8441    181.0310    120.5249   4.3396579927e+01   2.2703196281e+01    0.1872284      0.13155  50.60 0.0009991699    1.579    0.367
        46 -12.6274      5.5934    118.3917   9.7158163411e+01   5.1100254588e+01    0.8660038    0.4773081 -36.03  0.003938077    1.775    0.437
        47 -12.4425     49.7889     98.7768   7.4694896325e+01   5.1669153882e+01    0.9165872    0.4807189  15.45  0.003583308    2.277    0.561
        48 -12.1471     48.9364     93.2814   7.3641350985e+01   5.3074957447e+01    0.5146394    0.3487652  53.83  0.002053263    1.877    0.467
        49 -12.5332     42.3413     90.4518   7.5720090385e+01   5.4641383324e+01    0.3314869    0.3040215 -70.14 0.0001706482    1.278    0.217
        50 -14.4610     24.4827     92.9263   8.4342975739e+01   5.6127023634e+01     1.514222     1.199279  -0.07  0.008208416    1.216    0.178
        51 -13.9639     18.4179    111.1325   9.0663074074e+01   5.2100486764e+01    0.9870495     0.677498 -43.46  0.004038192    1.348    0.258
        52 -14.0608     11.4317    102.3160   9.2154007998e+01   5.4892921712e+01     1.016366     0.715016 -58.50  0.004202759    1.326    0.246
        53 -12.8278     28.7213    121.9348   8.8310664265e+01   4.8345553965e+01    0.5021303    0.3616495 -47.07  0.002257951    1.308    0.235
        54 -11.4309     88.2798    109.6605   6.3289094014e+01   4.2740418501e+01    0.3912704    0.2779793 -64.99  0.001785064    1.675    0.403
        55 -12.6834     84.9865    114.8985   6.5672330338e+01   4.2130328023e+01    0.9450976    0.3704527  33.59  0.002568269    2.600    0.615
        56 -12.1451     78.9843    110.1728   6.6536222719e+01   4.4301783882e+01    0.4103323    0.3295422  82.79  0.001960044    1.642    0.391
        57 -14.5921    105.8365    104.6148   5.6616102192e+01   4.0466667031e+01     1.277371     1.180366  49.31  0.005215729    1.060    0.057
        58 -11.6632    121.8440    111.9940   5.4076353380e+01   3.5709400928e+01    0.2626159    0.2236624  58.22 0.0007756202    1.207    0.172
        59 -11.8513     62.8974    110.5788   7.2441962564e+01   4.6882796028e+01    0.5278129     0.383691  65.87  0.002372811    1.865    0.464
        60 -12.2258     36.7627     92.9137   7.8793899267e+01   5.4778322991e+01    0.4761214    0.2860853   9.48  0.001363278    1.809    0.447
        61 -11.1119     42.6626    106.8276   7.9558892989e+01   5.0671815980e+01    0.2670074    0.1950319   6.09  0.001287556    1.424    0.298
        62 -13.4283      2.3154     97.0227   9.5375848496e+01   5.6794362794e+01     0.971356    0.4134552 -76.52  0.003838476    2.651    0.623
        63 -12.4165    136.2746    103.0920   4.8416971912e+01   3.4600367070e+01    0.5347683    0.3130448  53.26  0.001882943    1.753    0.430
        64 -12.9179    120.5350    102.1841   5.2001702444e+01   3.7998148908e+01      0.41275    0.3345231  10.73  0.002020151    1.586    0.369
        65 -10.8853     64.6737    101.6812   6.9554992231e+01   4.8710642012e+01    0.2468793    0.1677782   1.20 0.0005710635    1.902    0.474
        66 -12.0051     61.6263     97.7425   6.9697812515e+01   5.0113022663e+01    0.5298703    0.4070372  68.97  0.001894885    1.767    0.434
        67 -11.8225    249.5088     99.4970   3.0454205855e+01   1.5338806123e+01    0.2090522   0.07173795 -50.66  0.001036895    2.359    0.576
        68 -11.8596    163.5779     97.5657   4.1587433297e+01   3.0141375610e+01    0.3131592    0.2292735 -62.98 0.0006298518    1.377    0.274
        69 -12.9435    137.0653     94.8019   4.6234977962e+01   3.6019864958e+01    0.4716379    0.3961215  79.06  0.001893563    1.251    0.201
        70 -13.9805    104.8820    122.0710   6.1185783552e+01   3.6793381173e+01     1.369931     1.051124  48.93  0.006656582    1.340    0.254
        71 -11.3576     35.1126     86.5651   7.7930583555e+01   5.6459502537e+01    0.2757372    0.1963072 -40.46 0.0007660384    1.364    0.267
        72 -12.9895    188.5766     83.9201   3.4692843899e+01   2.7631636560e+01    0.5460854    0.3198236  45.80  0.002278205    2.172    0.540
        73 -13.2516    187.3047     79.0363   3.3862370899e+01   2.8637360143e+01    0.3015581    0.2704613 -54.81  0.001627568    1.171    0.146
        74 -13.2112    237.6580     80.2373   2.8358532106e+01   1.9853925360e+01    0.4176086    0.2494301 -77.58  0.002617162    1.933    0.483
        75 -11.9591    158.5714     64.6795   3.4936913910e+01   3.6568094060e+01    0.5672168    0.2263248 -51.51  0.002386363    2.641    0.621
        76 -13.2228    164.3864     71.3492   3.5551826882e+01   3.4347939975e+01     1.052242    0.3870363  50.74  0.004321932    2.928    0.658
        77 -13.1728    160.9048     80.7440   3.8261558737e+01   3.3560001136e+01    0.7342872     0.519163  13.48  0.003042015    2.913    0.657
        78 -14.1706    169.1649     77.1802   3.6111257184e+01   3.2464118521e+01     1.147129    0.5319368  52.07  0.004244911    2.273    0.560
        79 -10.8380     97.8334     84.2069   5.3504355911e+01   4.6224114563e+01    0.2058536    0.1704293  18.67  0.001072109    1.377    0.274
        80 -13.1997     28.6815    245.8889   1.0207982582e+02   1.6115280638e+01     0.506456    0.3811874  68.49  0.002583298    1.344    0.256
        81 -13.3449     66.0533     49.3142   5.3072563453e+01   5.8733079297e+01     0.720013    0.6700392 -34.58  0.004524412    1.233    0.189
        82 -13.5897     92.2306     57.4101   4.7223215717e+01   5.2089607620e+01    0.5193051    0.4907403  36.77  0.001655949    1.090    0.083
        83 -12.8315     54.7520     81.1202   6.7852033833e+01   5.4883798810e+01    0.5328607    0.4438873 -19.78  0.002186974    1.231    0.188
        84 -13.9897     61.2535     75.5604   6.3555733380e+01   5.4942620822e+01    0.7836576    0.5889873 -17.16  0.002770178    1.534    0.348
        85 -13.6287     87.4379     65.1545   5.1059836316e+01   5.1832585979e+01    0.9637532    0.5800549  23.67  0.004071246    2.447    0.591
        86 -13.1899     70.9478     75.2496   5.9760297146e+01   5.3257724839e+01     0.600736    0.4087594  13.79  0.001572981    1.866    0.464
        87 -12.3263     77.1482     73.1011   5.6890371011e+01   5.2484968988e+01    0.5931628    0.3848902 -16.94  0.002046759    2.308    0.567
        88 -12.8162    216.4421     72.9000   2.9170894507e+01   2.4325802823e+01    0.7172375    0.3105109 -61.09  0.003445024    2.610    0.617
        89 -12.3024    216.4485     80.6160   3.0595339035e+01   2.3197089757e+01    0.4563382    0.2611007 -57.27  0.002575484    1.520    0.342
        90 -12.6243    210.5074     76.9819   3.0578776063e+01   2.4748103788e+01    0.5030782    0.2818653 -66.91  0.002796778    1.908    0.476
        91 -11.8911    114.0764     79.9816   4.7867660144e+01   4.3596122953e+01    0.4042307    0.3277249 -57.90  0.001716901    1.315    0.240
        92 -12.5175    135.2295     79.1915   4.2756357722e+01   3.9200674417e+01    0.6722029    0.3140746  58.54  0.002830231    2.197    0.545
        93 -11.0143     42.5228     79.4773   7.2648621662e+01   5.7072805774e+01    0.2832006    0.1911921 -26.48  0.001191319    1.601    0.375
        94 -11.1736     41.7609     75.9628   7.1974937919e+01   5.7933235930e+01    0.2535568    0.2110297 -47.80 0.0007148492    1.291    0.226
        95 -13.5400    171.6061    242.9175   6.7243273421e+01   5.2184904193e-01    0.5751249    0.3990797  12.54  0.003484419    1.293    0.226
        96 -14.1846      4.4705     63.2161   8.7385752013e+01   6.4614281614e+01    0.8731609    0.6088062  -7.30  0.004595243    1.303    0.233
        97 -11.2346     27.0037     75.0329   7.8690793481e+01   5.9999413089e+01    0.4957856    0.3119557 -87.74  0.002046078    3.110    0.679
        98 -13.6403    199.2404     69.8028   3.0488740178e+01   2.7808307212e+01    0.6399231    0.4095484  56.80  0.002661305    1.767    0.434
        99 -10.9059    117.7187     72.0604   4.4812008766e+01   4.4189752034e+01    0.1898045    0.1803344 -64.50 0.0006364672    1.107    0.096
       100 -12.7948    134.2418     65.7016   3.9512880015e+01   4.1620155275e+01     0.581098    0.5048363  57.69  0.002763869    1.146    0.127
       101 -11.8637     99.8498     64.3040   4.7177937951e+01   4.9348477040e+01    0.3448324    0.3168812 -53.15  0.001778261    1.188    0.158
       102 -12.0758    199.7961     61.7364   2.8840236596e+01   2.8858780099e+01    0.2928531    0.2409714 -85.29  0.001337104    1.118    0.105
       103 -13.0360     79.0590     60.2980   5.2218236463e+01   5.4371417496e+01    0.6730928    0.5020482 -41.30  0.003621542    1.493    0.330
       104 -13.5845    177.7999     56.8731   3.0451105414e+01   3.3761096094e+01    0.7971532    0.4384353 -53.68  0.003358572    1.684    0.406
       105 -11.9080     38.8144     59.9718   6.8348424235e+01   6.1578393037e+01    0.3335274    0.2568711  63.54  0.001748928    1.943    0.485
       106 -11.3857     34.8963     59.6245   7.0132099857e+01   6.2200375460e+01    0.7289491    0.2044378 -40.21  0.002324064    4.298    0.767
       107 -12.0573     36.7533     53.9946   6.7308793250e+01   6.2994348509e+01    0.4186855    0.3211575  11.63  0.001890753    1.195    0.163
       108 -11.5841     24.8676     58.8509   7.4987307101e+01   6.3633610430e+01    0.4606261    0.2582012 -44.06  0.002293464    1.763    0.433
       109 -11.3995    111.2171     58.7688   4.2643502243e+01   4.7748681394e+01    0.2240779    0.2029131 -24.78 0.0003611734    1.303    0.232
       110 -14.5323    120.2202     54.6732   3.9448382289e+01   4.6369292018e+01    0.9581947    0.5685958  53.98  0.004872937    1.532    0.347
       111 -12.3667    248.0902     54.3789   2.3173793691e+01   2.1751847341e+01    0.3748289    0.2055836 -50.66   0.00236879    1.357    0.263
       112 -11.9618    248.9250     48.7729   2.2210114862e+01   2.2330804746e+01    0.2327936    0.1912443  62.30  0.001933789    1.736    0.424
       113 -11.5020     17.5571     55.5289   7.7882332373e+01   6.5101073529e+01    0.2984756    0.2188028 -45.33  0.001716935    1.390    0.281
       114 -11.5438    231.0310     55.1146   2.4626549744e+01   2.4334599581e+01    0.2540201    0.1383151  83.06   0.00159931    2.012    0.503
       115 -12.3325    135.7497     51.1141   3.5449136523e+01   4.3439516410e+01    0.4890912    0.4051754 -45.91  0.002338247    1.309    0.236
       116 -13.5562    103.3702     50.4665   4.2108557423e+01   5.0709606816e+01    0.8260327    0.4851989 -53.74  0.001478494    2.066    0.516
       117 -13.3603     97.9873     50.0083   4.3340352285e+01   5.1958252521e+01    0.6257833    0.4256658 -50.83  0.002387312    1.694    0.410
       118 -10.5689     23.5399     49.9707   7.2743272323e+01   6.5503169438e+01    0.1775174    0.1232309 -41.82 0.0004381782    1.483    0.326
       119 -11.8472    151.9877     46.7788   3.1711157611e+01   4.0493604758e+01    0.2813135    0.1681981  64.12 0.0009239595    1.530    0.347
       120 -12.8966    158.2424     43.2692   2.9988095495e+01   3.9617680407e+01    0.5381731      0.48256  47.42  0.002920291    1.419    0.295
       121 -10.8926     29.7763     46.6183   6.8206258172e+01   6.5305632927e+01    0.2508749    0.1510515 -27.49 0.0008006168    1.819    0.450
       122 -10.8030     38.8305     46.0691   6.3437201821e+01   6.4072210205e+01    0.1892146    0.1706506  29.13 0.0005435301    1.190    0.160
       123 -14.1504     97.7461    238.8848   8.3863230515e+01   1.0004429008e+01     0.793842    0.7679038 -50.13   0.00497779    1.202    0.168
       124 -11.7295    147.4964    239.0077   7.1903674002e+01   3.9560039886e+00      0.18929     0.124701 -46.00 0.0006647242    1.576    0.365
       125 -11.8555     16.6432    236.1276   1.0443506524e+02   1.9451143334e+01    0.2382964    0.1566913  38.91  0.001244838    1.325    0.245
       126 -13.1974      6.5268     42.9362   8.0258478803e+01   6.8591391848e+01     1.014801    0.3692043  19.79  0.004419685    2.478    0.596
       127 -12.5569     23.4486    216.2620   1.0127751773e+02   2.3604336625e+01    0.8845623    0.4215446  43.96  0.003926372    1.936    0.483
       128 -13.6200     26.3980    226.2611   1.0125447216e+02   2.0885751550e+01    0.8991944    0.4097019 -49.84  0.003855861    2.487    0.598
       129 -13.8723     20.7156    223.9308   1.0257965895e+02   2.1973726883e+01    0.7987142    0.6310556  21.38  0.004104167    1.254    0.202
       130 -10.9144     25.8152     44.3229   6.9475801534e+01   6.6240184479e+01    0.2083188    0.1509157  36.07  0.001197224    1.429    0.300
       131 -10.9212    178.9626     42.7217   2.7291966383e+01   3.5415314879e+01    0.1642575    0.1294238 -89.09 0.0003531152    1.092    0.084
       132 -11.9502    134.9599     39.1367   3.2465912713e+01   4.5193664649e+01    0.4354534    0.2386247  75.55  0.001512365    1.831    0.454
       133 -12.4835    109.8523     41.9486   3.8043495980e+01   5.0436880013e+01    0.4307109     0.175973  56.86 0.0006826367    2.095    0.523
       134 -12.8449    131.6477     33.3121   3.1475769353e+01   4.6637125424e+01    0.4521913    0.3810937  18.77  0.001794329    1.686    0.407
       135 -13.5815     65.7152    223.1360   9.0384943064e+01   1.7445745223e+01     1.009398    0.7189177   9.29  0.005112616    1.451    0.311
       136 -12.9062    113.6258     37.8792   3.6046724876e+01   5.0111996431e+01     0.368058    0.2782223  66.87  0.001256805    1.146    0.128
       137 -13.0862     43.4782     32.8276   5.6072306641e+01   6.5360453245e+01    0.9699432    0.4845669  36.75  0.004781572    1.717    0.418
       138 -12.5876     33.0022     40.1475   6.4082354441e+01   6.5940908321e+01    0.3604125    0.2424657  18.50  0.000593437    1.367    0.269
       139 -12.5421     76.0193     36.9956   4.5322685337e+01   5.8477765724e+01    0.4975403    0.2859845  51.59  0.001373598    1.486    0.327
       140 -11.7757     71.1322     36.3566   4.6666507358e+01   5.9579704334e+01    0.3083062    0.2500783  75.05  0.001056457    1.475    0.322
       141 -14.1221     62.9505    214.0321   9.0097844494e+01   1.9979678430e+01    0.9769447    0.5189762  40.65  0.004262104    1.792    0.442
       142 -12.1320     40.6094     40.3296   6.0397042900e+01   6.4722122224e+01    0.5052798    0.2773338  33.46  0.002552402    1.587    0.370
       143 -12.0199     94.3289    217.9117   8.1993694275e+01   1.5119230618e+01     0.266809    0.1849322  34.13  0.001321778    1.361    0.265
       144 -10.1199    136.6963    210.6844   7.0059997991e+01   1.1049724669e+01    0.1480145    0.0997449 -16.93 0.0005105654    1.621    0.383
       145 -12.1882     72.5304    206.6989   8.6485097104e+01   2.0623733593e+01    0.3037182    0.2720285 -76.64   0.00166445    1.224    0.183
       146 -12.1727     57.5369    203.1835   9.0346951878e+01   2.3341279632e+01    0.5977049    0.3177465  88.93  0.002237881    2.839    0.648
       147 -13.5047     57.6330     26.6670   4.7723980725e+01   6.3538881420e+01     1.057027    0.3158062  47.24  0.003164195    2.699    0.630
       148 -10.2789     88.0481     28.0918   3.8823827177e+01   5.6979667283e+01    0.1683913    0.1388558  85.08 0.0006121123    1.317    0.240
       149 -11.4452     40.4382     23.9841   5.3749309629e+01   6.7088105789e+01    0.1736576    0.1523518  16.13  0.001164025    1.121    0.108
       150 -12.0896     30.7680     25.5253   5.9182448429e+01   6.8493178785e+01    0.3842314    0.1986589  29.92  0.001522655    1.705    0.413
       151 -11.7567     35.8871     23.3122   5.5616845097e+01   6.7958031051e+01    0.3050349    0.2166938  13.51  0.001831914    1.408    0.290
       152 -13.2361     17.1268    195.6686   1.0140231417e+02   2.9419376457e+01     1.161181    0.2009744 -58.16  0.003420851    4.342    0.770
       153 -12.9206     40.0267    195.2839   9.4593343074e+01   2.7346205132e+01    0.7416907    0.4010413  43.04  0.003214041    1.810    0.448
       154 -11.7617     48.6599     20.0923   4.8503437137e+01   6.6060116071e+01    0.6719023    0.1978709  50.80  0.002569927    3.054    0.673
       155 -12.6105     21.7827    166.0661   9.7098854367e+01   3.6971378991e+01    0.5856711     0.306822  -6.66  0.001920315    2.544    0.607
       156 -13.4118     29.8863    169.3657   9.4804965754e+01   3.5332270666e+01     1.172632    0.6503008 -25.53  0.004314183    2.320    0.569
       157 -11.4353    104.4823     36.5124   3.7598085217e+01   5.2328817729e+01    0.2395607    0.1298061 -35.47  0.001199232    2.129    0.530
       158 -13.0820     22.2315    180.7716   9.8505409343e+01   3.2937074250e+01    0.6946391    0.4211399 -70.75  0.002492462    1.597    0.374
       159 -15.4108      7.6724    181.7105   1.0307564546e+02   3.3854929078e+01     2.445193     1.396517 -80.17   0.01142156    1.700    0.412
       160 -13.9776     15.5463    174.7927   1.0002371509e+02   3.5112785374e+01     1.042128    0.6148027  63.27  0.004662275    1.891    0.471
       161 -11.4296    200.8466    191.5108   5.3197106168e+01   6.4113858576e+00    0.2373513    0.2030769  -9.80  0.001111222    1.124    0.111
       162 -11.3686    155.6743    184.6713   6.1116138126e+01   1.3911241731e+01    0.1497309    0.1016273 -16.55 0.0007050274    1.701    0.412
       163 -10.9847    142.6739     15.3229   2.5288279328e+01   4.6166318931e+01    0.1230199   0.09855048  85.71 0.0005741356    1.015    0.015
       164 -12.2904    198.6381    181.4024   5.1839982243e+01   8.5438596550e+00    0.2596831    0.2293101 -39.83  0.001569984    1.165    0.142
       165 -11.4955     48.7982    181.4708   9.0248670126e+01   3.0051526610e+01     0.340046    0.2306445 -45.62  0.001576439    1.518    0.341
       166 -12.3899    123.7465    166.3313   6.5437581474e+01   2.3038159527e+01    0.5813831    0.3635175 -75.94  0.002242527    2.647    0.622
       167 -11.6644    111.9258    156.4570   6.6688079633e+01   2.7373639823e+01    0.4081502    0.2799376  70.92  0.001667531    2.265    0.559
       168 -12.0545     77.0592    156.7570   7.7270307882e+01   3.2921037124e+01    0.5191016    0.3448981  21.31  0.001475497    1.553    0.356
       169 -13.0320     73.9678    153.4867   7.7663931301e+01   3.4239029354e+01    0.8201598    0.5412045  21.76  0.002586423    1.558    0.358
       170 -11.3474    103.4350    149.8355   6.7767111278e+01   3.0433550834e+01    0.3915052    0.2504571 -32.49  0.001298143    1.805    0.446
       171 -12.6150      8.6527    148.8969   9.9702733763e+01   4.2681028389e+01    0.6966713    0.4880231  30.05  0.003529112    1.478    0.323
       172 -11.9886     60.4942    147.3477   8.1059948535e+01   3.7788267955e+01    0.4578013     0.318439  -6.21  0.001992433    1.736    0.424
       173 -12.2023    211.2234    154.1124   4.4846157981e+01   1.1806656009e+01    0.2853632    0.1637607  19.58  0.001352927    2.993    0.666
