#   1 NUMBER                 Running object number                                     
#   2 MAG_AUTO               Kron-like elliptical aperture magnitude                    [mag]
#   3 X_IMAGE                Object position along x                                    [pixel]
#   4 Y_IMAGE                Object position along y                                    [pixel]
#   5 X_WORLD                Barycenter position along world x axis                     [deg]
#   6 Y_WORLD                Barycenter position along world y axis                     [deg]
#   7 A_WORLD                Profile RMS along major axis (world units)                 [deg]
#   8 B_WORLD                Profile RMS along minor axis (world units)                 [deg]
#   9 THETA_WORLD            Position angle (CCW/world-x)                               [deg]
#  10 FWHM_WORLD             FWHM assuming a gaussian core                              [deg]
#  11 ELONGATION             A_IMAGE/B_IMAGE                                           
#  12 ELLIPTICITY            1 - B_IMAGE/A_IMAGE                                       
         1 -11.2561    221.4796     21.4178   3.5162799930e+01   2.8138715065e+01      0.68108    0.5584918 -60.33  0.003282295    1.080    0.074
         2 -11.6409    206.5786     38.3601   4.0643396637e+01   2.9358839372e+01     0.878533    0.7597513 -53.95  0.005549795    1.095    0.087
         3 -10.4546    214.5858     28.8390   3.7510031905e+01   2.8763451825e+01    0.5694732    0.3657625  39.77  0.001085483    2.170    0.539
         4  -9.6588    244.5761      2.2489   2.9409128146e+01   2.5468154799e+01     0.526658    0.2006473  79.11  0.002651505    2.573    0.611
         5  -9.9381    114.3108    237.5495   1.0304752704e+02   9.4198196063e+00    0.3697637    0.2367577   6.47   0.00177621    2.550    0.608
         6 -14.4363     36.2772    238.3020   1.1879393836e+02   1.9401373405e+01     3.005843      1.11893 -60.91  0.003622732    2.808    0.644
         7 -15.3752     15.7841    216.6059   1.2129513839e+02   2.5901784342e+01      1.83419    0.9457229  56.40   0.01072558    1.695    0.410
         8 -13.9244     23.4985    238.6697   1.2119731484e+02   2.0681845737e+01    0.4605774    0.3633282 -54.07  0.002202542    1.684    0.406
         9 -14.8944     20.4400    248.1763   1.2229056325e+02   1.9179191135e+01    0.5491777    0.4573093  31.34  0.004237766    1.524    0.344
        10 -15.5881      6.1346    223.9197   1.2356239714e+02   2.5283638967e+01     2.165725    0.3073281  41.87  0.009029593    3.811    0.738
        11 -16.2643     11.8125    241.3911   1.2345215326e+02   2.1314142584e+01     1.759207    0.6868438 -57.63   0.00691033    3.190    0.687
        12 -15.8546      2.7343    237.3454   1.2484899999e+02   2.2936357465e+01     1.180127    0.2849529 -76.81  0.005266022    3.590    0.721
        13  -7.5061     74.4437    237.4970   1.1124782987e+02   1.4974327935e+01    0.1208772    0.1027293  59.65 7.975465e-05    1.009    0.009
        14 -10.1320    130.7598    234.0176   9.9145717565e+01   7.6173707948e+00    0.5435787    0.2001044  28.40  0.001992829    3.313    0.698
        15 -10.1419     84.5973    231.7976   1.0858451809e+02   1.4737802965e+01     0.400454    0.2773112  89.83  0.001341463    1.639    0.390
        16  -7.5918    241.6028    240.1837   7.8333600138e+01  -9.2554293045e+00    0.1593258   0.09027036 -19.89 0.0005569477    1.610    0.379
        17  -7.8906    201.8615    227.7469   8.3598799874e+01  -2.1308984436e+00    0.2130222    0.1706226 -64.86  0.001093463    2.161    0.537
        18  -9.8534    112.6964    223.9498   1.0165504376e+02   1.2255327883e+01    0.4394126    0.2324031  29.41 0.0009271035    1.934    0.483
        19 -13.9790     40.1164    247.2605   1.1868776355e+02   1.7255245353e+01     1.486717     0.581039  33.30  0.005952709    2.474    0.596
        20 -14.9877     14.4440    232.5798   1.2250487836e+02   2.2775639447e+01      0.70998    0.2842607  37.76  0.003928801    2.208    0.547
        21  -9.7833    221.8019    221.4279   7.8695929931e+01  -4.0372839569e+00    0.2176772    0.1794207  -7.09 0.0002742647    1.089    0.081
        22  -8.5802    189.5738    222.3103   8.5109735870e+01   5.7226287168e-01    0.2254154    0.1394603  14.55 0.0007164782    1.734    0.423
        23  -8.4409    133.9539    221.0722   9.6627823605e+01   9.5409157225e+00    0.3477084     0.221053 -83.24  0.001523139    2.933    0.659
        24  -7.1643     66.7145    222.3354   1.1135751855e+02   1.9023952230e+01    0.1305297   0.08232194  67.15 0.0003841226    1.625    0.385
        25  -7.3961     77.6821    221.3164   1.0891421981e+02   1.7797597901e+01    0.1342307   0.08522414  64.43 0.0002467158    1.654    0.395
        26  -7.3749    148.4652    220.5266   9.3403747367e+01   7.3469054800e+00    0.1335192    0.1194033  24.70 0.0008090381    1.008    0.008
        27  -7.6181     83.1948    218.0412   1.0735166945e+02   1.7729277167e+01    0.1716937    0.1557586  71.83 0.0004258276    1.043    0.042
        28  -7.8044    112.5044    216.9266   1.0074769230e+02   1.3687951091e+01    0.1849696    0.1319414 -58.87 0.0004551416    1.525    0.344
        29  -7.7064     98.8889    214.1720   1.0340686075e+02   1.6298808760e+01    0.1847511    0.1709141   5.54 0.0003056655    1.245    0.197
        30  -7.8146    101.4988    211.0780   1.0240954009e+02   1.6561138127e+01    0.1820304    0.1308721 -60.72 0.0003170289    1.472    0.321
        31  -9.3039    189.5475    210.8201   8.3108969935e+01   2.5050780600e+00    0.3385097    0.2827143  87.78  0.001307907    2.077    0.519
        32  -8.7243     75.5990    212.7205   1.0840865494e+02   1.9892466845e+01    0.2841946    0.2178968  -1.21  0.001045031    1.917    0.478
        33  -9.1375     54.5193    211.9218   1.1293263303e+02   2.2750691297e+01    0.1962751    0.1691187  31.33 0.0006974673    1.325    0.245
        34  -9.9373    123.9433    205.9570   9.6566410444e+01   1.4146360262e+01    0.2134373    0.1886741  58.09  0.001246919    1.167    0.143
        35  -8.5362    118.4808    208.5438   9.8202743243e+01   1.4480053451e+01    0.2372623    0.2195978 -16.71 9.495568e-05    1.191    0.161
        36  -8.7874    119.1842    205.1865   9.7535087985e+01   1.5068498507e+01    0.4451915    0.2904581  26.09 0.0003169311    1.624    0.384
        37  -8.2181    115.7766    203.3793   9.8042487768e+01   1.5991277563e+01    0.2088349    0.1873559 -85.21 0.0004229007    1.211    0.174
        38 -14.0913      2.1387    205.0825   1.2327617831e+02   2.9553922591e+01     1.592004    0.3074142 -70.71  0.006292002    3.768    0.735
        39  -9.0412    158.9733    207.0550   8.8910655205e+01   8.1709526156e+00    0.2175629    0.1915807 -36.62 0.0003508754    1.203    0.169
        40 -14.2021     30.1730    247.8706   1.2053954732e+02   1.8225388845e+01    0.6628382     0.350488  85.78   0.00400259    1.845    0.458
        41  -8.1475    128.4906    206.7042   9.5649435365e+01   1.3258961859e+01    0.2303135     0.196962  87.78   0.00075489    1.401    0.286
        42  -8.7142     61.8108    201.4024   1.1022196251e+02   2.4174474323e+01    0.3038222    0.1775011  67.66  0.001391611    1.924    0.480
        43  -7.9299    195.1919    199.5864   7.9894859333e+01   3.5495376367e+00    0.1915683    0.1197794  23.31 0.0009434957    1.620    0.383
        44  -8.5773    109.0603    198.0620   9.8794877260e+01   1.8197175705e+01    0.2000322    0.1892312  53.92 -0.0009232552    1.011    0.011
        45  -8.1224     78.9452    198.1000   1.0587462991e+02   2.2654957711e+01    0.1932869    0.1834437  75.87 0.0002904917    1.057    0.054
        46  -8.2204     89.8953    196.6195   1.0310239960e+02   2.1429359055e+01    0.2681643    0.2019418 -28.84  0.001117506    1.731    0.422
        47  -8.1002     98.6908    195.8498   1.0091062228e+02   2.0289790735e+01     0.358614    0.1946756  30.18  0.001151847    1.941    0.485
        48  -7.3988    181.2364    192.9217   8.1528790217e+01   7.0890330387e+00     0.175399      0.11449 -42.09 0.0005636036    1.560    0.359
        49  -7.7462     83.1388    193.3346   1.0425177291e+02   2.3147209530e+01    0.1982103    0.1094511  45.56 0.0003545362    1.752    0.429
        50  -8.0356     63.9663    191.0618   1.0851748242e+02   2.6258560801e+01    0.1944606    0.1738566  74.99 0.0003080447    1.024    0.023
        51  -8.2356     67.8951    189.6483   1.0740663318e+02   2.6078504568e+01     0.281848    0.2144434 -26.97  0.001519746    1.785    0.440
        52  -9.0898     90.8296    189.2342   1.0182071261e+02   2.2967972971e+01    0.2800824    0.2593569  -7.35 0.0003381997    1.256    0.204
        53  -8.7089     74.3950    190.0850   1.0590591568e+02   2.5110143626e+01    0.2276449    0.1985893 -83.59  0.001360802    1.094    0.086
        54  -9.4328     80.5434    187.1646   1.0402136153e+02   2.4935734512e+01    0.3067835    0.2292698  33.30 0.0003456466    1.383    0.277
        55  -8.8173     18.0331    187.7259   1.1875462622e+02   3.2022054719e+01    0.4540288     0.223597 -63.35  0.002409999    1.835    0.455
        56  -8.8719    188.3486    185.2940   7.8542972510e+01   7.2952160666e+00    0.2328316     0.221019 -12.37 0.0003008928    1.142    0.124
        57  -7.3839     38.5152    185.4731   1.1388622560e+02   3.0537904258e+01    0.1283239    0.1094184  85.51 0.0003444399    1.009    0.009
        58  -7.3208    117.5031    184.0077   9.4488915185e+01   1.9945997969e+01    0.2065224    0.1154956 -32.58 0.0008099047    2.490    0.598
        59  -8.1393     78.2424    182.4733   1.0392061620e+02   2.6357050790e+01    0.2345694    0.1764774 -64.48  0.000388403    1.291    0.225
        60 -10.5318     62.1996    179.3417   1.0746434318e+02   2.9237381883e+01    0.4733907    0.4486301  24.29  0.002972059    1.217    0.178
        61  -9.8241     68.0259    173.5648   1.0521067701e+02   2.9871234327e+01    0.3262815    0.2866579 -16.35 0.0005822249    1.399    0.285
        62  -7.4208    147.4898    180.4611   8.6661780859e+01   1.5519756462e+01    0.1464748    0.1376475   4.95 0.0008091792    1.025    0.025
        63  -7.3250     90.3262    180.2935   1.0058876227e+02   2.5118350062e+01    0.1390547     0.109838 -20.94 0.0004165877    1.622    0.384
        64  -7.3443    109.4861    178.5346   9.5515068816e+01   2.2516740648e+01    0.1410413     0.139782  48.51 -4.691566e-05    1.019    0.019
        65  -7.8909    103.4892    178.0367   9.6927083739e+01   2.3604071637e+01    0.2129308    0.1394598 -56.43 0.0003450032    1.526    0.345
        66  -7.9685     23.0213    177.4837   1.1673249621e+02   3.3941435888e+01    0.1610174     0.118047  39.09 -0.0001369117    1.464    0.317
        67  -9.0226      2.0358    174.2756   1.2128876543e+02   3.6416706745e+01    0.4406228    0.2113211 -75.57  0.002375025    1.682    0.405
        68  -9.8114      8.9771    163.1951   1.1878026240e+02   3.8489211188e+01     0.387505    0.1988038 -42.75  0.001938697    2.429    0.588
        69 -10.2856      4.4241    163.9550   1.1993493415e+02   3.8645414099e+01    0.4759361    0.2309364 -82.52  0.001427321    1.754    0.430
        70  -8.8839     10.8053    168.2431   1.1878299512e+02   3.7155564232e+01    0.2667487    0.1406583 -67.53 0.0007715783    1.581    0.367
        71  -7.6866     76.5326    176.1134   1.0342200672e+02   2.8105842190e+01    0.2046222     0.130455 -62.51 0.0003347443    1.505    0.336
        72  -9.4992    175.4920    172.4076   7.8681722091e+01   1.2089753277e+01    0.3077048    0.2639795  27.00 0.0006974652    1.150    0.131
        73  -7.7176    117.4802    173.4424   9.2608860340e+01   2.2351305635e+01    0.1438946    0.1416872  10.30 0.0001096951    1.023    0.022
        74  -8.4974     89.3332    172.8419   9.9649433807e+01   2.7032275719e+01    0.4238453    0.2065578  46.84  0.001433627    2.159    0.537
        75  -7.3206    124.2998    172.6931   9.0769063692e+01   2.1344790307e+01    0.1468922    0.1162722  75.26 0.0002933735    1.595    0.373
        76  -7.3695     48.4982    172.4257   1.0999845275e+02   3.2542512647e+01    0.1311734    0.1183478 -77.28 0.0008051254    1.064    0.060
        77  -9.2048     17.5272    170.6436   1.1739951387e+02   3.6038749163e+01    0.3062536    0.1873887 -82.13  0.001731106    1.403    0.287
        78  -8.3555     37.4667    169.9961   1.1246796338e+02   3.4322565504e+01    0.3503884    0.1119047 -68.37  0.001354513    2.718    0.632
        79  -7.9128     75.1664    170.1424   1.0287093679e+02   2.9733159834e+01    0.1974537    0.1818228 -39.56  0.000324236    1.188    0.158
        80  -9.2913     43.7377    169.2441   1.1080608717e+02   3.3841064386e+01    0.2502602    0.2039363  75.13  0.000324088    1.181    0.153
        81  -8.4927     24.5283    169.4280   1.1559575731e+02   3.5711967429e+01    0.3597853    0.1449337  13.23  0.001342594    4.530    0.779
        82  -8.3910     24.6621    165.8815   1.1520132562e+02   3.6549467605e+01    0.3323303    0.1749201  76.44  0.001567112    2.184    0.542
        83  -8.5494     88.7028    165.3254   9.8553325206e+01   2.8934661824e+01    0.5933321    0.2392311  57.18  0.001546596    5.777    0.827
        84  -8.3227     85.3202    165.2843   9.9436406776e+01   2.9452758233e+01    0.2563429    0.2088008 -27.22  0.001344484    1.447    0.309
        85  -7.6902     32.6238    165.7845   1.1320326518e+02   3.5825581725e+01    0.1857291     0.109242 -83.04 0.0006437568    1.613    0.380
        86  -8.1221     42.3940    164.9743   1.1062292827e+02   3.5023994117e+01    0.2970915    0.1781659 -33.45  0.001399098    2.332    0.571
        87  -7.7299    106.8218    163.8392   9.3539467156e+01   2.6399018042e+01     0.198888    0.1704632  72.01 0.0002681864    1.295    0.228
        88  -8.7471     77.6552    163.9371   1.0123721321e+02   3.0894099193e+01    0.2422044      0.23151  38.79 0.0004134052    1.117    0.105
        89  -8.4294     55.1323    163.3860   1.0710326344e+02   3.3972074626e+01    0.5340289    0.1730732  41.36  0.001987962    3.061    0.673
        90  -8.2451     97.0803    163.3389   9.5997591703e+01   2.8110226258e+01    0.3826483    0.1336355  35.77  0.001318247    2.871    0.652
        91  -8.2540     19.3049    163.2263   1.1625793150e+02   3.7655301494e+01    0.1863714    0.1632805  77.27 0.0004526665    1.117    0.105
        92  -9.7296     65.5118    160.1879   1.0387614616e+02   3.3465410167e+01    0.3390819     0.246792 -36.75 0.0006972939    1.586    0.370
        93  -7.3354     28.5555    162.5292   1.1386682024e+02   3.7001951371e+01    0.1299784    0.1093931 -83.56 8.183788e-05    1.011    0.010
        94  -9.8285     83.6633    158.3759   9.8688122589e+01   3.1383928509e+01    0.3957923     0.322133 -31.09 0.0009578718    1.390    0.281
        95  -8.8157     87.4400    155.2080   9.7095422894e+01   3.1591775253e+01    0.3598028    0.2498208 -78.02  0.001680517    1.677    0.404
        96  -7.2295    171.8138    159.0110   7.6641544000e+01   1.5508210899e+01    0.1953832    0.1117602 -42.81 0.0003817553    1.702    0.413
        97  -8.8076     13.5529    158.2611   1.1720035241e+02   3.9314689656e+01    0.3103353     0.164793  49.78  0.001629337    1.985    0.496
        98  -7.4014    126.7511    158.3386   8.7306474034e+01   2.4200109852e+01    0.1473806    0.1197659 -88.46 0.0002046145    1.565    0.361
        99  -7.6938     23.5943    157.7985   1.1461010311e+02   3.8597164840e+01    0.1708775    0.1067272 -85.03 0.0002834101    1.469    0.319
       100  -9.3454      6.8380    170.0335   1.1986369870e+02   3.7042027048e+01    0.2328048    0.1823794  83.14 0.0003266296    1.089    0.082
       101  -8.4893     51.8077    157.0017   1.0708007962e+02   3.5936762617e+01    0.2556649    0.2122445 -18.12 0.0002509706    1.503    0.335
       102  -7.4022     31.5195    156.4110   1.1239594047e+02   3.8214927317e+01    0.1592826    0.1287209  12.39 0.0005213887    1.554    0.357
       103  -7.9381     34.3882    154.7049   1.1142945595e+02   3.8358398553e+01    0.4467239     0.200029  81.76   0.00152762    3.993    0.750
       104  -9.0324      8.8811    154.9941   1.1805756315e+02   4.0450259318e+01    0.1803693    0.1592624  86.43 0.0003034529    1.114    0.103
       105  -8.4731      2.9691    154.4988   1.1948515349e+02   4.0982971480e+01    0.1626174    0.1194804  31.08  0.001036222    1.612    0.380
       106 -11.0143     68.6668    144.9181   1.0046067233e+02   3.6839096417e+01    0.7572665    0.5043161  66.27  0.003307706    1.912    0.477
       107  -6.8521    148.3069    149.6664   8.0046477264e+01   2.2078851128e+01    0.1530648    0.1248013  89.39 0.0007040434    1.668    0.401
       108  -7.8943     80.8179    151.3138   9.8201867302e+01   3.3541834761e+01    0.2338866    0.1679488 -14.00  0.001077055    1.941    0.485
       109  -8.6804      1.7678    147.6911   1.1917835429e+02   4.2684136277e+01    0.2429965    0.1121903 -65.78  0.001097532    1.702    0.412
       110  -7.6993    126.7900    147.1879   8.4910483128e+01   2.6775810944e+01    0.2052474    0.1757588  -1.86 0.0003846637    1.306    0.234
       111  -9.4626     87.7901    146.4268   9.5335458938e+01   3.3695051350e+01    0.4498778    0.2409539  43.00  0.001896471    1.964    0.491
       112  -8.7575     85.9937    142.7565   9.5117737416e+01   3.4876536226e+01    0.3182816    0.2077815  50.69 0.0008891215    1.722    0.419
       113  -7.3188     56.5438    151.5033   1.0496525998e+02   3.6742030119e+01    0.1396055    0.1252061 -77.26 4.720321e-05    1.027    0.026
       114  -9.1693     15.3726    144.5269   1.1529803972e+02   4.2498975756e+01    0.4307502    0.1311262 -60.12    0.0014027    2.481    0.597
       115  -8.7266      5.9560    145.5749   1.1789844523e+02   4.2917052539e+01    0.3270403    0.1640019  58.80  0.001212398    2.280    0.561
       116  -7.7334    118.9220    145.2757   8.6560017276e+01   2.8682381694e+01    0.2069285    0.1931923  26.57 0.0003184035    1.095    0.087
       117  -8.3281    243.9541    144.6929   5.9667124684e+01   4.9923499822e+00    0.2059365   0.09725808  24.59 0.0005908613    4.305    0.768
       118  -9.1137     99.2249    142.8460   9.1410087634e+01   3.2726650207e+01    0.4713721     0.335462 -20.44  0.001316694    1.833    0.454
       119  -9.3590      9.2456    132.1721   1.1557371268e+02   4.5943114823e+01    0.3518185    0.2086563 -66.01  0.001397438    1.343    0.255
       120  -9.1668      7.4772    140.9995   1.1703227208e+02   4.3919180477e+01    0.3664747    0.2220415   7.09  0.002023599    2.260    0.558
       121  -8.9920      5.6448    137.7110   1.1718050179e+02   4.4834624523e+01    0.2230285    0.1606962 -57.61 0.0007034178    1.254    0.202
       122  -8.4719    130.8808    138.1906   8.1801963664e+01   2.8071669462e+01    0.3099127    0.2540254 -72.21 0.0006387212    1.454    0.312
       123  -7.0223    227.3167    139.3031   6.1258810296e+01   8.8045069221e+00    0.1402144    0.1024718  -3.95 0.0003157289    1.622    0.383
       124  -7.7435    186.6805    139.0716   6.8905043379e+01   1.6636045995e+01    0.2063472    0.1781986 -29.78 0.0003896072    1.083    0.076
       125  -7.1298    152.3084    139.7253   7.6787545364e+01   2.3469062751e+01    0.1483186    0.1248584  85.35 0.0002632226    1.550    0.355
       126  -8.1405    109.9382    137.8967   8.7358473966e+01   3.2061541257e+01      0.22162    0.2118309 -79.71 0.0003315107    1.107    0.096
       127  -8.7639     82.5104    137.3398   9.5026244290e+01   3.6744806402e+01     0.454771    0.2876468 -89.72  0.001439629    2.551    0.608
       128  -7.8142     25.2539    138.3109   1.1181995894e+02   4.3234133762e+01    0.2190888    0.1295215  69.28 0.0009238856    2.058    0.514
       129  -8.3880     13.1406    136.8872   1.1503452974e+02   4.4526787837e+01    0.3623132    0.1449861 -54.23  0.001314975    2.119    0.528
       130  -9.1477     62.3915    136.1736   1.0069501726e+02   3.9843856577e+01    0.3578354    0.1879848 -49.73  0.001432234    1.756    0.431
       131  -7.2529     52.5823    137.4528   1.0380544264e+02   4.0718320030e+01    0.1403281     0.123064 -60.09 0.0001039785    1.033    0.032
       132  -8.7255    111.4695    149.9209   8.9546856325e+01   2.8918897356e+01    0.2603762    0.2192221  41.33  0.000418736    1.217    0.178
       133  -8.5256    109.9196    132.0357   8.6024469494e+01   3.3459764872e+01    0.2491479    0.1856998 -14.31 0.0008630436    1.703    0.413
       134  -8.0268    246.4877    130.5208   5.6262921254e+01   6.9388614772e+00    0.1351908    0.1130769 -30.40 0.0001733824    1.008    0.008
       135  -7.5378     29.2670    134.3446   1.1012694919e+02   4.3869009913e+01    0.1608044    0.1197854  39.12 0.0009184665    1.513    0.339
       136  -7.5038     15.4699    129.5065   1.1347113940e+02   4.6164579755e+01    0.1309059    0.1055901 -65.33 0.0001039687    1.046    0.044
       137  -8.4610    126.0133    127.6890   8.0574803152e+01   3.1430124913e+01    0.3684631    0.2599287 -76.35  0.001522515    2.103    0.525
       138  -7.1837     96.3324    128.6900   8.9128696679e+01   3.6644680598e+01    0.1532879    0.1200381  77.43 0.0002995826    1.672    0.402
       139  -7.2661     11.3623    124.6939   1.1405296193e+02   4.7623552747e+01    0.1297339   0.08594433  67.42 0.0007038765    1.737    0.424
       140  -7.6390     94.8736    120.9416   8.7741380652e+01   3.8751918763e+01    0.2058005    0.1795647 -84.20 0.0004972646    1.336    0.252
       141  -7.4398     64.4139    121.1488   9.7121795995e+01   4.3312310234e+01    0.1940558    0.1323016 -70.33 0.0003584044    1.563    0.360
       142  -7.7635    104.2664    120.4332   8.4855421318e+01   3.7225336454e+01     0.202446    0.1462671  49.25 0.0003553745    1.533    0.348
       143  -7.9494      5.6415    119.2574   1.1505962860e+02   4.9299625028e+01    0.1868059    0.0894032 -63.34 0.0009426816    1.597    0.374
       144  -6.7999     66.2836    116.3061   9.5486704615e+01   4.4249836958e+01    0.1476651    0.1032443 -30.48 0.0002665561    1.562    0.360
       145  -8.8305     50.4401    110.4732   9.9352893772e+01   4.7646117751e+01    0.2411722    0.2187546 -12.40 0.0009582911    1.182    0.154
       146  -9.4815    248.1884    108.2400   5.1231712815e+01   1.0318216533e+01    0.3612401    0.2254735  -6.27  0.001584396    2.830    0.647
       147  -8.1132      8.1673    106.2108   1.1249553722e+02   5.2292681831e+01    0.1710857    0.1356366  85.85  0.001068584    1.348    0.258
       148  -8.4779     68.7179    103.4167   9.1670662985e+01   4.7008423863e+01    0.3241157    0.2605785 -89.96  0.001653758    1.638    0.390
       149  -8.4084     99.4233     96.4754   7.9960875909e+01   4.3567659693e+01    0.2500602     0.234556  15.91 0.0005288621    1.082    0.076
       150  -7.1718    123.2937     96.2904   7.2981151407e+01   3.8894413747e+01    0.1534167    0.1196713  -0.99 0.0003046905    1.551    0.355
       151  -7.3936     25.9935     93.9558   1.0428471532e+02   5.3986208695e+01    0.1610864    0.1258667 -53.97 0.0003172333    1.063    0.059
       152  -8.2877     42.9835     92.9358   9.7991729352e+01   5.2650041384e+01    0.2020359    0.1765156 -45.97 0.0003487837    1.038    0.037
       153  -8.9207     95.4358     89.9195   7.9305859451e+01   4.5717886145e+01    0.2814843    0.2156767  41.60  0.001399835    1.381    0.276
       154  -7.2448     39.6979     90.2777   9.8545434280e+01   5.3607457906e+01    0.1235811    0.1041997  75.22 0.0001897446    1.543    0.352
       155  -7.8288     38.4460     82.8755   9.7197530027e+01   5.5429195289e+01     0.203879    0.1732903  30.54 0.0003770952    1.373    0.272
       156  -7.9329     81.3898     77.4837   8.0114182190e+01   5.0793981120e+01    0.2997031    0.1930118   0.08  0.001276233    2.220    0.550
       157  -7.5611     11.3320     75.3051   1.0583453878e+02   5.9307837905e+01     0.135753     0.072425 -37.45 0.0003470881    1.660    0.398
       158  -7.2942     74.4491     71.4281   8.0587559425e+01   5.3167483486e+01    0.1420916    0.1272105 -14.64 8.510258e-05    1.009    0.009
       159  -8.0006     22.9668     69.8573   9.9915942688e+01   5.9706225679e+01     0.196967    0.1359183 -34.50  0.000267029    1.249    0.199
       160  -7.3333     58.2704     65.3073   8.4531286699e+01   5.6823506010e+01    0.1394831   0.09457926 -18.87 0.0002415212    1.540    0.351
       161  -7.2816      1.3107     63.7001   1.0733735242e+02   6.2399065885e+01    0.1071511   0.08983333  76.46 0.0002909356    1.603    0.376
       162  -7.3352    113.7763     54.9763   6.2689613465e+01   4.8579635965e+01    0.1754963    0.1167826 -31.62 0.0002427581    1.533    0.348
       163  -7.5966     53.9951     46.9643   7.9798947332e+01   6.0858083882e+01    0.1566475    0.1314053   0.35 0.0003333166    1.070    0.066
       164  -7.6315    241.6533    248.6768   7.9725120387e+01  -1.0337620110e+01    0.1238495   0.07032513   0.56 0.0007049762    1.740    0.425
       165 -11.1322    197.8418     43.1822   4.2923952008e+01   3.0707574430e+01    0.5062852    0.3464631  51.83  0.001601578    1.553    0.356
       166  -8.4899    203.1456    245.4404   8.6243959921e+01  -4.9291913025e+00    0.1926849    0.1512659 -15.32 0.0001347808    1.228    0.186
       167 -11.0226     93.9452    241.6303   1.0771178907e+02   1.1561755446e+01    0.7415447    0.4177981  13.03  0.003178202    3.433    0.709
       168  -7.3410     31.0085     41.9936   8.7816375309e+01   6.4577271893e+01    0.1509761     0.119241 -22.23 0.0003567395    1.015    0.015
       169  -7.3975    242.6262     20.2266   3.3115834617e+01   2.3901993806e+01    0.1414891    0.1057381 -28.29 0.0002799116    1.558    0.358
       170  -7.0922     94.6615     15.2551   5.3292504974e+01   5.7830896809e+01    0.1176439    0.1007009 -89.84  0.000373883    1.575    0.365
