#   1 NUMBER                 Running object number                                     
#   2 MAG_AUTO               Kron-like elliptical aperture magnitude                    [mag]
#   3 X_IMAGE                Object position along x                                    [pixel]
#   4 Y_IMAGE                Object position along y                                    [pixel]
#   5 X_WORLD                Barycenter position along world x axis                     [deg]
#   6 Y_WORLD                Barycenter position along world y axis                     [deg]
#   7 A_WORLD                Profile RMS along major axis (world units)                 [deg]
#   8 B_WORLD                Profile RMS along minor axis (world units)                 [deg]
#   9 THETA_WORLD            Position angle (CCW/world-x)                               [deg]
#  10 FWHM_WORLD             FWHM assuming a gaussian core                              [deg]
#  11 ELONGATION             A_IMAGE/B_IMAGE                                           
#  12 ELLIPTICITY            1 - B_IMAGE/A_IMAGE                                       
         1 -12.0542     76.5314     23.9631   2.9108797025e+02   7.0407644319e+00   0.02965002   0.02204255  76.69  0.001541158    1.662    0.398
         2 -11.1167     14.0227     21.0137   2.9179411265e+02   7.4485702138e+00   0.02344597   0.01522393  56.24  0.001367836    1.832    0.454
         3 -11.0154     27.3252     15.4905   2.9160575647e+02   7.4326090849e+00   0.01809428   0.01421177 -46.93   0.00129502    1.265    0.210
         4  -9.6117    190.4453     17.4400   2.8972951128e+02   6.4310159884e+00  0.006486712  0.006428165 -28.26 6.853049e-05    1.002    0.002
         5  -9.9286     39.0169     10.0677   2.9143668698e+02   7.4250465096e+00   0.01238178  0.008854887  39.42  0.001330179    1.406    0.289
         6 -11.0210     22.3372      9.4732   2.9162637879e+02   7.5315681230e+00   0.01973279   0.01511752  16.87  0.002193892    1.372    0.271
         7 -11.6504     34.9922     13.2743   2.9150317506e+02   7.4122580768e+00   0.02499553   0.01636407 -78.10  0.001779506    1.809    0.447
         8 -11.8744     29.9527      7.1962   2.9152400382e+02   7.5122332441e+00   0.01968922   0.01823895   6.17   0.00118987    1.104    0.094
         9 -11.4179    212.6957     11.7623   2.8943722883e+02   6.3620410538e+00   0.01461687   0.01256701  -5.78 0.0008590611    1.257    0.205
        10  -9.7812     68.4783     12.6121   2.9111100466e+02   7.2194734552e+00   0.01384426  0.008878374  71.28  0.001282313    2.200    0.545
        11 -10.2907    184.3080     11.9469   2.8976636159e+02   6.5310798403e+00  0.009235486  0.008704436 -56.24 0.0005986178    1.054    0.051
        12 -10.8461    119.0190     11.9738   2.9052173636e+02   6.9236070047e+00  0.009595076  0.009453225 -29.27  0.001206059    1.006    0.006
        13 -10.6797     87.5796     11.6016   2.9088347222e+02   7.1165930193e+00    0.0202393  0.008859372 -45.03  0.001667029    2.426    0.588
        14  -9.6547      9.0044     10.5090   2.9178737927e+02   7.5992694880e+00   0.01176692  0.006368928 -27.21 0.0009527141    2.743    0.635
        15 -11.1525     13.7957      8.4211   2.9171891317e+02   7.5946656003e+00   0.02245436   0.01399715  31.69  0.001253044    1.582    0.368
        16 -10.4737    209.2246      8.9564   2.8945990461e+02   6.4151910229e+00   0.02332447   0.01140859 -27.53  0.001430741    3.679    0.728
        17 -10.9408     92.6183      9.2341   2.9081044870e+02   7.1135723477e+00     0.014536   0.01037376 -41.49  0.001151084    1.447    0.309
        18  -9.9785      6.7366      4.4335   2.9177612352e+02   7.6826245577e+00   0.01661652    0.0102031 -11.22 0.0009870819    2.391    0.582
        19 -10.2958     10.4967      1.6341   2.9171520977e+02   7.6923522275e+00   0.01447904  0.008791127  24.46   0.00142809    1.691    0.409
        20 -10.6281      4.0073      9.7569   2.9184067876e+02   7.6377316218e+00   0.01262791   0.01034192 -72.32 0.0003177408    1.276    0.216
        21 -10.3387      2.5105      6.5625   2.9183829577e+02   7.6833729406e+00     0.013004   0.00945075   7.39  0.000864719    1.567    0.362
        22 -11.7152     55.9490      5.0603   2.9120944725e+02   7.3812809774e+00    0.0321453   0.02161158  54.78  0.003280474    1.711    0.416
        23 -11.3179    151.3986      5.7617   2.9010853061e+02   6.8002798580e+00   0.02868418   0.01117247 -51.97  0.001739618    2.425    0.588
        24 -10.3021    142.0607      7.9659   2.9023023200e+02   6.8311424072e+00   0.01060819  0.007680193 -24.50 0.0003783432    1.615    0.381
        25 -10.3072     66.6829      2.3613   2.9106834544e+02   7.3480127245e+00   0.01939896  0.008586436 -36.29 0.0007508134    3.202    0.688
        26 -10.0685     70.9919      7.5019   2.9105024512e+02   7.2631343164e+00   0.01388664  0.009823459  44.41  0.000829905    1.461    0.316
        27 -11.1091     67.8107      5.7038   2.9107597221e+02   7.3028533502e+00   0.02721357   0.01621468   6.61  0.002479076    2.222    0.550
        28 -10.4634     41.4695      6.4466   2.9138585494e+02   7.4519922115e+00   0.02036316  0.009384208  27.25  0.001661883    2.184    0.542
        29  -9.7547    160.3242      4.6303   2.8999827184e+02   6.7595509681e+00   0.01060988  0.007622335  62.85 0.0008378253    1.664    0.399
        30  -9.1476    107.5380      4.9672   2.9061123498e+02   7.0730505611e+00  0.009239505  0.006439452 -60.28 -5.365683e-05    1.420    0.296
        31 -10.3392    235.8195      3.8906   2.8912137885e+02   6.3128185754e+00   0.01506372  0.006204769 -43.62  0.001170042    2.723    0.633
        32 -11.1390    130.7605      3.5901   2.9033386553e+02   6.9493488963e+00   0.01653345   0.01056489  39.83  0.001428693    1.572    0.364
        33  -9.9426    120.9785      4.0909   2.9045019614e+02   7.0023872396e+00  0.009785946  0.009545145 -52.59 0.0005264488    1.020    0.019
        34 -10.1039    199.4438      2.8939   2.8953526852e+02   6.5437749742e+00   0.01097742  0.008817117  41.78 0.0003287567    1.262    0.208
        35  -9.4761    113.0000      2.9340   2.9053539246e+02   7.0636052120e+00   0.01075345  0.003742524 -61.75 0.0006039009    2.859    0.650
        36  -9.8736     91.6306      2.6409   2.9078104540e+02   7.1952447942e+00   0.01923173   0.01106226  21.16  0.001827546    1.868    0.465
        37 -10.5597     19.4922      2.4711   2.9161606739e+02   7.6290254291e+00   0.01707214   0.01205972   3.00  0.001765791    1.689    0.408
        38  -9.3196    146.6728      2.2938   2.9014169485e+02   6.8685400827e+00  0.006883256  0.004970528  60.77 0.0004120013    1.625    0.385
        39 -11.3414     80.3350      1.6141   2.9090553457e+02   7.2747822061e+00   0.01770338  0.009121291  20.21 0.0008904135    2.176    0.540
        40  -9.8464     39.4891      1.5304   2.9137839314e+02   7.5203245308e+00   0.01799901  0.009211618  14.26  0.001508842    2.516    0.603
        41 -10.3086    243.2128      2.3791   2.8902666739e+02   6.2855101635e+00  0.009815474  0.005837818  37.97 0.0009550554    1.667    0.400
        42  -9.4843      2.0503      2.5134   2.9181860588e+02   7.7326491375e+00  0.009732313  0.006495076  27.46 0.0007610763    1.503    0.335
        43  -9.2391      1.2545     15.3192   2.9190697217e+02   7.5902217645e+00  0.006740557  0.004836435 -32.89 0.0002344454    1.536    0.349
        44  -9.7455    195.3164    250.3003   2.9111274238e+02   3.7234863746e+00  0.006901425  0.004969205 -25.84 0.0004089054    1.615    0.381
        45 -11.9382     10.8932    244.7989   2.9320709868e+02   4.8905256218e+00   0.02125046   0.01253624  20.64  0.002048357    1.824    0.452
        46 -10.8159      6.6161    249.2355   2.9328364821e+02   4.8649079360e+00   0.01340525   0.01239077 -86.39 0.0007733528    1.132    0.117
        47 -12.1445      5.1157    240.7187   2.9324882758e+02   4.9719799661e+00   0.02930737   0.01917657  45.87  0.003007473    1.609    0.378
        48 -10.7860      1.6759    248.7561   2.9333775326e+02   4.8998765004e+00   0.02527588   0.01318175 -63.53  0.002321246    1.943    0.485
        49 -10.5730      5.4775    246.0000   2.9327698710e+02   4.9089732445e+00   0.01753688  0.008842945  26.88  0.001260866    2.003    0.501
        50 -10.4321     24.2830    121.9990   2.9229818891e+02   6.2253021462e+00   0.01244364   0.01067076  80.49 0.0009522524    1.296    0.228
        51 -10.4289     22.0000    118.9882   2.9230607153e+02   6.2736025533e+00   0.01418805  0.008251096 -62.23  0.001090125    1.717    0.417
        52  -9.6365     96.4729    113.9491   2.9141334019e+02   5.8861046292e+00  0.009836399  0.006555201 -65.04  0.000630148    1.531    0.347
        53 -11.0807      3.7416    113.6089   2.9248429914e+02   6.4444904434e+00   0.01979971   0.01187711   6.94  0.001773137    2.178    0.541
        54 -10.1423     65.8150    110.4786   2.9174657912e+02   6.1096740117e+00   0.01113665  0.009290507  76.83 0.0007357478    1.357    0.263
        55 -11.3747     12.7560    108.8730   2.9235078300e+02   6.4452469136e+00   0.01580362   0.01234291 -88.32  0.001741867    1.478    0.323
        56 -11.2312      4.9503    108.6221   2.9243960642e+02   6.4947015974e+00   0.02008345   0.01281139  12.12  0.001973606    1.832    0.454
        57  -9.1779     79.6533    107.2984   2.9156685153e+02   6.0634322479e+00  0.007012145  0.004938378  60.07 0.0007035821    1.679    0.404
        58 -10.2850     58.7637    107.1123   2.9180741042e+02   6.1906191104e+00   0.01333394  0.008574553 -13.98   0.00124273    2.138    0.532
        59 -10.3931     61.8497     98.8170   2.9172052402e+02   6.2676432406e+00  0.009618675  0.007810743  59.13  0.001081991    1.352    0.260
        60 -10.0973     20.5119     91.4738   2.9215378401e+02   6.5992611380e+00   0.01158482  0.006601835  10.97  0.001026024    2.238    0.553
        61 -10.6386     20.0000     96.9926   2.9219372549e+02   6.5387882073e+00   0.01392247  0.009179546 -64.62 0.0007650665    1.541    0.351
        62 -11.0481     17.1598     94.7969   2.9221308070e+02   6.5810186163e+00   0.01329781   0.01276482  -5.98 0.0004267038    1.054    0.051
        63  -9.1530    129.5070     97.5042   2.9092976269e+02   5.8771922427e+00  0.006549551  0.006459229 -31.13 0.0008106389    1.004    0.004
        64  -9.3671    123.7130     97.3551   2.9099583366e+02   5.9136902479e+00  0.006911577  0.005047219  68.32 0.0007023259    1.673    0.402
        65  -8.8700    101.3709     97.2701   2.9125370077e+02   6.0487054023e+00  0.006933304  0.004990314 -19.89 0.0006996768    1.672    0.402
        66  -9.5902     36.3318     95.2703   2.9199402268e+02   6.4610655569e+00  0.006780569  0.004996902 -21.87 0.0001731064    1.588    0.370
        67  -9.5789      3.5240     95.4842   2.9237521440e+02   6.6544656948e+00  0.006523495  0.006461456  72.31 0.0002396554    1.030    0.029
        68 -10.5983     84.2202     93.9079   2.9143135242e+02   6.1901953288e+00   0.01401458   0.01102155  12.15  0.001485422    1.363    0.266
        69 -11.0375     27.1085     90.5184   2.9207150970e+02   6.5708659944e+00   0.03077998   0.01454272  50.80  0.002493155    2.694    0.629
        70  -9.4450     25.3144     84.7118   2.9205648126e+02   6.6484150427e+00   0.01081645  0.006521508 -74.25 0.0006901136    1.932    0.483
        71 -11.7068     11.1769     87.7901   2.9223918145e+02   6.6973801376e+00   0.03672801   0.01356953 -55.21  0.002937165    2.496    0.599
        72 -10.3068     16.0216     89.4916   2.9219356273e+02   6.6488825569e+00   0.01465517   0.01120401  19.55 0.0008535628    1.357    0.263
        73  -9.9901     18.6472     86.8356   2.9214678583e+02   6.6637812510e+00   0.01266251  0.009240214 -78.18 0.0009667567    1.540    0.351
        74 -10.7629    104.0311     87.7567   2.9116415283e+02   6.1422240070e+00   0.01085048  0.008067194  65.88 0.0004600263    1.602    0.376
        75 -10.6213     42.9295     89.2129   2.9188027903e+02   6.4913537442e+00   0.02316427  0.008427151  38.22  0.001617057    2.652    0.623
        76 -10.1109      1.7209     89.6103   2.9235991204e+02   6.7328367016e+00   0.01206001  0.008614375 -60.41 0.0005498183    1.385    0.278
        77 -10.1752     76.6138     88.9625   2.9148883439e+02   6.2926727429e+00   0.01113142    0.0093339   0.97 0.0006939143    1.293    0.227
        78  -9.8506    124.0388     86.9916   2.9092800591e+02   6.0309706989e+00  0.009963896  0.009615125 -30.44  0.000449713    1.034    0.033
        79 -11.2137     54.4397     84.2231   2.9171623526e+02   6.4799461170e+00   0.01410218   0.01172771 -67.55 0.0005426786    1.225    0.184
        80  -9.6266     92.5120     85.1250   2.9128116113e+02   6.2415729164e+00  0.009482775  0.006492944 -61.85 0.0003681623    1.456    0.313
        81  -9.1559     42.9960     84.0383   2.9184758550e+02   6.5505111758e+00  0.007806668  0.007168946 -58.96 0.0003241134    1.082    0.076
        82 -10.9069      3.8700     82.6860   2.9229235394e+02   6.7997207450e+00   0.01766388   0.01011984 -47.56  0.001701611    1.743    0.426
        83 -11.8324     64.0138     81.7204   2.9158995345e+02   6.4514566004e+00   0.01825801   0.01725708  24.05  0.001089073    1.063    0.059
        84 -10.0753     64.8864     76.0903   2.9154508605e+02   6.5110176606e+00   0.02058584   0.01139408 -30.69  0.001778093    2.421    0.587
        85  -9.3304     37.5602     81.7816   2.9189660284e+02   6.6089773360e+00  0.009313521  0.006479568 -79.89 0.0009449075    1.678    0.404
        86  -9.9506     89.3828     80.4419   2.9128843623e+02   6.3142137576e+00   0.01255856  0.008176508 -67.32 0.0007496736    1.604    0.377
        87  -9.5591    250.4509     80.5199   2.8942793854e+02   5.3445698147e+00  0.006539544  0.006429558 -37.20 0.0001450265    1.007    0.007
        88  -8.5737    124.4661     79.4510   2.9087643888e+02   6.1151526243e+00  0.006587075  0.006370844  62.71 0.0001352905    1.064    0.060
        89  -9.3481     85.3838     79.5864   2.9132942943e+02   6.3480230954e+00  0.006460117  0.006269272 -40.67            0    1.021    0.020
        90  -9.1457     79.1663     79.5991   2.9140146476e+02   6.3851301585e+00   0.00895085  0.006380636   8.27 0.0001311806    1.607    0.378
        91  -9.4029     24.0003     79.0251   2.9203662852e+02   6.7217123114e+00    0.0110133     0.007713 -26.42   0.00112525    1.681    0.405
        92  -9.5263     19.3625     79.1569   2.9209115547e+02   6.7478881873e+00  0.009842489  0.006317361 -78.42 0.0009474465    1.869    0.465
        93  -9.6395    176.7010     77.0218   2.9025758198e+02   5.8291126569e+00  0.009475218  0.008925125 -57.61  0.001162558    1.055    0.052
        94 -10.1821     56.1279     75.5688   2.9164326707e+02   6.5694355352e+00   0.01325411   0.01168712 -68.11  0.001241561    1.152    0.132
        95 -10.5586     16.0255     75.8247   2.9210925740e+02   6.8061578975e+00   0.01236225   0.00942515  -2.66 0.0009347931    1.522    0.343
        96 -10.0138     37.5672     75.2439   2.9185618190e+02   6.6841708710e+00   0.01122315  0.009648754 -35.41  0.001317092    1.192    0.161
        97 -10.0405     32.9855     73.3257   2.9189740581e+02   6.7336244373e+00   0.01672924  0.008611628  50.20  0.001083846    2.324    0.570
        98 -10.5669     36.3772     71.7500   2.9184840170e+02   6.7314873758e+00   0.01915338  0.009805983 -45.00  0.001293774    2.029    0.507
        99  -9.0279    224.2793     74.3077   2.8969136730e+02   5.5737626680e+00  0.006782135  0.004923605 -29.43 0.0002765749    1.557    0.358
       100  -9.2941    136.6183     74.2030   2.9070344269e+02   6.1025319062e+00   0.00930202  0.005845712 -50.44 0.0003554502    1.560    0.359
       101  -9.6804     95.9868     73.7622   2.9117073577e+02   6.3514736052e+00   0.01083911   0.00896037  32.10  0.000328854    1.208    0.172
       102  -9.4423     92.4769     72.4440   2.9120320586e+02   6.3876820440e+00  0.009592001  0.006472567  14.40 0.0008225874    1.651    0.394
       103  -9.5545     90.6869     69.3138   2.9120457248e+02   6.4344223233e+00    0.0127519  0.008203435  89.32 0.0007083696    2.146    0.534
       104 -11.2648      3.9486     73.6301   2.9223562305e+02   6.9034758749e+00   0.02160841   0.01192598  25.64  0.001367103    1.850    0.459
       105  -9.6486    216.9886     72.4822   2.8976420347e+02   5.6386845420e+00   0.01034877  0.008603901 -58.94 0.0005393153    1.191    0.161
       106 -10.1015     81.0561     72.1797   2.9133375307e+02   6.4591726079e+00   0.01296755  0.008580961  77.59  0.001227781    2.101    0.524
       107  -9.7231    152.7538     71.9608   2.9050301079e+02   6.0313463190e+00  0.008977121  0.008302469 -69.31  0.001088573    1.096    0.088
       108 -10.6467    105.9665     71.7270   2.9104267788e+02   6.3150309708e+00   0.01094155  0.009570744 -67.28 0.0003895993    1.159    0.137
       109  -9.6195    130.0788     69.6544   2.9075092836e+02   6.1941286951e+00  0.009199833  0.008152931  19.47 0.0003947197    1.145    0.127
       110 -10.0949     45.8815     69.5884   2.9172498830e+02   6.6995393826e+00   0.01569711   0.01085008  19.06  0.001176934    1.533    0.348
       111  -8.8146     42.3090     66.7760   2.9174899883e+02   6.7532596506e+00  0.009199033  0.008339311  85.58 -0.000275831    1.181    0.153
       112 -11.0997     10.7220     69.1249   2.9212937433e+02   6.9149093820e+00   0.01829087    0.0111099 -70.14  0.001777157    1.799    0.444
       113  -9.9283     51.6093     67.8324   2.9164781731e+02   6.6854847404e+00   0.01455265  0.009104143   2.71  0.001353483    2.120    0.528
       114  -8.9248    114.4196     66.4339   2.9091214333e+02   6.3251892598e+00   0.00656285  0.006296757  67.20 8.089178e-05    1.080    0.074
       115 -10.5893     35.1585     64.8586   2.9181997991e+02   6.8180642310e+00    0.0175313   0.01388741  40.62  0.001702337    1.277    0.217
       116 -11.3732     38.7359     60.7608   2.9175324347e+02   6.8438269355e+00   0.02575743   0.01863935 -69.00  0.001381671    1.444    0.307
       117 -10.9689     17.0275     64.3853   2.9202708889e+02   6.9318105971e+00   0.01781262   0.01581372  -0.15  0.001142418    1.185    0.156
       118 -10.2690    132.4973     64.3844   2.9069034738e+02   6.2402070818e+00   0.01708157   0.01257103 -30.93  0.001833271    1.507    0.336
       119 -11.2000      8.4824     61.5701   2.9210872301e+02   7.0152016657e+00   0.02829704   0.01293173 -36.83  0.002192168    2.933    0.659
       120 -10.2997    126.9802     61.9175   2.9073889553e+02   6.3017153328e+00  0.009505538  0.009362414  52.72  0.000323873    1.034    0.033
       121 -10.4018    101.0404     61.9884   2.9103945910e+02   6.4565985848e+00   0.01077005  0.007761538  64.04 0.0008115111    1.669    0.401
       122 -10.5619     62.8702     61.8992   2.9148076979e+02   6.6863562347e+00   0.01056793  0.008640663 -29.85 0.0007234509    1.302    0.232
       123 -10.2430     53.8346     62.1723   2.9158708963e+02   6.7372896016e+00    0.0125498  0.009990974  14.00  0.000906797    1.328    0.247
       124 -10.7117     55.1515     58.7691   2.9155081657e+02   6.7685595943e+00   0.02654968    0.0132319  61.02  0.001949242    3.505    0.715
       125 -10.7829      2.2552     59.8393   2.9217020179e+02   7.0722641291e+00   0.01639146     0.010642  71.58  0.001542824    2.141    0.533
       126  -9.2363    178.4814     59.4752   2.9012834552e+02   6.0201201082e+00  0.006664164  0.006323094  63.92  0.000246953    1.095    0.086
       127  -9.7603    119.2343     59.4357   2.9081314680e+02   6.3767702529e+00  0.009633712  0.005846291  40.60 0.0009417351    1.664    0.399
       128 -10.1890     26.3435     57.5832   2.9187718178e+02   6.9544363964e+00   0.01816581   0.01009245 -44.85  0.001708188    1.856    0.461
       129 -10.0273     71.8592     57.2662   2.9134805560e+02   6.6858243342e+00   0.01095172  0.009031688 -37.92  0.000913195    1.243    0.196
       130 -10.6185     60.2943     57.7965   2.9148524931e+02   6.7489696304e+00    0.0121142   0.01126462  40.90 0.0005832282    1.089    0.082
       131 -10.3317      7.5531     56.1140   2.9208583086e+02   7.0835181049e+00   0.01328531   0.01010513  27.59  0.001084334    1.318    0.242
       132 -10.4183      2.6328     53.9314   2.9212938177e+02   7.1379795088e+00   0.01886165   0.01193156  -0.28  0.001765933    2.128    0.530
       133 -11.7713     15.4821     46.3600   2.9193374692e+02   7.1483995849e+00   0.05641318   0.02988665  10.15  0.004729596    2.616    0.618
       134 -10.2137      9.1626     44.8744   2.9199781355e+02   7.2032052944e+00   0.01437796  0.009634807   7.68  0.001305199    1.778    0.438
       135 -12.3582     20.3829     57.2930   2.9194444820e+02   6.9933753292e+00   0.01651176   0.01442071  35.64 0.0009379796    1.149    0.130
       136 -11.0645     19.1990     52.1938   2.9192669058e+02   7.0591042114e+00   0.01257782   0.01169003 -26.74 0.0006718922    1.093    0.085
       137 -12.1411    113.9306     54.7974   2.9084581058e+02   6.4619484139e+00    0.0149404   0.01312175  -9.03  0.000657055    1.214    0.176
       138  -9.9778    104.0622     55.9850   2.9096735503e+02   6.5075138091e+00  0.009205926  0.008720501 -50.29 0.0003278384    1.045    0.043
       139 -10.3609    106.8952     54.1370   2.9092313737e+02   6.5117666223e+00   0.02059089    0.0118286  60.91  0.001206468    2.442    0.591
       140  -9.3510     99.6925     56.2934   2.9101983600e+02   6.5301815647e+00  0.006774631   0.00500224  62.04 0.0003377221    1.583    0.368
       141  -9.0980    173.6697     55.3117   2.9015815794e+02   6.0969403411e+00  0.006980183  0.004981957  62.07 0.0007043024    1.671    0.402
       142 -11.5892     86.5814     53.3533   2.9115341486e+02   6.6426139864e+00   0.02667593   0.01471582  39.77  0.002148462    1.817    0.450
       143 -10.2142     34.4751     53.5232   2.9175790908e+02   6.9525548854e+00   0.01541543  0.009276535 -38.95  0.001401528    1.830    0.453
       144 -11.7889     66.9051     52.4843   2.9137586381e+02   6.7704939759e+00   0.02909324   0.01220132  23.16  0.002061373    2.631    0.620
       145  -9.0333    161.3012     50.3941   2.9027065874e+02   6.2278914204e+00  0.007314436  0.004765906 -31.16 0.0007007383    1.810    0.447
       146  -9.4742    212.0056     48.7510   2.8967464687e+02   5.9414100391e+00   0.00909568   0.00823944  28.43 0.0002958041    1.107    0.097
       147 -11.2604     77.0918     46.8223   2.9122289760e+02   6.7745931447e+00   0.02153757   0.01271007 -40.28  0.002063834    1.842    0.457
       148 -10.2001    102.0366     48.2944   2.9094321951e+02   6.6081029615e+00  0.009118861  0.008537522  24.22 0.0003103416    1.073    0.068
       149  -9.4138     46.6869     52.6137   2.9161082727e+02   6.8900032878e+00  0.009226081  0.005890982  38.95 0.0004857129    1.567    0.362
       150 -10.0943     31.8910     47.0516   2.9174787888e+02   7.0424373652e+00   0.01801845  0.009298643 -79.57  0.001177631    2.876    0.652
       151 -10.4984     68.6897     46.8035   2.9132007939e+02   6.8251413562e+00   0.01077893   0.01051727  -6.45 0.0002586544    1.027    0.027
       152  -9.8984    135.9159     46.4760   2.9053994786e+02   6.4255734968e+00  0.009784834  0.006465844  28.89 0.0006801126    1.509    0.337
       153 -10.6963     70.5727     42.9274   2.9127430466e+02   6.8584378427e+00   0.01423768   0.01153522 -58.21 0.0006084794    1.219    0.180
       154  -9.3707     55.0848     45.6405   2.9147046200e+02   6.9199639321e+00  0.008966915  0.006263124   9.26 0.0004593009    1.644    0.392
       155 -11.2810     26.0947     43.7023   2.9179435500e+02   7.1155912363e+00   0.01432608   0.01269357  66.54  0.000460273    1.217    0.179
       156 -10.3634    183.2078     39.8388   2.8995204716e+02   6.2173286099e+00   0.01777526  0.008965625 -56.63 0.0007572553    1.901    0.474
       157  -9.1294     91.3150     44.7170   2.9104519653e+02   6.7135471185e+00  0.006771479  0.004976564  60.48 0.0003063071    1.578    0.366
       158 -11.2426    139.8364     40.7956   2.9045941878e+02   6.4673040521e+00   0.01166784   0.01062753  87.08 0.0003996534    1.171    0.146
       159  -9.4357     95.4903     42.0332   2.9098025489e+02   6.7193649849e+00   0.01002521  0.006382359 -58.56 0.0007827419    1.538    0.350
       160 -10.5207     38.3189     48.7040   2.9168361285e+02   6.9850112807e+00   0.01163515   0.01004277 -27.39 0.0009212532    1.215    0.177
       161 -10.4061     35.2239     40.9402   2.9167150819e+02   7.0928049977e+00   0.02043398   0.01553342  -5.91  0.002216423    1.540    0.351
       162 -10.2207      5.3943     39.8747   2.9201062698e+02   7.2831927509e+00   0.01503282  0.008981883 -35.79 0.0008801678    1.935    0.483
       163  -9.7529    134.2731     39.2657   2.9051429811e+02   6.5183274157e+00  0.009059528  0.007463909  60.03  0.001025638    1.330    0.248
       164  -9.7532     22.1067     38.4432   2.9180808681e+02   7.1998943868e+00   0.01259973   0.00875299  88.38 0.0007950988    1.848    0.459
       165 -11.3446    121.3612     36.5515   2.9064688338e+02   6.6271019197e+00   0.02498966   0.01590971  52.51  0.002473394    1.796    0.443
       166 -11.7286    144.9464     33.1042   2.9035266466e+02   6.5249786194e+00   0.01729695   0.01317303  79.74 0.0004290712    1.592    0.372
       167  -9.8231     80.5624     35.7227   2.9111405162e+02   6.8814229270e+00    0.0133344  0.005885257 -55.89  0.001138799    2.140    0.533
       168 -10.1868     70.2244     35.3660   2.9123157358e+02   6.9474670986e+00   0.01300624  0.007194994 -50.54 0.0007652108    1.764    0.433
       169 -11.0558     26.3914     35.1055   2.9173781133e+02   7.2126828815e+00   0.01554597   0.01230947 -29.15 0.0009341089    1.367    0.268
       170 -11.1825      2.1474     34.8345   2.9201714753e+02   7.3605243678e+00   0.02378136   0.01079621 -55.71  0.001573487    2.084    0.520
       171 -10.5888      2.5020     28.7794   2.9197564830e+02   7.4280361812e+00   0.01198598   0.01132502 -40.20 0.0008416302    1.051    0.049
       172  -8.9185     99.6105     35.6755   2.9089320895e+02   6.7677414787e+00  0.007323309  0.004880468 -24.16 5.630485e-05    1.868    0.465
       173 -11.9617     50.5737     33.7843   2.9144942955e+02   7.0832943610e+00   0.01974497   0.01226504  40.81 0.0004587575    1.629    0.386
       174  -9.9371    150.0768     33.8634   2.9029802943e+02   6.4853993804e+00  0.008903787  0.007492044 -27.40  0.001022026    1.262    0.208
       175 -11.2504    134.5721     33.9975   2.9047820768e+02   6.5770814896e+00   0.01096604  0.009323423  14.65 0.0004028236    1.219    0.179
       176 -11.7278     20.2769     32.0502   2.9178980272e+02   7.2843379591e+00   0.02754269   0.01641915   1.45 0.0003472942    2.381    0.580
       177 -10.1766     88.3516     31.7701   2.9099939482e+02   6.8801674017e+00   0.01599089  0.009570713 -89.92  0.001386954    2.518    0.603
       178 -10.9400     43.6014     29.2630   2.9150226333e+02   7.1769861640e+00   0.02915248   0.01563493 -40.77  0.002645717    2.065    0.516
       179  -9.7464    187.2353     30.0057   2.8984454196e+02   6.3060364209e+00  0.009531672  0.009101874 -43.70  0.001178482    1.038    0.037
       180 -10.5569    151.3107     29.7810   2.9025846088e+02   6.5248884308e+00   0.01155247   0.01025058 -22.82 0.0006235464    1.180    0.152
       181 -10.1830    103.6535     29.7948   2.9081000032e+02   6.8110799163e+00   0.01959564   0.01093339 -27.75  0.001666512    2.537    0.606
       182 -10.0578    102.2305     26.4068   2.9080549613e+02   6.8585603990e+00   0.01720832   0.01046006  58.25  0.001601647    2.095    0.523
       183 -10.1725      7.0360     28.0850   2.9191879600e+02   7.4089708239e+00   0.01235093   0.01007919  57.68  0.001306205    1.335    0.251
       184 -11.2727     16.7457    249.1560   2.9316620824e+02   4.8054265687e+00   0.01597865  0.009545735   1.77   0.00141748    2.362    0.577
       185  -9.2363    132.1259     26.1628   2.9045797152e+02   6.6818196046e+00  0.009355146  0.007629538  61.57 0.0006660124    1.358    0.264
       186 -10.5808    114.0651     25.3194   2.9066176210e+02   6.8000140594e+00   0.01166919   0.01061024 -76.17 0.0006116226    1.138    0.121
       187 -10.2901     58.8808     24.3970   2.9129512847e+02   7.1414991555e+00   0.01472557   0.01100073 -56.88  0.001430693    1.314    0.239
       188 -10.2312     52.3699     23.1877   2.9136308825e+02   7.1943710168e+00   0.01814853  0.008705076 -50.88  0.001141788    2.017    0.504
       189 -12.0338     22.5366    245.6038   2.9307758818e+02   4.8118105806e+00   0.01579391   0.01452604 -32.39  0.001931532    1.102    0.092
       190 -10.2748     12.8796     16.1386   2.9177723827e+02   7.5114338040e+00   0.01899978   0.01001132  28.83  0.001767141    1.882    0.469
       191  -9.7408     89.5706     23.2095   2.9093228937e+02   6.9712566874e+00   0.01373701  0.006096776 -57.58  0.001174794    2.144    0.534
       192  -9.7474     88.5049     19.4998   2.9092166316e+02   7.0202823880e+00   0.01142579  0.006618023 -77.74 0.0007190721    2.196    0.545
       193  -9.8273     69.8817     28.7910   2.9119486886e+02   7.0251096232e+00    0.0100811  0.008822728 -29.22 0.0004598568    1.185    0.156
       194  -9.5544     22.5147     21.9647   2.9170154363e+02   7.3869275841e+00   0.01030495  0.006329261 -57.85  0.001022705    1.586    0.369
       195  -9.1732      2.3033     21.1321   2.9193072038e+02   7.5171439469e+00   0.01381055   0.00503138 -54.58  0.001083184    2.528    0.604
       196  -9.4398     84.2941     21.3656   2.9098198187e+02   7.0240885855e+00  0.008852586  0.006015446  36.02  0.000424275    1.460    0.315
       197 -10.5179     30.8959     20.1665   2.9159327500e+02   7.3575225061e+00   0.01171081   0.01025077 -31.24 0.0007907646    1.178    0.151
       198  -9.3391    229.6235    248.2265   2.9070461630e+02   3.5413660649e+00  0.009549533  0.005846272 -51.48 0.0009416526    1.593    0.372
       199 -11.5510    235.9007     19.4219   2.8921686226e+02   6.1340762565e+00   0.01869701   0.01072778 -32.05  0.001679571    2.214    0.548
       200 -11.1839     41.5721     19.1019   2.9146294932e+02   7.3059325641e+00   0.02412395   0.01643956  20.01  0.002299153    1.546    0.353
       201  -9.2779     53.9898     18.2777   2.9131394460e+02   7.2411139318e+00  0.008831628  0.008235452  14.58 0.0002044476    1.085    0.078
       202 -11.1750     33.2620    247.6886   2.9296652764e+02   4.7237918404e+00   0.01941072  0.008950101  14.46  0.001482613    3.040    0.671
       203 -10.1047    108.1946     16.7056   2.9067636459e+02   6.9342465230e+00   0.01013119  0.008562658 -78.01 0.0003477118    1.259    0.206
       204 -10.5080     20.2774     16.8299   2.9169574182e+02   7.4593164312e+00   0.01104286  0.009162699  23.61 0.0003782462    1.219    0.179
       205  -9.2748     90.2573     16.3443   2.9088182939e+02   7.0460360797e+00  0.006889305  0.004810906 -33.57 0.0002462889    1.590    0.371
       206  -9.7568    217.5613    245.0000   2.9082371043e+02   3.6509248591e+00   0.01468218  0.003765691  27.53 0.0009329541    3.920    0.745
       207  -9.5266     60.6074    241.1551   2.9261074146e+02   4.6357388984e+00   0.01318348  0.004428439  29.91 0.0009815624    2.839    0.648
       208 -11.6893     15.7778    239.8716   2.9312051426e+02   4.9181678193e+00   0.02337201   0.01097552  55.35  0.001757411    3.215    0.689
       209  -9.6969    202.4880    240.0047   2.9096665281e+02   3.7989089527e+00   0.01005451  0.006475412 -61.18 0.0006760457    1.541    0.351
       210  -9.8374    144.0812     14.3520   2.9024644991e+02   6.7456359550e+00  0.009225899   0.00830711  31.54 0.0004917341    1.113    0.101
       211  -9.7504    146.5081    244.4930   2.9163983961e+02   4.0830989241e+00  0.006515901    0.0064923  80.43 0.0008105192    1.020    0.019
       212  -9.2463    173.6835     13.6616   2.8989981335e+02   6.5753937163e+00  0.007108422  0.004904177 -28.21 0.0007048358    1.702    0.413
       213  -9.8043    156.6611     13.6925   2.9009684278e+02   6.6775245822e+00  0.007028915  0.004961409 -24.89 0.0007042642    1.682    0.405
       214 -11.3384     20.8963    235.8815   2.9303695404e+02   4.9336096660e+00   0.01514371  0.009869878 -67.81  0.001539441    1.605    0.377
       215 -11.9224      4.2777    232.7221   2.9320952789e+02   5.0691117347e+00   0.02347616     0.017215 -58.59  0.000869473    1.341    0.254
       216 -12.8040      9.7998    232.0466   2.9314161116e+02   5.0439745596e+00   0.04109703   0.02226912 -44.21  0.003770731    1.929    0.482
       217 -11.6748      8.6101    227.7898   2.9312926859e+02   5.1001140365e+00   0.01923605   0.01594651  33.03  0.001418123    1.206    0.170
       218  -9.2098    109.5140     11.5381   2.9062907330e+02   6.9856977593e+00  0.006558396  0.006418591 -25.61 0.0008092265    1.016    0.016
       219  -8.9552    155.5761    235.5184   2.9148000310e+02   4.1320478208e+00  0.006516937  0.006413902 -52.65 4.398754e-05    1.013    0.013
       220  -9.8629    249.2969    234.1362   2.9039111108e+02   3.5852317936e+00   0.01091286   0.00902513   6.97 0.0005573197    1.299    0.230
       221  -9.4025     79.8350    231.5921   2.9233003120e+02   4.6309349210e+00  0.009498914  0.005804978  40.55 0.0007485129    1.651    0.394
       222  -8.9782    124.3253    230.3277   2.9180866285e+02   4.3791445970e+00  0.007096699  0.004924793 -27.28 0.0004589712    1.698    0.411
       223  -9.2271    209.6872    229.6631   2.9081992898e+02   3.8746729117e+00  0.007093623  0.004905644 -28.51 0.0006620089    1.690    0.408
       224  -9.8202     32.8414    225.1960   2.9283347523e+02   4.9854373602e+00   0.01511787  0.003854549  34.25  0.001022562    3.425    0.708
       225 -10.2353     25.6769    224.9815   2.9291491649e+02   5.0306699675e+00   0.00971347  0.008444556 -60.58 0.0009009737    1.143    0.125
       226 -11.8391      2.0796    221.8896   2.9316855229e+02   5.2070270079e+00   0.03288245  0.007242046 -58.38  0.002110853    3.869    0.742
       227  -9.7688    209.3087    212.0331   2.9071557487e+02   4.0798061068e+00  0.009647628  0.008376033 -57.60 0.0009250791    1.140    0.123
       228  -9.3401     37.3303    223.6504   2.9277214378e+02   4.9764446652e+00  0.007139385  0.004970175  64.24 0.0007048456    1.767    0.434
       229  -9.5856     20.3778    209.7092   2.9288245712e+02   5.2382500649e+00  0.007128943  0.004855319  58.30 0.0001075478    1.737    0.424
       230  -9.7048    246.8550    206.8979   2.9025114237e+02   3.9131873965e+00   0.01043102  0.008633888 -37.65 0.0009956392    1.240    0.194
       231 -10.0924      2.3743    206.1421   2.9306861622e+02   5.3867164982e+00  0.009455242  0.006355866 -77.88 0.0009422465    1.725    0.420
       232  -9.3767    196.8914    203.8541   2.9080831344e+02   4.2485244611e+00  0.009436667  0.007754562  60.16 0.0007940324    1.335    0.251
       233 -10.0860    115.0457     17.1547   2.9059983373e+02   6.8879474716e+00  0.009634362   0.00860481 -16.55   0.00114709    1.177    0.151
       234 -10.5814      9.5282    203.4185   2.9296923931e+02   5.3754462593e+00   0.01183819   0.01149589 -60.11 0.0007853853    1.028    0.027
       235  -9.1772    181.5399    199.5025   2.9095855601e+02   4.3908146503e+00  0.006558421   0.00643175  70.71 1.700975e-05    1.045    0.043
       236  -9.6887     23.2851    197.3855   2.9277322919e+02   5.3628886546e+00   0.01183556   0.00811941  38.81  0.001098676    1.460    0.315
       237 -11.3753      7.6868    217.5609   2.9307724231e+02   5.2234769196e+00   0.01696579   0.01433892 -53.80   0.00184194    1.165    0.142
       238 -10.5619     15.4439    184.4613   2.9278451426e+02   5.5585764522e+00   0.02395502  0.006513245 -62.31  0.001581438    3.702    0.730
       239  -9.0543    250.4905    183.4765   2.9006459431e+02   4.1606911418e+00  0.006608501  0.006392366 -28.02 0.0008099236    1.033    0.032
       240  -9.2228     21.6638    179.6661   2.9268315603e+02   5.5767082900e+00  0.007173259     0.004904 -27.13 0.0006642553    1.741    0.426
       241 -10.4987      4.6246    167.3946   2.9280480202e+02   5.8197267238e+00   0.01471945   0.01087992  55.97  0.001366211    1.512    0.339
       242  -8.8890    247.4486    155.5009   2.8992672790e+02   4.5007250402e+00  0.006541045  0.006434666 -40.01  0.000190333    1.006    0.006
       243  -9.3180    243.1983    155.0180   2.8997273551e+02   4.5318680460e+00    0.0090431  0.005158387 -61.14 0.0004800067    1.737    0.424
       244 -10.2113     22.0698    143.1499   2.9245397706e+02   5.9949279227e+00   0.01195499  0.009662407 -60.06  0.001112262    1.226    0.184
       245 -11.0715     12.6229    130.5162   2.9248555435e+02   6.1968117786e+00   0.01846761   0.01179043  57.91 0.0006501053    1.917    0.478
       246  -9.7078     29.0668    128.9721   2.9228576445e+02   6.1164357361e+00   0.01369725   0.00868111  78.12  0.001227358    2.317    0.568
       247  -9.3505     21.1793    126.1280   2.9235952826e+02   6.1962840316e+00  0.008927114  0.007610805  62.83 0.0004243673    1.277    0.217
       248  -9.3766    226.4610    124.4948   2.8997694637e+02   4.9836592772e+00   0.00653458  0.006454814  75.27 0.0003037654    1.034    0.032
