#   1 NUMBER                 Running object number                                     
#   2 MAG_AUTO               Kron-like elliptical aperture magnitude                    [mag]
#   3 X_IMAGE                Object position along x                                    [pixel]
#   4 Y_IMAGE                Object position along y                                    [pixel]
#   5 X_WORLD                Barycenter position along world x axis                     [deg]
#   6 Y_WORLD                Barycenter position along world y axis                     [deg]
#   7 A_WORLD                Profile RMS along major axis (world units)                 [deg]
#   8 B_WORLD                Profile RMS along minor axis (world units)                 [deg]
#   9 THETA_WORLD            Position angle (CCW/world-x)                               [deg]
#  10 FWHM_WORLD             FWHM assuming a gaussian core                              [deg]
#  11 ELONGATION             A_IMAGE/B_IMAGE                                           
#  12 ELLIPTICITY            1 - B_IMAGE/A_IMAGE                                       
         1 -13.4614    194.8287     30.0427   6.8205572545e+01   3.3174474091e+01     1.287592     1.127283  73.65  0.006652633    1.084    0.078
         2 -11.6715      2.2746      3.4244   1.1261914186e+02   7.2085628527e+01    0.4601572    0.1958511 -39.67  0.002892094    1.927    0.481
         3 -13.7880    209.9419     11.6173   6.1941917177e+01   3.1680372764e+01     1.336481    0.9769924  42.53  0.007725101    1.755    0.430
         4 -10.4889    163.6420    249.1370   1.2300680399e+02  -4.3201599027e-01    0.2288831    0.1495176  49.73 0.0008538666    1.351    0.260
         5 -11.3707    139.4995    249.8679   1.2768535501e+02   3.5691173401e+00     0.500716      0.12105  46.22  0.001761314    3.442    0.709
         6 -10.9852    124.9133    250.2029   1.3047364361e+02   5.9594201624e+00    0.3745541    0.1234221  40.53  0.001523919    2.701    0.630
         7 -10.1214     66.6598    249.9772   1.4103271887e+02   1.4990040645e+01     0.211694    0.1329162  58.63 0.0003879209    1.253    0.202
         8 -10.8038     46.3698    248.6055   1.4439622568e+02   1.7964351888e+01    0.3443237    0.1529797  83.02  0.001279537    2.510    0.602
         9 -12.8613     33.6346    246.4929   1.4636560029e+02   1.9941354905e+01     1.431621     1.077625   3.96  0.008170363    3.691    0.729
        10 -13.7521      8.5079    245.3493   1.5031616105e+02   2.2979329744e+01     1.764458     1.075635 -88.98   0.01288417    1.278    0.217
        11 -13.8522      8.8836    207.1665   1.4794007746e+02   3.0478995643e+01     1.226134    0.7592247 -78.84  0.004474828    1.308    0.236
        12 -15.4909      8.4737    154.1727   1.4360318580e+02   4.2068358639e+01     9.851694     4.282797  70.22   0.04476413    3.027    0.670
        13 -10.8828    120.6395    239.7328   1.3000871185e+02   8.5473582841e+00    0.2200461    0.1637233 -82.32  0.001311808    1.486    0.327
        14  -9.4838    186.3297    239.6617   1.1725814678e+02  -2.8435999556e+00    0.1258941   0.09697447  68.92 0.0007051903    1.736    0.424
        15 -11.1826     50.8242    234.8913   1.4255089004e+02   2.0032694230e+01    0.2626746    0.2133802 -59.00  0.001515733    1.671    0.401
        16  -9.2107    229.6565    229.3391   1.0737225831e+02  -8.5639040040e+00    0.1150544    0.1012024  74.58 0.0007048845    1.775    0.437
        17 -10.1881     81.8360    249.1390   1.3827631196e+02   1.2959077258e+01     0.198528    0.1331404  68.47  0.001244533    1.251    0.200
        18 -10.0580    126.9607    225.2823   1.2685828129e+02   1.0193761383e+01    0.1944938    0.1572271  55.07 0.0004698919    1.066    0.062
        19 -11.9001    100.1689    246.7948   1.3469918908e+02   1.0585003526e+01    0.3876844    0.3573318  64.14   0.00238705    1.267    0.211
        20 -12.7861     35.3396    230.7304   1.4495513023e+02   2.2795510666e+01    0.2973177    0.2499256 -79.37 0.0007422108    1.387    0.279
        21  -8.9136    152.7191    213.0143   1.1970538419e+02   7.8995152925e+00    0.1774955    0.1698299  79.57  0.000314768    1.096    0.088
        22  -9.2797     88.6422    249.1987   1.3705687831e+02   1.1926943037e+01    0.1477829    0.1059446 -63.03 0.0002037838    1.614    0.380
        23 -11.6554     62.0740    197.0675   1.3664977706e+02   2.6503980114e+01    0.3306381    0.2542338 -51.41 0.0005922914    1.604    0.377
        24  -9.9108    192.0871    193.0833   1.0794613938e+02   4.1278043329e+00      0.61414    0.2926863 -63.70  0.001521804    7.376    0.864
        25 -11.2864    238.5290    248.3394   1.0901236657e+02  -1.2487110176e+01    0.2144793    0.1965318  12.65   0.00110632    1.294    0.227
        26 -11.9033     67.9862    189.1073   1.3441894461e+02   2.7476681855e+01    0.2974164    0.2270645 -61.76 0.0004753391    1.344    0.256
        27 -13.2389     64.7995    174.5174   1.3319773936e+02   3.1288964460e+01    0.5092257    0.2764693 -46.09  0.001667644    2.293    0.564
        28 -10.9958     77.9089    176.6398   1.3048020318e+02   2.8909719496e+01    0.2441517    0.2246456 -89.45 0.0003831362    1.118    0.106
        29 -11.9936     85.4652    167.2639   1.2724043672e+02   2.9953934853e+01    0.6501316    0.5874609  84.12  0.003846254    1.044    0.042
        30 -12.6045     67.3408    143.9123   1.2780794890e+02   3.8204853004e+01     0.867135    0.5562013  76.12  0.004120784    1.985    0.496
        31 -10.1273     98.2005    151.5701   1.2129652795e+02   3.1592615284e+01    0.2793347    0.2686154  81.93 0.0007408665    1.086    0.079
        32 -12.1891     86.6912    150.7840   1.2406898170e+02   3.3687066998e+01    0.2972274    0.2530671 -49.07 0.0005860809    1.234    0.190
        33  -8.1412    134.3165    148.6348   1.1167569112e+02   2.5440353256e+01    0.1639795    0.1201366  87.90 0.0007039609    1.772    0.436
        34  -9.2701    101.1412    147.3493   1.1971757664e+02   3.2087382025e+01    0.2129171    0.1886808  10.56 0.0007728729    1.414    0.293
        35 -14.3622     41.5146    222.5276   1.4319998209e+02   2.3706617023e+01     1.151107     1.112325 -35.66  0.006133915    1.686    0.407
        36  -8.7931    192.0320    144.0619   9.7523964385e+01   1.3860671377e+01    0.1787567    0.1752372 -44.79 0.0003912754    1.009    0.009
        37  -9.8780    109.9541    136.7344   1.1520428680e+02   3.3005843609e+01    0.4050961    0.2709571 -22.51  0.001548786    2.369    0.578
        38 -10.5943     96.9484    134.0653   1.1805154433e+02   3.5971807595e+01    0.2671618    0.2260839 -32.95 0.0004652232    1.331    0.249
        39 -11.6684     57.3666    131.3372   1.2821180358e+02   4.2499375075e+01    0.5985145     0.252002 -71.89  0.002217072    2.992    0.666
        40  -9.0867    106.9173    123.6583   1.1302211448e+02   3.6622074287e+01     0.195311    0.1812195  57.66  0.000350497    1.116    0.104
        41 -10.3460    168.0875    113.0775   9.5118358417e+01   2.5797257608e+01    0.3673708    0.2895094 -82.77  0.001001841    1.539    0.350
        42  -9.4460    203.4074    111.7377   8.7533264687e+01   1.7729231490e+01    0.2119117    0.1453664 -30.18 0.0005988182    1.602    0.376
        43 -10.4839    242.5112     93.9913   7.6845415891e+01   1.2117400528e+01    0.1933175    0.1252805 -14.15 0.0008103707    2.545    0.607
        44 -10.7915      2.2728     78.2015   1.3472544915e+02   5.9150070518e+01    0.2760922   0.08362982 -66.04  0.001208868    2.793    0.642
        45  -9.4452    157.6683     77.2976   8.7726347778e+01   3.5244307717e+01    0.1552658    0.1183265 -81.27 0.0002937185    1.643    0.391
        46 -10.3310      2.0000     45.4941   1.2737733197e+02   6.5491340996e+01    0.2429134   0.04877605 -57.66 0.0009377837    3.959    0.747
        47 -11.2485    249.4906    248.1985   1.0706666648e+02  -1.4053898058e+01    0.2631754    0.2287343  10.73  0.001941162    1.219    0.180
        48  -9.9791    171.6169    249.1929   1.2150136299e+02  -1.8041406720e+00    0.1631432    0.1182427 -30.29 0.0009576057    1.754    0.430
