#   1 NUMBER                 Running object number                                     
#   2 MAG_AUTO               Kron-like elliptical aperture magnitude                    [mag]
#   3 X_IMAGE                Object position along x                                    [pixel]
#   4 Y_IMAGE                Object position along y                                    [pixel]
#   5 X_WORLD                Barycenter position along world x axis                     [deg]
#   6 Y_WORLD                Barycenter position along world y axis                     [deg]
#   7 A_WORLD                Profile RMS along major axis (world units)                 [deg]
#   8 B_WORLD                Profile RMS along minor axis (world units)                 [deg]
#   9 THETA_WORLD            Position angle (CCW/world-x)                               [deg]
#  10 FWHM_WORLD             FWHM assuming a gaussian core                              [deg]
#  11 ELONGATION             A_IMAGE/B_IMAGE                                           
#  12 ELLIPTICITY            1 - B_IMAGE/A_IMAGE                                       
         1 -13.7637    202.9607     44.4220   3.6786044130e+01   2.9303838089e+01    0.9149647    0.7939876 -46.77  0.003074384    1.150    0.131
         2 -14.0927    213.9839     34.6368   3.3378020546e+01   2.8186247416e+01    0.7641919     0.698416  34.71  0.002092704    1.485    0.326
         3 -13.7167    240.3802      9.0873   2.6020877405e+01   2.5793711113e+01    0.7999546    0.5894493 -61.09  0.004240736    1.035    0.034
         4 -12.0707     56.0803      5.8805   5.2764091913e+01   6.7439885162e+01    0.2835129    0.2225185  58.73   0.00148034    1.434    0.303
         5 -12.1809    110.5623    198.1172   9.1467819208e+01   1.7818646110e+01    0.5654979    0.3248664  -0.75  0.001918389    3.950    0.747
         6 -12.5197    140.0779    247.4828   9.1770213919e+01   3.8975903455e+00    0.5589077    0.3182616 -59.81  0.002922626    2.450    0.592
         7 -12.6407    120.3586    245.7191   9.5722072489e+01   6.9233315067e+00    0.3545895    0.1931898  36.72  0.001824714    1.534    0.348
         8 -12.2994    125.9399    249.5567   9.5002358470e+01   5.4900266362e+00    0.4290697    0.2444891  14.58    0.0021299    2.138    0.532
         9 -16.7029     36.4243    191.1602   1.0934533740e+02   2.9458934586e+01     8.367252     3.322496  71.17   0.01669307    4.210    0.762
        10 -10.6348     82.2691    194.9722   9.8103385239e+01   2.2782157670e+01    0.2591922    0.1977322  34.78  0.001299048    1.258    0.205
        11 -10.3002     69.1527    194.2257   1.0135124265e+02   2.4771618076e+01    0.3260827    0.2032543  60.88 0.0003503232    1.739    0.425
        12 -10.0319     65.5249    192.1054   1.0201979508e+02   2.5755298806e+01    0.2446274    0.1342077 -74.63  0.001101811    1.972    0.493
        13 -10.1500    157.9865    192.6408   7.9320690215e+01   1.1254856892e+01    0.2161577    0.1905696 -51.40 0.0005024415    1.290    0.225
        14 -11.6979    116.4882    187.1410   8.8220478400e+01   1.9311846374e+01    0.4258943    0.2504416 -73.98  0.001706341    2.597    0.615
        15 -10.4513    145.3262    183.9038   8.0616735370e+01   1.5166242169e+01    0.2036396    0.1829209 -27.71 0.0007217398    1.109    0.098
        16 -10.3074     81.9291    183.1481   9.6525097576e+01   2.5631676514e+01       0.3688    0.1939618  17.44  0.001143092    2.674    0.626
        17 -11.2077     99.4524    181.0441   9.1573096409e+01   2.3466311574e+01    0.2755798     0.239443  27.43 0.0005990874    1.155    0.134
        18 -10.4549    193.3147    205.3079   7.4162963135e+01   3.3936229837e+00    0.1363052   0.09091421  -4.75  0.000275237    1.628    0.386
        19 -12.5390    106.6343    203.3116   9.3210395234e+01   1.7288257143e+01    0.5730285    0.3175596  59.75  0.002354312    2.540    0.606
        20  -9.8668    180.5596    175.7731   7.1185742100e+01   1.0755079420e+01    0.1936709    0.1315328 -51.60  0.000943469    1.669    0.401
        21 -11.8408     86.6929    173.6090   9.3772433065e+01   2.7239562876e+01    0.4896241    0.3204882  18.57  0.001741592    1.825    0.452
        22 -13.6482     58.8096    132.2402   9.4855863053e+01   4.1813868513e+01     2.290289    0.9508609 -80.35  0.005103798    7.504    0.867
        23 -13.4840     67.5120    152.7835   9.5803654429e+01   3.5298615927e+01    0.5957229    0.4611602 -10.96  0.001189652    1.653    0.395
        24 -15.0670     70.1007    144.8539   9.3624578204e+01   3.6976075025e+01     5.164764     2.096734  60.13  0.003062788   11.743    0.915
        25 -11.8540    231.0233    168.5321   6.0298102525e+01   3.9601804190e+00    0.3446628    0.1689494 -48.76  0.001561543    2.406    0.584
        26 -10.7260    192.0613    167.3828   6.7141337478e+01   1.0384440550e+01    0.3432706    0.2264711 -44.21  0.001385934    1.493    0.330
        27 -10.7210    110.8372    167.5420   8.6186386790e+01   2.4793091657e+01    0.2882963    0.2013151 -77.63 0.0009779102    1.875    0.467
        28 -14.7798     14.6592    214.8031   1.1624868580e+02   2.6194377279e+01    0.8378412    0.4907373  25.01  0.004463743    1.882    0.469
        29 -10.1538    186.5436    165.4293   6.7846575055e+01   1.1705140070e+01    0.2693663    0.1214854 -32.46  0.001031608    2.440    0.590
        30  -9.7777    101.7102    163.5650   8.7908186083e+01   2.7293884468e+01     0.240025    0.1815049 -87.42 0.0005022548    1.655    0.396
        31 -11.4124     34.6900    161.0382   1.0665800277e+02   3.7138029946e+01    0.3211947    0.2398486  61.87 0.0004724134    1.336    0.251
        32 -11.2954     31.3673    155.8432   1.0700857744e+02   3.8807833727e+01    0.4353377    0.2780021  14.68  0.001746118    1.911    0.477
        33 -12.3427     86.9354    151.0898   8.9740103433e+01   3.2814013443e+01    0.6605958    0.4559439 -20.60  0.002856069    2.004    0.501
        34 -11.4385    133.7589    145.0831   7.5505647789e+01   2.5859595553e+01     1.199383    0.3095117 -54.19  0.002720477    6.046    0.835
        35 -11.8296     25.6579    149.2709   1.0792624259e+02   4.1046383598e+01    0.5198409    0.2378891  47.30   0.00175716    2.310    0.567
        36 -11.1186     54.7190    146.7342   9.8690993522e+01   3.8565296218e+01    0.3367693    0.1919515 -59.94  0.001349684    1.618    0.382
        37  -9.7191    175.1736    149.3969   6.6777942883e+01   1.6919474648e+01    0.1946751    0.1403785  52.68 0.0004688389    1.620    0.383
        38 -11.0415    101.2533    137.7671   8.2786644421e+01   3.3710205024e+01    0.5311841    0.3381332 -17.84  0.001999757    2.545    0.607
        39 -12.4583     88.4783    136.8879   8.6407846600e+01   3.6144818313e+01    0.3083025    0.2704386 -47.24 0.0004685973    1.119    0.106
        40 -12.2879     66.2124    170.2704   9.8920895162e+01   3.1019876747e+01    0.4768199    0.3141602 -28.31  0.002146126    2.099    0.524
        41 -11.1447    105.9521    130.8681   7.9840037883e+01   3.4535156123e+01    0.3925874    0.3764627  12.00  0.001251353    1.069    0.064
        42 -10.2778    110.8223    128.8874   7.7961991028e+01   3.4090380633e+01    0.2464305    0.2114883 -10.97  0.000874353    1.314    0.239
        43 -10.7199    135.6398    129.3868   7.1343980747e+01   2.9042679598e+01    0.3920902    0.1399514 -42.13  0.001240607    2.859    0.650
        44 -15.7610      9.8037    207.1019   1.1687813458e+02   2.8347853435e+01      1.28081    0.9667916 -19.59  0.004769356    2.003    0.501
        45 -10.9731     97.8956    124.5943   8.0748362234e+01   3.7548185353e+01     0.311176    0.2569774   4.99 0.0009313321    1.414    0.293
        46 -12.5355     70.7783    165.7407   9.6951956586e+01   3.1532915512e+01    0.5160425    0.3768679 -71.06 0.0009315455    1.372    0.271
        47  -9.7160    116.6672    123.6549   7.5022650605e+01   3.4185466234e+01    0.1653682     0.124037 -10.41 0.0007049998    1.762    0.432
        48 -10.7339     27.1585    121.3002   1.0364292683e+02   4.8193629241e+01    0.5363665    0.1545108  43.47  0.001717001    4.199    0.762
        49  -9.8755    107.2691    118.0157   7.6308553095e+01   3.7357455095e+01    0.2094276    0.1955874 -41.65 0.0002871313    1.048    0.046
        50 -10.4765    231.2357    113.8179   4.8973105616e+01   1.3029843021e+01    0.2194708     0.202885 -29.64 0.0007490568    1.115    0.103
        51 -10.2839     39.8703    113.3429   9.7742479507e+01   4.9002668047e+01    0.2308677    0.1863257 -76.71 0.0003933668    1.244    0.196
        52 -14.0569     79.3655    157.6234   9.3143731725e+01   3.2338491694e+01     2.214261    0.9025059  57.22  0.005811137    5.349    0.813
        53 -11.1781     33.2619    109.5091   9.9421467055e+01   5.0669366329e+01    0.3473243    0.1897621 -77.61  0.001090982    2.060    0.515
        54  -9.8501    205.3848    110.1712   5.2087404641e+01   1.8483880711e+01    0.2151016    0.1911243  32.14 0.0006069553    1.286    0.223
        55 -11.2683     87.4523    205.8122   9.8245321839e+01   1.9573226213e+01    0.4352756    0.2063024 -61.51  0.001190198    2.238    0.553
        56  -9.7673     45.2312    105.3963   9.4130573544e+01   5.0424659501e+01    0.1957123    0.1304554  39.35 0.0005480619    1.636    0.389
        57 -11.2086     39.1731    102.2698   9.5735855767e+01   5.1898957816e+01    0.3760546     0.180908  42.97   0.00154833    2.424    0.587
        58 -10.1860     17.2348     90.3650   1.0197117184e+02   5.6869857275e+01    0.1717218    0.1208904  31.18 0.0004647658    1.611    0.379
        59 -10.5344     72.4456     83.4493   7.8108018410e+01   5.1758700507e+01    0.3445868    0.2343378  60.50   0.00104596    2.072    0.517
        60 -18.1083     11.4405    240.3387   1.1825675098e+02   2.1148195379e+01     7.063264     4.472252  25.89      0.03099    1.746    0.427
        61 -11.3606     13.5161     60.0853   9.6630507501e+01   6.4269552885e+01    0.2459826     0.204386 -46.93 0.0004072941    1.087    0.080
        62 -13.0120    192.7276     51.8330   3.9829041204e+01   3.0562895258e+01    0.5521834    0.4472344  31.81 0.0009976689    1.640    0.390
        63 -12.1027    192.4966    193.9853   7.2261594657e+01   5.4721556750e+00    0.7358475      0.39429 -62.30  0.002329574    5.669    0.824
        64 -10.5885    168.1295    232.6014   8.3812686451e+01   2.4514768644e+00    0.1908714    0.1761624 -29.41 0.0006377762    1.293    0.226
        65 -10.7356      2.9038     25.3222   9.1003617511e+01   7.2111850873e+01    0.2504641    0.1268298  29.22  0.001363107    2.216    0.549
        66  -9.3295    198.2663     23.3551   3.2235318599e+01   3.2926327535e+01    0.1130187   0.09621096  29.96  0.000382176    1.629    0.386
        67 -12.3122    144.7809    222.5910   8.7258364760e+01   7.5909935366e+00    0.3549685    0.2327371  29.84  0.001776439    1.362    0.266
        68  -9.2948    189.6590     15.2856   3.1089497770e+01   3.5732252520e+01    0.1330305   0.07853393 -67.37 0.0005165618    1.638    0.389
