#   1 NUMBER                 Running object number                                     
#   2 MAG_AUTO               Kron-like elliptical aperture magnitude                    [mag]
#   3 X_IMAGE                Object position along x                                    [pixel]
#   4 Y_IMAGE                Object position along y                                    [pixel]
#   5 X_WORLD                Barycenter position along world x axis                     [deg]
#   6 Y_WORLD                Barycenter position along world y axis                     [deg]
#   7 A_WORLD                Profile RMS along major axis (world units)                 [deg]
#   8 B_WORLD                Profile RMS along minor axis (world units)                 [deg]
#   9 THETA_WORLD            Position angle (CCW/world-x)                               [deg]
#  10 FWHM_WORLD             FWHM assuming a gaussian core                              [deg]
#  11 ELONGATION             A_IMAGE/B_IMAGE                                           
#  12 ELLIPTICITY            1 - B_IMAGE/A_IMAGE                                       
         1 -14.6759    244.7404    106.1102   2.3021097759e+01   1.0966873359e+01     6.089356     1.755755 -37.12   0.02171994    3.093    0.677
         2 -15.2019    193.8020    101.8198   3.0185722419e+01   2.2244445780e+01     5.295621     3.120889  58.54   0.02345308    1.855    0.461
         3 -10.9313     40.9412     13.8651   4.2992747579e+01   6.7499859313e+01    0.2196642    0.1632839   5.33 0.0002642973    1.094    0.086
         4  -9.4408     97.5249     12.4217   2.3583037419e+01   5.7362533572e+01    0.2372255    0.1254809 -18.87  0.001193554    2.136    0.532
         5  -8.2038      6.7234      4.7004   5.5529555709e+01   7.2652619795e+01    0.1111992    0.0633441 -13.19 0.0001861536    1.537    0.349
         6  -8.6160     67.5090      1.3479   2.7384559164e+01   6.4348464023e+01    0.1210578   0.09240507  32.51 -1.898279e-05    1.053    0.050
         7  -9.7687    107.4231    247.3191   7.7276114535e+01   9.2171156019e+00    0.3039587    0.2045681  82.79  0.001514154    1.960    0.490
         8 -11.5086    249.3314    225.5580   4.6090978701e+01  -8.6500953492e+00    0.7124804    0.2696843 -38.21  0.003385503    2.595    0.615
         9 -11.1599    243.3866    224.6669   4.6968493191e+01  -7.7396163444e+00    0.3829817    0.1802986 -40.11  0.001959899    2.251    0.556
        10 -10.9556    247.3678    247.7986   5.0207621615e+01  -1.1281641426e+01    0.3878362    0.2870397   8.52  0.002143469    1.068    0.063
        11 -10.9894    249.1216    237.1517   4.8127516701e+01  -1.0156400083e+01    0.3782484    0.2434011 -19.21  0.002182066    1.358    0.264
        12 -10.3227     52.4345    249.6213   8.8257647334e+01   1.6275792783e+01    0.3131571    0.1938993  34.49  0.001036123    1.644    0.392
        13  -9.5293     57.0284    246.5266   8.7143384748e+01   1.6291986332e+01    0.2157695    0.1583971  54.53 0.0008192435    1.115    0.104
        14 -10.2270     13.5003    250.1888   9.5302382153e+01   2.0522177778e+01    0.2920448    0.1483811  33.55  0.001649862    2.077    0.519
        15 -10.0696     13.0038    244.0146   9.5061927606e+01   2.1734509971e+01    0.2218479    0.0880771  55.33 0.0005652562    2.035    0.509
        16 -10.1864     20.5273    249.8865   9.4066413706e+01   1.9855492230e+01    0.3124215    0.1759304  71.06   0.00148441    1.494    0.330
        17  -9.8667      3.8841    249.3551   9.6897392610e+01   2.1622080551e+01    0.2340208     0.129163  56.88 0.0007303025    1.393    0.282
        18  -9.4353     30.0423    243.7346   9.1990464979e+01   2.0001330248e+01    0.1566327    0.1202896  64.12 0.0004049898    1.045    0.043
        19 -10.9917    235.4587    240.4714   5.1086670979e+01  -8.8229935020e+00    0.3054076    0.1648491 -38.81  0.001721617    2.039    0.509
        20  -9.8297    238.2902    239.3053   5.0387049958e+01  -9.0419638659e+00    0.1508396    0.1278086  22.39 0.0004068915    1.366    0.268
        21  -9.9510    107.9673    238.3885   7.6118701079e+01   1.0780762471e+01    0.3917606    0.1954925 -59.72   0.00193788    2.292    0.564
        22  -9.3022     16.1497    238.0631   9.4169188978e+01   2.2564802114e+01    0.3730521     0.119548  53.62  0.001821339    2.593    0.614
        23  -9.9571     90.1240    235.4797   7.9483612736e+01   1.3968279756e+01    0.2352235    0.2145085  -3.09  0.001082292    1.433    0.302
        24 -11.4953     88.7368    228.1105   7.8943839210e+01   1.5626925196e+01     0.651926      0.34684  56.09  0.002831991    1.921    0.480
        25 -10.3464     89.1085    222.1603   7.8167398368e+01   1.6783070814e+01    0.3879162    0.2461992 -29.97  0.001824866    2.708    0.631
        26 -11.3590     98.3590    225.1964   7.6539678032e+01   1.4794182499e+01    0.4901055    0.3530516  54.81  0.001707784    1.287    0.223
        27 -11.2590     95.7692    217.8146   7.6176061250e+01   1.6693148765e+01    0.5550203    0.3515791  54.46  0.001719881    1.533    0.348
        28  -9.9733     99.8568    217.1476   7.5187430375e+01   1.6210904259e+01    0.2981364    0.2186546  70.65 0.0007774293    1.486    0.327
        29 -11.0957    231.1945    233.9177   5.0747505572e+01  -7.3626757227e+00    0.3187922    0.2432639 -15.64  0.001167258    1.184    0.156
        30 -10.1958    161.1531    232.2001   6.4156439558e+01   3.5176594561e+00    0.6029702    0.1913019  44.92  0.002172203    3.278    0.695
        31  -8.7628    100.4786    233.4901   7.7095402161e+01   1.2838149212e+01    0.1287082    0.1103492  53.44 0.0002958721    1.013    0.012
        32 -11.2971    237.7638    230.2503   4.8937177845e+01  -7.7517714406e+00    0.3388528    0.2731434  -4.03  0.001264391    1.074    0.069
        33  -8.7426    144.6774    227.9299   6.6964030577e+01   6.9447691803e+00    0.1764494    0.1677042  18.08 0.0009508633    1.091    0.083
        34  -9.2135    130.6526    228.1654   6.9988721618e+01   9.1712505811e+00    0.1757659    0.1193461 -40.70 0.0005661406    1.729    0.422
        35  -9.5059    116.6857    227.0696   7.2834333567e+01   1.1602465115e+01    0.2429654    0.1625427  37.02 0.0009165466    1.347    0.257
        36 -10.8764    162.4178    225.5293   6.2846205418e+01   4.4727692278e+00    0.4143955     0.306625  16.59  0.002319292    1.383    0.277
        37  -9.7835    123.6678    225.3248   7.1089533132e+01   1.0833102235e+01    0.2475412    0.1596053  69.20 0.0005752401    2.166    0.538
        38 -11.2858    126.3998    221.0912   6.9892168557e+01   1.1215626063e+01    0.4520241    0.3145412 -80.90 0.0008870507    1.998    0.499
        39  -9.5345    121.5311    222.5283   7.1159807395e+01   1.1719861309e+01    0.2176547    0.1882932  15.49  0.001027915    1.272    0.214
        40  -9.5551    169.3650    224.6288   6.1250102012e+01   3.4918739804e+00    0.4147572    0.2325109  55.64  0.001805054    2.637    0.621
        41  -9.9694    108.4994    222.4969   7.3995909643e+01   1.3786077791e+01    0.2780007    0.1971445 -12.51  0.001367596    2.326    0.570
        42  -8.4270    174.4988    222.5229   5.9837492419e+01   3.0152674482e+00    0.1344299    0.1165424  17.77 0.0008102129    1.013    0.013
        43  -9.6091    114.8790    221.0165   7.2401599710e+01   1.3080265915e+01    0.2661349    0.1792135 -46.00 0.0008238442    1.701    0.412
        44  -8.6116    157.4953    221.4915   6.3238063592e+01   6.0076299658e+00    0.1355129    0.1195478  23.42 0.0008105096    1.023    0.022
        45  -8.6572    149.3621    219.7560   6.4701718584e+01   7.6818884808e+00    0.1808508    0.1233188 -35.87 0.0009382654    1.669    0.401
        46  -9.2158    152.2119    215.9485   6.3473713247e+01   7.9172081812e+00    0.3219037    0.1976652   5.55  0.001334053    2.762    0.638
        47  -9.4384     74.9174    218.9681   8.0867700994e+01   1.9465642094e+01    0.2312147     0.173879  78.40 0.0009694644    1.315    0.240
        48  -9.9730     84.3711    216.6640   7.8541496632e+01   1.8615987152e+01    0.3061768    0.1460266 -54.35  0.001423652    2.248    0.555
        49  -9.9267    190.4165    215.7873   5.5418886432e+01   1.5587617519e+00    0.3026442    0.2059275 -30.08   0.00164237    1.517    0.341
        50  -8.8794    143.5165    216.5496   6.5461120758e+01   9.2668360291e+00     0.256736    0.1365772 -50.60   0.00118634    2.082    0.520
        51 -10.2833    170.3436    215.2365   5.9476513655e+01   4.9879621799e+00    0.2993307    0.2467041  21.94 0.0007923638    1.106    0.096
        52  -9.2744    131.2637    214.6447   6.7859387432e+01   1.1686607754e+01    0.2669907    0.1944022 -59.53 0.0008845159    1.556    0.357
        53  -8.4122    111.6402    214.9863   7.2275583429e+01   1.4816714495e+01     0.197064    0.1282332 -58.17  0.001014642    1.667    0.400
        54  -9.7409    228.7137    212.8367   4.7482005018e+01  -3.9539785589e+00    0.3791887     0.132496 -32.80  0.001447182    2.960    0.662
        55  -9.8716     22.4549    214.3937   9.1429318397e+01   2.6739625710e+01    0.2730796   0.08338628  37.35  0.001251287    2.819    0.645
        56 -10.1665     77.2725    211.5795   7.9502744285e+01   2.0711674415e+01    0.2840269      0.27534 -45.06  0.001870801    1.251    0.200
        57  -8.9613    116.0415    210.5169   7.0642621097e+01   1.5030938647e+01    0.2100424    0.1242704  39.54 0.0007677947    1.544    0.352
        58  -9.6806    212.7626    207.6919   4.9534516973e+01  -7.0191177071e-01    0.4087047    0.2116068  43.54  0.001937746    2.108    0.526
        59 -10.3101    124.0177    205.9812   6.8142614455e+01   1.4655846630e+01    0.1964457    0.1819276  46.08            0    1.010    0.009
        60  -8.5502     99.3195    206.6377   7.3885955454e+01   1.8513605740e+01    0.1456205   0.09762087  69.68 0.0007041776    1.773    0.436
        61  -9.7453    212.3461    201.9577   4.8544623235e+01   3.0612391760e-01    0.4907381     0.326785 -39.75  0.002655509    1.543    0.352
        62 -10.7426    179.5202    191.2273   5.3160657569e+01   7.8337935108e+00    0.7750257    0.3137059 -54.58  0.002540277    3.958    0.747
        63  -9.5465    172.6028    189.7629   5.4367606418e+01   9.3633401312e+00    0.3972677     0.171444 -45.47  0.001565552    2.406    0.584
        64 -10.2496    174.4938    200.0058   5.5888976624e+01   7.0713665169e+00    0.3133659    0.2795736   1.77 0.0007378504    1.070    0.065
        65 -10.9824    177.8139    196.8988   5.4602496160e+01   7.0687158714e+00    0.4118096    0.3719456  67.00  0.002371158    1.393    0.282
        66 -11.3195    173.1344    195.5185   5.5346107146e+01   8.1601412966e+00    0.4297705     0.352363   0.19  0.001286558    1.277    0.217
        67 -10.3084    249.5621    193.3038   4.0148332930e+01  -4.0401877172e+00    0.3352624    0.2494527   4.98   0.00207091    1.278    0.218
        68  -8.8289     58.0006    200.7618   8.2582574158e+01   2.5675443117e+01    0.1665564     0.102756  36.93 0.0008816294    1.616    0.381
        69  -9.8732    250.2250    199.6274   4.1230294029e+01  -5.0844320559e+00    0.4347719    0.1761242 -34.98  0.001883575    2.207    0.547
        70  -9.3339    144.2939    198.2360   6.2237187212e+01   1.2760259526e+01    0.2701994    0.2169882 -31.96  0.001417806    1.359    0.264
        71 -10.2939    125.9073    196.8763   6.6235542628e+01   1.6251117226e+01    0.3982678    0.2383724  31.58  0.001105007    1.700    0.412
        72  -8.9156    113.1441    194.1405   6.8785554866e+01   1.9005548888e+01    0.2122067    0.1960851  55.33   0.00030705    1.029    0.028
        73  -9.4951    105.2700    197.5662   7.1181579504e+01   1.9544932950e+01    0.2616028    0.2111611 -42.17 0.0009458291    1.392    0.281
        74  -9.4153     66.7363    194.6921   7.9858904173e+01   2.5908662714e+01    0.3449332     0.170497  63.02  0.001373022    2.615    0.618
        75  -9.7746    162.2489    194.1211   5.7464059172e+01   1.0382037434e+01    0.2671545    0.1839068  62.54 0.0008724545    2.024    0.506
        76  -9.2463    112.7954    198.0284   6.9486208756e+01   1.8214756403e+01    0.4013716    0.2144525  59.03  0.001618558    2.492    0.599
        77  -8.6965     43.8862    193.2988   8.4985726947e+01   2.9070114663e+01     0.228973    0.1048667  65.37 0.0009494545    2.788    0.641
        78  -9.0110     15.8895    191.8471   9.1081044631e+01   3.2286178759e+01    0.2552826    0.1603774  -5.00  0.001314713    3.046    0.672
        79  -9.1556    104.5053    188.5936   6.9960820012e+01   2.1666729214e+01    0.2529188    0.2209277  -6.43 0.0007225531    1.394    0.283
        80 -10.8649     98.2986    188.4193   7.1435913373e+01   2.2707426353e+01    0.4934552    0.3084345  52.70  0.001247325    1.646    0.393
        81 -11.1192     94.5036    182.7741   7.1475351674e+01   2.4602452827e+01    0.5369948    0.4215777 -70.14  0.001918796    1.298    0.230
        82  -9.8893    204.3017    187.2955   4.7288206393e+01   4.1729184888e+00    0.3746781    0.3045918 -62.93  0.002032784    1.708    0.415
        83  -8.2515    186.4658    189.5053   5.1359443651e+01   6.9136528902e+00    0.1441083    0.1265159   1.79 0.0008085768    1.074    0.069
        84  -8.6830    138.8285    189.0630   6.1862480035e+01   1.5641995698e+01    0.2273265     0.168026 -86.27   0.00105778    1.950    0.487
        85  -8.6236    129.0122    188.4917   6.4068428101e+01   1.7512685492e+01    0.2077819    0.1147316  57.87 0.0008086913    2.427    0.588
        86 -11.0181     10.8953    187.3900   9.1813740058e+01   3.3729130892e+01    0.3655795    0.2550604  36.28  0.001367721    1.577    0.366
        87 -10.4449      5.5516    183.2357   9.2660869326e+01   3.5109792530e+01    0.3085904    0.1583045  84.02  0.001348139    1.821    0.451
        88 -11.0444      3.3001    177.8996   9.2753254730e+01   3.6490988443e+01    0.4003218    0.3250749  79.57  0.002418724    1.079    0.073
        89  -8.8986    149.0000    186.9746   5.9120247069e+01   1.4237229503e+01     0.232264   0.08315381 -48.66  0.000798707    2.917    0.657
        90  -8.5758     55.8184    187.6198   8.1570861081e+01   2.8947662640e+01    0.1945972    0.1039709  47.00 0.0009416813    1.815    0.449
        91  -8.5573     34.8067    187.2328   8.6444384711e+01   3.1462566155e+01    0.2324682     0.103763  65.64 0.0009652396    2.853    0.649
        92  -8.3795    165.4807    186.4786   5.5298503822e+01   1.1311810049e+01    0.1430065    0.1363485  23.79 6.429155e-05    1.059    0.055
        93 -10.0620    109.5171    185.0008   6.8154194825e+01   2.1647938797e+01    0.4031921    0.3184036  50.87  0.001805368    1.241    0.195
        94  -9.5209    249.7894    184.2127   3.8363219891e+01  -2.6772074750e+00    0.1833321    0.1315185  -7.43 0.0008801353    1.352    0.260
        95  -9.4950    198.2012    183.4407   4.7743035617e+01   5.9394070489e+00    0.3130449    0.2191456 -77.21  0.001297508    3.066    0.674
        96 -10.1764    174.3971    182.6625   5.2589349528e+01   1.0421778848e+01    0.5387613    0.2961708 -61.16  0.002035917    2.982    0.665
        97  -7.9660    217.3027    183.2998   4.3973603962e+01   2.6450722946e+00    0.1388046   0.09787352  -2.16 0.0002609884    1.586    0.370
        98  -8.3508     74.3534    183.6871   7.6578663971e+01   2.7402616590e+01    0.1476402   0.09645134  67.21 0.0007045228    1.731    0.422
        99  -9.2186     44.0081    182.4980   8.3784723382e+01   3.1547991337e+01    0.2407666    0.1592416  86.96  0.000638673    1.502    0.334
       100 -10.5679     20.1315    181.6170   8.9271915775e+01   3.4211876233e+01    0.3931983    0.2429048 -83.15   0.00181524    1.404    0.288
       101 -10.3099     10.1092    180.1422   9.1411399160e+01   3.5432525581e+01    0.2306249    0.1732911  71.65 0.0003832453    1.190    0.160
       102 -10.2809     14.0181    178.5139   9.0392111999e+01   3.5470929233e+01    0.3006787    0.1886038 -72.82  0.001060138    1.351    0.260
       103  -9.3519    147.7898    180.0701   5.8084959897e+01   1.5911586893e+01    0.2279807    0.1999143  78.84  0.000968268    1.363    0.266
       104  -9.4034    138.7141    179.1981   6.0056019495e+01   1.7779509252e+01    0.4234275    0.2229184 -65.08  0.001548147    2.896    0.655
       105  -9.0798    103.9958    179.8274   6.8640068327e+01   2.3747614035e+01    0.2630874    0.1764335 -42.09  0.001250537    1.659    0.397
       106  -9.7314     21.3256    190.0306   8.9743219490e+01   3.2185017140e+01    0.2420853    0.1774134  29.14    0.0015313    1.611    0.379
       107  -9.5434     89.0169    176.9610   7.1915360000e+01   2.6813742385e+01    0.2725512    0.1945608  86.23  0.001021504    1.679    0.404
       108 -10.0032     87.9959    173.0030   7.1531726107e+01   2.7904654820e+01    0.3295886    0.2294379  19.20  0.001585035    1.795    0.443
       109  -9.6605    204.9537    175.2911   4.4739090245e+01   6.2188899838e+00    0.2762794    0.2365237   6.08  0.001355404    1.127    0.112
       110  -9.6933    105.8602    175.6325   6.7451847210e+01   2.4404631570e+01    0.2870803    0.1915219  87.78  0.001235805    2.176    0.540
       111  -9.9938     77.5670    175.8681   7.4635143034e+01   2.8784207558e+01    0.3213096     0.198812  57.74  0.001462095    1.780    0.438
       112  -8.7129    183.0373    175.5181   4.9283936166e+01   1.0208900129e+01    0.2134666    0.1394551  41.20 0.0005919604    1.532    0.347
       113  -8.3612    159.3520    175.6618   5.4543281504e+01   1.4662844792e+01    0.1511873    0.1190055  79.40 0.0007044254    1.796    0.443
       114  -9.5872    148.5420    174.9221   5.6898471607e+01   1.6867064913e+01    0.2865665    0.2053084  21.78 0.0008575528    1.575    0.365
       115  -9.8261     24.0485    174.4651   8.7683107893e+01   3.5501071553e+01    0.2388038    0.1497633  83.66  0.001037378    1.534    0.348
       116  -9.3796    135.0236    171.4889   5.9449229573e+01   2.0154672831e+01    0.2736884    0.2145526 -72.83  0.000864342    1.537    0.349
       117  -9.9143    177.5572    169.3089   4.9173421640e+01   1.2474163895e+01    0.4850407    0.3284134 -47.86   0.00230589    1.544    0.352
       118  -9.8978    121.9819    169.6027   6.2298281637e+01   2.2976092324e+01    0.4563171    0.3089502  65.93  0.001450411    1.949    0.487
       119  -8.6445     44.5134    171.5121   8.2363709776e+01   3.4083121418e+01    0.1329796    0.1142183  87.17 5.735745e-05    1.046    0.044
       120 -10.7140    206.7788    168.5829   4.2989144142e+01   7.1143955418e+00    0.4985238    0.2481603 -35.68  0.002137573    1.956    0.489
       121  -9.1417     55.0873    169.2137   7.9392408276e+01   3.3386522319e+01    0.2656828    0.1582969  79.92 0.0008041141    2.100    0.524
       122  -9.6821     29.0263    169.1932   8.5932184565e+01   3.6262364653e+01    0.3626097    0.1343809 -59.30  0.001590561    2.322    0.569
       123  -8.5721    168.1721    169.2141   5.1223827792e+01   1.4303866255e+01    0.1983255    0.1788601 -86.45 0.0005707519    1.364    0.267
       124  -9.2586    219.5625    165.5224   3.9917325164e+01   5.3629344038e+00    0.3600619    0.3254439 -50.50   0.00129707    1.287    0.223
       125 -10.7713    214.2133    164.4783   4.0698426837e+01   6.5083912868e+00    0.4125032    0.3353075 -55.41  0.002202121    1.471    0.320
       126  -8.5551    199.8206    166.4635   4.3920075046e+01   8.7938410125e+00    0.1855425    0.1326229  24.37 0.0003531494    1.503    0.335
       127  -9.5992    139.7589    165.3603   5.7063870532e+01   2.0618172802e+01     0.403625     0.274053  71.70  0.001357295    2.264    0.558
       128  -9.5578     98.7067    165.6562   6.7500346380e+01   2.7934197631e+01    0.3738347    0.2169616  66.01  0.001339058    2.627    0.619
       129  -9.6833     18.9895    166.5311   8.8107023342e+01   3.7818846270e+01    0.1751515    0.1483733 -89.31 0.0006498129    1.033    0.032
       130 -13.9849    186.3222    120.2882   3.6156007076e+01   2.0437690729e+01     3.428889     2.004948 -62.31   0.01313653    2.559    0.609
       131 -11.0409    174.0884    245.0523   6.3483525938e+01  -6.2165701469e-01    0.4172991    0.2762221  51.96  0.002301761    1.843    0.457
       132  -9.4803     99.5486    152.6439   6.4809722831e+01   3.0890554815e+01     0.425392    0.2479752 -75.14  0.001555328    2.503    0.600
       133  -9.0931    162.8246    150.7683   4.8438084249e+01   1.9212862098e+01    0.2825949    0.2027908 -72.82 0.0009718095    2.026    0.506
       134  -9.7110     90.0954    151.0226   6.7062287607e+01   3.2840003599e+01    0.3598915    0.1698092  49.19  0.001371221    2.436    0.590
       135  -9.5528     28.3701    148.8937   8.3704914341e+01   4.1178812488e+01    0.4057033    0.1885263  82.81  0.001532203    3.415    0.707
       136  -9.3996    142.8795    148.6432   5.2708392900e+01   2.3714556240e+01    0.3133206    0.2088777 -65.66  0.001315065    1.949    0.487
       137  -9.6655    223.6512    147.7277   3.5394609076e+01   7.7846245193e+00    0.3735301    0.2225959  44.13  0.001737639    1.826    0.452
       138  -9.5724     58.6827    147.3745   7.5132400126e+01   3.8243524248e+01    0.2841474    0.2304514  69.18    0.0011391    1.323    0.244
       139 -10.0541     55.6717    145.3288   7.5639230598e+01   3.9118388395e+01    0.3597433    0.2424672  87.04  0.001375601    1.775    0.437
       140  -9.8202     39.3860    147.2168   8.0476850211e+01   4.0502590021e+01    0.4457075    0.2503798  69.66  0.002001467    2.383    0.580
       141 -11.0689    149.5642    145.0297   5.0259160603e+01   2.3154576335e+01    0.6322535    0.4523548 -79.72  0.002047549    2.147    0.534
       142 -10.2618    107.0656    143.9843   6.0983918572e+01   3.1639729333e+01    0.7773847    0.4748309 -76.34  0.002969933    2.567    0.610
       143  -9.9610    197.0935    157.2016   4.2480255582e+01   1.1069008970e+01    0.4439975    0.2876088 -65.35  0.001841726    2.505    0.601
       144  -9.1619    175.8487    145.9523   4.4426190202e+01   1.7543994145e+01    0.2770718    0.2110198 -64.19  0.001146574    1.624    0.384
       145  -9.7419     77.9936    146.2980   6.9518576240e+01   3.5855664945e+01    0.5553821    0.1665251 -51.21  0.001841203    3.045    0.672
       146  -8.5544     81.2333    144.9567   6.8352364394e+01   3.5694969765e+01    0.1753473    0.1699124 -74.50 0.0003603795    1.024    0.024
       147  -8.9059     13.4108    146.1606   8.7365810792e+01   4.3096512353e+01    0.1831905    0.1457703  44.30 0.0006984335    1.405    0.288
       148  -9.8424    166.0203    144.1142   4.6192643092e+01   1.9954946022e+01    0.3950509    0.3051794 -88.61  0.001303445    1.884    0.469
       149 -10.3756    124.9137    142.1954   5.5818494811e+01   2.8722086686e+01    0.6206796    0.3619027 -67.87  0.002306502    2.550    0.608
       150  -9.3813     88.2423    143.5833   6.6111093789e+01   3.4932919312e+01    0.3545177    0.2472821  86.95  0.001575612    1.986    0.496
       151  -9.2522      3.0295    142.6857   8.9723110228e+01   4.4654564775e+01    0.2557487    0.1200765  77.50  0.001161666    2.621    0.618
       152 -10.6434     69.3212    139.7740   7.0758157092e+01   3.8692210059e+01    0.6532141    0.3498188 -87.27  0.002184247    3.801    0.737
       153  -9.0402     82.2224    140.1236   6.7120380387e+01   3.6715885400e+01     0.283851    0.1799522  61.80  0.001223601    2.081    0.520
       154 -10.0001    172.6653    137.8089   4.3237258204e+01   1.9871757187e+01    0.4956923    0.3121461 -64.64  0.001961571    2.345    0.574
       155 -10.0292     23.2357    137.8206   8.3668764929e+01   4.4301481764e+01    0.5011999    0.2408458  81.84  0.001990062    3.208    0.688
       156  -9.6566    138.4995    137.5363   5.1249277349e+01   2.7067818901e+01    0.3229563    0.1519584 -47.77  0.001196123    2.127    0.530
       157  -9.8613    162.5808    135.9244   4.5060293820e+01   2.2392202131e+01    0.4162785    0.2544275 -52.44  0.001213683    1.775    0.437
       158  -8.9336    160.5480    130.8027   4.4299040041e+01   2.3898683921e+01    0.3568663    0.1483501 -42.66  0.001251955    2.375    0.579
       159  -9.1878     56.3277    137.3144   7.4078358577e+01   4.0997349467e+01    0.1436753     0.100011 -32.83  0.000704389    1.672    0.402
       160 -10.4276     39.4701    131.5543   7.8050316283e+01   4.4303490557e+01    0.2977333    0.1689494 -58.01    0.0010547    1.509    0.337
       161  -9.6254     43.0033    135.8354   7.7712009415e+01   4.2892621749e+01    0.2230859    0.1544522  71.10  0.001147365    1.732    0.423
       162 -10.1698     39.0434    135.9757   7.8885241496e+01   4.3272973006e+01    0.2552785     0.195029  69.73 0.0008593044    1.460    0.315
       163  -9.9802    179.9231    133.1758   4.0573777460e+01   1.9276332257e+01    0.4419607    0.2894459 -55.25  0.001448823    1.742    0.426
       164 -10.6938    122.1758    110.6504   4.8819486758e+01   3.6345021929e+01    0.6632658    0.3508852 -39.68  0.002223162    1.931    0.482
       165  -9.9797    117.7071    114.3466   5.1014762709e+01   3.6442327349e+01    0.4096556    0.2427051 -32.19  0.001131552    1.964    0.491
       166  -9.4264    112.7764    132.9522   5.6953802297e+01   3.3177245481e+01    0.4208957    0.2823089  81.05  0.001622116    2.602    0.616
       167  -9.9395    116.6894    119.0249   5.2493920796e+01   3.5603912608e+01    0.3977008    0.3189942 -48.33  0.001146318    1.235    0.190
       168 -10.6713    111.1941    128.3492   5.6308189684e+01   3.4540323666e+01    0.7065182    0.4554415  -1.47  0.002594563    2.880    0.653
       169 -10.4631    117.1652    124.7700   5.3793191449e+01   3.4214843309e+01    0.6124008    0.3788138  69.56   0.00202497    2.883    0.653
       170 -10.6694    131.9322    129.8770   5.1098734864e+01   3.0113984323e+01    0.7918146    0.3515269 -51.58  0.002386307    2.403    0.584
       171 -10.5789     83.8485    131.7507   6.4911615199e+01   3.8482855099e+01    0.4998369    0.3534225  78.39  0.001482362    2.005    0.501
       172  -9.8249    143.1617    131.2804   4.8586931516e+01   2.7482767425e+01    0.3670314    0.2642516 -63.43 0.0009623836    1.670    0.401
       173 -11.2607    147.3753    161.2327   5.4361848407e+01   2.0052122146e+01    0.7061374    0.5414724 -82.15  0.001742716    1.813    0.448
       174 -10.3850    169.0382    128.8523   4.1900874081e+01   2.2478654525e+01    0.4669169    0.3460653 -58.50  0.001475977    1.531    0.347
       175 -10.5069    152.8415    128.1684   4.5467337953e+01   2.6104098642e+01    0.6236327    0.3179623 -51.83  0.001915581    2.165    0.538
       176 -10.8628     98.7405    127.2600   5.9576875375e+01   3.7064329984e+01    0.7278324    0.4682677 -77.89  0.002440034    2.416    0.586
       177  -9.8861     98.5084    120.4875   5.8034137583e+01   3.8684179371e+01    0.3062158    0.2556018 -26.47   0.00102435    1.266    0.210
       178  -9.8309     73.2368    128.9236   6.7453112085e+01   4.0770483463e+01    0.4138836    0.2488397 -85.53   0.00160132    2.783    0.641
       179  -9.5043     12.7885    128.9128   8.5464066688e+01   4.7245979506e+01    0.3867184     0.199455  75.14  0.001754396    2.661    0.624
       180 -10.6245     59.5411    123.8687   7.0570729425e+01   4.3860515722e+01    0.6307991    0.3655733  82.56  0.002312435    3.453    0.710
       181  -8.7836    164.5657    124.2879   4.1785412829e+01   2.4382106921e+01     0.282362    0.1467287 -45.66 0.0007988233    1.919    0.479
       182 -10.8222     43.8003    121.8092   7.5040783205e+01   4.6207418658e+01    0.8315518    0.4268727 -87.51  0.003003625    3.600    0.722
       183 -10.4020     29.3289    123.0071   7.9703632520e+01   4.7337619430e+01    0.4403391    0.2430754  78.85  0.001888802    2.803    0.643
       184  -9.8562    105.1943    123.6548   5.6871460864e+01   3.6741717718e+01    0.2648686    0.2418427  -2.23 0.0003303998    1.165    0.142
       185 -10.6121    158.7163    120.4104   4.2156091168e+01   2.6456484515e+01    0.4814529    0.3418436 -60.40  0.001303132    1.667    0.400
       186  -9.5614     13.2122    120.8045   8.4247630734e+01   4.9139639836e+01    0.3987234   0.07915153 -48.65   0.00130681    4.298    0.767
       187 -10.1690    172.8368    120.3213   3.8976551141e+01   2.3375999854e+01    0.3701622    0.3062274 -62.75  0.001137399    1.348    0.258
       188 -10.9995    141.6955    117.7161   4.5567254328e+01   3.0719265885e+01    0.8523774    0.3604252 -49.35  0.002948187    2.527    0.604
       189 -10.5064    130.9574    117.7843   4.8333706366e+01   3.2980089618e+01    0.6418575    0.4097148 -68.16  0.001923688    2.342    0.573
       190 -11.1267    108.6710    112.5193   5.3086283399e+01   3.8617045519e+01    0.9453915    0.3799664 -52.82  0.002578201    2.738    0.635
       191 -10.0599     71.1388    118.9487   6.5939183638e+01   4.3462685718e+01    0.4797843    0.2331831 -61.03  0.001865887    2.138    0.532
       192  -9.7069    103.0453    118.5106   5.6228864432e+01   3.8319263275e+01    0.2263387    0.1498843  38.77 0.0005497553    1.550    0.355
       193  -9.8002      2.8488    116.4584   8.6768093948e+01   5.0818869006e+01    0.4716246    0.2116251  83.71  0.001930768    3.349    0.701
       194  -9.7567     27.0068    119.9688   7.9922247530e+01   4.8268034582e+01    0.3842681    0.2042032 -39.56   0.00153207    1.991    0.498
       195 -10.6126     92.6858    111.0728   5.7427410778e+01   4.1869572785e+01    0.8809786    0.3650066 -55.83  0.003025972    2.709    0.631
       196 -10.1980     79.3581    112.8241   6.1959323706e+01   4.3668728223e+01    0.4759147    0.3341104  85.34  0.001894011    2.276    0.561
       197 -10.1040    167.9708    111.9866   3.7938257936e+01   2.6107462516e+01    0.4561051    0.2431972 -46.71  0.001548348    1.901    0.474
       198 -10.3832     21.5859     92.0722   7.6643909460e+01   5.5217669717e+01    0.5569723    0.2284729 -34.38  0.002333325    2.831    0.647
       199  -9.3093     30.7799    105.5869   7.6162280212e+01   5.1342363193e+01     0.243659     0.158265  54.42 0.0009838896    2.007    0.502
       200 -10.7859     23.4592    102.0923   7.7947503864e+01   5.2774835663e+01    0.7729558    0.3943809  65.32  0.002956284    4.076    0.755
       201 -10.5881     14.9994    111.7371   8.2356224309e+01   5.1153092782e+01    0.3981669    0.2545469  85.92  0.002146243    1.850    0.459
       202  -9.9203     13.5659    107.2119   8.2097355321e+01   5.2310143546e+01    0.2738576    0.1884097 -50.61  0.001268897    1.235    0.190
       203 -10.5376     18.0395    103.9685   8.0093655200e+01   5.2751532497e+01    0.4798614    0.2921513 -39.53  0.002615539    1.574    0.365
       204 -10.7157     66.5015    109.2406   6.5181938223e+01   4.6404059784e+01    0.6444501    0.3151707 -60.32  0.002505694    2.132    0.531
       205 -10.6320    159.2598    110.4529   3.9487244884e+01   2.8360214891e+01    0.4981576    0.2705486 -41.63  0.001480638    1.819    0.450
       206 -10.0242    133.6273    108.3346   4.5162098314e+01   3.4433871200e+01    0.4450282    0.2968413 -48.50  0.001843655    1.531    0.347
       207  -9.9206     61.2068    105.6294   6.6055397316e+01   4.7962232436e+01    0.2420066    0.1837865 -22.72 0.0008742565    1.434    0.303
       208 -10.2482    142.5194    158.5139   5.4956935003e+01   2.1599404202e+01    0.5578584    0.2279332  43.75  0.001981923    2.446    0.591
       209  -8.8155     47.4881    163.9775   8.0637455600e+01   3.5550810212e+01    0.1948835    0.1048792  84.24 0.0008100673    2.518    0.603
       210  -9.3036     78.0208    106.3290   6.0779276226e+01   4.5373313919e+01    0.3313521    0.2077141 -26.12   0.00144222    1.998    0.499
       211 -10.2637    139.7223    102.6933   4.2089974307e+01   3.4271315908e+01    0.5907742    0.3181708 -45.45  0.001899716    1.876    0.467
       212 -10.8899     45.5016    101.8297   7.0430966198e+01   5.0748523585e+01    0.7385449    0.4333938  73.32  0.002816589    3.707    0.730
       213 -10.7877    149.9527    100.2519   3.8942439437e+01   3.2475670134e+01     0.723416    0.3155385 -44.69  0.002624408    2.319    0.569
       214 -11.1247    109.1812     98.5658   4.9179703718e+01   4.1547055479e+01    0.6963376     0.545955  74.48  0.002417348    1.737    0.424
       215  -9.7243    107.9617     92.0224   4.7674763209e+01   4.3147757972e+01    0.4438833    0.3143649   4.40   0.00195976    1.937    0.484
       216  -9.5930      6.9026    102.8236   8.3564657156e+01   5.3747865515e+01    0.2198577    0.1642012 -81.19 0.0006790668    1.314    0.239
       217 -10.5736    128.7999     99.5380   4.4026413879e+01   3.7290605481e+01    0.6244553     0.328602 -34.34  0.002297837    2.093    0.522
       218 -10.2761    159.9116     98.9278   3.6305108026e+01   3.0470081592e+01    0.4756395    0.2436666 -39.90   0.00151136    1.940    0.485
       219  -9.6171     82.0150     99.5428   5.7743680319e+01   4.6260578532e+01    0.3520991     0.235533 -74.43  0.001344437    2.293    0.564
       220 -10.6365     63.6935     95.6611   6.2760170627e+01   4.9892911961e+01    0.5355589    0.3559774 -89.57  0.001715044    2.875    0.652
       221  -9.9561     64.2569     87.4828   6.0380217370e+01   5.1607321392e+01    0.5862479     0.307938   5.36   0.00198896    4.033    0.752
       222  -9.9054     94.9191     95.9702   5.2710543069e+01   4.4806924631e+01    0.5005566    0.2577541 -52.47  0.001808245    2.081    0.520
       223  -9.1687     96.5132     90.4933   5.0659867151e+01   4.5666065489e+01    0.3039499    0.2050111   3.58  0.001294637    2.144    0.534
       224 -10.5446    164.9541     92.2811   3.3428511735e+01   3.0557185750e+01     0.413725    0.2634582 -25.55  0.001361214    1.862    0.463
       225 -10.1343     44.3994     91.8189   6.8487028920e+01   5.3149388256e+01    0.4201313    0.2421205  -1.46  0.001647393    2.506    0.601
       226 -10.1560    138.5413     89.6473   3.8753357160e+01   3.7100147071e+01    0.5251822    0.2815603 -40.85  0.002149023    1.875    0.467
       227 -11.1404    125.0050     88.2419   4.1820700303e+01   4.0357930830e+01    0.9255192    0.4083499 -38.50  0.003438723    2.324    0.570
       228  -8.9651     57.9431     91.7637   6.3720861878e+01   5.1532008274e+01     0.182437    0.1718108  -7.35 0.0002919601    1.096    0.088
       229 -10.3131      4.8846     91.1986   8.2343592229e+01   5.6510310549e+01    0.4162316    0.2222108 -88.08  0.002014869    2.487    0.598
       230 -10.3673      7.8225     84.1740   8.0024941566e+01   5.7912995392e+01    0.3834032    0.2287577 -33.63  0.002217681    1.602    0.376
       231  -9.7339      8.7312     80.7635   7.9021859189e+01   5.8611005214e+01    0.2689966     0.167191  39.82  0.001222738    2.062    0.515
       232  -9.2509     37.5630    163.7678   8.3163572193e+01   3.6691352604e+01    0.3501262    0.1621082 -83.87  0.001453193    2.560    0.609
       233 -10.1002     34.7405     89.0807   7.1287227811e+01   5.4756640248e+01    0.4979075    0.2592601 -73.50  0.002121537    2.702    0.630
       234 -10.0692     35.9054     82.2633   6.9213529794e+01   5.6146437161e+01    0.4748095    0.2216267 -26.22  0.001905621    3.014    0.668
       235  -9.0805    151.1565     87.4113   3.5128284394e+01   3.4643130765e+01    0.2852894    0.2115758 -36.91 0.0009776669    1.365    0.268
       236 -10.1750     86.8639     86.6578   5.2574613305e+01   4.8200417516e+01    0.4662175    0.3469009  86.97  0.001707672    2.319    0.569
       237  -9.7636     86.4950     80.4917   5.0851528290e+01   4.9516616278e+01     0.298776    0.1772513  23.86  0.001143833    2.013    0.503
       238  -8.9204     69.9763    163.0236   7.4602917283e+01   3.2936622982e+01    0.2328646    0.1584156  71.83 0.0007811806    1.750    0.428
       239 -10.0389     48.5220     83.9408   6.5007636371e+01   5.4414519856e+01    0.4183016    0.2885281  74.89  0.001580141    2.699    0.629
       240  -9.7739     48.9886     77.2418   6.2999627036e+01   5.5784130974e+01    0.4019266    0.2220343 -20.47  0.001753343    2.436    0.589
       241  -9.3664    177.8531    160.8085   4.7295777552e+01   1.4123460439e+01    0.2905453    0.2100539 -57.18  0.001259737    1.627    0.385
       242  -9.1176    116.6837     83.3958   4.2652373719e+01   4.3068831794e+01    0.2691461    0.1823244 -33.48  0.000551139    1.517    0.341
       243 -10.3140    104.4390     81.4162   4.5566830850e+01   4.5960174983e+01    0.7072114    0.2974153 -46.17  0.002627156    2.487    0.598
       244  -9.5454     93.0156    160.1974   6.7999852048e+01   3.0164014771e+01    0.3897533    0.2441899  71.76  0.001378402    2.369    0.578
       245  -9.3591     22.9446    160.4698   8.6491193425e+01   3.8900347290e+01    0.3157045    0.2103402 -65.72  0.001839198    1.300    0.231
       246  -8.7135      9.3357    161.6536   8.9980917147e+01   3.9757941378e+01    0.1315958   0.07657931  68.57 0.0007048701    1.773    0.436
       247  -9.5930    158.6324     80.8616   3.1651727516e+01   3.4078004816e+01    0.3951285    0.2536819 -22.82  0.001711683    1.911    0.477
       248  -9.8610    140.7166     80.7944   3.5678973556e+01   3.8247118424e+01    0.4748734    0.2635544 -36.28  0.001796513    1.854    0.461
       249  -8.2658    115.3243    160.6712   6.2241949510e+01   2.6235663572e+01    0.1552038    0.1172834  76.64 0.0007049853    1.698    0.411
       250 -10.2736     24.5967     80.2775   7.2966921806e+01   5.7600345438e+01    0.4330451    0.2646788 -84.29  0.001823224    2.597    0.615
       251 -10.3629     27.7305     70.9737   6.9435552455e+01   5.9319433623e+01    0.7625342    0.3063561 -22.65  0.002424743    5.300    0.811
       252  -8.5733     62.3507    160.6804   7.6259010762e+01   3.4528154878e+01    0.1475294   0.09895077  69.18 0.0007047972    1.742    0.426
       253  -9.6256    119.2059     78.1399   4.0374239166e+01   4.3518069646e+01    0.4180042    0.2144364 -41.79  0.001714771    1.982    0.496
       254  -8.7004     31.4007    159.6339   8.4239897496e+01   3.8307148327e+01    0.2561012    0.1075959 -86.35 0.0009473777    3.253    0.693
       255 -11.8951    205.1204    154.0548   4.0206398989e+01   1.0119065005e+01     1.000158    0.6320952  64.18  0.004266283    2.490    0.598
       256  -9.6309    167.8148     75.6650   2.8336596074e+01   3.2803928739e+01    0.2467659    0.2062681 -17.42  0.001282573    1.356    0.263
       257  -9.4053    128.0055     75.0264   3.7109508125e+01   4.2151543041e+01    0.3458242    0.2067352 -52.38  0.001254238    2.013    0.503
       258  -9.5781    128.1718     70.2310   3.5605545555e+01   4.2948385042e+01    0.3557951       0.2433   2.80   0.00153612    2.143    0.533
       259 -11.9339    200.5332    148.5481   3.9890414175e+01   1.2049179292e+01     1.825144    0.8012174  60.02  0.005214287    5.187    0.807
       260  -8.9910    157.8503     74.2434   2.9962828635e+01   3.5395230857e+01    0.2659065    0.1940421   4.07 0.0007997317    1.946    0.486
       261  -9.6159    140.4396     73.3838   3.3572198916e+01   3.9612545001e+01    0.3929737    0.1806668 -38.04   0.00152919    2.216    0.549
       262 -10.2817     10.6625     74.2494   7.6918662243e+01   5.9907019371e+01    0.3327386    0.1918485  11.55  0.001225031    2.004    0.501
       263  -9.7249    183.4784    151.3353   4.4000565118e+01   1.4904685876e+01    0.4148507    0.3226854  86.09   0.00193381    1.931    0.482
       264 -10.2184     82.6724     72.5281   4.9627024915e+01   5.1740503405e+01    0.4103367    0.2967332 -77.23  0.001666136    2.516    0.603
       265  -9.9830    188.6628    156.9760   4.4158576303e+01   1.2757090957e+01    0.4145716     0.238647 -49.62  0.001579126    1.875    0.467
       266 -11.2467    189.7660    149.8854   4.2359977740e+01   1.3929279360e+01     0.539897    0.4011125 -57.07  0.001675957    1.566    0.361
       267  -9.7850    186.5076    144.5405   4.1829375889e+01   1.5641723207e+01    0.2745401    0.1927105  33.49 0.0009089694    1.518    0.341
       268  -9.4775    150.0574     77.6982   3.2628192925e+01   3.6634861175e+01    0.3161649    0.2130072 -23.91 0.0009731645    1.729    0.422
       269  -9.9036    105.8361     71.0496   4.1929788057e+01   4.7612426134e+01    0.3707387    0.1870088 -48.95  0.001285199    2.331    0.571
       270  -9.7093     94.9856     70.3551   4.4973626339e+01   4.9888903932e+01    0.5385028    0.2221339 -50.64  0.001871383    3.244    0.692
       271  -8.9724     42.4388     72.2484   6.4054472976e+01   5.7582216958e+01    0.1797276      0.12028 -60.84 0.0009469372    1.682    0.405
       272 -10.3877     51.3025     67.4702   5.9232886212e+01   5.7483110097e+01    0.8363228    0.2505613 -52.75   0.00285299    3.710    0.730
       273  -9.3563     74.7687     80.3669   5.4710734207e+01   5.1515437685e+01    0.3196748    0.1882339 -60.17  0.001130731    2.269    0.559
       274  -9.0583    163.4745     69.4173   2.7466573706e+01   3.4857060028e+01    0.3256707    0.2125218  20.44  0.001355202    2.389    0.581
       275  -9.4524     16.6170     69.4795   7.3466084773e+01   6.0521793285e+01    0.3583932    0.1747462 -65.90  0.001557743    2.189    0.543
       276  -9.7737     17.7987     62.4834   7.1187825204e+01   6.1880495527e+01    0.4175194     0.123768 -46.75  0.001664672    2.496    0.599
       277  -9.8525    182.5206    141.5380   4.1978323308e+01   1.7058782180e+01    0.4397418    0.3258101 -78.23  0.001830243    2.043    0.511
       278  -9.7362     62.6324     68.1974   5.5230868901e+01   5.5788217395e+01    0.3996362    0.1180883 -45.73  0.001405786    3.150    0.683
       279  -9.5769    168.0508    157.4685   4.8736438020e+01   1.6754212751e+01    0.3671798    0.2750454 -83.16  0.001334193    2.071    0.517
       280  -9.5693     80.1875    164.2041   7.2099176224e+01   3.1188513238e+01    0.3734284    0.2138719  83.77  0.001392449    3.025    0.669
       281  -9.0861    147.6349     63.6780   2.9083944378e+01   3.9527363287e+01    0.3029288    0.1802038  36.97  0.001072675    1.914    0.478
       282 -11.4447    165.4635    242.5226   6.4835088760e+01   1.1132514909e+00    0.8287852    0.3065331  30.25  0.003239535    2.861    0.650
       283  -9.8904    105.3911    157.2951   6.4168067010e+01   2.8783388352e+01    0.3584012    0.2712354  85.09 0.0008214137    1.680    0.405
       284  -9.3034    157.7343    156.1470   5.0811836901e+01   1.9098760676e+01    0.3292527    0.2341014 -68.32 0.0009595774    1.899    0.473
       285  -9.8120     49.8158    155.0853   7.8775235009e+01   3.7436225738e+01    0.4314727    0.2396628  68.38  0.001485217    2.461    0.594
       286 -10.1408     37.7457     61.8217   6.2807185989e+01   6.0191675383e+01    0.7296042    0.1977189 -44.91  0.002749219    3.044    0.671
       287  -9.5670    138.5194     62.9769   3.0898595305e+01   4.1774695207e+01    0.4753907    0.2887198  -2.70  0.001791371    3.012    0.668
       288 -10.1719    133.6512    153.2653   5.6024353336e+01   2.4502490895e+01    0.5576823    0.3830302 -88.74  0.001844307    2.464    0.594
       289  -9.5269    109.9990     63.4615   3.8297023930e+01   4.8062331852e+01    0.3227298    0.1936419 -45.04  0.001066915    1.826    0.452
       290 -11.3538      7.0514     54.4807   7.3605487117e+01   6.4212975870e+01    0.9091427    0.1520952 -50.13  0.003528026    3.268    0.694
       291  -9.7626     74.6816     51.1935   4.5126255497e+01   5.6905761808e+01     0.526881    0.2812043   2.73  0.001694243    4.704    0.787
       292  -8.8989    100.4909     59.9937   3.9892760198e+01   5.0607735411e+01    0.2053756    0.1337562 -44.64 0.0009829702    1.686    0.407
       293  -9.2299    133.8672    147.1654   5.4629063024e+01   2.5838416422e+01    0.2957793     0.201082 -20.85   0.00121606    2.005    0.501
       294 -10.2294      9.1948     65.3524   7.5455488628e+01   6.1875976982e+01    0.3592734    0.1159649 -40.11  0.001562052    2.639    0.621
       295  -9.9392     24.8127     58.6163   6.7170063845e+01   6.2084655444e+01    0.2333387    0.1612239 -67.43 0.0008677979    1.862    0.463
       296  -8.8686    119.4743     55.9424   3.3305316296e+01   4.7211923573e+01    0.1941614    0.1181451 -57.48  0.000807354    2.410    0.585
       297  -9.2886     44.1751     55.0411   5.8019026106e+01   6.0742407750e+01    0.2994558    0.1756049 -58.17  0.001093085    2.289    0.563
       298 -11.6656     45.4988     48.9851   5.5385435486e+01   6.1665221637e+01    0.2866358    0.2130822 -28.59 -0.0002175021    1.180    0.153
       299  -9.9597     81.8196    154.5230   6.9977457500e+01   3.3283892097e+01     0.332421    0.2401266  71.12   0.00115382    1.669    0.401
       300  -9.0407     99.8505     55.5759   3.8589291689e+01   5.1455069361e+01    0.3723092     0.186241 -25.41  0.001516645    2.423    0.587
       301  -9.9601     62.9958     54.1209   5.0376410837e+01   5.8317294164e+01    0.3438739    0.1694767 -45.37  0.001574254    2.110    0.526
       302  -9.7987     53.9432     53.2357   5.3514245759e+01   5.9794767858e+01    0.4560259    0.1930451 -54.61  0.001660464    3.876    0.742
       303 -10.1824     83.2263     64.8622   4.6949498500e+01   5.3062597957e+01    0.4569885    0.2627712   3.84  0.001660253    3.397    0.706
       304 -10.2164     31.1393     51.3780   6.2225073311e+01   6.2873259669e+01    0.2509346    0.1994703 -68.17  0.001363274    1.805    0.446
       305  -8.7603     20.3440     52.6722   6.7298201220e+01   6.3619908824e+01    0.1087924   0.09580024  70.24 0.0007050793    1.746    0.427
       306  -9.7166     92.5279     50.1689   3.8918794154e+01   5.3766164827e+01    0.3875736    0.1540627 -42.14  0.001507276    2.780    0.640
       307  -9.1289     82.0198     46.5079   4.0945177321e+01   5.6332588902e+01     0.278262    0.1715704 -37.34  0.000544271    1.679    0.404
       308  -9.1128     83.8001     40.1677   3.8025962192e+01   5.6928842370e+01    0.3619101    0.2062451   5.77  0.001487175    2.854    0.650
       309  -8.9853    130.4173     45.8381   2.7404176057e+01   4.6190106153e+01    0.1875347     0.134904  -9.89 0.0005993366    1.682    0.405
       310  -8.7623      1.4916     45.9808   7.3759574610e+01   6.6187011539e+01    0.1674418   0.09163831 -52.90 0.0003826519    1.481    0.325
       311  -9.5151    138.3050    145.6792   5.3176899764e+01   2.5290843442e+01    0.4581322    0.2716977 -39.55  0.001495001    1.755    0.430
       312  -9.7284     16.4268     44.2298   6.6385100544e+01   6.5522276248e+01    0.2511552    0.1938672 -61.50  0.001168759    1.623    0.384
       313  -9.9221     17.3348     39.9913   6.4548779325e+01   6.6214921591e+01    0.3391687    0.1312307 -29.38  0.001476073    2.879    0.653
       314  -9.7427     22.5893     47.0083   6.4516205966e+01   6.4493190230e+01    0.3604084    0.1742388   0.00  0.001653752    2.867    0.651
       315 -10.0172     58.3575     42.3078   4.7808083802e+01   6.0980008239e+01    0.2866031    0.2168961 -71.70  0.001446395    2.711    0.631
       316 -10.2807      4.9895     40.8522   7.0624640559e+01   6.6950974115e+01    0.4094523    0.1962903 -64.00  0.002059173    2.604    0.616
       317  -9.8837      6.1111     34.1616   6.7918475119e+01   6.8088979427e+01    0.3002549    0.1567515 -29.72  0.001237196    1.611    0.379
       318  -9.6615     73.1500     58.9761   4.8396779263e+01   5.5846873990e+01     0.466032    0.2286782 -49.93  0.001627727    2.493    0.599
       319  -9.3525    113.9611     41.2841   2.9827675521e+01   5.0536902874e+01    0.2352542    0.1762863  16.31 0.0003456488    1.483    0.326
       320  -9.0928     69.0464     41.0292   4.3352124753e+01   5.9457848614e+01    0.1846408    0.1678914 -86.43 0.0006864173    1.706    0.414
       321  -8.9738    123.7125     40.0614   2.7061793188e+01   4.8502086425e+01    0.1902625     0.170892  25.73 0.0004243159    1.096    0.087
       322  -9.0097     36.6604     40.0975   5.5865577743e+01   6.4262562454e+01    0.2271194    0.1629201 -59.65  0.001282449    2.129    0.530
       323  -9.6279     95.4996     36.7819   3.3215180594e+01   5.5075046348e+01    0.3806691    0.1264782 -33.24  0.001440743    3.114    0.679
       324 -10.4211     68.3190    153.5977   7.3505736222e+01   3.5455236379e+01    0.4907385    0.3313432  79.25  0.001867092    1.869    0.465
       325  -9.1243    106.0779     37.0124   3.0379924487e+01   5.2818150409e+01    0.2239116    0.1491548  22.97 0.0006665461    1.678    0.404
       326  -8.7154     37.6812     35.6479   5.3717999298e+01   6.4867300129e+01    0.1323956    0.0803996 -11.63  0.000704732    1.743    0.426
       327  -9.6243     26.3431     36.2696   5.9039856747e+01   6.6028567443e+01    0.2541687    0.1643929 -49.84  0.001449835    1.726    0.421
       328  -8.8227    119.3636     33.1743   2.5770016841e+01   5.0351257363e+01    0.1816934    0.1217997 -39.90 0.0006789907    1.671    0.402
       329  -8.8933     49.5219     32.5831   4.7489985742e+01   6.3766407230e+01    0.2073591    0.1114503 -46.07  0.001026597    2.321    0.569
       330  -9.2296     70.2698     35.7172   4.0866860648e+01   6.0017765685e+01    0.2743387    0.1346483  25.36  0.001174111    2.507    0.601
       331  -8.8720    222.6408     32.3059   9.5331613672e+00   2.6336194259e+01    0.1363779   0.08091768 -68.51 0.0007039992    1.728    0.421
       332  -8.7136     60.5069     32.5340   4.3159385025e+01   6.2099022854e+01    0.1279634    0.1076036   5.75 0.0001434866    1.023    0.023
       333  -9.6115     27.3339     29.5831   5.5985160009e+01   6.7011462683e+01    0.4458246    0.1238567 -33.11   0.00154563    4.485    0.777
       334  -9.3984     12.7491     30.5486   6.3369902791e+01   6.8224198479e+01    0.2611806    0.1509639 -55.35  0.001500921    2.058    0.514
       335  -8.9159    101.2107     27.5482   2.8262291708e+01   5.5013346515e+01    0.2580126    0.1065908 -14.01 0.0008681662    4.311    0.768
       336  -9.0936     81.3896     27.2169   3.3825017675e+01   5.9085869137e+01    0.1727718    0.1154355 -37.97 0.0006078819    1.728    0.421
       337  -8.5950     61.6810     27.6208   4.0716012125e+01   6.2573799666e+01    0.1371496   0.08543441   6.82  0.000216622    1.819    0.450
       338  -8.9512      2.6446     27.3990   6.7296445263e+01   6.9488820413e+01    0.2129149    0.1239927  -6.35  0.001338641    1.659    0.397
       339  -9.0470    110.6608     24.3861   2.4772138799e+01   5.3306241175e+01    0.2084851    0.1473074  14.29 0.0006557222    1.613    0.380
       340  -9.2603     44.3484     25.1823   4.6560659506e+01   6.5554218278e+01    0.1930135    0.1382912  12.78 0.0004153751    1.232    0.189
       341  -8.6999    118.5280     24.5004   2.3017707081e+01   5.1526440491e+01    0.1343336    0.1167752  42.95 4.444605e-05    1.023    0.022
       342  -8.1918     58.7401     22.3009   3.9581373180e+01   6.3737031923e+01    0.1034331   0.09846773 -40.60 0.0001743359    1.511    0.338
       343  -9.9604     13.0718     21.0581   5.9477525447e+01   6.9729258560e+01     0.230042    0.1830043  10.15 0.0008069666    1.313    0.238
       344  -8.8274     48.3522     21.2406   4.3194087388e+01   6.5500523638e+01    0.1608468    0.1040127 -35.56 0.0007948692    1.677    0.404
       345  -8.2990    188.6831     20.6848   1.0522403716e+01   3.5366268206e+01    0.1265327   0.09211145  41.52  0.000703743    1.649    0.393
       346  -8.8043     63.3305     20.6657   3.7200326195e+01   6.3162318928e+01    0.1101767    0.1018625 -75.31 0.0007052134    1.727    0.421
       347  -8.4020     73.6697     19.3151   3.3102633635e+01   6.1462243372e+01     0.112535    0.1020035 -79.69  0.000704557    1.680    0.405
       348  -8.9247     30.5862     19.2128   5.0074462942e+01   6.8172304334e+01     0.160699    0.0916708 -22.89 0.0002932099    1.600    0.375
       349  -8.6383     84.9143     21.4509   3.0483651039e+01   5.9059965977e+01    0.1882567    0.1140802  49.54 0.0005197048    1.519    0.342
       350  -8.8193     50.3205     15.6534   3.9926107398e+01   6.5886802992e+01    0.2414108    0.1140452  24.61 0.0008769602    2.343    0.573
       351 -11.2725    166.8890    247.7320   6.5313193258e+01   6.1754850823e-02    0.5690498    0.2392553  30.00  0.002480448    2.319    0.569
       352 -10.1594    250.0774    241.5213   4.8699429187e+01  -1.0833554627e+01    0.2777963    0.1783137 -23.19   0.00114777    1.394    0.283
       353  -9.0681    196.0386    248.5296   5.9720133388e+01  -4.4305644939e+00     0.194293    0.1029679  34.23  0.001038337    1.615    0.381
       354  -9.1978    119.5883    154.8250   5.9949117499e+01   2.6815925724e+01    0.2982122    0.2289246  87.96 0.0008861751    1.714    0.417
