#   1 NUMBER                 Running object number                                     
#   2 MAG_AUTO               Kron-like elliptical aperture magnitude                    [mag]
#   3 X_IMAGE                Object position along x                                    [pixel]
#   4 Y_IMAGE                Object position along y                                    [pixel]
#   5 X_WORLD                Barycenter position along world x axis                     [deg]
#   6 Y_WORLD                Barycenter position along world y axis                     [deg]
#   7 A_WORLD                Profile RMS along major axis (world units)                 [deg]
#   8 B_WORLD                Profile RMS along minor axis (world units)                 [deg]
#   9 THETA_WORLD            Position angle (CCW/world-x)                               [deg]
#  10 FWHM_WORLD             FWHM assuming a gaussian core                              [deg]
#  11 ELONGATION             A_IMAGE/B_IMAGE                                           
#  12 ELLIPTICITY            1 - B_IMAGE/A_IMAGE                                       
         1  -7.0943     83.2015     10.0807   3.2057221855e+01   6.1714419810e+01    0.1558331   0.09651703 -17.33 0.0004429751    1.673    0.402
         2  -8.1980     98.9559      4.0763   2.5160897012e+01   5.8965261449e+01    0.1941957    0.1624151  35.50 0.0003684839    1.016    0.016
         3  -9.6684    126.0449    247.5145   7.8857855307e+01   6.7582866194e+00    0.2867814    0.2495051  29.22   0.00196135    1.281    0.219
         4 -11.2938    205.9529    244.4230   6.3111153585e+01  -5.6491620292e+00      1.33847    0.7534737 -19.00   0.00706525    2.328    0.570
         5 -11.1157    216.2269    243.4822   6.1064301786e+01  -7.1006580413e+00    0.6574113    0.5235343  -1.63  0.004502488    1.201    0.168
         6 -11.8536    244.1225    246.6649   5.6590390496e+01  -1.1513142708e+01     1.480054     0.786892  31.81  0.008874228    1.568    0.362
         7 -11.0229    225.7240    244.6969   5.9529926618e+01  -8.6694385066e+00    0.6916452    0.4834973 -21.91  0.004536738    1.495    0.331
         8 -10.1192     94.2857    249.6571   8.5116941320e+01   1.1271428310e+01     0.259346    0.1886001  43.19  0.000593794    1.244    0.196
         9  -9.0107    104.6796    234.5602   8.1562194389e+01   1.2396555372e+01    0.3357846    0.2040457 -57.62  0.001778947    1.916    0.478
        10  -8.4470     45.0489    236.9962   9.3143052301e+01   2.0262433550e+01     0.166363    0.1289515  70.20  0.001202462    1.066    0.062
        11  -7.6620     44.9755    250.0433   9.4026758423e+01   1.7864800054e+01     0.135607   0.09841678  74.19 0.0009847541    1.101    0.092
        12  -7.4015     45.5407    221.4968   9.1912309376e+01   2.3227139900e+01    0.1175507   0.09345785  73.31 5.309632e-05    1.058    0.055
        13  -7.5252    143.2032    220.2203   7.1843937526e+01   8.6515558735e+00    0.1801706    0.1406716  61.49 0.0002970669    1.327    0.247
        14  -8.0867    112.5347    244.9730   8.1175176255e+01   9.3162967182e+00    0.1519144    0.1028343 -31.61 0.0008095389    2.571    0.611
        15  -8.2576     46.3636    212.9385   9.1065168346e+01   2.4873114392e+01    0.1748207    0.1651079 -35.45  0.000724559    1.599    0.375
        16  -7.9472     52.3081    210.5857   8.9671444297e+01   2.4627201947e+01    0.1852602    0.1350579 -57.27  0.001149544    1.656    0.396
        17  -7.2758     27.3669    209.7897   9.4542263554e+01   2.7699704472e+01    0.1537762   0.08840723 -68.83 0.0004503585    1.681    0.405
        18  -7.5406     81.7328    201.5711   8.2531268341e+01   2.2507799689e+01     0.167731    0.1095864  51.88 0.0003785708    1.360    0.265
        19  -7.4091    139.1681    199.3818   6.9491507976e+01   1.3345365189e+01    0.1959963    0.1179494  49.94 0.0003019279    1.572    0.364
        20  -9.5998    132.6636    187.7878   6.9023890843e+01   1.6921173336e+01    0.2482865    0.2442562  82.62 0.0004003711    1.091    0.084
        21  -7.2344    223.1505    188.1407   4.9906318163e+01  -1.9545963973e-01    0.1607197    0.1551517 -21.45  0.001004385    1.263    0.208
        22  -8.4839    138.6422    185.5547   6.7266014390e+01   1.6273876140e+01    0.2431306    0.2307574 -35.74 0.0007261517    1.168    0.144
        23  -7.5853    145.3351    181.6659   6.5030333185e+01   1.5811190303e+01     0.152207    0.1127314  74.98 0.0007052157    1.739    0.425
        24  -7.2614    164.2540    178.7073   6.0185334249e+01   1.2711038029e+01    0.1370254    0.1151651  82.52            0    1.488    0.328
        25  -6.7704    131.9556    176.7971   6.7253572957e+01   1.9409927025e+01    0.1911449    0.1114848  40.69 0.0004467268    1.629    0.386
        26  -8.8071     76.0393    175.0384   8.0416108075e+01   2.9294657067e+01    0.1963568    0.1749232  84.09  0.001182946    1.029    0.029
        27  -8.1076    219.7073    164.3375   4.5662084732e+01   4.4284935164e+00    0.2121255    0.2099547  45.61 0.0004776705    1.211    0.175
        28  -7.5685     41.3080    158.5453   8.6762591459e+01   3.7626808495e+01    0.1389925     0.129449  18.75  0.000320244    1.388    0.280
        29  -7.3418     71.9823    157.3198   7.8825319942e+01   3.4071138738e+01    0.2359226   0.07722592  52.23 0.0007049745    4.315    0.768
        30  -6.7325    232.4654    153.5173   4.0972054236e+01   3.8583333645e+00    0.1410033    0.1260929 -12.19  8.51326e-05    1.010    0.010
        31  -7.3822     85.8590    150.8999   7.4130429190e+01   3.3538313600e+01    0.1971169     0.178556 -49.31  0.001109586    1.190    0.160
        32  -8.7696    145.9664    143.1081   5.6953603556e+01   2.4060518788e+01     0.381122    0.2714737 -29.51  0.001209115    1.663    0.399
        33  -8.8059     31.3702    133.2272   8.6127265970e+01   4.4676256812e+01    0.2182229    0.1917816 -55.77 0.0003495888    1.198    0.165
        34  -7.5956     67.0494    130.3449   7.5583210713e+01   4.1306059941e+01    0.2576668    0.1394943  22.67  0.001094346    2.466    0.594
        35  -7.5761    124.4932    127.1655   5.8724443664e+01   3.2177064959e+01    0.2297595    0.1527159 -50.44 0.0007999779    1.498    0.332
        36  -7.7503     64.0016    121.6399   7.4808582237e+01   4.3830481035e+01     0.180793    0.1746092  68.15 0.0005496109    1.117    0.105
        37 -10.3450     52.8639    119.3327   7.7706126475e+01   4.5779064902e+01    0.2383137     0.211144 -57.23 0.0002486179    1.066    0.062
        38  -7.0591    104.1595    108.3888   5.9730415522e+01   4.0524568830e+01    0.1940982    0.1434845  51.46 0.0002564598    1.455    0.313
        39  -6.8011    127.7242     90.7443   4.8108247891e+01   3.9520578252e+01    0.1480801    0.1211339   7.45 0.0006838484    1.462    0.316
        40  -8.1983    198.0358     86.3116   3.1044136237e+01   2.3430380902e+01    0.2342188    0.2081564 -43.44  0.000380613    1.099    0.090
        41  -7.2983    131.5078     87.0244   4.5988739713e+01   3.9426869200e+01    0.2196556    0.1533232 -39.84 -0.0001610388    1.439    0.305
        42  -7.9014    211.0449     83.3686   2.8042761751e+01   2.0810891266e+01     0.239784    0.1974765 -28.44 0.0004320749    1.269    0.212
        43  -8.3748    124.9761     83.7940   4.6785209595e+01   4.1542919949e+01    0.2405618     0.217025 -37.72 0.0002910543    1.109    0.098
        44  -7.2142    236.4037     77.8597   2.2887342789e+01   1.5882393908e+01    0.1804109    0.1290286 -25.69  0.000284614    1.525    0.344
        45  -7.3157     97.3282     77.3452   5.2946830694e+01   4.8572786728e+01    0.1555183    0.1135647  -5.32 0.0007050445    1.750    0.429
        46  -9.0527     95.9197     70.6571   5.1255189841e+01   5.0170393784e+01    0.3358076    0.2120582 -33.02  0.001545366    1.608    0.378
        47  -7.1130    164.7090     71.3526   3.3365648411e+01   3.4336275402e+01    0.1602995    0.1180874 -69.86 0.0007028198    1.676    0.403
        48  -6.9968    164.3609     65.2385   3.1628060770e+01   3.5457408408e+01    0.1552593    0.1122382  33.57 0.0006917997    1.592    0.372
        49  -6.8276    111.7007     55.3180   4.1258002532e+01   4.9709985922e+01    0.1410069    0.1174771 -76.26 0.0004661013    1.617    0.381
        50  -7.4481     94.0236     54.6977   4.6411941220e+01   5.3468780050e+01    0.1948782    0.1651566  24.84 0.0002023668    1.137    0.120
        51  -8.1946    145.0650     48.6742   3.0588830046e+01   4.2905095857e+01    0.2260751    0.2085234 -26.49 0.0003763491    1.147    0.128
        52  -7.9793    182.5339     28.0634   1.7609185512e+01   3.6114347468e+01    0.2031179     0.172279  72.78 0.0004038565    1.075    0.070
        53  -7.0219    205.9708     15.2377   1.1324190084e+01   3.1726423614e+01    0.1679831     0.100736  75.17   0.00024578    1.510    0.338
        54  -9.1549    118.9703    238.9885   7.9242844155e+01   9.3426284155e+00    0.2147817    0.1738215  78.90 -0.002661949    1.315    0.239
