#   1 NUMBER                 Running object number                                     
#   2 MAG_AUTO               Kron-like elliptical aperture magnitude                    [mag]
#   3 X_IMAGE                Object position along x                                    [pixel]
#   4 Y_IMAGE                Object position along y                                    [pixel]
#   5 X_WORLD                Barycenter position along world x axis                     [deg]
#   6 Y_WORLD                Barycenter position along world y axis                     [deg]
#   7 A_WORLD                Profile RMS along major axis (world units)                 [deg]
#   8 B_WORLD                Profile RMS along minor axis (world units)                 [deg]
#   9 THETA_WORLD            Position angle (CCW/world-x)                               [deg]
#  10 FWHM_WORLD             FWHM assuming a gaussian core                              [deg]
#  11 ELONGATION             A_IMAGE/B_IMAGE                                           
#  12 ELLIPTICITY            1 - B_IMAGE/A_IMAGE                                       
         1 -11.8122    110.9287     39.6101   1.6258619069e+01   5.2131987664e+01     1.477959    0.8153298 -37.73  0.006269069    1.877    0.467
         2 -12.1688    104.6036     13.1631   6.7148934444e+00   5.7180210194e+01    0.5658681    0.4246591 -16.73  0.001839948    1.547    0.354
         3 -12.5471    112.9774     24.9104   9.8944907757e+00   5.3607059983e+01     1.704789    0.3604251  57.49  0.005064449    3.565    0.720
         4 -12.5181    105.8273     19.9790   9.4071580653e+00   5.6105168642e+01    0.3701546    0.3255811 -72.12 0.0003732707    1.179    0.152
         5 -12.0500    143.9301     25.4475   4.5479187158e+00   4.5255999585e+01       1.4909    0.5163722  82.44  0.004060124    4.928    0.797
         6 -12.1560    164.4740     27.3947   2.4086604014e+00   3.9672163681e+01    0.4597802    0.3497698 -56.66  0.001466275    1.220    0.180
         7 -12.2758     58.3714     29.0905   2.9853232758e+01   6.6393584618e+01    0.8679859    0.4137183 -27.00 0.0005132708    2.795    0.642
         8 -11.2739     49.9691     29.4234   3.4311161764e+01   6.7999733685e+01    0.8639443    0.5437548  17.19  0.003856509    2.090    0.522
         9 -11.2827     20.3441     21.9772   4.9922140015e+01   7.3976304453e+01     0.594303    0.3479252 -36.74  0.001562278    1.645    0.392
        10 -10.8398     13.0116      8.5205   4.8379779963e+01   7.7397161200e+01     0.426071    0.3360533 -15.84  0.002125192    1.128    0.113
        11 -11.7947     16.0773     14.2688   4.9173440541e+01   7.5974844751e+01     0.693702    0.3604043 -33.39  0.003374421    1.960    0.490
        12 -10.5897    122.1689      5.2743   3.9170026199e-01   5.3200165787e+01    0.3198585    0.2032551 -14.05  0.001232027    1.910    0.476
        13 -11.8129    121.1073     11.7010   3.0729661389e+00   5.2885440604e+01     1.256835    0.2598118  69.26  0.003604453    4.076    0.755
        14 -11.6740    127.5141     16.5214   3.8932295828e+00   5.0660236359e+01    0.5164055    0.3135796  65.36  0.001181632    1.476    0.322
        15 -11.4842    135.8351     14.7032   1.9751830588e+00   4.8612988323e+01    0.6283951    0.3035489  67.32  0.002707831    1.832    0.454
        16 -11.3027     36.4070     18.3977   3.6107244999e+01   7.2344393567e+01    0.6885512    0.4512631 -39.60  0.002579714    1.574    0.365
        17 -12.3387     48.6667     12.7753   2.5314763034e+01   7.0896328421e+01    0.7206914    0.2887043  48.55  0.002949435    2.282    0.562
        18 -10.6674     68.3328     20.0850   2.0676288076e+01   6.5566905705e+01     0.410556    0.3242698 -31.26  0.001870193    1.364    0.267
        19 -11.9746    164.8239     17.9642   3.5950135054e+02   4.0656678742e+01    0.5814731    0.2960337  47.11  0.002513117    2.426    0.588
        20 -11.4582     86.1156     14.0032   1.1568627028e+01   6.1944891555e+01    0.8028921    0.5042498  25.01  0.003657579    2.012    0.503
        21 -11.0551     89.0184      8.2760   7.9638188025e+00   6.1788978841e+01    0.4009061    0.3235523 -27.85  0.001179733    1.378    0.274
        22 -10.4758    196.6928     14.9601   3.5581753826e+02   3.3220089145e+01    0.4213738    0.1705001 -53.26  0.001636371    2.203    0.546
        23 -10.5404    186.8782     14.7086   3.5651321931e+02   3.5551078430e+01    0.2532734    0.2084401  78.55   0.00073839    1.228    0.186
        24 -10.8683    191.0038     12.1766   3.5551312112e+02   3.4836685923e+01    0.6727672    0.1241371 -29.70  0.002248627    4.084    0.755
        25 -11.1179    192.9733      7.3196   3.5409490878e+02   3.4865246406e+01    0.4098318    0.2453679 -17.83  0.001752466    2.025    0.506
        26 -11.3962    241.7811     15.1769   3.5308886477e+02   2.3699667883e+01    0.2996014    0.2049112  67.77 0.0004943879    1.738    0.425
        27 -11.7905    227.8156     14.7867   3.5375501984e+02   2.6486806874e+01    0.4606874    0.2158281 -72.48  0.001462597    2.186    0.542
        28 -10.1935    218.6232     13.3670   3.5396395337e+02   2.8539586192e+01    0.2162244     0.163687  32.04  0.001004386    2.007    0.502
        29 -11.4619    134.1428     21.8465   4.7936660844e+00   4.8287985930e+01    0.5559252    0.4349633 -63.40  0.002245918    1.269    0.212
        30 -10.2919    223.5890      2.4371   3.5118626901e+02   2.8600993985e+01    0.2083949    0.1752767 -58.22 0.0006131197    1.119    0.107
        31 -11.6800    212.2076      9.2504   3.5336946482e+02   3.0337470774e+01    0.4803947    0.3084407  -7.12  0.001930958    2.293    0.564
        32 -10.8293    218.5814      3.3970   3.5164691149e+02   2.9554170523e+01    0.2770703    0.2026485  82.88    0.0008487    1.394    0.283
        33 -10.3653      5.5618      9.9559   5.6715161831e+01   7.7819013458e+01    0.4189442    0.1802427 -50.86  0.001573993    2.026    0.507
        34 -11.9287    168.3815      9.3225   3.5655875468e+02   4.0647474486e+01     0.656291    0.2720731  74.62  0.002650955    2.207    0.547
        35 -11.7998     64.1063      8.8924   1.5956234711e+01   6.7949385260e+01    0.4922271    0.3792671 -47.66 0.0005705663    1.539    0.350
        36 -11.3370    148.9454      5.5045   3.5722424382e+02   4.6022797284e+01     1.535317          nan  60.97  0.003100185    9.483    0.895
        37 -11.1925    153.5076      6.4804   3.5708066216e+02   4.4738246293e+01    0.6097349    0.4001215  36.12   0.00303389    2.012    0.503
        38  -9.9965    145.1870      9.0323   3.5881115971e+02   4.6683920156e+01    0.2421633    0.1910623  20.72  0.001310513    1.659    0.397
        39 -11.4988    185.1314      5.8160   3.5423484615e+02   3.6867433105e+01    0.5465629    0.2650078 -35.60   0.00270232    1.845    0.458
        40  -9.8963     77.9392      7.3452   1.0450724312e+01   6.4725604680e+01    0.2433352      0.19841 -68.49 0.0005781251    1.433    0.302
        41  -9.8939     70.5932      5.1921   1.1502749692e+01   6.6770622269e+01    0.2930796    0.1834005  33.94   0.00143368    1.669    0.401
        42 -10.1766     75.1126      2.9451   8.8492438870e+00   6.5854932940e+01    0.4293998    0.2402897  71.73  0.001985295    1.769    0.435
        43  -8.6954     72.2664      8.6889   1.2948431363e+01   6.6002901218e+01    0.1323002    0.1051985 -66.95 0.0002258009    1.541    0.351
        44  -9.5882      1.2090      7.4973   5.9986839436e+01   7.8620452986e+01    0.2136521   0.08831398 -59.40 0.0008490419    2.273    0.560
        45 -10.1437    232.9300      6.9763   3.5175577656e+02   2.6260703448e+01    0.2080822    0.0970891 -56.38  0.001139098    1.725    0.420
        46 -10.4578    243.2033      3.4681   3.5055407385e+02   2.4614076734e+01    0.2526084   0.09747708 -59.70  0.001237783    2.169    0.539
        47  -9.8281    124.0790      1.4046   3.5862980265e+02   5.3014497144e+01    0.2637651    0.1133805  70.61  0.001096503    1.975    0.494
        48 -11.3684    137.9167      3.9963   3.5790420150e+02   4.9080310606e+01    0.4423902    0.2415819  73.70 0.0003643565    1.609    0.379
        49 -12.1379    132.6713      2.5892   3.5800968236e+02   5.0605236249e+01     1.114524    0.2831029  75.28  0.003548897    3.536    0.717
        50 -10.6154     41.6354      3.8065   2.3028935477e+01   7.3500867377e+01    0.3639455     0.222546  29.03  0.001401239    1.673    0.402
        51 -11.1403    113.9661      2.4408   4.6219637938e-01   5.5657206968e+01     0.560533    0.2753155  87.82  0.001658887    2.151    0.535
        52  -9.9706     28.9074      1.4406   2.9406717434e+01   7.6229202590e+01    0.1827107    0.1631831  38.14 0.0003976143    1.235    0.191
        53 -11.2012    205.5976      2.0453   3.5199801344e+02   3.2499384497e+01    0.4437234    0.1970415 -86.75  0.001185852    2.228    0.551
        54 -10.1804      1.8667      2.1162   5.6006975668e+01   7.9638273548e+01    0.2414259    0.1352742 -39.19 0.0008783803    1.557    0.358
        55 -10.3598    105.2736      1.7313   1.5570855161e+00   5.8056014859e+01    0.3093834    0.1816843  85.49 0.0009814881    1.681    0.405
        56 -12.0105     22.7650     10.9148   4.1292384699e+01   7.5743985695e+01    0.6300005     0.417655  -4.41  0.002346094    1.735    0.424
        57  -9.7540    152.1851      1.3771   3.5556322387e+02   4.5542782811e+01    0.2382492    0.1127636  73.97 0.0004419528    1.863    0.463
        58  -9.8983    165.1234      3.7583   3.5517805154e+02   4.2001535646e+01    0.2851984     0.176243  19.57  0.001317951    2.640    0.621
        59 -12.1923    127.4288     28.3093   8.3163330856e+00   4.9312721132e+01     1.051908    0.4343674  75.52  0.003632809    2.833    0.647
        60  -9.3381    249.5064    250.4619   3.6682179579e+01  -6.4726569658e+00    0.1013322   0.06607665   0.94 0.0004753983    1.008    0.008
        61 -10.4160     43.8117    117.5018   6.4469413037e+01   4.7634758861e+01     0.529642    0.2581066 -79.51  0.001625695    2.344    0.573
        62 -10.3304     58.5644    115.2276   5.8452449535e+01   4.6299140482e+01    0.2934701    0.2493037 -73.42 0.0002298785    1.175    0.149
        63 -10.7777     12.7062    111.3849   7.5872978014e+01   5.2185894578e+01    0.4758551    0.2305301 -84.54  0.001368495    1.976    0.494
        64 -10.1636     16.0838    109.4963   7.4324850298e+01   5.2459833029e+01    0.3563664    0.2118125  38.32  0.001082066    1.668    0.401
        65 -11.1487      7.8779    114.8588   7.8072767166e+01   5.1561779347e+01    0.3235335    0.2169057 -52.21 0.0003445272    1.524    0.344
        66 -12.1404      2.7565    111.4380   7.9794064001e+01   5.2758066996e+01    0.4924415    0.3584618  60.45  0.001603871    1.319    0.242
        67 -11.4915      4.2811    105.3860   7.8721559274e+01   5.4291304756e+01    0.4697832    0.3961463  31.16  0.002797715    1.266    0.210
        68  -9.7048     79.0447    115.0190   5.0950668917e+01   4.3079523189e+01    0.2326683    0.2296939  69.78 0.0005005948    1.032    0.031
        69 -10.7369     35.2710    102.9411   6.5464862799e+01   5.2530985914e+01    0.6034565    0.2883137   7.39  0.001389182    3.007    0.667
        70 -11.7124     25.6375    107.2146   7.0142741334e+01   5.2311266041e+01    0.7938259    0.3562165 -34.88  0.002847532    3.118    0.679
        71 -10.9773     24.5912    102.7422   6.9949872562e+01   5.3613394826e+01    0.4777066    0.2717464  67.67  0.001689091    2.029    0.507
        72 -11.5672     22.3667    114.1005   7.2344113755e+01   5.0728616106e+01    0.5328531    0.3209269  -4.15   0.00154367    2.166    0.538
        73 -11.3379     28.5151    112.7932   6.9742865386e+01   5.0538504307e+01    0.4106725    0.2799379  32.81  0.001308515    1.468    0.319
        74  -9.6655     49.4522    122.5401   6.3169695075e+01   4.5585346039e+01    0.3337857     0.220118   4.79   0.00145642    1.985    0.496
        75  -9.6793     48.9757    111.9208   6.1503902986e+01   4.8493887221e+01    0.2954735    0.2060394  30.61   0.00091633    1.439    0.305
        76  -9.1283    175.1082    108.8310   2.3414631008e+01   2.4407129617e+01    0.1887135     0.163569  -4.98 0.0002611142    1.260    0.206
        77 -11.9471     79.8418    107.8522   4.8989571365e+01   4.4759736742e+01    0.5097802    0.3499014  26.29  0.000873197    1.591    0.371
        78  -9.5287     85.9100    103.4633   4.5738390208e+01   4.4730897524e+01    0.2497452    0.2208096 -21.35 0.0006921137    1.283    0.220
        79 -11.0920     50.3260    100.5934   5.8715894788e+01   5.1342153288e+01     0.730928    0.4134791 -33.02  0.002642138    2.375    0.579
        80 -10.3161     91.5402    102.3764   4.3507418813e+01   4.3899064553e+01    0.4640906    0.3671504 -11.37  0.001817851    1.655    0.396
        81  -9.2191     57.0000    102.9930   5.6520143815e+01   4.9766128879e+01    0.2563542   0.08576782 -61.97 0.0008056631    2.965    0.663
        82 -10.8659     17.1185    100.1144   7.2788521262e+01   5.4916558798e+01    0.3093199    0.2008313 -69.51 0.0007552883    1.404    0.288
        83 -11.3555      9.3159     96.9484   7.5799859450e+01   5.6275310857e+01    0.4721643    0.3754639  55.34 0.0003672141    1.276    0.217
        84 -10.6091     30.3447     96.8709   6.6539249059e+01   5.4671048370e+01    0.4293702      0.38981 -73.69  0.002048197    1.043    0.041
        85  -9.9885    210.3032     98.0284   1.4950313566e+01   1.9076515799e+01    0.1917506     0.189305  44.69 0.0003885723    1.149    0.130
        86  -9.8949     67.3839     81.5723   4.6712741797e+01   5.3562032691e+01    0.3977624    0.2919332 -26.02  0.001794126    1.665    0.399
        87 -11.2850     79.5430     93.1806   4.5279273402e+01   4.8478279592e+01     0.867753    0.6891103 -54.95  0.004164532    1.278    0.217
        88 -10.2199     80.9713     83.9553   4.2048867397e+01   5.0428065003e+01    0.5483862     0.351527  22.83  0.002214166    1.988    0.497
        89 -12.2019     75.1833     78.6135   4.2627659150e+01   5.2825234853e+01    0.6559844    0.4961529  57.17  0.001174777    1.442    0.307
        90  -9.5167     52.2790     86.9560   5.4694708278e+01   5.4646516084e+01    0.2239215    0.2006197  78.80 0.0003684724    1.187    0.157
        91 -10.6605     18.7355     88.2768   7.0398611323e+01   5.7981740154e+01    0.6601625    0.3347474 -65.34   0.00294084    1.751    0.429
        92 -11.3234     45.0172     84.0917   5.7240326192e+01   5.6392887872e+01    0.5371874    0.4690849  53.87   0.00207483    1.197    0.164
        93  -9.8435     37.5299     85.3876   6.1017551012e+01   5.6975419021e+01    0.3368482    0.1872359  12.89  0.001394217    2.164    0.538
        94 -10.9534     23.1843     94.2053   6.9283220596e+01   5.6037825901e+01    0.4122443     0.296589 -37.33  0.001608215    1.486    0.327
        95 -10.9825     36.6456     90.7948   6.2582049055e+01   5.5642462300e+01    0.6416431    0.4809092  37.43  0.002934433    1.357    0.263
        96 -11.0818     27.6848     85.4333   6.5672958134e+01   5.7989360738e+01    0.5626569    0.4934545 -27.18  0.001292006    1.200    0.166
        97  -9.1030    140.8756     95.2093   2.7201930565e+01   3.4614393810e+01     0.209028    0.1818948   6.50 0.0004406061    1.357    0.263
        98 -10.0084     42.8091     94.3897   6.0591919416e+01   5.3963064833e+01    0.3659957    0.3395647 -22.53  0.001336331    1.148    0.129
        99 -10.5179     43.5459     90.5538   5.9430594758e+01   5.4888419861e+01    0.2436005    0.2302718 -67.07 0.0002401362    1.027    0.026
       100 -10.5212     49.3214     90.4131   5.6847450327e+01   5.4165426494e+01    0.5494791    0.3508346 -80.35  0.002367912    1.870    0.465
       101  -9.1757    125.9487     93.9698   3.0645635393e+01   3.8328017729e+01    0.1833386    0.1804832 -70.74            0    1.025    0.024
       102 -10.3626     98.0529     90.6419   3.8018802927e+01   4.5325484313e+01    0.2745468    0.2462648  83.16 0.0005519744    1.204    0.169
       103 -10.9479      2.5848     80.8559   7.7143316874e+01   6.0891125771e+01    0.5964662     0.282384  85.53  0.002012455    2.217    0.549
       104 -10.5776      1.8174     71.3862   7.6417583971e+01   6.3403187742e+01    0.4282671    0.2001594 -69.22  0.001956034    1.820    0.450
       105  -9.8435     11.2575     90.3266   7.4158589614e+01   5.7935293995e+01    0.2180744    0.1710379 -46.46 0.0002949401    1.269    0.212
       106 -11.3164      6.2339     88.0991   7.6213410999e+01   5.8805703918e+01    0.6894262    0.3839349   2.57  0.003263707    2.085    0.520
       107  -9.9175     66.5838     88.4399   4.9019871711e+01   5.1999755041e+01    0.3490462    0.2283854 -18.67 0.0009803913    2.352    0.575
       108  -9.4371    104.3279     86.8565   3.4848125312e+01   4.4801725087e+01    0.2252258    0.2030133 -43.56  0.001121965    1.144    0.126
       109  -9.7811     90.6432     85.7145   3.9064404258e+01   4.8037357544e+01    0.3666841    0.2748265  73.02   0.00160998    1.679    0.405
       110 -10.4889    143.2887     84.2420   2.3508502243e+01   3.6179609915e+01     0.261845    0.2415376 -69.01 0.0005033161    1.094    0.086
       111 -10.4637    113.2735     83.4118   3.1058145457e+01   4.3499936563e+01     0.580951     0.377014  77.29  0.002184817    2.401    0.583
       112 -11.4955     60.8543     83.3136   4.9979614508e+01   5.4247240797e+01    0.2922878    0.2738539  70.41 0.0003893168    1.111    0.100
       113 -10.1474     58.1860     77.7902   4.9539302969e+01   5.6058060476e+01    0.3258261    0.2416002  80.54   0.00109071    1.789    0.441
       114  -8.8872    151.2512     83.0385   2.1403300236e+01   3.4496971990e+01     0.186286    0.1287415 -38.03 0.0004560322    1.443    0.307
       115  -9.5795    103.0405     79.5210   3.2960284652e+01   4.6694162081e+01    0.2452796    0.2072667 -46.79 0.0005137976    1.214    0.176
       116 -10.7438     89.0472     77.3112   3.6970671031e+01   5.0287927682e+01    0.5386604    0.3041728  45.44  0.001980506    1.730    0.422
       117 -10.4148     94.2063     75.5276   3.4574451157e+01   4.9551954163e+01    0.5814518     0.328219 -57.55  0.002229225    2.131    0.531
       118 -10.7872     53.4754     76.2411   5.1212662199e+01   5.7187428862e+01    0.4343533    0.3904723 -84.38  0.002312973    1.201    0.167
       119  -9.2442    118.9702     78.2335   2.7805847248e+01   4.3218720154e+01     0.210343    0.2013306  70.31            0    1.016    0.016
       120  -9.3106     38.0484     77.5132   5.8905776297e+01   5.8970569019e+01    0.2181299    0.1404545  30.26 0.0008452193    1.574    0.365
       121  -9.7017     46.6502     75.1664   5.4107960746e+01   5.8457991638e+01    0.3960789    0.2088866 -41.73  0.001198174    2.045    0.511
       122 -10.8613     14.1214     74.4058   7.0405724650e+01   6.1983007141e+01    0.3679579    0.2721796 -85.48  0.001435893    1.352    0.260
       123  -9.8368    103.6263     74.5779   3.1158316151e+01   4.7606680424e+01    0.2873221    0.2530433  71.95  0.001265872    1.187    0.158
       124 -11.8051     68.0684     95.0553   5.0198594680e+01   5.0074487141e+01    0.6084785    0.3922704  28.30  0.001307038    1.642    0.391
       125 -10.6865     51.1100     56.3008   4.5726468088e+01   6.2318527670e+01     1.028397    0.3093622 -50.25  0.003332673    3.206    0.688
       126 -11.2652     27.6701     73.3641   6.3135890578e+01   6.1163959450e+01    0.4385176    0.3185048 -21.71 0.0001762253    1.531    0.347
       127 -10.8064     34.5724     71.2177   5.9035708909e+01   6.0991179645e+01    0.5688989     0.230927  36.32  0.002003971    2.448    0.592
       128 -10.6566     40.2752     56.5802   5.1548593385e+01   6.3883189205e+01    0.3704684    0.2243558  34.83   0.00107233    1.660    0.398
       129 -10.4656     41.2883     72.5969   5.6005295164e+01   5.9826303057e+01    0.3151132    0.2289424  17.16 0.0008168169    1.477    0.323
       130 -11.7989     40.5517     68.9368   5.5334584619e+01   6.0841137593e+01    0.5033575    0.3012065  31.25  0.001041626    1.681    0.405
       131 -11.4371     43.1926     60.6851   5.1383408027e+01   6.2502946617e+01    0.4445458    0.2485722 -58.80 0.0007294333    1.817    0.450
       132 -11.0074     46.4980     59.4399   4.9230104451e+01   6.2316987398e+01    0.4031856    0.2779331  56.49  0.001733158    1.805    0.446
       133  -9.9250     80.7081     71.8847   3.8248529731e+01   5.3263977224e+01    0.4107251    0.2681762 -40.96  0.001786638    1.610    0.379
       134  -9.8314     77.9572     67.0070   3.7619936285e+01   5.4914750472e+01    0.3008322     0.213526 -80.86  0.001248729    2.110    0.526
       135  -9.5054    153.2067     72.3354   1.7882386440e+01   3.5929363429e+01    0.3618971    0.1365618  55.88  0.001254422    2.623    0.619
       136 -10.7209    122.4908     68.5817   2.3727668903e+01   4.4237327631e+01    0.4988827    0.2719481  50.18  0.001412625    1.782    0.439
       137  -8.9945     59.6559     69.6904   4.6334143747e+01   5.7777464586e+01    0.1574607    0.1178013 -13.23  0.000704481    1.699    0.412
       138  -9.6519     13.4603     67.3766   6.9483212787e+01   6.3857433849e+01    0.4455648    0.1390525  10.81  0.001510933    3.786    0.736
       139 -10.1894     97.0409     65.3540   3.0106397386e+01   5.1038413058e+01    0.2724965    0.2265316 -31.60 0.0004639896    1.302    0.232
       140 -11.2168     92.5330     62.6076   3.0632152159e+01   5.2638903461e+01    0.5945815     0.335041  57.03 0.0009957686    1.924    0.480
       141  -8.7727    192.4558     65.4376   9.4669159430e+00   2.7760756778e+01    0.1405001    0.1210596 -58.19 8.196872e-05    1.069    0.064
       142  -8.6982     51.6745     65.7232   4.8772862877e+01   6.0033934093e+01    0.1502485    0.1137377 -14.67 0.0002592518    1.587    0.370
       143 -10.3315    159.1129     62.6890   1.3902821038e+01   3.6079169528e+01    0.2939799    0.2311903  51.11  0.000635414    1.334    0.250
       144  -9.9456    105.6499     63.0901   2.6572607670e+01   4.9429760121e+01    0.3523407     0.203313  44.10  0.001418383    1.740    0.425
       145  -9.8187     58.1142     62.4956   4.4573623786e+01   5.9724063088e+01    0.2980456    0.2744095  73.26  0.001287871    1.214    0.176
       146  -9.7635     63.8101     60.3324   4.1157737568e+01   5.9183068777e+01    0.5227889    0.3202215  34.44  0.002289841    1.649    0.394
       147  -9.0530    169.1728     62.1491   1.2029698649e+01   3.3697371458e+01    0.1988733     0.157423 -68.96  0.000286137    1.292    0.226
       148  -9.1955    150.9513     60.6691   1.4798988996e+01   3.8445177630e+01    0.2045065    0.1849856  76.43 0.0004852208    1.077    0.072
       149 -10.0554    113.6620     60.7557   2.3425212879e+01   4.7891094109e+01    0.2967387    0.2678041 -77.48   0.00103463    1.157    0.136
       150 -11.9764     75.5452     54.9368   3.4039082669e+01   5.7972388362e+01    0.7594203    0.5259394 -47.24  0.003530753    1.510    0.338
       151  -9.7861    126.7280     50.4747   1.6494669050e+01   4.6317807716e+01    0.6421747    0.2592773 -24.11  0.001920403    3.970    0.748
       152 -10.2308    124.3724     56.5324   1.9165998814e+01   4.5922927822e+01     0.409943    0.2790302 -19.83  0.001778505    1.877    0.467
       153 -10.4949    118.7143     56.4481   2.0551097911e+01   4.7384162679e+01    0.7903139     0.450307 -81.96  0.002396694    4.020    0.751
       154 -10.0707    122.9182     44.4939   1.5223270297e+01   4.8251736867e+01    0.5439414    0.2635616  58.06  0.002148078    1.919    0.479
       155 -10.2539     51.1422    249.3445   7.4923627663e+01   1.6508654653e+01    0.2345275   0.09649159  21.73   0.00109338    2.555    0.609
       156 -11.5396    116.8523     47.9219   1.7934987520e+01   4.9293231938e+01    0.5952507    0.4704477  -0.14  0.001980381    1.661    0.398
       157 -11.3694    119.9958     40.5222   1.4423656085e+01   4.9618453452e+01    0.5392165    0.2533551  45.71 0.0007637947    2.294    0.564
       158 -11.7563    119.6791     36.9619   1.3153173848e+01   5.0219383947e+01    0.4356883    0.3612916 -51.00  0.001118492    1.245    0.197
       159 -11.2284     25.6399     57.2854   6.0104590772e+01   6.5435393444e+01    0.7197208    0.4919398  39.33  0.002643153    1.578    0.366
       160 -11.1766     32.1629     53.4129   5.5061303601e+01   6.5669564169e+01    0.4532916      0.40427  11.41  0.002207512    1.129    0.114
       161 -10.1121    106.5231     58.3285   2.4592091879e+01   5.0111859417e+01    0.2731825    0.2351224  64.03 0.0004408977    1.140    0.122
       162 -13.4297      6.5047     61.8019   7.2399470426e+01   6.5680825418e+01    0.6961602    0.4947124 -41.71  0.002875426    1.322    0.244
       163 -11.0122     88.1465     55.2861   2.9393260674e+01   5.5095917065e+01    0.7185575    0.3036499 -29.65  0.002170023    3.775    0.735
       164  -9.5619     88.3290     49.6803   2.7094849385e+01   5.6107216406e+01    0.2402598    0.2142611 -74.98 0.0005842447    1.253    0.202
       165 -11.8772     72.9364     47.0394   3.1845522463e+01   6.0087704362e+01    0.4429058    0.3075896 -56.05    0.0018977    1.699    0.411
       166 -10.0397    237.9201     55.6422   2.1463530409e+00   1.9749096893e+01    0.1926351    0.1426107 -32.35 0.0002757786    1.229    0.186
       167 -10.3683    157.1168     54.7360   1.1859214620e+01   3.7823602056e+01    0.4766345    0.3009025 -64.45  0.001943238    1.832    0.454
       168 -10.8317    155.0377     48.7067   1.0354818152e+01   3.9254376765e+01    0.3319731     0.218784 -24.55  0.000791924    1.731    0.422
       169 -10.5380     60.6408     52.0378   3.9387210889e+01   6.1573961082e+01    0.4559315    0.2197081 -49.17  0.001803733    2.158    0.537
       170 -10.5091     61.3176     46.1884   3.6607961911e+01   6.2647575018e+01    0.5467906    0.3707421  -2.25  0.002317152    2.249    0.555
       171  -9.0999    201.6924     52.6471   5.0347300672e+00   2.7516340107e+01    0.1287674    0.1039211  16.94 0.0007042828    1.716    0.417
       172 -10.1835    243.8119     51.0444   6.5473103826e-01   1.9234298282e+01    0.1859527    0.1556978 -67.98 0.0004578506    1.192    0.161
       173 -10.6303    144.9855     50.1416   1.2596912889e+01   4.1624988291e+01    0.3131349    0.2393268 -10.22 0.0003558623    1.688    0.408
       174 -10.3193    146.0720     43.7341   1.0308285077e+01   4.2290114513e+01    0.5988624    0.2048576 -44.32  0.002032568    2.912    0.657
       175  -9.1120     55.3440     50.2652   4.1226271109e+01   6.2922230934e+01    0.1967894    0.1442573  16.40 0.0005598313    1.552    0.356
       176 -10.1690     52.0032     48.2813   4.2097177220e+01   6.3932280167e+01    0.3528517    0.2293912  47.27 0.0006704965    1.652    0.395
       177  -9.1588    188.9874     49.3010   5.6571060162e+00   3.0851470563e+01    0.1837722    0.1617046 -76.35 0.0003731197    1.076    0.071
       178 -10.1816     83.3836     46.4597   2.7529916139e+01   5.7851069356e+01    0.4446337    0.2902804  -6.70  0.001743089    2.556    0.609
       179 -12.4720     40.6761     44.3263   4.6642288442e+01   6.6609265864e+01     1.158843    0.3969415  33.48  0.003473222    2.871    0.652
       180 -10.9156     20.4425     46.1306   5.9907889121e+01   6.8628596596e+01     0.396217    0.2928138 -38.04  0.001095692    1.264    0.209
       181 -11.0855     26.3836     42.4013   5.4699982690e+01   6.8900108842e+01    0.3429134    0.3300745  62.57 0.0009133855    1.210    0.174
       182 -10.0181     13.1981     46.5439   6.4826988071e+01   6.9108535055e+01    0.3574078    0.1674076 -42.44  0.001594469    1.982    0.496
       183  -9.1425      2.0441     48.5229   7.2707873315e+01   6.9216477761e+01    0.1829773    0.1269079   8.56  0.001014552    1.550    0.355
       184 -10.5062     23.7259     37.3018   5.4489169864e+01   7.0341979996e+01    0.4722015    0.2052936  35.80  0.001966596    2.387    0.581
       185  -9.7386    139.0133     44.0001   1.1690303405e+01   4.4097269508e+01    0.3554463    0.1974548  28.98  0.001243063    3.247    0.692
       186  -9.6984    233.5521     44.5517   5.3342787615e-02   2.1955891812e+01     0.123139   0.09868855 -49.47 9.075814e-05    1.005    0.005
       187  -9.3846    199.4928     44.7519   3.2618347408e+00   2.9055554755e+01    0.2762172    0.1082177  84.71 0.0008965895    4.443    0.775
       188 -10.0201    156.0232     42.1938   8.1602301030e+00   3.9930947015e+01    0.2608286    0.2196737 -21.02    0.0013969    1.361    0.265
       189 -10.2769     98.7213     41.4592   2.0358916645e+01   5.4978986126e+01    0.3826856    0.2629351  84.99   0.00139655    1.924    0.480
       190  -9.9973     56.7782     41.7649   3.6832247320e+01   6.4399374417e+01    0.2555733    0.2264131  72.22  0.000550833    1.367    0.268
       191  -9.4608     91.0052     41.0386   2.2588739439e+01   5.6967260168e+01    0.2249922    0.2136096  56.67  0.000404149    1.014    0.014
       192 -10.1238    249.7794     39.0664   3.5767025542e+02   1.9579385753e+01    0.2089937    0.1480456 -56.28 0.0003581784    1.185    0.156
       193 -11.5172     78.9214     35.4451   2.4308312246e+01   6.0787827096e+01    0.7673937    0.5462986 -33.40   0.00306615    1.500    0.333
       194  -9.6431     18.4667     40.1039   5.9201275277e+01   7.0221228363e+01    0.1925135     0.125238 -59.73 0.0003781799    1.480    0.324
       195 -10.9759      4.1613     35.6456   6.8212273797e+01   7.2246799110e+01    0.6590034    0.2925384 -55.52  0.002357857    1.845    0.458
       196 -10.0101     11.4697     29.6371   6.0536209116e+01   7.3184110478e+01    0.3977303    0.2592689 -13.64  0.002138867    1.575    0.365
       197 -10.6618     61.2469     36.0799   3.2001885753e+01   6.4585524421e+01    0.4858966    0.3002672 -26.05  0.001362664    1.935    0.483
       198  -9.7665     68.3172     32.5357   2.7118638798e+01   6.3687693847e+01    0.5124041    0.2717169  48.74     0.002203    1.772    0.436
       199  -9.2513    206.3058     37.0918   6.4276567486e-01   2.8508962487e+01    0.1795753    0.1411988 -51.47 0.0003637635    1.078    0.073
       200 -10.6059    153.2862     35.6483   6.5084790993e+00   4.1521345967e+01    0.2724843    0.2367818 -81.26 0.0006609164    1.063    0.059
       201  -9.3768    213.9644     34.6793   3.5937331910e+02   2.7140432440e+01     0.172334    0.1439965 -71.68 0.0003686125    1.110    0.099
       202 -10.3876    177.8442     28.7345   1.2654194480e+00   3.6165270597e+01    0.2964524    0.2268843  65.74  0.001455435    1.344    0.256
       203 -10.8181    175.0253     33.9862   3.0892939463e+00   3.6216047392e+01    0.3378017    0.2327196 -53.11 0.0004166298    1.338    0.253
       204 -10.4442    172.7988     30.8025   2.4293089188e+00   3.7162484754e+01    0.3951787    0.2655518  68.65  0.002050061    1.456    0.313
       205  -9.4083    218.8470    248.3799   4.1245499498e+01  -3.2659631482e+00    0.1533377   0.07398492  17.87 0.0009440581    1.723    0.420
       206  -9.6735    172.7560    246.8234   4.9268442164e+01   2.0991487716e+00    0.1926763   0.09922699   0.72  0.000942462    2.742    0.635
       207 -10.8436     67.6607    240.5150   7.0746982455e+01   1.6189967963e+01    0.2073374    0.1687219 -19.31 0.0009298609    1.690    0.408
       208  -9.3628     94.2425     35.4118   1.9149619953e+01   5.7053352249e+01    0.2039816    0.1396193  69.41 0.0005386102    1.549    0.354
       209 -10.0843    240.1246     32.2764   3.5686494035e+02   2.2144677472e+01    0.2543724    0.1721065  46.46  0.001544976    2.096    0.523
       210  -9.1600    217.1089     31.8397   3.5843469819e+02   2.6809580980e+01    0.1509322    0.1464142 -26.16 0.0004038482    1.288    0.223
       211 -11.6656    151.0832     27.1633   4.0865749586e+00   4.3164155734e+01    0.8098769     0.386328  82.96  0.003187781    2.364    0.577
       212 -10.1574    155.8018     24.6009   2.6260335331e+00   4.2235611616e+01    0.4103805    0.2517303 -64.62 0.0009662932    1.679    0.404
       213  -9.8375    155.4001     20.7557   1.4498403226e+00   4.2779496222e+01    0.2510404    0.2298039  84.94  0.001043159    1.091    0.084
       214 -10.6307    147.2818    238.3284   5.3234836421e+01   6.4482441634e+00    0.2902052    0.2420601  78.12  0.001844972    2.034    0.508
       215 -11.3328    148.3849     22.2622   2.8458250268e+00   4.4448582772e+01    0.7087982    0.1841346  67.49  0.002300257    3.313    0.698
       216 -11.2043    160.2862     29.3166   3.5275322481e+00   4.0512350568e+01    0.4304561    0.2716797  53.76  0.001394175    1.673    0.402
       217 -10.1995    131.7649    240.4169   5.6716835865e+01   8.1434311088e+00    0.1758527   0.09454232  22.14 0.0006020491    1.631    0.387
       218 -10.2516     45.6008     24.7958   3.4225614190e+01   6.9624531981e+01    0.3509322    0.2010879 -26.39 0.0009741634    2.072    0.517
       219 -10.5688     76.2209    239.9100   6.8794629631e+01   1.5276040444e+01    0.2538936    0.2266256  18.59  0.001779151    1.249    0.199
       220 -10.7033    104.6703    122.1787   4.4213538509e+01   3.6519877400e+01    0.3574052     0.326253  62.40 0.0009981123    1.110    0.099
       221  -9.8551     13.5640     22.3261   5.5673287663e+01   7.4601926513e+01     0.223687    0.1677177  35.91 0.0006671885    1.507    0.336
       222 -11.7757     26.5185     27.6477   4.8156980565e+01   7.2080407185e+01    0.5093809    0.4199073 -65.45  0.002239806    1.486    0.327
       223  -9.4298     15.4781    233.2838   8.1941123069e+01   2.3064089973e+01    0.1870337    0.1030201 -77.99  0.001125067    2.046    0.511
       224 -10.0036      4.5807     22.3568   6.3491887732e+01   7.5265796936e+01    0.3694721    0.2326129  18.44  0.002065217    1.630    0.386
       225 -10.6806      9.4967     19.4763   5.7855703778e+01   7.5550013339e+01    0.3553759    0.2102299  -7.64  0.001172739    1.809    0.447
       226  -9.0964    246.4950    230.5253   3.4279815233e+01  -4.1670422330e+00    0.1044214     0.073208  -1.37 7.628376e-06    1.045    0.043
       227 -10.2536     10.0000    217.0552   8.2644882021e+01   2.6758347619e+01    0.1754615   0.06208982 -84.31 0.0008026346    2.944    0.660
       228 -10.3557    229.9433     27.2877   3.5644134474e+02   2.4695332169e+01    0.2358235    0.1970146  48.78  0.001030238    1.597    0.374
       229 -10.1289    250.4792     26.9635   3.5509751375e+02   2.0817832643e+01    0.1630712    0.1099686 -40.18  0.000391313    1.180    0.153
       230 -11.2194    182.9725     25.5329   3.5983424868e+02   3.5292855634e+01    0.3560264    0.2341648 -60.83  0.001307348    1.400    0.286
       231  -9.9049    200.6353     24.6705   3.5800291218e+02   3.1250538666e+01    0.1876504    0.1509534  33.85  0.001103235    1.711    0.416
       232  -9.0498     44.7574    214.9826   7.4294762252e+01   2.3726485448e+01    0.1459291    0.1030573 -83.65 0.0008732605    1.567    0.362
       233  -9.0156    164.4931    211.4721   4.5978724409e+01   8.2000648389e+00    0.1276794    0.1030099  14.24 0.0001000939    1.002    0.002
       234  -9.7421      9.2166    211.3955   8.2644751264e+01   2.7993462931e+01    0.1790583   0.08111206  37.96 0.0009518284    1.651    0.394
       235  -9.6377     39.6790    206.5040   7.4990901633e+01   2.6061650808e+01    0.2072954    0.1138454 -80.17  0.001080913    1.992    0.498
       236 -10.3066    169.3970     23.0735   5.4111826166e-01   3.8928830829e+01    0.3517829    0.1792392  70.34  0.001164204    1.855    0.461
       237  -9.0395     86.0634     23.5040   1.6228494348e+01   6.0804943967e+01     0.213432    0.1316017  55.39 0.0003727024    1.462    0.316
       238 -11.1932      5.8862    199.2919   8.3052559347e+01   3.0856390767e+01    0.3329698    0.1267385 -66.98  0.001537196    2.863    0.651
       239  -8.9819     79.6961    205.6820   6.4843690816e+01   2.1365710508e+01    0.1264476    0.1003608 -10.78 0.0006881281    1.627    0.385
       240 -10.8854    178.9026     20.5675   3.5884033155e+02   3.6847771536e+01    0.5212466    0.2535226  48.82  0.002252162    2.583    0.613
       241  -9.6501     15.9875    190.2312   8.0134709581e+01   3.2008204789e+01    0.2462269    0.1355792  71.22  0.001294578    1.678    0.404
       242  -9.7721    216.6823     20.0023   3.5565044459e+02   2.8242372568e+01    0.1757156    0.1329343 -48.22 0.0003439923    1.103    0.093
       243 -12.1003      6.6173    185.7464   8.2395358384e+01   3.3823813799e+01    0.5484402    0.3166306 -81.70  0.003034829    1.710    0.415
       244  -9.7987     74.7876     19.1639   1.7775869241e+01   6.4156267580e+01     0.244516    0.1846265  12.62 0.0006654186    1.563    0.360
       245  -9.8937     46.2491     19.7746   3.0955785303e+01   7.0336356241e+01    0.3260987    0.2127761  61.65  0.001528586    2.118    0.528
       246 -12.2141      2.8651    183.1210   8.3286337090e+01   3.4719599453e+01    0.7285641    0.2275865 -73.14  0.003036578    3.089    0.676
       247  -9.5470     28.0240    175.9641   7.6042245691e+01   3.4215605377e+01     0.200035    0.1547775 -39.37  0.000732473    1.658    0.397
       248 -10.5300     15.9072    173.5814   7.9319437051e+01   3.5906241801e+01    0.2663144     0.172686  77.20  0.001463428    1.419    0.295
       249  -9.2487     39.0050    173.2514   7.2689365161e+01   3.3730288436e+01    0.1800135    0.1077824  29.04 0.0008826988    1.562    0.360
       250 -11.9852      9.1297    166.7265   8.0899373364e+01   3.8120445331e+01    0.4542214    0.2933023  26.09  0.001871755    1.536    0.349
       251 -12.3623     12.9004    159.9593   7.9436669541e+01   3.9489790142e+01    0.5731762    0.4182689 -41.81  0.002320994    1.706    0.414
       252 -10.1527     18.3181    164.4952   7.8094657430e+01   3.7911879706e+01    0.2814484    0.1946559 -34.68  0.001479649    1.925    0.481
       253  -9.9340    205.0320    162.9504   2.9661435660e+01   9.7799281039e+00    0.1989102    0.1641902  -7.61 0.0006342203    1.045    0.043
       254  -9.8436    211.0864     15.9782   3.5506067134e+02   2.9882093494e+01    0.1851817    0.1505691 -58.36 0.0003105561    1.022    0.022
       255 -10.0694    147.7899     15.5051   6.7443802274e-01   4.5345508224e+01    0.3545953    0.1856857  50.76  0.001560939    2.059    0.514
       256  -9.6381    214.9510    161.3478   2.7650118225e+01   8.5112973912e+00    0.1709021    0.1418391   2.61 0.0004895614    1.091    0.083
       257 -10.3979     28.2150    160.7960   7.4859419807e+01   3.7923211926e+01      0.25429    0.2120947  60.56  0.001034478    1.048    0.046
       258  -9.4086     32.2995    157.6566   7.3338084403e+01   3.8309141751e+01    0.1530047   0.08784607  59.29 0.0003318685    1.674    0.403
       259 -10.3550      9.8129    155.1120   8.0100251081e+01   4.0942340392e+01    0.2208513    0.1545656  61.59  0.001234803    1.250    0.200
       260  -9.5495    104.3201    153.8831   5.0888168045e+01   2.9078205297e+01    0.2422565     0.194772  86.87  0.001195084    1.513    0.339
       261 -11.1201     47.4238    147.3725   6.7420624679e+01   3.9273001029e+01    0.7402669    0.4578506 -45.68  0.003396167    1.888    0.470
       262 -11.2709     16.8048    147.7840   7.7445560692e+01   4.2258083489e+01    0.4348344    0.2282942 -74.16  0.001547105    1.800    0.444
       263 -12.0123    107.4297     31.0907   1.3706194474e+01   5.4273966511e+01    0.7777721    0.4133277  40.90  0.003124968    2.153    0.535
       264 -11.7609     21.2176    150.5589   7.6237694375e+01   4.1171345002e+01    0.4877279    0.3065904 -44.60 0.0005384915    1.921    0.479
       265 -11.3674     23.9875    147.9854   7.5140731651e+01   4.1587443509e+01    0.3530127    0.2757737  78.24 0.0008525802    1.179    0.152
       266 -10.9219      4.3263    153.2598   8.1682454746e+01   4.1802128327e+01    0.3267489    0.1698252  29.99  0.001607543    1.798    0.444
       267  -9.3721     55.4834    152.5041   6.5472807470e+01   3.6944634692e+01    0.1454743    0.1340731  58.39 2.194577e-05    1.020    0.019
       268  -9.1900     61.4735    151.5210   6.3440161918e+01   3.6397699418e+01    0.1478969    0.1349802  57.11 0.0001791197    1.002    0.002
       269 -10.0599    104.0902    147.2747   4.9714644812e+01   3.0661872526e+01    0.2618201    0.2203626 -75.63            0    1.337    0.252
       270 -12.1009      3.6111    142.2412   8.1364630594e+01   4.4643177599e+01    0.7100007    0.3497886  45.68  0.003415691    1.812    0.448
       271 -10.5998     15.0135    141.0258   7.7543068341e+01   4.4150445930e+01     0.270864    0.1997821  -6.64  0.001449153    1.706    0.414
       272 -11.7520     12.3606    135.7089   7.8050176038e+01   4.5739310609e+01    0.6368253    0.3354753 -55.92  0.002966726    1.963    0.491
       273 -10.5747     33.1256    143.9963   7.1762355788e+01   4.1745717788e+01    0.3119797    0.2678511 -85.14 0.0008609568    1.126    0.112
       274 -10.5801     40.3860    137.8007   6.8598067578e+01   4.2599858629e+01     0.319974     0.262698  58.79 0.0004695962    1.145    0.127
       275  -9.9192     30.4501    132.5040   7.1445901397e+01   4.5049183430e+01    0.3301857    0.2674946 -22.14 0.0008536002    1.500    0.333
       276 -11.8301     23.3748    135.8123   7.4266428416e+01   4.4827002296e+01    0.7542839     0.446615  37.69  0.003676553    1.585    0.369
       277  -9.4219     79.3643    138.0640   5.5533314588e+01   3.7148600513e+01    0.2103759     0.191132 -85.68 0.0005637797    1.131    0.115
       278  -9.5688     26.1515    131.7818   7.2893325550e+01   4.5647919868e+01    0.2422212     0.179177  85.47 0.0005287509    1.291    0.225
       279  -8.7454     39.3243    133.2984   6.8401437585e+01   4.3912942940e+01    0.1456322    0.1078494 -34.31 0.0005694863    1.628    0.386
       280  -9.4610    103.9524    130.7213   4.6361628194e+01   3.4617304175e+01    0.2164611    0.1874626  40.65 0.0003023802    1.105    0.095
       281  -8.9804     22.2629     31.3086   5.2986133759e+01   7.1815838894e+01    0.1368718   0.09100329 -26.88 0.0002558879    1.530    0.346
       282  -8.7950     50.5495    129.5205   6.3883006420e+01   4.3582169855e+01      0.15032    0.1369415  67.91 0.0001288766    1.039    0.038
       283  -9.7196     22.8625    125.9425   7.3472348734e+01   4.7499151873e+01    0.3141209    0.1807378  89.95  0.001176238    1.735    0.424
       284  -9.5317     26.5184    127.4374   7.2296386026e+01   4.6774930548e+01    0.2310533    0.1708181 -89.44 0.0004921017    1.291    0.226
       285  -9.8383     27.1322    123.8992   7.1670532968e+01   4.7668246609e+01    0.2130443    0.1940246  78.24 0.0003524202    1.010    0.009
       286 -10.8238    189.3694     27.0997   3.5964182079e+02   3.3580765002e+01    0.4003786    0.2746348  38.56  0.002078305    2.013    0.503
       287 -10.9016     11.4089    124.9221   7.7564403011e+01   4.8653819880e+01    0.5158582    0.2508976 -50.22  0.002083842    2.199    0.545
       288  -9.6447     33.1442    125.6444   6.9655797199e+01   4.6617279871e+01    0.2918176    0.1706469  73.48 0.0009609943    1.904    0.475
       289  -9.5014      2.1188    125.4716   8.0946014592e+01   4.9084668996e+01    0.2906813    0.1439725  73.71  0.001314144    1.943    0.485
