#   1 NUMBER                 Running object number                                     
#   2 MAG_AUTO               Kron-like elliptical aperture magnitude                    [mag]
#   3 X_IMAGE                Object position along x                                    [pixel]
#   4 Y_IMAGE                Object position along y                                    [pixel]
#   5 X_WORLD                Barycenter position along world x axis                     [deg]
#   6 Y_WORLD                Barycenter position along world y axis                     [deg]
#   7 A_WORLD                Profile RMS along major axis (world units)                 [deg]
#   8 B_WORLD                Profile RMS along minor axis (world units)                 [deg]
#   9 THETA_WORLD            Position angle (CCW/world-x)                               [deg]
#  10 FWHM_WORLD             FWHM assuming a gaussian core                              [deg]
#  11 ELONGATION             A_IMAGE/B_IMAGE                                           
#  12 ELLIPTICITY            1 - B_IMAGE/A_IMAGE                                       
         1 -12.5920    211.7246     48.4400   7.1599896012e+01   2.6307356521e+01     1.091388    0.8163146 -61.77  0.005826592    1.307    0.235
         2 -14.0392    178.6635     75.7679   8.4305910466e+01   3.0174229223e+01     6.469144     1.904921 -45.37   0.01911028    3.675    0.728
         3 -14.4126    224.3642     41.3481   6.8236180467e+01   2.4264139104e+01     4.078768     1.308589 -48.47    0.0146241    3.148    0.682
         4 -12.0705    235.4129     36.2612   6.5785136692e+01   2.2369823461e+01     1.373103    0.3689633 -46.63  0.001058872    3.383    0.704
         5 -14.6114    169.6583     58.3681   8.1190553878e+01   3.5285478118e+01     8.753257     4.592094  89.56   0.02370755    5.509    0.818
         6 -14.6643    240.1359     91.0179   7.7712668830e+01   1.2811138348e+01     7.851274     1.394299 -38.74   0.02106393    4.784    0.791
         7 -15.0901    233.9653      3.3311   5.8778540820e+01   2.6718460407e+01     9.317852          nan  64.03   0.02202566    8.955    0.888
         8 -13.3723    207.7536     62.8357   7.5790329469e+01   2.5100403852e+01     5.533772     2.191076 -61.34   0.01234747    7.785    0.872
         9 -12.7537    249.7221     26.6693   6.2255973625e+01   2.0402016011e+01    0.4334666    0.2420913 -48.80  0.001039091    1.581    0.368
        10 -14.3000    246.4544     19.7804   6.1121217251e+01   2.1997098643e+01    0.7488144    0.7309317  88.79  0.003425078    1.355    0.262
        11 -12.6398    246.1987     41.4262   6.5752017322e+01   1.9203373895e+01     1.467034    0.6956649 -45.62  0.006175471    1.872    0.466
        12 -10.5148    142.3231     16.9571   7.3982937103e+01   4.7303753840e+01    0.4398248      0.21686 -35.55  0.001704534    2.218    0.549
        13  -9.7285    115.8171     12.4084   7.7870235690e+01   5.3771219114e+01    0.3036707    0.1973799  52.66  0.001671936    1.339    0.253
        14 -11.0819    120.2149      8.8170   7.5675462674e+01   5.3138863266e+01    0.4149629     0.353245  39.62  0.001314731    1.032    0.031
        15 -10.1510    136.4189     15.7751   7.4724986797e+01   4.8805898827e+01    0.2325573    0.1243472 -29.91   0.00113246    2.053    0.513
        16 -10.2596      2.3474      2.7005   1.1360731811e+02   7.1894389009e+01    0.2194186    0.1505196 -37.05  0.001702941    1.440    0.306
        17 -10.9915     67.9560    144.4023   1.2894895175e+02   3.7757941919e+01    0.6156176    0.3606034  62.47  0.002461458    2.123    0.529
        18 -12.5957    247.4950    226.4559   1.0510829166e+02  -1.1025706644e+01     1.055301    0.7655487 -26.01  0.006359815    1.375    0.273
        19  -9.8387    166.8323    131.8855   1.0155216955e+02   2.1927172874e+01    0.5489948    0.2220984 -45.40  0.001866689    2.468    0.595
        20  -8.4475    118.0071    133.3516   1.1376900390e+02   3.2054480134e+01    0.2001789    0.1845469  51.52 0.0002769165    1.114    0.102
        21  -9.7537     90.9732    246.7552   1.3749852118e+02   1.2150054845e+01    0.1609529   0.08603595  45.92 0.0005218054    1.598    0.374
        22  -8.2974    150.3316    132.6532   1.0557734566e+02   2.5466358597e+01    0.1658352    0.1245187 -88.34 0.0007049525    1.763    0.433
        23 -11.3832    202.7556    127.1282   9.2782514709e+01   1.4641503621e+01    0.5409979    0.3606662 -65.91  0.001346385    1.988    0.497
        24  -9.8422    205.3697    122.3219   9.1113262549e+01   1.4983464663e+01    0.4401799    0.2158172 -49.71  0.001399147    2.172    0.540
        25 -10.0826    160.5032    127.8198   1.0200829514e+02   2.4241900275e+01    0.4976268    0.2826066 -45.28  0.002003896    1.754    0.430
        26  -9.6052    135.8723    126.7966   1.0768863982e+02   2.9907539387e+01    0.4310168    0.1745113 -55.31   0.00136716    2.993    0.666
        27  -9.6388    192.0243    125.5042   9.4545440267e+01   1.7438293574e+01    0.3422037    0.1550032  56.46  0.001039457    2.523    0.604
        28  -9.6575    143.0058    124.7300   1.0541592698e+02   2.8828411894e+01    0.3343334    0.1973285 -69.76  0.001171377    2.734    0.634
        29  -9.8644    223.7239    121.3235   8.7480684493e+01   1.1026128264e+01    0.3779725     0.239114  80.97  0.001485708    2.630    0.620
        30 -10.6477    215.3608    116.3808   8.7805402032e+01   1.3834152340e+01    0.6006588    0.3993676 -68.23  0.002366739    2.018    0.505
        31 -12.2642    199.9426    116.5252   9.0750345748e+01   1.7374378228e+01    0.7678078    0.6188758 -21.63  0.003698381    1.406    0.289
        32 -11.8152    205.4808    110.8163   8.8277067494e+01   1.7179474577e+01     0.728132    0.5017214  56.43  0.002959713    1.503    0.335
        33  -8.4565     29.1471    229.8038   1.4684918088e+02   2.3729782944e+01    0.1392346    0.1109535 -84.13 0.0004801659    1.301    0.231
        34 -10.6781    167.7902    114.3443   9.6946989664e+01   2.5408446262e+01    0.5008631    0.4147458 -35.21  0.001376963    1.249    0.199
        35 -10.5854    134.8205    108.4074   1.0327742305e+02   3.4175991889e+01    0.8527607    0.1812902 -45.27  0.002143059    4.647    0.785
        36 -10.4648    198.2911    106.0620   8.8459679673e+01   1.9791953682e+01    0.3530695    0.2154683  38.91  0.001458372    1.918    0.479
        37  -9.1509    177.1116    103.1499   9.1995022087e+01   2.5453117781e+01    0.3586804    0.2394678 -88.46  0.001377361    2.371    0.578
        38  -9.6665    142.1315    102.5515   9.9872210472e+01   3.3794809681e+01    0.2908872    0.2058409  -1.23  0.001167271    2.261    0.558
        39 -13.2227      8.9813    205.5839   1.4863575573e+02   3.0723598441e+01    0.8093217    0.5671457  84.24   0.00398321    1.023    0.022
        40  -9.9306    147.8710     97.8122   9.7174686074e+01   3.3457980107e+01    0.3759939    0.2976542  18.68  0.001083718    1.560    0.359
        41  -9.4427    123.5920    101.5527   1.0434994721e+02   3.8028590989e+01    0.3754059    0.2216644  16.35  0.001233105    3.555    0.719
        42  -8.9757    163.6198     95.8621   9.2983276006e+01   3.0135404263e+01    0.2339956    0.1406305 -51.21 0.0009480985    1.779    0.438
        43  -9.2346    134.4092     94.9575   9.9715172502e+01   3.7077972877e+01    0.2819299    0.2260347  60.20 0.0008753762    1.338    0.253
        44  -8.3581    209.4432     93.9296   8.3353556845e+01   1.9389698327e+01    0.2073905    0.1182562 -60.11 0.0007993816    2.197    0.545
        45  -8.6972    220.0013     91.7217   8.1012711654e+01   1.7285103214e+01    0.2084328    0.1854056  82.70 0.0005389295    1.139    0.122
        46 -10.6038    158.6835     89.3486   9.2298107525e+01   3.2580446488e+01    0.5617714    0.3703261  27.39   0.00208103    2.046    0.511
        47 -10.2220    142.0007     86.5557   9.5433875689e+01   3.7033355337e+01     0.315473    0.2950948  78.56 0.0006278021    1.128    0.114
        48 -10.1865     47.6145    208.4105   1.4176965800e+02   2.5865891550e+01    0.2695307    0.1610354 -42.92  0.001359695    2.944    0.660
        49 -11.9948    194.4975     61.4879   7.7579031330e+01   2.8593909072e+01     1.051636    0.6105193  30.20  0.003982974    2.922    0.658
        50  -9.8626    174.0292    203.4796   1.1505096106e+02   5.6575243460e+00    0.2267981    0.2021968 -47.88  1.67302e-05    1.229    0.187
        51  -9.2935    163.6969     78.9635   8.8272123849e+01   3.3296929720e+01     0.504683    0.1680436 -50.15  0.001372145    4.354    0.770
        52  -9.7627    203.8617     81.0487   8.1068913629e+01   2.3029289393e+01    0.5034437    0.2967894 -87.90  0.001674054    2.867    0.651
        53 -11.6876    156.7190     78.6913   8.9725642684e+01   3.5037580004e+01    0.3892126    0.3298134 -40.14 0.0008227249    1.201    0.168
        54  -9.1493    139.7110     77.5777   9.3376544189e+01   3.9247090024e+01    0.2640783    0.1825365 -59.16 0.0009638094    1.760    0.432
        55  -8.0434    222.6375    145.2876   9.3212963362e+01   6.7718894795e+00    0.1468536     0.117116 -82.99 0.0007023489    1.691    0.409
        56  -9.3754    150.9702     71.8471   8.9032601477e+01   3.7631782061e+01     0.272809    0.2258651 -30.25  0.001387132    1.267    0.211
        57 -10.1821    222.5111     69.0288   7.5098155539e+01   2.0540640198e+01    0.4763792    0.2972257  69.19  0.002244738    1.660    0.397
        58  -9.8583    148.1407     65.1948   8.7698632387e+01   3.9439316711e+01    0.2809689    0.2657886   8.48 0.0008176229    1.110    0.099
        59  -9.5116    249.7495     66.9607   7.0954233555e+01   1.4627493639e+01    0.3628134    0.2564758 -59.67  0.001966836    1.306    0.234
        60  -8.8364    192.1991    144.0132   9.8919408912e+01   1.3647546858e+01    0.2282707    0.2029628 -75.10 0.0004233462    1.248    0.199
        61  -8.5156    221.6524     63.8660   7.3972378147e+01   2.1569495715e+01    0.2380785     0.184877  55.44 0.0007683836    1.359    0.264
        62 -10.6611    243.2693     58.7989   6.9927415825e+01   1.7328140733e+01    0.4316573    0.3038784 -62.86  0.001329067    1.337    0.252
        63 -10.3884    248.2177     54.9587   6.8485539556e+01   1.6798571595e+01    0.4743527    0.3423776 -43.73  0.002662341    1.299    0.230
        64 -10.2753    144.3350     59.1728   8.6739048065e+01   4.1322358619e+01    0.3157247    0.2635217 -58.59 0.0006086749    1.342    0.255
        65 -10.0502    133.5000     59.8460   8.9493480986e+01   4.3729504982e+01      0.28915     0.205175  50.08  0.001423959    1.358    0.264
        66  -9.7353    128.6788     57.8390   9.0046331697e+01   4.5139449402e+01    0.2635514    0.2033772  57.49 0.0005464973    1.336    0.251
        67  -8.5135     72.6089     58.3002   1.0649855830e+02   5.5716233245e+01    0.1759867    0.1120599 -31.52 0.0006180221    1.474    0.321
        68  -9.0257    158.9715    142.4692   1.0586594324e+02   2.1398734939e+01    0.3475071    0.1948062 -62.61   0.00126324    2.431    0.589
        69  -9.7604    136.2172     53.2711   8.6780549525e+01   4.4138089214e+01    0.3339176    0.1844272 -42.87  0.001459702    1.949    0.487
        70 -13.8534     41.2290    181.2569   1.4028662942e+02   3.2557667819e+01     1.894602      1.32962 -32.19   0.00140371    2.430    0.588
        71 -10.9754    186.2027    139.1743   9.9047928588e+01   1.5984767059e+01    0.4917594    0.3423809  -3.72  0.001236754    2.323    0.570
        72 -13.3357     51.5372    172.7802   1.3706591683e+02   3.3249192678e+01      1.16868     1.063911 -31.70  0.002688437    1.522    0.343
        73  -9.3548    174.3233     48.8805   7.7632698377e+01   3.5546246125e+01    0.2571108    0.2165398 -85.77 0.0006256869    1.234    0.189
        74 -10.1979     91.3643     42.8758   9.5236688097e+01   5.5057073425e+01    0.2230449    0.1832875  46.61 0.0007657545    1.328    0.247
        75  -9.0937    101.0057    175.9824   1.2628118840e+02   2.5225389022e+01    0.1931915    0.1740696  85.14            0    1.015    0.015
        76  -9.8631    234.7507    174.1010   9.7241525972e+01  -8.2358016574e-01    0.3290064    0.2281807  41.68  0.001207278    1.476    0.323
        77  -9.5540    167.1490     28.5757   7.3101155954e+01   4.0008889313e+01    0.4103602    0.2147738 -48.24  0.001823039    2.175    0.540
        78  -7.9977    203.6903    152.7019   9.8554240272e+01   9.3934593698e+00    0.1508763    0.1180378   5.63 0.0002951469    1.597    0.374
        79  -9.5401    215.8554    168.6122   9.9641531070e+01   3.8314624458e+00    0.3106546    0.2317885  61.66  0.001240982    1.640    0.390
        80  -8.6478    120.2509    148.7497   1.1657168559e+02   2.8047072003e+01    0.1946182      0.17344 -28.14 0.0004792818    1.306    0.234
        81  -9.5181    211.9897    166.4898   9.9940561906e+01   5.0097435340e+00    0.3697786    0.2431273  70.73  0.001383846    2.463    0.594
        82 -10.0996    248.6924    158.3124   9.1427773211e+01  -7.3043666361e-01    0.2347308    0.2110174 -52.90 0.0009301943    1.255    0.203
        83  -9.5467    193.9054    196.6173   1.0971079850e+02   3.0584025520e+00    0.5642819    0.2679646 -62.69  0.001448898    7.138    0.860
        84 -12.6133    247.3445    238.9852   1.0733767905e+02  -1.2630624503e+01    0.8446878    0.6383141  10.21  0.003621092    1.113    0.102
        85  -9.4367    133.2249    141.5624   1.1180572977e+02   2.7115646593e+01    0.7484771    0.2210051 -57.36  0.001664401    6.344    0.842
