#   1 NUMBER                 Running object number                                     
#   2 MAG_AUTO               Kron-like elliptical aperture magnitude                    [mag]
#   3 X_IMAGE                Object position along x                                    [pixel]
#   4 Y_IMAGE                Object position along y                                    [pixel]
#   5 X_WORLD                Barycenter position along world x axis                     [deg]
#   6 Y_WORLD                Barycenter position along world y axis                     [deg]
#   7 A_WORLD                Profile RMS along major axis (world units)                 [deg]
#   8 B_WORLD                Profile RMS along minor axis (world units)                 [deg]
#   9 THETA_WORLD            Position angle (CCW/world-x)                               [deg]
#  10 FWHM_WORLD             FWHM assuming a gaussian core                              [deg]
#  11 ELONGATION             A_IMAGE/B_IMAGE                                           
#  12 ELLIPTICITY            1 - B_IMAGE/A_IMAGE                                       
         1 -11.7217    207.4776     32.4333   4.6615340547e+01   2.9544991265e+01    0.8873659     0.621805 -57.39  0.004614402    1.400    0.286
         2 -11.8335    224.1942     13.9906   4.0095164048e+01   2.7738076055e+01    0.6996002    0.5989407 -67.09  0.002823935    1.025    0.024
         3 -10.1291      2.0646      5.0524   9.7258205627e+01   7.3613620847e+01    0.4904349    0.1078559 -48.74  0.002116389    3.336    0.700
         4 -10.4370     95.3881    245.7467   1.1507805216e+02   1.1895417419e+01    0.3307113    0.1200908  44.89  0.001343071    2.129    0.530
         5 -11.6648    247.7295    244.3444   8.7340513743e+01  -1.0757750549e+01    0.9359163    0.4992345 -17.08  0.005602549    1.961    0.490
         6 -10.3866    100.6790    249.9956   1.1452006447e+02   1.0430282091e+01    0.4200876    0.1579202  37.28  0.001872352    2.448    0.592
         7 -12.5705     31.5682    247.3869   1.2621525320e+02   1.9724614548e+01     1.440338    0.4857334  39.84  0.007871875    2.503    0.600
         8 -14.3049      5.1352    143.0307   1.2441985206e+02   4.3816363638e+01     6.881472     1.641332 -81.37   0.02333684    4.368    0.771
         9 -11.9674    244.6346    209.5449   8.1946770058e+01  -6.1525743025e+00    0.7102334    0.5198339 -15.75  0.004561864    1.241    0.194
        10 -10.5206    221.9633    234.5001   9.0202823972e+01  -5.9673406898e+00    0.6260896    0.3217456  16.42  0.003064563    2.424    0.587
        11 -13.0630    229.3204    222.3002   8.6876140520e+01  -5.5118126013e+00     2.044103     1.436234 -10.56   0.01280266    1.386    0.278
        12  -8.2674     35.6749    234.3051   1.2478628153e+02   2.1616467492e+01    0.1182453   0.05886498  64.61 0.0005531006    1.645    0.392
        13  -8.3775     76.4835    233.4897   1.1743045993e+02   1.6692178470e+01    0.1174758   0.09312297  63.53 0.0001356418    1.030    0.029
        14  -8.4858    110.3164    229.6804   1.1064161968e+02   1.2489985181e+01     0.128106   0.08081741  65.61 0.0003256454    1.658    0.397
        15 -11.8608     22.9641    224.1181   1.2638992734e+02   2.4908853935e+01    0.5501084    0.2682897  69.06  0.003352304    1.702    0.413
        16  -9.6610     28.7844    220.9957   1.2518141317e+02   2.4893226657e+01    0.2042734    0.1168798  84.33 0.0007791601    1.468    0.319
        17 -11.1958     27.6783    214.6944   1.2498738067e+02   2.6245544196e+01    0.4744069    0.2013539  72.20  0.001582129    2.313    0.568
        18 -10.6174     85.3425    223.8361   1.1485288720e+02   1.7260293866e+01    0.2962278    0.2355299  49.27  0.001980599    1.176    0.150
        19 -10.4942     47.8022    223.9386   1.2194220382e+02   2.2163834564e+01    0.2563967    0.1763004  71.69 0.0003681478    1.155    0.134
        20  -9.6546     44.9461    219.5066   1.2214310089e+02   2.3363829413e+01    0.2094587    0.1623203  43.37 0.0009055738    1.414    0.293
        21  -9.2763     95.2033    223.7936   1.1293280318e+02   1.5839976857e+01    0.1826863    0.1467034 -12.46   0.00107828    2.155    0.536
        22 -10.5028     73.4987    218.8796   1.1666713289e+02   1.9862993816e+01    0.3701575    0.1956204  62.95   0.00158507    1.825    0.452
        23 -10.9255    199.5080    197.7293   8.8072515724e+01   2.9450083011e+00     1.109905    0.4922244  28.93  0.004401615    2.723    0.633
        24 -12.9256      4.9457    245.1682   1.3033602650e+02   2.2870371660e+01     1.199294    0.7022435  78.18  0.006830739    1.252    0.202
        25  -9.3161     91.8333    233.6931   1.1458772878e+02   1.4509911915e+01    0.2295015    0.1563801 -84.10 0.0003419257    1.576    0.366
        26  -9.0077     89.8478    229.8932   1.1458994095e+02   1.5486095485e+01    0.1645474    0.1421501  58.51 0.0002576429    1.136    0.120
        27 -10.2168     62.3561    181.7126   1.1513745580e+02   2.9156620549e+01    0.3549023    0.2484846 -34.33  0.001271349    2.271    0.560
        28 -10.1612     67.6574    175.9541   1.1326335496e+02   2.9756242220e+01    0.3132315    0.2238279 -49.83 0.0009733328    1.637    0.389
        29 -12.6319     10.3025    231.7832   1.2891883043e+02   2.4749520573e+01     1.257605    0.4850497  64.97   0.00723443    2.102    0.524
        30  -9.9262     77.3271    165.8167   1.0964879177e+02   3.0748537185e+01     0.247538    0.2093216 -61.65 0.0004340073    1.219    0.180
        31 -12.0416      5.5790    185.0352   1.2732044835e+02   3.4466658817e+01     1.008236    0.3764924  83.97  0.002239274    2.600    0.615
        32 -11.6525     64.6450    162.0429   1.1217782252e+02   3.3372271106e+01     0.482014     0.277662 -46.69  0.001376705    2.071    0.517
        33 -10.9624     83.7697    159.8095   1.0718273340e+02   3.1209360384e+01     0.496062    0.3715729 -44.98   0.00130337    1.530    0.346
        34 -13.0793      8.8254    207.4180   1.2797404679e+02   2.9566867607e+01     1.114485    0.8339222 -80.01  0.004950678    1.323    0.244
        35 -11.5251     68.1395    144.1504   1.0867034994e+02   3.7177796559e+01    0.6687085    0.4377964  72.10  0.002891792    1.757    0.431
        36 -10.5279     86.5757    142.9508   1.0362567569e+02   3.4797483695e+01    0.2921337    0.2395465 -47.89 0.0004980331    1.278    0.218
        37  -9.1845     98.6094    144.2195   1.0071676124e+02   3.2552187106e+01    0.2157934    0.1274659 -48.68 0.0007510145    1.703    0.413
        38  -9.0848    109.3716    132.2754   9.5442094945e+01   3.3511816261e+01    0.2667793    0.1926429  25.92 0.0008143657    1.670    0.401
        39  -9.1396     96.8186    128.5830   9.8037270572e+01   3.6597396994e+01    0.2700083    0.2199335 -28.08 0.0007646102    1.459    0.315
        40 -11.4285     35.1750    210.3743   1.2330833226e+02   2.6297347537e+01    0.3963155    0.3118239 -64.95   0.00128942    1.524    0.344
        41  -7.9585    106.5576    120.4913   9.3539644465e+01   3.6812731728e+01    0.1509462    0.1422873 -55.97  0.000142769    1.024    0.023
        42 -13.6057     44.9540    199.7960   1.2058754530e+02   2.7367472799e+01     2.070112    0.8882412  61.71  0.009986752    2.344    0.573
        43  -8.1712    168.3257    113.6351   7.6161551468e+01   2.5326933063e+01    0.1657215    0.1252245 -77.41 0.0001971697    1.798    0.444
        44 -11.3885    249.3466    216.3203   8.2353699629e+01  -7.7098294289e+00     1.089839    0.3000772 -30.89  0.004253563    3.865    0.741
        45  -8.4405     73.1241     84.0424   9.4354926973e+01   5.0864318775e+01    0.2185981    0.1731659  83.17  0.001089462    1.725    0.420
        46  -9.1858     13.3720     60.1918   1.1000785277e+02   6.2373188487e+01    0.1685426   0.09829642 -70.02 0.0003455491    1.639    0.390
        47 -10.3831      2.0000     49.5527   1.1215283791e+02   6.5243388184e+01    0.5182725   0.05177043 -64.96   0.00132621    7.755    0.871
        48  -8.8941    138.4760     44.4808   6.2117078901e+01   4.5243524380e+01     0.247179    0.1921254 -71.19 0.0006267268    1.636    0.389
        49  -9.7343      2.1784     37.5458   1.0899622028e+02   6.7693434789e+01    0.2870218   0.08339883 -62.61  0.001233823    2.914    0.657
        50 -11.6406    199.8434     37.7987   4.9070887731e+01   3.0732591702e+01    0.7476969    0.4696869  65.33  0.003473895    1.559    0.358
        51 -11.2973     82.6994    246.9395   1.1745882754e+02   1.3462663823e+01    0.4237125     0.373921 -72.69  0.003241577    1.419    0.295
        52 -10.9434    214.4043     24.3759   4.3688983294e+01   2.8860103844e+01    0.5952925     0.362033  34.11  0.001151259    2.449    0.592
        53  -9.8826      2.0000     24.9569   1.0520827998e+02   7.0138406651e+01    0.3136394   0.05041186 -58.33  0.001052643    4.946    0.798
        54  -9.7735     64.7455    239.7384   1.2007056250e+02   1.7111782890e+01    0.2702329    0.1634687  34.27   0.00119364    1.851    0.460
        55  -8.9272    189.4826     15.4687   4.4169625870e+01   3.6051204606e+01    0.1372824    0.1237226 -86.55 5.510094e-05    1.012    0.012
