#   1 NUMBER                 Running object number                                     
#   2 MAG_AUTO               Kron-like elliptical aperture magnitude                    [mag]
#   3 X_IMAGE                Object position along x                                    [pixel]
#   4 Y_IMAGE                Object position along y                                    [pixel]
#   5 X_WORLD                Barycenter position along world x axis                     [deg]
#   6 Y_WORLD                Barycenter position along world y axis                     [deg]
#   7 A_WORLD                Profile RMS along major axis (world units)                 [deg]
#   8 B_WORLD                Profile RMS along minor axis (world units)                 [deg]
#   9 THETA_WORLD            Position angle (CCW/world-x)                               [deg]
#  10 FWHM_WORLD             FWHM assuming a gaussian core                              [deg]
#  11 ELONGATION             A_IMAGE/B_IMAGE                                           
#  12 ELLIPTICITY            1 - B_IMAGE/A_IMAGE                                       
         1 -10.7519     76.4716     20.3985   7.1298581437e+01   6.2104407914e+01    0.5449446    0.3126041  51.48   0.00273197    1.963    0.491
         2 -10.5009    100.4788      3.5119   5.6637517112e+01   5.9057031995e+01    0.2242095    0.1185559  57.55 0.0007592203    1.755    0.430
         3 -12.0189     98.2082     14.7509   6.2069208162e+01   5.8435164711e+01      1.01092    0.4496144 -40.91  0.004230864    2.734    0.634
         4  -9.7413     41.1467     12.8299   8.1811940392e+01   6.8706307491e+01    0.3028614    0.1878182 -14.92 0.0009126157    1.521    0.342
         5 -10.9808    103.7617      9.6066   5.8418598337e+01   5.7756403784e+01    0.2752911     0.250684  73.80  0.001195379    1.293    0.226
         6 -10.2155     85.0098     11.4479   6.4448546594e+01   6.1539605641e+01    0.3847391    0.2055565  58.41  0.001829808    2.146    0.534
         7 -10.0300     78.2136     11.1812   6.6480938310e+01   6.2899613125e+01    0.3304573    0.1922854  59.41  0.001634481    2.176    0.540
         8 -10.4286     58.2370     10.0347   7.3126391142e+01   6.6569204154e+01    0.4419529    0.2304821  51.83  0.002178211    2.517    0.603
         9  -9.0593     48.5194     10.6777   7.7461060677e+01   6.7981999714e+01    0.1792846    0.1504243  51.78  0.001161265    1.784    0.439
        10 -12.5799    117.7998      9.3410   5.5015858781e+01   5.4560562341e+01    0.8746437    0.4339018  68.54  0.003781336    2.233    0.552
        11  -9.3972     35.7102      6.8441   8.1319907550e+01   7.0231586729e+01    0.3113418    0.1868531 -43.38   0.00180094    2.011    0.503
        12  -8.6614     29.4490      9.8254   8.5912093203e+01   7.0558440506e+01    0.1924731   0.08026414  34.44 0.0009769854    2.618    0.618
        13 -11.1176     72.3878      6.6380   6.6259783346e+01   6.4494026459e+01    0.3661338    0.2857953  58.98  0.002051388    1.626    0.385
        14  -9.8665     65.1435      1.9966   6.6473362050e+01   6.6294220071e+01    0.3704743    0.2157099  65.29  0.001751541    3.009    0.668
        15 -10.0383    123.1360      1.8904   5.1009202390e+01   5.3955517689e+01    0.2811493    0.1733214  61.39 0.0009038466    1.456    0.313
        16  -9.8968    187.4883      5.4859   4.2697350644e+01   3.7399973287e+01    0.1359169      0.12146  84.09 0.0008103176    1.021    0.021
        17  -9.5587    144.5913      4.7100   4.8243578731e+01   4.8424770040e+01    0.1854933    0.1225802 -36.38 0.0009494504    1.641    0.391
        18 -10.1978    135.0333      5.4675   5.0136898250e+01   5.0744779344e+01    0.2169714    0.1233032  64.61  0.001033948    1.600    0.375
        19 -10.1708    160.7685      3.0913   4.5292713553e+01   4.4458776722e+01     0.256244    0.1889222  20.51  0.001371028    1.624    0.384
        20 -10.4422    104.9980      3.1796   5.5404235493e+01   5.8077460107e+01    0.2298331    0.1867824  -8.00 0.0009391907    1.271    0.214
        21 -10.7940     80.3354      2.2475   6.1591935517e+01   6.3404927922e+01    0.3781064    0.1726931  51.09  0.001818674    1.994    0.498
        22 -10.1986     92.2997      9.5883   6.1466126488e+01   6.0240452958e+01    0.3262658    0.2203168  67.48   0.00135536    1.853    0.460
        23 -10.7959    227.7825      2.5708   3.8121083412e+01   2.7768096902e+01    0.3716602    0.1462391  77.26  0.001599972    2.442    0.591
        24 -11.2788    118.1830      3.6721   5.2694460817e+01   5.4985985511e+01    0.4751361    0.2269487  72.51  0.001989124    2.474    0.596
        25  -9.8358    148.7429      2.5855   4.6864395340e+01   4.7562340731e+01    0.1938003    0.1226444  82.09 0.0009457624    1.649    0.393
        26 -10.8178    130.0576      2.2587   4.9852848901e+01   5.2246208805e+01    0.4610206    0.1670593  68.12  0.001745346    2.716    0.632
        27  -8.9531     54.3938      1.9057   7.0485861558e+01   6.8133272711e+01    0.1991138    0.1715862  70.74  0.001282531    1.961    0.490
        28 -10.6112    168.3189      2.7211   4.4176303460e+01   4.2559891984e+01    0.3191359    0.1828217  76.67  0.001527043    1.648    0.393
        29  -9.8989    139.2995      2.4309   4.8312110860e+01   4.9948071290e+01    0.2706022    0.1102535  61.37  0.001130224    2.057    0.514
        30 -10.7231    100.0008    218.6470   1.1252364638e+02   1.6461631628e+01    0.4830244    0.2511559  68.54  0.002259178    2.458    0.593
        31 -11.3514    166.8481    248.4291   1.0345827109e+02   9.2856099520e-01    0.4204731    0.3127986  37.34  0.002238973    1.061    0.057
        32 -10.9691    167.9565    242.4916   1.0247579164e+02   1.5865393350e+00    0.3581393    0.1748521  42.99  0.001126907    1.651    0.394
        33  -9.1918     75.3535    219.9120   1.1745152246e+02   1.9818463472e+01    0.2103234    0.1306714  54.74 0.0005157792    1.323    0.244
        34  -9.2277    143.4600    216.3074   1.0356603961e+02   9.8051975719e+00    0.2771056    0.1570311 -45.63  0.001420538    2.109    0.526
        35  -8.6784    175.6195    215.8259   9.7135296590e+01   4.3269372238e+00    0.1577212    0.1250033 -58.27 0.0005045398    1.621    0.383
        36 -10.0366     79.0610    211.0196   1.1585468778e+02   2.1032576340e+01    0.2531988     0.144456  44.04  0.001038673    1.560    0.359
        37  -9.6360    202.5589    209.3375   9.0874627171e+01   6.6604722228e-01    0.2745087    0.1932279   7.33  0.001156928    1.584    0.369
        38  -8.4192    115.5136    210.4655   1.0842245086e+02   1.5557234674e+01    0.1316549    0.1089854  60.19 6.691078e-05    1.045    0.043
        39  -8.8762    134.9120    208.3956   1.0416737748e+02   1.2690677900e+01    0.2809097    0.1014616  47.49   0.00110602    2.523    0.604
        40  -8.9730    212.4506    207.2704   8.8656760073e+01  -7.1654609318e-01    0.2651072    0.1433784  49.24  0.001280378    2.096    0.523
        41  -9.1602     11.1720    207.5496   1.2848649088e+02   2.9781872418e+01    0.2086543    0.1114463  20.89  0.001143972    3.330    0.700
        42  -8.4954     99.3314    206.6256   1.1125828293e+02   1.8886485849e+01    0.1407381   0.08511109  70.19 0.0007024806    1.843    0.457
        43  -9.2056     89.1870    199.5339   1.1251286365e+02   2.1873366357e+01    0.2486798    0.1676765  72.37 0.0009008261    1.471    0.320
        44  -8.4647    250.7782    197.9573   8.0120569835e+01  -5.6683431054e+00    0.1577273   0.09129095 -27.51 0.0006325063    1.638    0.390
        45 -11.2618    172.9610    195.6579   9.4306349007e+01   8.1717107782e+00    0.5957811    0.3628826  55.48  0.002051986    1.880    0.468
        46  -9.4797    174.2801    191.6877   9.3332457936e+01   8.6264082250e+00    0.2211453    0.1582529  52.81  0.000488415    1.450    0.311
        47  -9.7079    126.4929    197.3081   1.0430703045e+02   1.6258856040e+01    0.2763053    0.2352451  19.57    0.0013103    1.419    0.296
        48  -8.2580    112.3053    197.6546   1.0737834810e+02   1.8595720804e+01    0.1397639   0.09330826  72.16 0.0007041822    1.692    0.409
        49  -8.7989     67.4341    195.4233   1.1660542351e+02   2.5841648513e+01     0.283727    0.1103799  59.75  0.001131898    3.060    0.673
        50  -9.6061    180.7494    193.6120   9.2360882682e+01   7.0874732647e+00    0.2149909    0.1744554 -73.47 0.0006654176    1.716    0.417
        51  -8.8332     44.7580    194.2079   1.2115572969e+02   2.8959287854e+01    0.2125829   0.08912501  66.56 0.0009423749    2.692    0.628
        52  -8.7615    139.2137    189.8136   1.0040780367e+02   1.5477582759e+01    0.2331979    0.1429724  76.31  0.000945001    2.794    0.642
        53 -10.0002    203.7212    188.4209   8.6843746062e+01   3.7171214196e+00    0.3687163     0.212765  53.45  0.001695467    2.122    0.529
        54 -10.6398     95.9401    187.5225   1.0953359823e+02   2.3351997508e+01    0.6237395    0.2613665  57.25  0.002096682    2.913    0.657
        55  -9.0472    156.7972    188.1330   9.6353618272e+01   1.2553120355e+01    0.2117312    0.1837447  65.50  0.001208391    1.227    0.185
        56  -8.9966     55.6853    187.5581   1.1826654081e+02   2.9056408877e+01    0.2982443     0.119915  63.22  0.001202553    3.104    0.678
        57  -8.9314    124.6291    192.0561   1.0391695400e+02   1.7628721846e+01    0.1833012    0.1690349 -88.86    0.0004753    1.115    0.103
        58  -8.6660    120.6768    187.2415   1.0404072135e+02   1.9299726443e+01    0.1833403    0.1234423 -50.35 0.0009369291    1.637    0.389
        59  -9.2720    208.5318    185.4928   8.5352291762e+01   3.3100299273e+00    0.3330804    0.2037541 -10.17   0.00150274    2.268    0.559
        60 -10.2450    212.1059    182.2734   8.4038633749e+01   3.1736537371e+00    0.2816138    0.2762869   7.04  0.001029209    1.223    0.183
        61  -9.4102    109.2313    185.9352   1.0637210371e+02   2.1527928176e+01     0.350483     0.177409  67.31  0.001309233    3.170    0.685
        62  -9.2941    198.9540    185.4814   8.7210174346e+01   5.0808543566e+00    0.2101065    0.1258974  40.64 0.0006544859    1.554    0.357
        63  -9.1971    197.4976    182.0283   8.6827793969e+01   5.9350218180e+00    0.2375855    0.1755563 -40.99 0.0006573505    1.458    0.314
        64 -10.6695     13.7489    183.3921   1.2655432707e+02   3.4493622491e+01    0.3455951    0.2536627 -28.96  0.002161231    2.471    0.595
        65  -8.5117     75.0306    184.5235   1.1375080319e+02   2.7133771103e+01    0.1958267   0.08413307  57.09 0.0008099735    2.545    0.607
        66  -8.8680    174.3098    182.9171   9.1715258788e+01   1.0200704182e+01    0.2686225    0.1275926 -51.31  0.001085854    2.539    0.606
        67  -8.6979     44.9880    183.0000   1.2009128921e+02   3.1342232552e+01    0.1817224   0.06536585  34.61 0.0007364697    2.905    0.656
        68  -8.6349    183.3482    181.2960   8.9537695520e+01   8.7589525777e+00    0.1452506    0.1055013  10.57 0.0007033425    1.677    0.404
        69  -8.7978    156.8452    181.3911   9.5138331962e+01   1.3836143389e+01    0.1953819     0.126755  32.96 0.0004623569    1.576    0.366
        70  -8.7357    147.7932    181.2017   9.7070784532e+01   1.5593104115e+01    0.2333934    0.1488564  78.23  0.000938328    2.734    0.634
        71 -10.6129    204.6550    176.1949   8.4262021278e+01   5.5673169577e+00    0.3716494    0.2627444 -23.57  0.001079813    1.491    0.329
        72  -9.6080     77.4796    176.2794   1.1216810193e+02   2.8606874013e+01    0.4249059    0.1561155  52.59  0.001628522    2.949    0.661
        73  -9.5029     13.8069    177.5918   1.2614676135e+02   3.5729104018e+01    0.1615942   0.08396845  50.08 0.0009583755    1.760    0.432
        74  -9.6288    106.3224    176.0158   1.0552468530e+02   2.4150353063e+01     0.306223    0.1469265  60.10  0.001150768    2.736    0.635
        75  -8.8363     60.3224    177.3166   1.1616077120e+02   3.0719632481e+01     0.274609    0.1103428  54.95  0.001161178    2.615    0.618
        76  -8.1083    182.6879    175.3440   8.8511491256e+01   9.9625120512e+00    0.1399505    0.1147357  86.01 0.0007046361    1.705    0.414
        77  -9.6370    149.1270    175.2114   9.5690385176e+01   1.6539413147e+01     0.296405    0.1947809  30.77  0.001300947    1.660    0.398
        78  -8.9547     22.4982    174.9566   1.2414984463e+02   3.5493757394e+01    0.3281932   0.04808288  42.70  0.001233419    4.319    0.768
        79  -8.8713      4.0224    175.1518   1.2796535863e+02   3.7092937728e+01     0.198898   0.08455438  59.91  0.001077259    2.117    0.528
        80  -8.7437     93.3520    174.2892   1.0825034652e+02   2.6650268828e+01     0.127593    0.1097196 -15.30 0.0007025863    1.670    0.401
        81  -8.7203     36.0060    174.5141   1.2122409702e+02   3.4218277491e+01    0.1802117   0.07074097  55.64 0.0008102726    2.547    0.607
        82  -8.5484    193.3504    173.2854   8.5918395921e+01   8.2485254373e+00    0.1469701    0.1057972  11.31 0.0003681278    1.658    0.397
        83 -10.4938    208.2686    169.5051   8.2189919299e+01   6.0101976522e+00    0.4933422    0.3093785  -0.74   0.00210648    2.393    0.582
        84  -9.0144    122.2768    170.3388   1.0090401418e+02   2.2599543449e+01    0.2940583     0.188912  72.03   0.00103441    2.066    0.516
        85  -8.9999     56.0939    170.5699   1.1634000758e+02   3.2776299492e+01    0.2811604    0.1375228  59.43  0.001209766    2.154    0.536
        86  -8.6095     15.5169    170.4607   1.2527331057e+02   3.7127094348e+01    0.1174899   0.08986279  87.58 5.075611e-05    1.034    0.033
        87 -10.3005    214.3125    167.8480   8.0684411536e+01   5.1301139715e+00    0.3723088    0.2236536 -22.52  0.001205769    1.873    0.466
        88  -9.5509    219.2650    165.7538   7.9310672890e+01   4.5349463026e+00     0.282769    0.2257138 -83.00  0.001420985    2.108    0.526
        89  -8.9867    139.8719    165.5878   9.5968872049e+01   2.0319298585e+01    0.2851105    0.1902362  83.18  0.001148444    2.364    0.577
        90  -8.9199     99.7870    166.6420   1.0556571575e+02   2.7327177095e+01    0.3701222   0.08998369  46.72  0.001094286    4.200    0.762
        91  -9.3933     80.7649    164.9157   1.0983334551e+02   3.0705987274e+01    0.4119992    0.2063507  70.58   0.00154884    3.156    0.683
        92  -8.4557     38.2030    165.3760   1.1984694714e+02   3.6037278741e+01    0.1680002   0.09792624  50.31 0.0005286245    1.653    0.395
        93  -9.2271    149.0410    164.2092   9.3606063415e+01   1.8813467398e+01    0.2831735    0.1972757  60.54  0.001325768    1.608    0.378
        94  -8.3078    186.2639    163.3249   8.5312998649e+01   1.1472001039e+01    0.1446637    0.1111827  -0.69 0.0003209198    1.563    0.360
        95  -9.2691      9.6121    161.4544   1.2585678797e+02   3.9620490536e+01    0.3216756    0.1229688  72.32  0.001410027    3.014    0.668
        96  -9.3473     93.2558    160.9026   1.0620648076e+02   2.9702163103e+01    0.3139423    0.1847141  64.49  0.001235424    2.017    0.504
        97  -8.3641     62.6449    161.3283   1.1366771098e+02   3.4063497667e+01    0.1441803   0.08750527  70.69 0.0007045671    1.777    0.437
        98  -8.7250     32.1886    161.0583   1.2078262406e+02   3.7649055731e+01    0.2155366    0.1116307  77.46 0.0008301476    2.015    0.504
        99  -8.9169     24.3480    160.5861   1.2252043294e+02   3.8521496761e+01    0.2279884   0.06330118  45.69 0.0009539779    3.272    0.694
       100  -8.5873    205.5127    159.5508   8.0618637474e+01   8.2771481790e+00    0.1450015    0.1314872   6.57 0.0001600467    1.036    0.035
       101  -9.3250    106.3664    158.6862   1.0264079652e+02   2.8023755366e+01    0.3395537    0.1913687  62.96  0.001401271    2.256    0.557
       102  -9.8591     51.1203    156.1520   1.1577492268e+02   3.6706291956e+01    0.4396989     0.192518  56.23    0.0019078    2.570    0.611
       103  -9.8689    213.3829    155.2189   7.8154645465e+01   7.4644538856e+00    0.2882964     0.236328  29.11   0.00111172    1.197    0.165
       104  -9.6836     82.7850    155.5605   1.0791759091e+02   3.2576750000e+01    0.3617125    0.1974259  65.31  0.001526134    2.356    0.576
       105  -9.3095     68.6472    154.4485   1.1125277768e+02   3.4871714265e+01    0.3433997    0.1806797  63.29  0.001280764    2.307    0.567
       106  -9.0763    134.1354    153.8656   9.5008855485e+01   2.3972022411e+01     0.329001     0.216108  79.81  0.001327944    2.387    0.581
       107  -8.5278     91.6744    152.3170   1.0516392224e+02   3.1952286306e+01    0.1491112     0.102699  75.14 0.0007044632    1.673    0.402
       108  -9.3488     29.2934    150.5227   1.2038024009e+02   4.0358904362e+01    0.4016383    0.1603999  76.97  0.001429706    4.137    0.758
       109  -9.0902     22.9818    151.9818   1.2202378048e+02   4.0610389107e+01    0.2562596   0.09428507  66.11 0.0009436272    4.007    0.750
       110  -8.4176     99.3080    151.6373   1.0313010767e+02   3.0856239280e+01    0.1529776    0.1059425  79.58 9.159417e-05    1.742    0.426
       111  -9.9635     40.8362    148.4003   1.1733243011e+02   3.9684216775e+01    0.5458122    0.2124978  53.72  0.002285338    2.940    0.660
       112  -8.9116    229.8156    149.1297   7.3781733098e+01   5.2640207634e+00     0.208051    0.1863189 -45.53 0.0006827096    1.267    0.210
       113 -10.1277    108.0221    145.8596   9.9849533900e+01   3.0693625549e+01    0.6699537    0.3391565  67.20  0.002086183    4.076    0.755
       114  -9.0646     79.8486    147.9415   1.0741978654e+02   3.4814689742e+01    0.4100704    0.1310059  47.19   0.00141169    3.356    0.702
       115 -10.2802     57.2302    146.4917   1.1296958983e+02   3.8244452190e+01    0.6188229    0.2776275  63.59  0.002332335    3.342    0.701
       116 -10.1724    149.5697    145.5839   8.9596053270e+01   2.2654987470e+01    0.5397176    0.3336499  85.36  0.001748363    3.791    0.736
       117  -9.2669     13.7454    146.8304   1.2371088317e+02   4.2580398000e+01    0.2385917     0.120719  45.59  0.000827616    2.017    0.504
       118  -8.6709    195.3278    146.2990   7.9712978692e+01   1.2786114129e+01    0.1529672    0.1144595   8.25  0.000346955    1.637    0.389
       119  -9.6833     88.7093    144.6233   1.0456894055e+02   3.4241199083e+01    0.3756564    0.2070096  59.84  0.001144751    2.218    0.549
       120  -9.2543    126.1105    143.9282   9.4911794763e+01   2.7762087976e+01    0.3382219    0.2226236  80.45  0.001358301    2.350    0.574
       121  -8.2734    218.3116    143.3198   7.4566360127e+01   8.5399418471e+00    0.1495169    0.1089895   4.80 0.0007036578    1.647    0.393
       122  -9.6653    196.7727    142.8185   7.8622912753e+01   1.3131983267e+01    0.2038567    0.1828675 -77.51 0.0006620871    1.358    0.263
       123  -9.2061      3.5351    142.7044   1.2575215615e+02   4.4288580847e+01    0.1883313    0.1088902  60.01 0.0006365339    1.694    0.410
       124  -8.9287     70.1391    141.4700   1.0886454411e+02   3.7753094329e+01    0.3434167    0.1588983  67.01  0.001097935    4.318    0.768
       125  -8.9909    215.1716    140.1817   7.4432557705e+01   9.7364198368e+00    0.1943995    0.1785388  87.50  0.001066168    1.355    0.262
       126 -10.0331     24.1829    138.9840   1.2038476725e+02   4.3517435305e+01    0.4416864    0.2008109  64.37  0.002016258    2.665    0.625
       127 -10.2396     40.0258    136.6834   1.1604608635e+02   4.2543382774e+01    0.3342561    0.1955106  46.48  0.001302571    1.805    0.446
       128  -9.0398    113.5407    134.0523   9.6000319228e+01   3.2437982484e+01    0.3177805    0.1795787  72.25  0.001040152    3.529    0.717
       129 -10.4552     84.6860    132.6169   1.0339959179e+02   3.7742879761e+01    0.6255801    0.2593614  50.70  0.002300663    2.882    0.653
       130  -9.6909    133.5892    132.6445   9.0553991434e+01   2.8817752412e+01      0.47612    0.2683261  60.43  0.001807014    2.329    0.571
       131  -9.3275    144.3526    132.5878   8.7884191262e+01   2.6580777931e+01     0.304875    0.1348242  57.18 0.0009501185    3.235    0.691
       132  -8.8239    153.9953    130.5078   8.5076211767e+01   2.4954378594e+01    0.3205659    0.1982386 -79.64  0.001039773    3.484    0.713
       133 -10.0748    100.6527    129.1247   9.8360186713e+01   3.5934161025e+01    0.6357901    0.3502367  64.03  0.002154548    2.770    0.639
       134 -10.3419     74.5399    130.3789   1.0574612557e+02   3.9802348404e+01    0.4153382    0.1982862  53.98  0.001662408    2.591    0.614
       135 -10.0820     13.8343    130.1379   1.2205139618e+02   4.6426146938e+01    0.4100511    0.2014737  60.79  0.001932063    2.277    0.561
       136  -8.3831    169.3260    130.6389   8.1577742851e+01   2.1540782248e+01    0.1620276    0.1245438 -82.53 0.0007041813    1.788    0.441
       137  -8.7124      2.9852    130.5112   1.2483188441e+02   4.7101443677e+01    0.1646977   0.06822061  53.07 0.0008100079    2.630    0.620
       138 -10.8975     61.1189    125.7369   1.0863118442e+02   4.2744715929e+01    0.6957309    0.3431683  62.34  0.002477878    3.104    0.678
       139  -9.6437    119.6690    126.5383   9.2709253325e+01   3.3006697231e+01    0.6426474     0.291241  59.74  0.001903901    4.000    0.750
       140 -10.9376     45.4748    124.4084   1.1279034931e+02   4.4906714474e+01     0.746432    0.3646221  65.43  0.003016587    3.106    0.678
       141 -10.7376     29.7121    123.3578   1.1700805386e+02   4.6716302753e+01    0.8531805    0.3663445  65.88   0.00321413    3.896    0.743
       142  -8.6587    179.9792    125.4530   7.7966140394e+01   2.0197322532e+01    0.2201822    0.1396546  73.58  0.000808195    2.591    0.614
       143  -8.9714    160.2316    122.9846   8.1763261964e+01   2.5171600593e+01    0.2965823    0.2070505  63.88   0.00127726    1.708    0.415
       144  -9.7147     72.8786    121.1038   1.0442968463e+02   4.2279007202e+01    0.5178537    0.2384891  52.49  0.002022924    2.761    0.638
       145 -10.2371    143.3484    120.3978   8.5163816826e+01   2.9473754677e+01    0.5212849    0.3336812  58.54  0.001590812    1.791    0.442
       146 -10.0159    132.1733    119.8985   8.7858359809e+01   3.1978264682e+01    0.4609945    0.2917644  73.53  0.001714409    2.593    0.614
       147 -10.1980      4.3195    118.4284   1.2330745650e+02   4.9793618744e+01    0.4879568    0.2013307  58.07  0.002279552    3.004    0.667
       148  -9.8171    110.8782    115.6409   9.2474237945e+01   3.7230757395e+01    0.6003629    0.3454072  62.80  0.002276985    2.527    0.604
       149  -8.3900    193.3519    116.6780   7.2981238119e+01   1.8854582813e+01    0.1594324    0.1228549 -77.45  0.000704782    1.751    0.429
       150 -10.6353     95.0254    113.8041   9.6485149628e+01   4.0541946576e+01    0.7430952     0.328841  45.18  0.002416196    2.421    0.587
       151 -10.3802     80.4141    113.9979   1.0076017296e+02   4.2874026132e+01    0.6176529    0.3453593  62.15  0.002460699    2.660    0.624
       152  -9.6193    123.3432    113.4290   8.8540514131e+01   3.5269685118e+01     0.384869    0.1880646  53.71  0.001392387    2.430    0.589
       153 -10.8447     68.3911    111.6727   1.0381019495e+02   4.5176824862e+01    0.6460844    0.2756785  46.85  0.002557387    2.750    0.636
       154 -10.6040     14.8093    110.8762   1.1952105101e+02   5.0855965661e+01    0.4414254    0.2664081  70.59  0.001855586    1.868    0.465
       155  -9.7724    134.2241    110.5545   8.4935932782e+01   3.3620196329e+01    0.3097622    0.2496117 -82.77  0.001444992    1.524    0.344
       156 -10.1982     60.3200    109.9401   1.0587211375e+02   4.6656080917e+01    0.2301655    0.1838526  51.65  0.001304199    1.388    0.280
       157 -11.0775     47.5107    103.8775   1.0858109902e+02   4.9613260332e+01    0.9261317    0.4251997  59.20  0.003356697    3.993    0.750
       158 -11.1106     24.0754    103.5998   1.1574438763e+02   5.1874402691e+01    0.7623228    0.3664397  64.46  0.003261893    3.245    0.692
       159  -9.9079    141.3947    105.8444   8.1844739575e+01   3.3067287975e+01    0.5384144    0.2494994  56.43  0.001819563    2.697    0.629
       160  -9.3635    151.3877    104.8859   7.9118329139e+01   3.0998177640e+01    0.4041133    0.2651579  76.35  0.001531032    2.396    0.583
       161 -10.2473    131.5086    103.4821   8.3743277714e+01   3.5758945883e+01    0.6266614    0.2933898  46.25  0.002316165    2.186    0.543
       162  -9.6463      7.4231    103.7493   1.2074068858e+02   5.2997721129e+01    0.2776249    0.1657595  62.13  0.001599861    1.949    0.487
       163 -10.6416    113.9858    102.0000   8.8098726937e+01   3.9741787679e+01    0.6716808    0.2840898  47.75   0.00238901    2.552    0.608
       164  -9.8848    108.8400     99.1121   8.8773363588e+01   4.1403731235e+01     0.458186    0.3140294  60.02  0.001457202    1.773    0.436
       165  -9.4781     84.2256    101.4748   9.6684517957e+01   4.5240100294e+01    0.4333411    0.2160324  51.96  0.001699997    2.573    0.611
       166 -10.0829     97.5764     98.0525   9.1777899583e+01   4.3753886487e+01    0.6432502    0.2503833  43.06  0.002305421    2.725    0.633
       167 -10.8134     66.4508     97.3946   1.0121795985e+02   4.8834887700e+01     0.848408    0.3781663  41.94  0.003550797    2.512    0.602
       168  -9.7533    140.1606     93.4873   7.8691496548e+01   3.5957253553e+01    0.4603693    0.2626114  66.53  0.001633455    2.655    0.623
       169 -10.1275    126.6225     92.4294   8.1926594186e+01   3.9201236434e+01    0.6439924    0.3186704  57.21  0.002279701    2.605    0.616
       170 -10.6354     37.0167     91.2646   1.0942006495e+02   5.3654950151e+01    0.6241205    0.3274823  35.81  0.003173208    2.201    0.546
       171 -10.1692      8.0730     93.0463   1.1908731969e+02   5.5428036898e+01    0.5531431    0.1609704  27.43  0.002467685    3.793    0.736
       172 -10.4258     88.9971     88.1475   9.1670990076e+01   4.7497351078e+01    0.8463554    0.3903294  52.14  0.003088368    2.977    0.664
       173 -10.6439     50.1715     86.0775   1.0386293035e+02   5.3496490284e+01    0.6388298    0.3652936  61.31  0.002771051    2.889    0.654
       174 -10.3480    107.8322     85.0696   8.5047873939e+01   4.4683734448e+01    0.8422097    0.3833224  54.38  0.002925084    2.952    0.661
       175  -9.0906    142.4180     84.1946   7.5379222948e+01   3.7319628174e+01    0.3794028    0.2250915  69.47  0.001381313    2.542    0.607
       176  -9.3956      8.6230     82.2022   1.1722681661e+02   5.7872678213e+01    0.3969495    0.1265544 -57.73  0.001846087    2.151    0.535
       177  -9.7406     12.7899     82.6076   1.1589044782e+02   5.7534182722e+01    0.3437673    0.1330218  34.38   0.00165975    3.045    0.672
       178 -10.4190     26.0391     81.9026   1.1122102064e+02   5.6766406922e+01    0.4886776    0.2559736  47.81  0.002217351    2.535    0.606
       179  -8.8980    151.6133     81.5483   7.2352004211e+01   3.5645294626e+01    0.2887057    0.1544485  64.31  0.001025478    2.464    0.594
       180  -9.1084    121.3791     81.5775   8.0112901506e+01   4.2602626505e+01    0.4533303      0.15107  51.19  0.001367111    3.467    0.712
       181 -10.0870     76.1454     81.8450   9.4013537533e+01   5.0990538951e+01     0.411557    0.2460922  54.99  0.001812135    2.293    0.564
       182  -9.2149     61.9182     77.8090   9.7690735511e+01   5.3925731949e+01    0.2578261    0.1746033 -79.36  0.001205863    2.137    0.532
       183  -9.7508    130.5549     76.9853   7.6199653152e+01   4.1484614458e+01    0.7090788    0.2775405  56.94  0.002182771    3.400    0.706
       184  -8.9867    143.0197     76.5673   7.2895504384e+01   3.8659288060e+01    0.4500608    0.1536587  51.67  0.001410745    2.976    0.664
       185 -10.4243     84.8415     74.4671   8.8947690242e+01   5.1182430807e+01    0.6997386    0.3793729  57.15   0.00271471    2.916    0.657
       186  -9.6520     44.2888     73.9433   1.0289568794e+02   5.6887755113e+01    0.2724284    0.1745755  46.39  0.001443062    1.978    0.494
       187  -9.3264      8.8387     73.8283   1.1568887992e+02   5.9745028749e+01    0.3119568    0.1535062  39.84  0.001670835    2.598    0.615
       188  -9.0822    116.5042     73.5165   7.8939403695e+01   4.5272765964e+01    0.2672034    0.1470989  58.64 0.0009400643    2.337    0.572
       189  -9.5502    107.7404     73.0561   8.1335203125e+01   4.7193212466e+01    0.4093081    0.2179849  56.66  0.001577331    2.452    0.592
       190  -9.7318     96.7381     72.6452   8.4557637391e+01   4.9431003098e+01    0.4073722    0.2981567  66.09  0.001916142    1.879    0.468
       191 -10.7014     53.5930     71.3622   9.8825178330e+01   5.6401246200e+01    0.6135427    0.3242595  47.19  0.002802653    2.533    0.605
       192  -9.8805     17.9454     71.1191   1.1186044816e+02   5.9789660701e+01    0.3438199    0.1904056  38.08  0.001683453    2.259    0.557
       193  -9.1399    148.8711     69.0973   6.9151436788e+01   3.8626440549e+01    0.4808859    0.1695915  55.08  0.001524585    2.950    0.661
       194  -9.2861    123.9512     67.7212   7.4979647590e+01   4.4753743462e+01    0.3741819    0.2071993  52.50  0.001532141    1.898    0.473
       195  -9.1078    140.4009     67.6073   7.0700015631e+01   4.0947940419e+01    0.3057205    0.1479626  66.70 0.0009600064    3.361    0.702
       196  -9.4599     42.6538     66.6844   1.0154244721e+02   5.8652998859e+01    0.2538962    0.1425698  14.00  0.001246284    2.332    0.571
       197  -9.5963     38.2540     65.1430   1.0278027121e+02   5.9432439011e+01    0.3499118    0.2312841  57.16  0.001837758    2.281    0.562
       198  -9.5955    112.7637     65.0162   7.7204329447e+01   4.7711471358e+01    0.6086612    0.2255193  49.55  0.002083789    2.860    0.650
       199  -9.7486    102.5254     62.3646   7.9339105863e+01   5.0330134339e+01    0.4201777    0.2960283  66.49  0.001918756    1.994    0.498
       200 -10.7093     76.3221     60.9525   8.7431995497e+01   5.5366244739e+01    0.7501869    0.3310807  46.76     0.002989    2.786    0.641
       201  -9.0338     90.5865     60.7154   8.2536523326e+01   5.2943167906e+01    0.2395296    0.1749167  61.76 0.0008364685    1.847    0.459
       202  -9.6762     27.2202     60.6890   1.0584816723e+02   6.1382345852e+01    0.3997959    0.1786661  37.45  0.001936345    2.797    0.642
       203 -10.1484      9.4712     58.7801   1.1238575941e+02   6.3009199619e+01    0.4137372    0.2088213  37.59  0.002266677    2.594    0.615
       204  -8.7569    132.0185     59.0086   6.9947423834e+01   4.4461538245e+01    0.2464494    0.1906621 -77.75  0.001135772    1.752    0.429
       205  -9.6482    121.4278     57.5363   7.2215766261e+01   4.7164191560e+01    0.4386312     0.261968  62.18  0.001823421    2.071    0.517
       206  -9.9240     46.1467     56.8995   9.7289843870e+01   6.0339590228e+01    0.4888227    0.2362214  46.97  0.002121222    3.142    0.682
       207  -8.8432    140.9601     57.1277   6.7124858734e+01   4.2635024552e+01    0.2562769    0.1822465 -89.51  0.001088135    2.053    0.513
       208 -10.0466     56.1155     55.8858   9.3100822830e+01   5.9331172305e+01    0.4049779    0.3185405  76.83  0.002191597    2.076    0.518
       209  -9.5801    108.3902     55.3389   7.5117059661e+01   5.0403640097e+01    0.3875192    0.2172156  56.41  0.001342603    2.114    0.527
       210 -10.3647     64.6178     55.7981   8.9870825005e+01   5.8178758508e+01    0.4686865    0.2417217  44.19  0.002137561    2.344    0.573
       211  -9.0130    100.5135     54.0407   7.7017646486e+01   5.2260448163e+01    0.3751661    0.2273121 -52.66 0.0003517964    2.041    0.510
       212 -10.3201     93.3427     51.8391   7.8469193909e+01   5.4063759696e+01    0.6177406    0.3342826  51.55  0.002676491    2.148    0.534
       213 -10.1684     33.7246     53.1514   1.0109011521e+02   6.2396395133e+01    0.4908013    0.2336119  38.49  0.002405172    2.650    0.623
       214  -9.5363     22.8491     53.8053   1.0573881962e+02   6.3185003570e+01    0.3937649    0.1692934  31.18  0.001966881    2.745    0.636
       215  -9.4109     75.1380     48.6763   8.3466598202e+01   5.7893505223e+01    0.3589759    0.1762395  35.13  0.001586256    2.189    0.543
       216  -9.1622    114.3470     47.9464   7.0743470109e+01   5.0363680542e+01    0.4102481    0.2108188  47.83  0.001723288    1.910    0.477
       217 -10.0333     83.9070     47.8097   8.0083536550e+01   5.6532189437e+01    0.4916746    0.2407389  48.86  0.002087443    2.373    0.579
       218  -9.9960     47.4890     46.0897   9.3109447153e+01   6.2331641449e+01    0.4182413    0.2771255  24.22  0.002381047    1.661    0.398
       219  -9.4682    124.2861     47.1483   6.7794416760e+01   4.8231639976e+01    0.3592152    0.2042957  69.96  0.001376077    2.609    0.617
       220  -9.7720     18.6145     45.9672   1.0528071138e+02   6.5112314076e+01    0.3693923    0.1762922  32.33  0.001969722    2.567    0.610
       221  -9.9873     59.8671     43.8731   8.7350343807e+01   6.1120432697e+01    0.3978841    0.2972091  62.59  0.002107927    2.212    0.548
       222  -8.6531    134.1201     44.3630   6.4373517804e+01   4.6323127018e+01    0.2215617    0.1403726  68.94 0.0009515169    1.890    0.471
       223 -10.2142     71.6144     42.8593   8.2517967043e+01   5.9505991497e+01    0.5276448    0.3076202  52.93  0.002438131    2.419    0.587
       224  -9.6406      6.3839     43.2989   1.0986603138e+02   6.6415513860e+01    0.3094745    0.2198515  71.59   0.00190616    2.233    0.552
       225  -9.7013    108.0617     42.6503   7.0546746577e+01   5.2583315476e+01    0.4595836    0.2292279  53.26  0.001914283    2.106    0.525
       226  -9.8091     38.5257     41.6134   9.5242625019e+01   6.4201662293e+01     0.362904    0.2041776  37.90  0.001836602    2.185    0.542
       227 -10.0712     97.6971     39.5394   7.2421677912e+01   5.5247429449e+01    0.4727793    0.2539573  56.07  0.002037105    2.221    0.550
       228  -9.5897     82.6655     38.2619   7.6779908701e+01   5.8362153776e+01    0.4108472    0.2916677  70.77  0.001941298    2.464    0.594
       229  -9.8850    113.5768     36.1061   6.6524914561e+01   5.2343740692e+01    0.4360931    0.2977232  86.64  0.001875305    2.519    0.603
       230  -9.6477     28.2370     37.0505   9.8114637275e+01   6.6083414571e+01    0.3198668    0.1613953  32.82  0.001715415    2.352    0.575
       231  -9.4331    105.7332     35.9059   6.8619048635e+01   5.4103819584e+01    0.2594158    0.2112138  52.61  0.001023968    1.290    0.225
       232  -9.1781     90.4122     35.5825   7.3132949063e+01   5.7311968442e+01    0.3360783    0.1714508  53.42  0.001452232    2.276    0.561
       233 -10.0790     51.7763     33.8968   8.6660190987e+01   6.4001462544e+01    0.4104775    0.2323369  39.06  0.002158782    2.020    0.505
       234  -9.4082    120.9191     34.2100   6.3900451582e+01   5.0925604594e+01    0.3730416    0.1955091  65.72  0.001492423    2.384    0.581
       235 -10.2924     62.8925     33.6832   8.2105915085e+01   6.2436124535e+01    0.4597043    0.2356066  44.66  0.002191643    2.286    0.563
       236  -9.4599    222.4824     32.5230   4.6041460424e+01   2.5562213725e+01    0.3285408    0.1849637 -52.89 0.0008441376    1.726    0.421
       237 -10.1312     74.9165     32.5663   7.7146386639e+01   6.0642553675e+01    0.5454789    0.2390031  49.78  0.002266633    2.785    0.641
       238  -9.2935     13.7477     31.8662   1.0300881445e+02   6.8220633558e+01     0.234758    0.1816407  38.26  0.001066747    1.785    0.440
       239  -9.8842    103.4341     30.1994   6.7013862729e+01   5.5404297245e+01     0.381192    0.2446251  52.00  0.001889588    1.562    0.360
       240  -9.3841     43.9875     30.6201   8.8615420103e+01   6.5562053255e+01    0.2921289    0.1424872  32.06  0.001481924    2.220    0.550
       241 -10.6320    246.0983    247.8998   8.9501879571e+01  -1.0876287108e+01    0.4003402     0.197536  40.80  0.002341326    1.953    0.488
       242 -10.3379     83.4067     28.8730   7.2646548468e+01   5.9649859837e+01    0.5827318    0.3443291  64.31  0.002504411    2.899    0.655
       243 -10.2178     93.7513     27.8952   6.8928226060e+01   5.7750996177e+01     0.437316    0.3042724  64.81  0.002201713    1.900    0.474
       244  -9.1972      4.6632     28.3965   1.0624244965e+02   6.9438488930e+01    0.2369691     0.148797  45.17  0.001434108    2.543    0.607
       245  -9.1929    111.4693     27.8153   6.3865681979e+01   5.3947694001e+01    0.2784763    0.1875351  51.40  0.001402539    1.426    0.299
       246 -10.0811    107.8627     23.9118   6.3262615645e+01   5.5250016787e+01    0.5518777    0.2338583  61.41  0.002096842    2.811    0.644
       247  -8.4070    119.5233     27.4941   6.1696927412e+01   5.2138070785e+01    0.1395343    0.1326839  31.18 0.0002177318    1.050    0.047
       248  -8.4570     43.8248     25.4261   8.6470357097e+01   6.6447038546e+01     0.210844     0.116399  24.12 0.0006532957    1.955    0.488
       249  -8.9012     40.5186     25.4838   8.7967751554e+01   6.6843886422e+01    0.1876758       0.1138  27.13  0.001075555    1.749    0.428
       250  -9.5298     58.8201     23.2774   7.9190128440e+01   6.4683624241e+01    0.3507903    0.1749771 -43.61  0.001080441    2.239    0.553
       251 -10.4318     51.2436     22.4112   8.1914528443e+01   6.5929732834e+01    0.6037108    0.2264674  39.26  0.002677741    2.846    0.649
       252 -10.5571     65.4857     21.5359   7.5797722695e+01   6.3870085867e+01    0.4315461    0.2904274  47.04  0.002341464    1.726    0.421
       253  -8.9932     35.6597     23.3871   8.9272153882e+01   6.7753883635e+01    0.2073236    0.1077729  35.35  0.001114851    2.216    0.549
       254  -8.8879     20.8033     22.2436   9.5933413366e+01   6.9424809757e+01    0.1606188    0.1263786  73.99 0.0009437521    2.720    0.632
       255  -9.0447     12.7745     21.5869   9.9715379652e+01   7.0176283012e+01    0.1673252    0.1318088  11.05  0.000889719    1.432    0.302
       256 -10.5867    188.9440     19.6438   4.6571941913e+01   3.5534566681e+01    0.3607322    0.1969713  37.65  0.001517058    2.422    0.587
       257  -9.4631     41.2549     19.0966   8.4765013713e+01   6.7768589376e+01    0.2976177    0.1961235  28.99  0.001818022    1.591    0.372
       258  -9.0838    107.5381    248.8695   1.1425509896e+02   1.0047457427e+01    0.1454543    0.1107741 -73.74  0.001009064    1.528    0.346
       259 -10.6786     90.3493     18.0266   6.5754589396e+01   5.9707663989e+01    0.6367621    0.2200143  53.05  0.002456946    2.869    0.651
       260  -9.1695    195.7229    248.5813   9.8287172195e+01  -3.6064839458e+00    0.2350614   0.09082287  36.86  0.001137848    2.086    0.521
       261 -10.7528    114.5060     16.3987   5.8571561036e+01   5.4610054120e+01    0.3254172    0.1807358  49.96  0.001545575    1.612    0.380
       262  -9.7840    108.8809     17.3249   6.0326955523e+01   5.5795532743e+01     0.209565     0.173651  78.99 0.0009617034    1.485    0.327
       263  -9.6334     31.8895     16.9475   8.8151455379e+01   6.9208928680e+01    0.3348871    0.1775441  41.18  0.001774504    2.578    0.612
       264 -11.1669    173.9268    244.2864   1.0162266138e+02   3.7912345993e-01    0.4473553    0.3099684 -71.05  0.002573555    2.525    0.604
       265  -8.6556     24.9508     14.0000   9.0206265381e+01   7.0402168385e+01    0.1647094   0.06201445  28.40 0.0007927933    2.876    0.652
       266  -9.4445    191.9731    217.9510   9.4330103164e+01   1.1912567519e+00    0.2170744    0.1744807 -32.36  0.001040348    1.409    0.290
       267 -10.7282    237.5980    240.6306   8.9785262087e+01  -8.9067040527e+00     0.362697    0.2682445  15.27  0.001606874    1.042    0.041
       268  -9.9432    250.2426    241.6824   8.7831908286e+01  -1.0785955073e+01    0.1925647    0.1395993  -3.97  0.001376498    1.222    0.181
       269 -10.2248    107.9712    237.5868   1.1304365455e+02   1.1852603436e+01    0.4529943     0.235835  88.62  0.002020976    3.504    0.715
       270  -8.5579    160.5589    234.5412   1.0278093883e+02   3.9594168210e+00    0.1240279    0.1012867  40.00 7.314614e-05    1.004    0.004
       271 -10.0824    169.7877    232.3462   1.0073491028e+02   2.7683282133e+00    0.3055979    0.1883844  41.60   0.00141899    1.335    0.251
       272  -9.4544    236.6150    230.7030   8.8345436476e+01  -7.6213924195e+00    0.2479768     0.174105 -40.56  0.001576541    1.914    0.478
       273  -8.6999    115.0000    228.9799   1.1077622411e+02   1.2255895431e+01    0.1777887   0.06993484 -58.84 0.0004715903    2.967    0.663
       274  -8.8007     73.9688    229.4803   1.1857679950e+02   1.8210509927e+01    0.1785176   0.06666116  56.15 0.0008098195    2.515    0.602
       275  -9.0767    171.0936    225.5222   9.9495687493e+01   3.5845824372e+00     0.228663    0.1626549  57.85  0.000317256    1.592    0.372
       276 -11.0211    164.5020    226.3303   1.0087838922e+02   4.5700822135e+00    0.4024685    0.3229805  37.03  0.001964992    1.047    0.045
       277 -10.0888    160.6217    227.2057   1.0174939510e+02   5.0848993048e+00    0.2353272    0.2144447  -0.34  0.001094209    1.263    0.208
       278 -10.8446    127.7216    226.4379   1.0801579587e+02   1.0667236505e+01     0.308246    0.2337528 -23.84   0.00179741    2.055    0.513
       279 -11.3165    125.6195    221.2465   1.0777537816e+02   1.1919675792e+01    0.3856035    0.3203937  32.54 0.0008409466    1.286    0.223
       280 -11.5295     98.9785    226.5137   1.1357887845e+02   1.5161426301e+01    0.4705785    0.3370221  33.34  0.002483496    1.558    0.358
       281  -9.7048    185.1361    226.7074   9.7007458769e+01   1.0514851943e+00    0.2788969    0.1752275 -39.50  0.001446344    1.873    0.466
       282  -9.1954    181.5005    226.5073   9.7662917279e+01   1.6876150681e+00    0.1785871    0.1778754  74.33  0.000937728    1.269    0.212
       283 -10.4693     88.4100    224.9830   1.1544380827e+02   1.7006765135e+01    0.3777864    0.1253032 -60.98  0.001679495    3.219    0.689
       284 -10.1569    108.5722    222.9447   1.1132917718e+02   1.4340528093e+01    0.2719837    0.2252693  -1.57   0.00158386    1.922    0.480
       285  -8.9457    157.3577    221.8964   1.0162128091e+02   6.4891304533e+00    0.1621106     0.155266  27.68 0.0005070738    1.148    0.129
       286 -10.7853    131.3476    215.5156   1.0588337343e+02   1.1997040851e+01    0.4406767    0.2503682 -63.28  0.002169811    2.159    0.537
       287  -9.2695     19.5030    222.4902   1.2783090528e+02   2.6066526821e+01    0.1099108   0.07762294  72.88 1.128349e-05    1.003    0.003
       288  -8.9728    148.9476    220.3031   1.0304316828e+02   8.1846589750e+00    0.2034815    0.1620019 -28.80 0.0006825062    1.608    0.378
       289  -9.0948    115.0049    221.0085   1.0983969004e+02   1.3677837162e+01     0.175875     0.150361  10.52 0.0004878521    1.623    0.384
