#   1 NUMBER                 Running object number                                     
#   2 MAG_AUTO               Kron-like elliptical aperture magnitude                    [mag]
#   3 X_IMAGE                Object position along x                                    [pixel]
#   4 Y_IMAGE                Object position along y                                    [pixel]
#   5 X_WORLD                Barycenter position along world x axis                     [deg]
#   6 Y_WORLD                Barycenter position along world y axis                     [deg]
#   7 A_WORLD                Profile RMS along major axis (world units)                 [deg]
#   8 B_WORLD                Profile RMS along minor axis (world units)                 [deg]
#   9 THETA_WORLD            Position angle (CCW/world-x)                               [deg]
#  10 FWHM_WORLD             FWHM assuming a gaussian core                              [deg]
#  11 ELONGATION             A_IMAGE/B_IMAGE                                           
#  12 ELLIPTICITY            1 - B_IMAGE/A_IMAGE                                       
         1 -11.9384     27.1817     53.9930   9.2057500503e+01   6.3564937041e+01     1.289004    0.7054539 -25.26   0.00167073    1.824    0.452
         2 -11.7118     14.5227     38.3977   9.2965521674e+01   6.7642996797e+01    0.8777626    0.7230902  59.98  0.004937907    2.087    0.521
         3 -11.8794    104.0104     39.4014   5.7119594307e+01   5.3409179012e+01    0.5366854    0.3896211 -39.04  0.000616896    1.532    0.347
         4 -11.0552    116.6377     34.7759   5.2213311218e+01   5.1152571792e+01    0.9258917    0.6336849  48.96  0.003120231    1.306    0.234
         5 -12.4854    107.6058     29.1522   5.2437889036e+01   5.3894696695e+01    0.4802223    0.3587341  21.17   0.00264835    1.429    0.300
         6 -11.9695    105.1879     21.0400   5.0061901115e+01   5.5336070000e+01    0.2899592    0.2506535 -54.51 0.0003681698    1.418    0.295
         7  -9.7650     26.8455     21.5013   7.9552869803e+01   6.9301792579e+01    0.4096098    0.2226841 -29.47  0.002316755    1.642    0.391
         8 -10.2531     30.3923     28.5686   8.0885276056e+01   6.7804744326e+01    0.7154967    0.3452089 -27.10  0.003566185    2.055    0.513
         9  -9.4338      6.6669      8.7251   8.4940888450e+01   7.3211643968e+01    0.2616349    0.1752431  23.83  0.001702775    1.625    0.385
        10 -11.4776     19.0559     28.1929   8.6628494308e+01   6.9057557204e+01    0.4948016    0.2304586 -48.17 0.0007708736    2.159    0.537
        11 -10.5134     15.2657     18.4423   8.4466549774e+01   7.0980571961e+01    0.5212922    0.2735054   5.68  0.002024155    1.978    0.495
        12  -8.4190     23.0604      1.9534   7.1717868883e+01   7.2350885997e+01    0.4014329    0.1691528  40.70 0.0002983883    2.665    0.625
        13 -11.5534      7.4609     15.2433   8.7560527987e+01   7.2160579202e+01    0.5132619    0.3482212  13.39  0.001773839    1.417    0.294
        14 -11.6172     20.7324      6.4953   7.5460592595e+01   7.2084890560e+01    0.3260213    0.2374903 -34.27  0.001956689    1.619    0.382
        15 -11.9225     14.0725     11.1602   8.1681602815e+01   7.2177144802e+01    0.2536803    0.1756626  -1.07 0.0002979525    1.159    0.137
        16 -11.3011     15.4727      5.6028   7.8004805212e+01   7.2792758934e+01    0.5099979    0.2865899 -41.19  0.001775346    2.067    0.516
        17 -10.5718     41.9059     22.3217   7.2488914352e+01   6.7231971843e+01    0.5711262    0.4478947  69.71  0.001092026    2.969    0.663
        18 -11.0510     42.5341     15.4051   6.8926344031e+01   6.8043444035e+01    0.2933927    0.2021648  27.98 0.0005196748    1.280    0.219
        19  -9.8748     43.4644      9.6318   6.5661766540e+01   6.8580471709e+01    0.3205031    0.1841277  11.91  0.001417768    1.831    0.454
        20 -11.0838    166.1145     19.0608   3.8343017434e+01   4.1092431395e+01    0.4938894    0.3675164 -42.21   0.00291053    1.421    0.296
        21 -10.6992    175.6156     13.2662   3.5625262571e+01   3.9430700915e+01    0.6262481    0.2784629  69.88  0.001673621    1.963    0.491
        22  -9.9102    184.9456     13.4460   3.4630699101e+01   3.7231460278e+01    0.3338121    0.2296114 -51.51   0.00197654    1.424    0.298
        23 -11.3450    175.0353     22.6171   3.8128325457e+01   3.8584138359e+01    0.5336096    0.3415041  54.33  0.002892031    1.549    0.355
        24 -10.8162    182.1895     18.4382   3.6182825923e+01   3.7351035962e+01    0.3148288    0.2293534  53.20 0.0006430845    1.454    0.312
        25 -11.5837     61.8325     17.0292   6.1647706886e+01   6.4656107166e+01    0.5852006    0.2978595  30.78 0.0004227005    1.871    0.465
        26 -10.4145    116.9109     15.6766   4.5493445078e+01   5.3178886755e+01    0.2985588    0.2819971  29.94 0.0007311532    1.122    0.109
        27  -9.1908     69.8011     18.7068   5.9501412175e+01   6.2993629294e+01    0.4042073    0.1839391 -39.39  0.001742782    2.741    0.635
        28 -11.1181     25.0803      7.6303   7.3671650867e+01   7.1414329017e+01    0.4291087     0.178801 -42.56    0.0020378    3.190    0.687
        29  -9.9262    212.2958      9.9892   3.1248020320e+01   3.1436526358e+01    0.3218157    0.1795254  82.96  0.001811195    1.626    0.385
        30 -10.6888    218.2828     18.5562   3.2590962361e+01   2.9209194833e+01    0.4189797    0.2438289 -78.85  0.001331999    1.672    0.402
        31 -10.0020    211.5773     15.6461   3.2546003466e+01   3.0986355229e+01    0.4812542    0.1685215 -53.79  0.001669238    2.870    0.652
        32 -11.5947    230.1716     14.4877   3.0770341306e+01   2.7161922157e+01    0.5458156    0.2829815 -62.75  0.002139056    1.750    0.429
        33  -9.8686    145.6130     17.4221   4.0856257499e+01   4.6186393485e+01    0.5246484    0.2829997  58.78  0.002620032    1.588    0.370
        34 -10.4895    145.7941     12.3001   3.9294981848e+01   4.6635790780e+01    0.4357994    0.2498721  66.10  0.001437483    1.492    0.330
        35 -11.5892    244.0366     13.7081   2.9612550142e+01   2.4456024856e+01    0.5959609    0.3984341  40.90  0.002799216    2.571    0.611
        36 -11.7885    236.8051      4.7928   2.8375764253e+01   2.6861426387e+01    0.8194063    0.4374025  89.53  0.004876012    1.707    0.414
        37 -10.1950    247.9928      4.9647   2.7704785024e+01   2.4643176459e+01    0.2470453    0.1640856 -87.00 0.0007569961    1.296    0.228
        38 -10.6640    250.0180      1.5578   2.6957828262e+01   2.4614919933e+01    0.2124431    0.1678217 -77.93 0.0003719554    1.121    0.108
        39  -9.8034     73.1672     14.4215   5.6483653273e+01   6.2800780937e+01    0.4108796     0.216316  26.50  0.001071333    2.033    0.508
        40  -9.6324     69.4343     11.7027   5.6525255948e+01   6.3800435006e+01    0.2477489    0.1667923  35.37  0.001092562    1.239    0.193
        41  -9.5915    106.9083      6.0736   4.4153134105e+01   5.6325762131e+01    0.4113334    0.3807737 -49.62  0.001655428    1.298    0.229
        42  -8.6945    109.1798      1.1905   4.1922300880e+01   5.6183837423e+01    0.2564988    0.1040149  70.11 0.0007035406    2.488    0.598
        43 -11.1772     97.6064     12.8443   4.8829836531e+01   5.7831480144e+01    0.5564637    0.2855884  44.31 0.0009071343    1.669    0.401
        44  -8.7909     97.5283      6.9745   4.6580922046e+01   5.8360929154e+01    0.2113962    0.1415577  36.01 0.0007427052    1.367    0.269
        45  -9.4952     31.7247     12.5504   7.2725734631e+01   6.9935386278e+01    0.2956789    0.1921702  35.92  0.001826727    1.640    0.390
        46 -10.3638    232.7932      5.9322   2.8866229556e+01   2.7551524373e+01    0.2177363    0.1856495 -43.45 0.0007167908    1.360    0.264
        47  -9.6602    218.9798     11.6870   3.1065842796e+01   2.9817366045e+01    0.2756197    0.1306209 -43.98  0.001483464    1.869    0.465
        48 -10.9988    133.1610     12.6506   4.1426781646e+01   4.9625688838e+01    0.2197223    0.2002141  39.32 0.0002184495    1.153    0.133
        49  -9.8507    128.0263      9.2168   4.1203481922e+01   5.1150752873e+01    0.4092121    0.2950526 -28.83  0.002000625    1.591    0.371
        50 -10.1609     79.0446     11.8201   5.3504609295e+01   6.1879717691e+01    0.2203711    0.1670733  -4.32 0.0003617544    1.372    0.271
        51  -8.9776     51.3443     12.7126   6.3780150044e+01   6.6960771914e+01    0.2127864    0.1381958 -33.10  0.001251105    1.754    0.430
        52 -10.7695    191.8198      8.4744   3.2732109923e+01   3.6151902368e+01    0.4744692    0.3243629 -47.16  0.001407628    1.436    0.304
        53 -10.6098    195.9702      3.4881   3.1189820166e+01   3.5698632973e+01    0.4703049    0.2480591  67.83  0.001385284    1.680    0.405
        54 -10.1749    224.3096      9.6162   3.0218019147e+01   2.8912320962e+01    0.2789799    0.1383659 -49.26  0.001149711    1.737    0.424
        55  -9.4978     56.0334     10.4387   6.0804490433e+01   6.6402068621e+01     0.210645    0.1441014   2.72 0.0005758563    1.413    0.292
        56  -9.6347    165.9374      9.1951   3.5700684817e+01   4.2113107405e+01    0.2897155    0.1762829 -35.78  0.001373825    1.766    0.434
        57  -9.1596    119.9090      8.7537   4.2515038594e+01   5.3100976156e+01     0.286093     0.174626 -30.51  0.001550182    1.860    0.462
        58 -10.6489     90.2613      1.9428   4.6339654757e+01   6.0352184624e+01    0.4155682    0.1920025  62.52  0.001378114    1.993    0.498
        59  -8.9058     90.5476      9.1607   4.9171442552e+01   5.9703274845e+01    0.2733212    0.1684839  26.39 0.0009617707    1.671    0.401
        60  -9.4407     87.8080      6.0650   4.8631224710e+01   6.0555169681e+01    0.2461125    0.1624611  60.14 0.0009836257    1.429    0.300
        61  -8.9823      1.2646      8.3461   8.8162324329e+01   7.3698673718e+01    0.1755006   0.08249764 -44.84 0.0005445311    1.976    0.494
        62  -9.5377     69.1266      7.0154   5.4517860264e+01   6.4303376897e+01    0.1959343    0.1466018  37.65  0.000322326    1.105    0.095
        63  -9.8743     69.7923      2.1880   5.2114771123e+01   6.4587087424e+01    0.3855212    0.1379129  43.66  0.001755575    2.210    0.548
        64  -9.2696     74.3398      8.2930   5.3421998019e+01   6.3157879718e+01    0.2620659    0.1236248  45.26 0.0008636162    1.727    0.421
        65 -10.6911     73.9471      3.1956   5.1292479810e+01   6.3675232171e+01    0.4109354    0.2648108  -2.58  0.001959548    1.688    0.408
        66 -10.7982    208.6711      3.8403   3.0208289602e+01   3.2852423208e+01    0.4213435    0.3062518 -55.30  0.001795018    1.255    0.203
        67  -9.9545     61.7955      6.4345   5.6756102059e+01   6.5753284179e+01    0.3403328    0.2094442  57.78  0.001879502    1.895    0.472
        68  -9.3036    200.7012      8.2524   3.1859464298e+01   3.4170105250e+01    0.2876002    0.1920082  78.10  0.001753266    1.313    0.239
        69 -10.1975    153.3367      5.2360   3.6187417195e+01   4.5465256749e+01    0.2379151    0.2042331  46.51 0.0007235068    1.253    0.202
        70  -9.4525     39.1718      4.7101   6.5095793776e+01   6.9781059553e+01    0.3070014    0.2305732  34.59  0.001450801    1.343    0.255
        71 -10.8711    159.9051      2.8196   3.4701398560e+01   4.4112907173e+01     0.408611    0.2650781  74.69  0.001429418    1.310    0.237
        72  -8.9711    166.3593      1.3871   3.3580720242e+01   4.2712948903e+01    0.3529371    0.1380387  73.90  0.001578216    2.231    0.552
        73 -10.5811     30.9863      3.2719   6.8276670774e+01   7.1140899578e+01    0.2414622    0.1769159 -33.78 0.0007695418    1.736    0.424
        74 -10.4751    217.9468      2.4614   2.9208827733e+01   3.0994145787e+01    0.3433764    0.2061449  89.61  0.002090734    1.452    0.311
        75 -11.4636    179.7278      2.1058   3.2370886038e+01   3.9531884995e+01    0.2767262     0.175426  78.57 0.0004152008    1.345    0.257
        76  -9.5242    127.4486      1.8866   3.8918653706e+01   5.1884444603e+01    0.3369086    0.1316494  46.52  0.001107906    2.385    0.581
        77  -8.7405    135.6711      1.5788   3.7551537530e+01   4.9965767033e+01    0.1940392    0.1216151  44.95 0.0007529404    1.563    0.360
        78 -10.0493    115.7957      1.9363   4.0936564749e+01   5.4604643163e+01    0.1969012    0.1541968  60.22 0.0003548504    1.069    0.064
        79  -8.0878     82.4531      2.4320   4.8543092075e+01   6.1982880430e+01    0.1262109    0.1007578  39.29 0.0002088801    1.013    0.013
        80  -9.6169     55.8721      1.4578   5.6514922132e+01   6.7288276366e+01    0.1755873    0.1063008  36.14 -7.184528e-05    1.335    0.251
        81  -8.9455     49.8987      2.1706   5.9171738474e+01   6.8280674290e+01    0.1670208    0.1432485  21.82 0.0005348905    1.193    0.161
        82  -8.3749    186.0111      1.0000   3.1502969398e+01   3.8187546456e+01    0.1960528   0.05958059  73.29 0.0004476448    2.834    0.647
        83  -9.5914     13.8443    109.8223   1.1027020020e+02   5.1790503580e+01    0.2891623    0.1798627 -67.00 0.0004015208    1.335    0.251
        84  -9.5606    201.6647    249.5533   8.4444712168e+01  -6.2250755003e+00    0.2378831    0.1617199   8.34 0.0006311474    1.311    0.237
        85 -10.3430    115.9495    248.5073   1.0202645829e+02   6.3927803864e+00    0.2570442    0.2335365  39.71  0.001054295    1.074    0.069
        86  -9.3543    236.9845    121.2818   5.2936532534e+01   1.0000790539e+01    0.1871522    0.1758137 -37.07  0.001176246    1.102    0.093
        87 -10.2377     61.8169    120.4915   9.5968475084e+01   4.4403762925e+01    0.2970821    0.2331614 -49.11 0.0003392314    1.165    0.142
        88  -9.1038     62.7867    115.8318   9.4621948730e+01   4.5447004873e+01    0.2990867    0.1963783 -87.28 0.0005811341    2.250    0.556
        89 -10.5430     62.8770    110.8536   9.3451177464e+01   4.6673419175e+01    0.2907003    0.2217263 -49.98 0.0002600332    1.194    0.162
        90  -9.7530     57.9601    108.0348   9.4498308679e+01   4.8019091031e+01     0.214452    0.1935802 -40.65  0.000321251    1.013    0.012
        91 -10.5691     62.4642    104.9511   9.2181264397e+01   4.8176583272e+01    0.3487649    0.2846228  -0.20 0.0007209789    1.342    0.255
        92  -9.1974     93.7213    119.0595   8.5291752661e+01   3.9820623853e+01    0.2891411    0.2299997 -19.61  0.001348818    1.417    0.294
        93  -9.8977     43.9616    119.2954   1.0169443939e+02   4.6842036145e+01    0.3957172    0.2047774  32.10   0.00123125    2.090    0.522
        94 -10.3611      3.8364    117.0717   1.1458319947e+02   5.0585258022e+01    0.3662654    0.2762148 -62.02  0.002201738    1.083    0.076
        95  -8.9207     67.4152    118.2265   9.3609824699e+01   4.4209440701e+01    0.2057455    0.1394102 -69.60 0.0004323531    1.625    0.385
        96  -8.7143    239.3114    117.3255   5.1735921953e+01   1.0263605897e+01    0.1325092    0.1010443  -8.24 0.0006191386    1.660    0.397
        97  -9.4440     70.3309    115.9748   9.2122329916e+01   4.4354469258e+01    0.2594989    0.2039978  62.95 0.0003999516    1.568    0.362
        98 -10.0234     47.7909    115.3698   9.9622023892e+01   4.7415275561e+01      0.42182    0.2586452  47.10  0.001061873    1.944    0.486
        99  -9.4047     48.7849    111.9623   9.8571148602e+01   4.8157901398e+01    0.2640788    0.1901455 -53.96 0.0007380066    1.226    0.184
       100  -8.8121     76.4244    114.4743   8.9739393534e+01   4.3811214847e+01    0.2582741     0.145032 -65.62 8.530422e-05    2.123    0.529
       101 -10.4167     32.1093    112.0506   1.0437102409e+02   4.9833113714e+01    0.3359267     0.255347  86.17  0.001359809    1.524    0.344
       102  -8.9625    121.0579    111.4820   7.5118484843e+01   3.6335957103e+01    0.2469854    0.2066521 -44.16 0.0004690292    1.176    0.150
       103  -8.1071     40.3626    112.2328   1.0154840001e+02   4.8998709534e+01    0.1397603    0.0969043 -27.11 0.0002362567    1.587    0.370
       104 -10.4579      2.9679    109.7659   1.1392155927e+02   5.2428991389e+01    0.4081784    0.2741881  89.60  0.001628553    1.516    0.340
       105 -10.5493      7.5797    108.9531   1.1226525677e+02   5.2382081042e+01    0.4012518    0.2990016 -76.72  0.000545231    1.210    0.174
       106  -9.0020    103.1155    108.3371   7.9580800399e+01   4.0645608611e+01    0.2794175    0.2033945 -34.69 0.0007372132    1.401    0.286
       107  -9.1462     39.5122    102.5487   9.9848588393e+01   5.1486398886e+01    0.2617637    0.1571723 -35.74 0.0009777698    1.675    0.403
       108  -9.8823     36.5061    107.5831   1.0197372720e+02   5.0539827649e+01    0.4496064    0.2604123 -32.77  0.002103864    1.877    0.467
       109 -10.0173     35.0173    103.4911   1.0167558657e+02   5.1692478171e+01    0.3823887    0.2006078  34.80 0.0008604127    2.137    0.532
       110 -10.4421     41.7933     99.4789   9.8336469097e+01   5.2000716828e+01    0.6842743    0.1993974  35.19  0.002390507    3.604    0.723
       111  -9.7482     51.3456    102.3077   9.5506941457e+01   5.0242234028e+01    0.2557605    0.1957739 -20.41 0.0008057812    1.392    0.282
       112  -9.7346     50.5476     99.6144   9.5156499903e+01   5.0989958672e+01    0.4233092    0.2525992 -19.66  0.001029826    2.190    0.543
       113  -9.4319     91.6030    105.7270   8.2510855995e+01   4.3385828730e+01    0.3707879    0.2602239 -83.03  0.001512351    2.307    0.567
       114 -10.0836     71.6049    104.5669   8.8899959874e+01   4.6957975659e+01    0.4577768    0.3004763  39.38  0.001488102    1.640    0.390
       115  -8.9248     45.9968    105.7263   9.8205831675e+01   5.0019804170e+01    0.4719303    0.2615499  -8.24  0.001881841    2.826    0.646
       116  -9.4305     83.9570    105.0357   8.4834283925e+01   4.4875248907e+01    0.2719035    0.2067321 -35.48 0.0003038352    1.292    0.226
       117  -9.6156    132.1264    104.0071   7.0011268122e+01   3.5623344013e+01     0.251679    0.2229945  38.22    0.0012595    1.138    0.121
       118 -11.6519    101.9223    102.0555   7.8218909666e+01   4.2314143264e+01    0.5225801    0.4144446 -33.02 0.0006711011    1.260    0.206
       119 -10.9859    110.7743     99.7412   7.4858363927e+01   4.1075367386e+01    0.7657441    0.4971394  68.56  0.002137158    2.534    0.605
       120  -9.2107     28.9751    103.0529   1.0377058747e+02   5.2339777672e+01    0.2284739    0.1364704 -35.05  0.001124984    1.691    0.409
       121  -8.6672    126.4938    102.0988   7.1008426023e+01   3.7258248662e+01    0.3860277     0.186459  30.89  0.001274467    2.863    0.651
       122  -9.3986     80.4911     95.2744   8.3327428215e+01   4.7724850857e+01    0.3669232    0.2981565  78.47  0.001788616    1.721    0.419
       123  -8.7580     80.8143    101.7850   8.5016820872e+01   4.6164908420e+01    0.2043109    0.1894481  18.57 0.0003069772    1.110    0.099
       124  -9.7904     78.7730     99.0055   8.4956122357e+01   4.7149125747e+01    0.2978969    0.2262771  18.68  0.001059662    1.424    0.298
       125  -9.8373      6.9679     89.4951   1.0938998703e+02   5.7119997206e+01    0.4891839    0.2981839 -68.71  0.001458835    1.427    0.299
       126  -9.9865     16.8734     99.0476   1.0741020251e+02   5.4236808152e+01    0.4805321    0.2731837  10.91  0.002431804    2.099    0.524
       127  -9.9405      2.0669     92.3770   1.1170167204e+02   5.6676218469e+01      0.34525    0.2058611  53.75 0.0003814524    2.264    0.558
       128  -9.8152     13.4351     96.0267   1.0813040641e+02   5.5189738596e+01    0.2821346    0.2160932 -44.59 0.0005344706    1.141    0.123
       129  -9.9541      2.2214     87.0476   1.1076796088e+02   5.7929319427e+01    0.4395371    0.1300175 -56.67  0.001890105    2.255    0.557
       130 -10.4395      2.4491     80.4729   1.0951814408e+02   5.9451049464e+01    0.4005066    0.2322619 -66.72  0.001591692    1.462    0.316
       131  -9.8771      8.9823     98.4805   1.1017104718e+02   5.4859385208e+01    0.3796453    0.2564339 -86.37  0.001972394    1.588    0.370
       132  -9.8255      3.9832     97.7497   1.1184852483e+02   5.5299074072e+01    0.5594385    0.1927832 -63.03  0.001837448    2.105    0.525
       133 -10.2532     57.3928    100.0090   9.2766663380e+01   5.0045081907e+01    0.5023412    0.2366619 -32.40  0.001837692    2.774    0.640
       134 -11.3313    117.6894     97.9788   7.2320223549e+01   4.0025439592e+01    0.2859884    0.2661633  30.70 0.0003397636    1.075    0.070
       135  -9.9569    137.7647     97.0706   6.6584412794e+01   3.5828640572e+01    0.2936176    0.2193104 -20.63  0.001029657    1.567    0.362
       136 -10.1003    125.4221     97.2408   6.9923722028e+01   3.8525842263e+01    0.3693486    0.2539546  27.07  0.001595197    1.693    0.409
       137  -9.2041    171.0713     96.9730   5.8828712467e+01   2.8226803138e+01    0.2232901    0.2136031 -28.35            0    1.065    0.061
       138  -8.8574    150.0771     97.1141   6.3548919613e+01   3.3022865465e+01    0.2267429    0.2064308  10.08  0.001159775    1.192    0.161
       139  -9.6979     46.9801     92.4191   9.4717301141e+01   5.3123234412e+01    0.3695418    0.1743441 -49.92  0.001232618    1.818    0.450
       140 -10.5379     42.5148     88.2409   9.5372904319e+01   5.4599716166e+01     0.603789    0.3024692  18.32  0.001537018    2.317    0.568
       141 -10.8512     53.3472     57.3185   8.1608780368e+01   5.9865275280e+01     1.115015    0.4597574 -51.89  0.003279986    2.887    0.654
       142 -10.6286     51.5612     82.9145   9.0432449978e+01   5.4767918573e+01    0.4151204    0.3146003  37.81 0.0006474147    1.504    0.335
       143 -10.9801     44.8814     80.8776   9.2495158442e+01   5.6024361433e+01    0.9130749    0.3739219  23.75  0.003606348    2.724    0.633
       144 -13.2060     52.8885     74.4403   8.7427736227e+01   5.6460729835e+01     0.689027    0.3854897 -58.11  0.001538047    2.025    0.506
       145 -10.9236     45.2054     68.7089   8.8799043236e+01   5.8637161424e+01    0.3827604    0.2085036 -39.10 0.0002158871    1.651    0.394
       146 -11.4357     31.5918     93.4471   1.0080389933e+02   5.4444161656e+01     0.468412    0.4241389 -48.32  0.001982811    1.078    0.073
       147 -11.3629     29.8379     85.8330   9.9747924545e+01   5.6399304215e+01    0.9222128    0.4701395 -23.51  0.003166674    2.436    0.589
       148  -8.6504    155.3336     95.9378   6.1994126351e+01   3.2048788952e+01    0.2158598    0.1977549 -36.28 0.0004456233    1.085    0.078
       149  -8.4484    130.2812     96.3495   6.8344471792e+01   3.7646771904e+01    0.1597056    0.1232611  -3.64 0.0007013903    1.647    0.393
       150  -9.1521     86.8134     96.2187   8.1450593534e+01   4.6425922563e+01    0.2125455    0.1730298 -15.11  0.000675644    1.309    0.236
       151  -9.5634     23.2954     94.5816   1.0418224407e+02   5.4857846085e+01    0.2650936    0.2164644 -46.59  0.001414961    1.040    0.038
       152  -8.5340    166.7914     94.3750   5.9036776799e+01   2.9707088966e+01    0.2085962    0.1403813  41.52 0.0002872324    1.590    0.371
       153  -9.6451    134.9608     91.2824   6.5649230627e+01   3.7633890263e+01    0.2633526    0.2194173 -31.34 0.0002137851    1.224    0.183
       154  -8.3141    106.1835     91.3358   7.3797653512e+01   4.3826167222e+01    0.2219662    0.1401214  50.24 0.0007979045    1.736    0.424
       155  -9.5261     52.5043     90.3303   9.2090700445e+01   5.2953668232e+01    0.2299994    0.1906288 -68.73 0.0005581065    1.369    0.270
       156 -10.5318     86.7093     88.4878   7.9227820273e+01   4.8161758861e+01    0.3556611    0.3415949 -13.08 0.0005535245    1.057    0.054
       157  -8.8577     87.0087     83.6734   7.7662458540e+01   4.9140348396e+01    0.2134089    0.2083816  83.49 0.0004379121    1.209    0.173
       158  -9.3242     73.3828     79.6258   8.1201693005e+01   5.2344811605e+01    0.3718944    0.2304653 -27.34  0.001227677    1.783    0.439
       159 -10.3676     71.1755     88.7534   8.4741883517e+01   5.0702788347e+01    0.4185939     0.244475 -54.30 0.0004376345    1.764    0.433
       160 -11.2952     79.5472     83.4250   8.0167255331e+01   5.0507272454e+01     0.782953    0.3513073  34.49  0.003041379    2.314    0.568
       161  -9.1331     58.2100     87.9524   8.9294714242e+01   5.2763904822e+01    0.2656308    0.2001435 -71.26  0.001179099    1.665    0.399
       162 -10.0639     15.6644     87.9940   1.0577529470e+02   5.6967000665e+01    0.3446476    0.3141176 -12.75  0.001472999    1.211    0.175
       163  -9.6672    132.9706     82.6789   6.3630104081e+01   3.9767265502e+01    0.3950517    0.2575321 -59.31  0.001391097    1.961    0.490
       164 -11.6822    128.3590     85.6155   6.5716863488e+01   4.0243519832e+01     1.045468    0.4131008  48.18 0.0007925969    2.525    0.604
       165 -11.0750    123.7692     86.4388   6.7207962953e+01   4.1102799266e+01    0.4861504    0.4080478 -57.54  0.001971802    1.319    0.242
       166  -8.8805     97.5500     87.2351   7.5272097913e+01   4.6407234063e+01    0.2116353    0.1403865 -31.91  0.000602449    1.575    0.365
       167 -10.3376    154.9797     85.0086   5.9030488849e+01   3.4219992814e+01    0.4305434    0.2815342 -23.37   0.00166508    1.876    0.467
       168 -10.2891    153.1503     80.8314   5.8252933651e+01   3.5416007172e+01    0.3228551    0.2166895  51.82 0.0007958933    1.477    0.323
       169 -10.1082    149.4997     80.5167   5.8985074564e+01   3.6332451723e+01    0.2585024    0.2292067   8.44 0.0009191248    1.274    0.215
       170  -9.4585    104.2635     85.6045   7.2656639125e+01   4.5415260614e+01    0.2921888    0.2289997  -9.07 0.0002186964    1.467    0.318
       171  -9.8598     65.6024     85.6091   8.5866485746e+01   5.2250162486e+01    0.2918445    0.2461834  -4.15 0.0006203982    1.189    0.159
       172  -9.3586    140.9337     82.3136   6.1528082803e+01   3.8002617938e+01    0.2140104    0.1962588  42.40  0.000340353    1.081    0.075
       173  -9.9924     20.0885     79.4426   1.0217990362e+02   5.8656602550e+01    0.4267873    0.3420205 -44.29  0.001335273    1.018    0.018
       174  -9.0418     17.9340     72.5430   1.0144536232e+02   6.0372594607e+01    0.3205554    0.2023668 -43.70  0.001101655    1.282    0.220
       175  -9.3252    106.7660     80.2321   7.0220812947e+01   4.5986937907e+01    0.2869256    0.2158194  37.54  0.001390957    1.315    0.239
       176  -8.7333     63.0452     79.9739   8.5154089879e+01   5.3864604872e+01    0.1764218    0.1509175 -33.30 0.0009251234    1.071    0.066
       177  -9.5059    137.3164     78.9652   6.1423203754e+01   3.9463593116e+01    0.3325073     0.216543  40.55  0.001464269    1.576    0.365
       178  -9.4611    141.5074     75.4948   5.9371500002e+01   3.9115815254e+01    0.2449582    0.1487477 -24.92  0.000607265    2.005    0.501
       179 -10.7164    145.5113     71.2819   5.7188335282e+01   3.8909720156e+01    0.5926921    0.3208928 -30.39  0.001749724    2.070    0.517
       180 -10.6447    143.1741     66.8795   5.6401085830e+01   4.0209635744e+01    0.4277016    0.3262135  21.85  0.001850417    1.600    0.375
       181 -11.0088     89.8956     73.7718   7.3535656226e+01   5.0622554614e+01    0.6223768    0.3803604 -29.52  0.001828483    1.763    0.433
       182 -10.3495     94.4229     69.9999   7.0792037259e+01   5.0469830830e+01    0.4586707     0.331834 -29.30  0.001489389    1.403    0.287
       183  -9.1941     12.4281     77.0950   1.0480004214e+02   5.9701843274e+01    0.4122332    0.1168133 -61.66  0.001011734    2.748    0.636
       184  -9.1038    171.8260     77.6343   5.3495081831e+01   3.1571539567e+01    0.2318665    0.1453804  57.52  0.001046652    1.609    0.378
       185 -10.7759    179.8013     75.0279   5.1317084000e+01   3.0141722696e+01    0.4059386    0.2975536  44.25  0.001156021    1.486    0.327
       186  -9.5818    175.0158     75.0346   5.2191392120e+01   3.1263834689e+01    0.2188984    0.2075209  89.62            0    1.029    0.028
       187  -9.4217    110.7102     77.0738   6.8042356343e+01   4.5771633115e+01    0.2909485    0.2178065  33.85 0.0006879218    1.340    0.254
       188 -10.3363     27.7385     76.3802   9.8280567047e+01   5.8748987176e+01    0.3834302    0.2816523 -22.05  0.001164032    1.310    0.237
       189  -9.4838    184.7574     75.9575   5.0686237154e+01   2.8831452496e+01    0.1982417    0.1777184 -52.55 0.0003542254    1.070    0.065
       190  -8.6550    126.3017     75.3538   6.3140607836e+01   4.2655735643e+01    0.1570052    0.1181896   7.67 0.0007038652    1.704    0.413
       191  -8.6462     68.5196     74.8413   8.1492322186e+01   5.4126762282e+01     0.208443     0.134095 -44.51 0.0006362316    1.490    0.329
       192  -9.7319     63.7356     74.1886   8.3100229180e+01   5.4995741334e+01    0.2981343    0.2736382 -25.14  0.001745964    1.086    0.079
       193  -8.4345     37.6599     75.2516   9.3863388446e+01   5.8063966369e+01    0.1908288    0.1031918 -45.21 0.0003525417    1.574    0.365
       194 -10.6279    169.0057     73.2889   5.2852320390e+01   3.2978719114e+01    0.4463145    0.2558798  57.20  0.001653898    1.739    0.425
       195  -8.4142    151.7878     73.1729   5.6347550617e+01   3.7094106230e+01    0.2034865    0.1746675  24.50  0.001000227    1.306    0.234
       196  -9.6943    111.2468     71.8703   6.6218885668e+01   4.6634505846e+01    0.3185078    0.2464567 -13.35 0.0008897642    1.461    0.316
       197  -9.7055     15.9411     59.9316   9.9050029199e+01   6.3255809973e+01    0.6516545    0.2518622 -64.04  0.002694556    2.901    0.655
       198  -9.5174     45.4158     54.8366   8.4111305882e+01   6.1395362346e+01    0.3975575    0.2651686  18.20  0.001755602    1.503    0.335
       199 -12.1502      3.0502     66.5965   1.0647679345e+02   6.2559429013e+01    0.4978464    0.4346028  38.87  0.003426133    1.494    0.331
       200 -11.0642     45.4264     48.0601   8.1638878605e+01   6.2650178043e+01    0.5791736     0.421502   2.17  0.002572175    1.317    0.241
       201 -10.5064     18.0525     47.3349   9.4242623789e+01   6.5664634252e+01    0.6506594    0.2968345 -40.15  0.003296524    1.777    0.437
       202 -10.7512     25.7383     45.9074   9.0003384505e+01   6.5271866747e+01    0.6086864    0.2604847 -26.93  0.001547425    2.740    0.635
       203  -8.6781    192.4760    248.4893   8.6091022702e+01  -4.8090995129e+00    0.1266519    0.1007727  10.71 6.282201e-05    1.004    0.004
       204  -9.3994     32.0648     47.8012   8.7653721383e+01   6.4280552005e+01    0.2094622    0.1843627  13.03 0.0006454956    1.275    0.216
       205 -10.0215     37.4392     47.1090   8.4896337213e+01   6.3811873064e+01    0.5967767    0.2964196  -2.30  0.002314173    3.448    0.710
       206 -10.8542      9.4837     62.4884   1.0265947322e+02   6.3121009016e+01    0.4076272    0.3312677  32.27  0.001412736    1.558    0.358
       207 -10.7429      4.4548     59.4520   1.0419032876e+02   6.4044734611e+01    0.8376387     0.322667 -21.55  0.003577577    3.116    0.679
       208 -10.7731      6.0504     52.0150   1.0150774995e+02   6.5524287131e+01    0.3470039    0.2444698 -39.91  0.001304882    1.092    0.084
       209 -10.2702     10.8323     50.9215   9.8885379442e+01   6.5464559730e+01    0.3037808    0.2081578 -52.42  0.000490647    1.309    0.236
       210 -11.5566     32.3749     63.3215   9.2642605446e+01   6.1162991354e+01    0.7781545    0.2525615 -51.13  0.001989958    2.566    0.610
       211 -11.1780     28.0029     63.4946   9.4627745057e+01   6.1538663152e+01    0.6253027    0.3552329 -46.58  0.001631746    1.471    0.320
       212 -10.5324     97.2800     63.7748   6.7771666770e+01   5.1034643166e+01    0.3246288     0.254083 -10.10 0.0001942229    1.383    0.277
       213  -9.7218    101.7975     70.3216   6.8554754419e+01   4.8918196067e+01     0.313646    0.2716178  31.00  0.001281062    1.114    0.102
       214  -9.2779    103.9123     65.6676   6.6356927550e+01   4.9322141684e+01    0.5793046    0.3779578  63.66  0.002523768    2.091    0.522
       215 -11.4896     79.8278     69.9818   7.5761093947e+01   5.3214601449e+01    0.2718204    0.2406386  -6.82 0.0003102139    1.048    0.045
       216  -9.9153     83.1439     64.4490   7.2709952949e+01   5.3666340022e+01    0.4115602    0.2681543 -39.59  0.001237739    1.534    0.348
       217  -8.3373    226.4792     70.3997   4.3162591447e+01   2.0509684650e+01    0.1332112    0.1126191 -63.80 6.180625e-05    1.054    0.051
       218  -8.2312    215.4982     70.5376   4.4625252134e+01   2.2809232503e+01    0.1364701    0.1197995 -62.83 8.382512e-05    1.011    0.011
       219  -9.2260     36.7511     69.9715   9.2736142455e+01   5.9310323292e+01    0.2968111    0.1847714 -60.78  0.001497738    1.751    0.429
       220  -9.6304    173.5143     68.9846   5.0834876363e+01   3.2621769494e+01    0.2750578    0.2108284  61.02 0.0005260246    1.292    0.226
       221  -9.8970    119.8359     67.8173   6.2493097300e+01   4.5467410854e+01    0.4612653    0.3049531  38.95  0.002133335    1.509    0.337
       222  -8.9529     63.9208     69.3057   8.1451299730e+01   5.5972075739e+01    0.3956427    0.1736619  24.82  0.001490023    2.816    0.645
       223 -11.2906    134.4752     64.6025   5.7733096752e+01   4.2643582061e+01    0.8043364    0.5098514 -69.80  0.003185554    2.624    0.619
       224  -9.7382    136.7012     54.8482   5.4166214090e+01   4.3664301281e+01    0.4386472    0.2715502 -15.35  0.001893499    2.203    0.546
       225  -9.1848    133.4590     58.4604   5.6050163616e+01   4.3875123430e+01    0.2391836    0.2053728  48.17 0.0005613412    1.107    0.096
       226  -9.0226    130.0192     58.2216   5.6795922296e+01   4.4721437032e+01    0.2248536    0.1928296  30.29 0.0005088862    1.189    0.159
       227  -8.6843    137.5727     49.7185   5.2362903244e+01   4.4213745607e+01    0.2219251    0.1704659 -76.11  0.001053072    1.623    0.384
       228  -9.3136     75.1016     65.7126   7.6023138942e+01   5.4865319961e+01    0.2794747    0.2025137 -38.65 0.0008078045    1.352    0.261
       229  -9.0767     77.4429     62.0453   7.3898363976e+01   5.5143896524e+01    0.2548858    0.2003398  -4.94  0.000396663    1.298    0.230
       230  -8.9800    203.0257     63.2507   4.4617780123e+01   2.6679998124e+01    0.1860608    0.1665554 -89.17 0.0003606702    1.078    0.073
       231  -9.3558    193.7684     61.0731   4.5423489535e+01   2.9118092583e+01    0.3315388    0.2101851 -35.21  0.001028679    1.597    0.374
       232  -9.3035    151.2960     61.0283   5.2893917920e+01   3.9215498095e+01    0.2824044    0.2400475  37.71 0.0009446684    1.235    0.190
       233  -8.2197    110.3064     62.6876   6.3470339930e+01   4.8467435770e+01    0.1421432     0.118495 -81.99 0.0004197359    1.620    0.383
       234 -11.1916    142.0229     59.8495   5.4525037827e+01   4.1623308085e+01    0.3284268    0.2510954  44.10 0.0003081386    1.290    0.225
       235  -8.6104    114.9366     60.9655   6.1592719698e+01   4.7734347774e+01    0.2216478    0.1818914 -81.80  0.001109979    1.637    0.389
       236 -10.5057    171.3373     59.2326   4.8565179400e+01   3.4676040017e+01    0.3155366    0.2682223 -50.64 0.0008249777    1.171    0.146
       237 -10.4233    167.4917     57.3639   4.8728375489e+01   3.5880612870e+01    0.4038001    0.2266987 -41.03  0.001830325    1.780    0.438
       238 -10.0844     71.0315     59.9822   7.5536313615e+01   5.6634308335e+01    0.3504392    0.1958229  35.24 0.0007844302    1.771    0.435
       239 -10.1691     40.4393     58.9108   8.7686168404e+01   6.1203188109e+01    0.2482977    0.2125069 -26.23  0.000370075    1.072    0.067
       240  -8.6314    198.9642     58.2102   4.3958272245e+01   2.8356171906e+01    0.1817648    0.1630718 -78.51  0.000238776    1.025    0.024
       241  -8.5872    181.8909     58.1969   4.6519777473e+01   3.2322926455e+01    0.1846114    0.1693762  15.73 0.0006337268    1.324    0.245
       242  -9.4000     65.1219     56.6433   7.6606820323e+01   5.8219325977e+01    0.2278366    0.1769581 -32.42 0.0003796083    1.234    0.190
       243  -8.6968     68.2201     54.9683   7.4796360466e+01   5.8012879347e+01    0.2166707    0.1719224  -6.64 0.0004313448    1.208    0.172
       244 -10.9712    118.0832     52.5933   5.7948417699e+01   4.8356584107e+01    0.7865545    0.4694923  29.90  0.003411395    2.025    0.506
       245  -9.4568    127.5476     39.7333   5.1362335605e+01   4.7969147693e+01    0.7018092     0.371789  26.14  0.002650747    3.083    0.676
       246 -10.1676    136.6781     37.5018   4.8691289399e+01   4.6079017701e+01    0.3382629    0.2549573  47.98 0.0008083342    1.244    0.196
       247 -10.5876    131.7989     34.7189   4.8802009413e+01   4.7593335801e+01    0.4824427    0.3272317 -20.72            0    1.709    0.415
       248  -9.0850    134.4792     28.0062   4.6098462557e+01   4.7742306526e+01    0.2542838    0.1667237 -27.31   0.00100351    1.706    0.414
       249 -10.0495    141.9906     33.0459   4.6256549514e+01   4.5348653068e+01     0.444845     0.281245 -18.96  0.001787429    1.932    0.482
       250  -9.6831    146.2258     29.3144   4.4345506313e+01   4.4763788024e+01     0.351115    0.2466533 -88.02  0.001611365    1.634    0.388
       251 -10.4617    127.7389     48.0079   5.4037585123e+01   4.6792894743e+01    0.3551224    0.2886447   9.51 0.0002947111    1.421    0.296
       252 -10.6203    125.9812     45.0212   5.3467917741e+01   4.7626736317e+01    0.4238042    0.2847121  40.71  0.001128665    1.461    0.316
       253  -9.2559     98.6724     54.9757   6.4277341510e+01   5.2243116217e+01    0.2455826    0.2205292 -44.10 0.0008721245    1.260    0.206
       254  -8.7444     86.6477     43.2930   6.3819176799e+01   5.6519176737e+01    0.2395148    0.1854263 -82.40  0.001169246    2.285    0.562
       255  -9.9747     86.6597     51.7379   6.6970393310e+01   5.5206546852e+01    0.5760015    0.2214205  44.08  0.001771306    2.482    0.597
       256 -10.2787     93.4893     54.9999   6.5913086344e+01   5.3308908934e+01     0.493163    0.3353509  45.05  0.001225094    1.434    0.302
       257 -10.1447     92.9137     51.0441   6.4672128164e+01   5.4065548315e+01    0.2152288    0.1961634 -11.39 0.0003504054    1.101    0.092
       258 -10.0422     88.9581     49.1431   6.5253396190e+01   5.5165418909e+01    0.4581039    0.3822242  59.88  0.001264498    1.448    0.309
       259  -9.5214     79.8664     54.6804   7.0391796739e+01   5.6011544917e+01    0.3182709     0.198759 -42.08  0.001028729    1.695    0.410
       260  -9.0607    241.3727     54.9146   3.8125250236e+01   1.9767676951e+01    0.2359539    0.1534805 -84.47 0.0007588359    1.658    0.397
       261  -9.6140    151.5420     54.7555   5.0988070921e+01   4.0116729626e+01    0.2586742    0.2404736  60.65 0.0003199246    1.030    0.029
       262 -10.7418    153.9218     48.2591   4.8607968803e+01   4.0480474434e+01      0.46915    0.3679931 -65.99  0.001282532    1.408    0.290
       263  -8.6542     60.5164     55.0135   7.7841625464e+01   5.9240648756e+01    0.3325082    0.1702383 -13.37 0.0008961645    3.930    0.746
       264  -8.5966     61.9675     52.0000   7.6148014791e+01   5.9554135665e+01    0.2085263    0.1583979  21.14  0.001034992    1.250    0.200
       265  -9.2919    191.3302     53.8871   4.3969568421e+01   3.0745405070e+01    0.2748913    0.1908652  55.44  0.001443919    1.477    0.323
       266  -9.7433    145.8041     52.3993   5.1445772618e+01   4.1848368564e+01    0.2998083    0.2475625 -89.33  0.001090498    1.346    0.257
       267  -8.8185    106.8041     52.8757   6.1126342603e+01   5.0836085822e+01    0.2124337    0.1790979  24.54 0.0003704452    1.153    0.133
       268 -10.6565    174.5309     50.8084   4.5733870003e+01   3.5151135687e+01    0.2831393    0.2571751 -32.68 0.0003186709    1.205    0.170
       269  -9.1976    165.5139     52.0518   4.7593792337e+01   3.7138889196e+01    0.2112741    0.1373698 -36.95  0.001027744    1.581    0.368
       270 -10.0039    163.8569     46.8739   4.6423960987e+01   3.8269041467e+01    0.3461141     0.282331  10.46   0.00145417    1.590    0.371
       271  -9.3439     72.0484     51.3161   7.1992174337e+01   5.7991645380e+01    0.3481939    0.2231329 -24.14   0.00173273    1.615    0.381
       272  -8.2749     76.0248     52.0000   7.0782234389e+01   5.7168705519e+01     0.221186   0.07518031  41.82 0.0007530776    2.863    0.651
       273  -8.8906    181.6045     49.2306   4.4208170514e+01   3.3690189429e+01    0.2358714    0.1818288 -24.17  0.001274772    1.512    0.339
       274 -10.2005    114.8952     46.2280   5.6612848763e+01   5.0022650531e+01    0.3873975    0.3018435   9.03  0.001308651    1.469    0.319
       275  -9.2607    112.9514     41.2956   5.5404755785e+01   5.1151317340e+01    0.2127526    0.1918337  -7.13 0.0002024324    1.165    0.141
       276  -9.2249     68.5362     48.4967   7.2253757097e+01   5.9072660144e+01    0.2170861    0.2048809  19.02 0.0005243369    1.220    0.180
       277 -12.7141     61.9030     44.2850   7.3218309682e+01   6.0873742192e+01    0.4149241    0.3008346  30.66 0.0004981225    1.318    0.242
       278  -8.4346     96.5428     48.6023   6.2649615029e+01   5.3694366529e+01    0.1424263    0.1247306  23.24 0.0001991594    1.045    0.043
       279  -9.0588     76.4744     44.5730   6.7802559528e+01   5.8287400988e+01    0.2412709    0.1426984  21.91 0.0007104724    1.942    0.485
       280 -10.3261     80.8794     43.1017   6.5686221877e+01   5.7679602999e+01    0.5286033    0.3776306   3.79  0.002595406    1.544    0.352
       281  -9.3635    234.8932     47.0237   3.7119719736e+01   2.2163009330e+01    0.1839369    0.1500363 -64.60 0.0003281214    1.013    0.013
       282  -8.1932     84.2515     47.6038   6.6247473277e+01   5.6336307053e+01     0.131098    0.1096496 -63.77  0.000695141    1.690    0.408
       283  -8.7276    159.1572     46.3433   4.7093189472e+01   3.9478719696e+01    0.2040981     0.125408  73.85 0.0009370361    1.747    0.428
       284  -8.3071    145.6693     46.2810   4.9612410474e+01   4.2751733322e+01     0.142262    0.1070291 -79.08 0.0003192756    1.606    0.377
       285  -9.0806     98.5787     44.1510   6.0411572909e+01   5.3925219499e+01    0.3892255    0.1684528  57.99   0.00112288    2.874    0.652
       286 -10.4079     93.9555     45.0520   6.2146707090e+01   5.4768071490e+01      0.24755    0.2250012 -14.19 0.0003305385    1.133    0.117
       287  -9.3978     90.6054     40.8272   6.1610857009e+01   5.6073050841e+01    0.4129641    0.1952078 -36.98  0.001800271    2.247    0.555
       288  -9.5357    179.6417     44.5955   4.3282589561e+01   3.4793323930e+01    0.3291194    0.1908364  84.28 0.0006671657    2.059    0.514
       289  -8.7187      8.5877     43.8659   9.7850865378e+01   6.7014543813e+01    0.1841628    0.1449255 -45.19 0.0004448868    1.195    0.163
       290  -9.4809    163.7339    246.4168   9.1641962083e+01  -3.4766730823e-01    0.1902691    0.1065081  24.01 0.0009557109    1.687    0.407
       291 -10.3826      7.0644     39.4676   9.7219788277e+01   6.7961044493e+01    0.3583119    0.1936446   9.97  0.001367046    1.917    0.478
       292 -10.8038      4.5164     36.0337   9.7427039834e+01   6.8767178040e+01    0.4628936    0.1960441 -49.99  0.002439236    1.858    0.462
       293 -10.2647    244.7822     43.6239   3.5472826759e+01   2.0640185150e+01     0.262563    0.2315305 -12.41  0.001771738    1.610    0.379
       294  -9.1195    142.1651     43.1010   4.9337011160e+01   4.4029898793e+01    0.4368294    0.2392442  34.69  0.001821323    2.359    0.576
       295  -9.5072    131.6945     43.8183   5.1773213944e+01   4.6441513064e+01    0.3894043    0.1785454  56.38  0.001612503    1.998    0.500
       296  -8.6492      1.3758    244.1938   1.2459678488e+02   2.1330446408e+01    0.1543814   0.07902385  81.15 0.0004883411    1.657    0.396
       297  -9.7265    202.8309    242.3589   8.3064401860e+01  -5.3252008984e+00    0.1777608   0.09880634  21.61 0.0004797581    1.651    0.394
       298  -9.1714    102.0000    241.4953   1.0418532358e+02   9.7476123318e+00    0.2575222   0.07414423 -59.89 0.0009405777    3.982    0.749
       299  -8.9938    247.6746    239.3388   7.4203495858e+01  -1.0627129575e+01   0.09763165   0.09266219  -8.90 0.0007051394    1.726    0.421
       300  -8.7750    200.9874     42.8223   3.9941508551e+01   3.0060354172e+01    0.2125605    0.1359094  45.03  0.001077049    1.941    0.485
       301  -9.2132    158.6600     42.7026   4.6131840197e+01   4.0090989053e+01    0.2749427    0.1775143 -11.42  0.001008482    2.195    0.544
       302  -9.3274    158.0608     39.2420   4.5236769926e+01   4.0688070748e+01    0.2625259    0.2294569  53.84   0.00110733    1.132    0.116
       303  -9.7015    202.1984     46.9303   4.0779063542e+01   2.9229669601e+01    0.2639917    0.1995708  44.06  0.001474878    1.618    0.382
       304 -10.1470     35.8757     41.1504   8.3369258570e+01   6.5064291443e+01    0.4332835    0.2314714  11.51  0.001516188    2.140    0.533
       305 -10.3358     39.7176     39.6666   8.0982184094e+01   6.4852943137e+01    0.2058778    0.1560194 -10.18 0.0003122967    1.136    0.119
       306 -10.1847     42.2589     37.6857   7.9007954157e+01   6.4856867285e+01    0.1870017    0.1557624  -9.98  0.000233682    1.060    0.057
       307  -8.8945    186.7027     44.1668   4.2154457707e+01   3.3183203787e+01    0.3056351    0.1024905  70.77  0.001006273    3.709    0.730
       308 -10.5711    228.0453     38.7652   3.6036508881e+01   2.4676968258e+01    0.4781055    0.1928113 -33.06  0.001677507    2.552    0.608
       309  -8.7566    191.3679     41.8698   4.0938429799e+01   3.2399564308e+01    0.2125006     0.142472 -55.04 0.0006668432    1.455    0.313
       310  -9.6561    222.5529     40.5463   3.6976367252e+01   2.5604898162e+01    0.2262493    0.2004566  71.00 0.0008107357    1.260    0.206
       311  -8.5015     48.9675     41.0485   7.7356382253e+01   6.3380073840e+01    0.1576338    0.1288751 -14.07 0.0006748842    1.068    0.064
       312  -8.7330    197.3856     40.2461   3.9764563840e+01   3.1223174600e+01    0.1914062    0.1087785 -46.21 0.0009544111    1.664    0.399
       313  -8.0624    203.6398     39.3108   3.8781897988e+01   2.9921850710e+01    0.1422123   0.08683261 -69.43 0.0006574503    1.743    0.426
       314  -8.5166    165.6686     39.1767   4.3962863125e+01   3.8856529225e+01    0.1776035    0.1307167 -20.44 0.0009324835    1.633    0.388
       315 -10.7742    178.2111     36.8328   4.1442533493e+01   3.6147821907e+01    0.4068927    0.2908992 -75.33  0.001446039    1.469    0.319
       316  -9.6560    238.5023     37.0762   3.4701976466e+01   2.2746738521e+01    0.2138285     0.155263  59.52 0.0009922594    1.607    0.378
       317  -9.6153    208.9918     34.0185   3.6940853449e+01   2.9398963611e+01    0.4973128    0.2685862 -20.42  0.002279567    2.749    0.636
       318  -9.4430    186.2105     36.7188   4.0320025334e+01   3.4271645714e+01    0.2844902    0.1693234 -59.36  0.001331348    1.777    0.437
       319 -10.3235    248.3929     35.5838   3.3550044548e+01   2.0981428847e+01    0.2578639    0.1927903  83.15  0.001730838    1.326    0.246
       320  -9.2237     95.6584     35.4476   5.8035713486e+01   5.5745573498e+01    0.4146109    0.1844552  58.27  0.001647276    2.584    0.613
       321  -8.4648     71.1136     35.9277   6.6319521242e+01   6.0560102600e+01    0.2533702     0.175387  24.11  0.001119223    1.361    0.265
       322  -8.4117     74.9641     22.9889   5.9569984170e+01   6.1512093288e+01     0.149841    0.1272715  14.43            0    1.056    0.053
       323 -10.5098     79.5239     32.6853   6.2037197358e+01   5.9414457558e+01    0.6124149    0.3455808  35.33  0.003020291    1.651    0.394
       324 -10.4192     71.7050     30.4336   6.3839964818e+01   6.1205983474e+01    0.3465457    0.2705247  34.78  0.001071899    1.174    0.148
       325  -9.8578     75.0872     27.1966   6.1297396650e+01   6.0980550243e+01    0.3793018    0.3305066  76.11  0.001656918    1.660    0.398
       326  -8.5163     43.5357     32.4585   7.6239429733e+01   6.5519995215e+01     0.504835    0.2236527 -51.94  0.001880639    4.355    0.770
       327 -11.0851     56.5768     35.3992   7.1790121555e+01   6.3126129956e+01     0.404485    0.3054945  30.20  0.002411947    1.269    0.212
       328 -10.4717     51.9623     28.9900   7.0998152501e+01   6.4793026433e+01    0.1884362    0.1541814   5.72 0.0003298098    1.010    0.010
       329  -9.5010    223.6184     34.2318   3.5489752164e+01   2.6191692662e+01    0.2410176    0.2060302 -37.66 0.0009372336    1.323    0.244
       330 -10.8094     49.5806     33.3479   7.3909481037e+01   6.4515240842e+01    0.5774157     0.259358  22.88  0.001374447    2.749    0.636
       331  -8.5655     35.6615    239.6914   1.1787136094e+02   1.8734403266e+01    0.1049803   0.09102612 -36.06 0.0007043363    1.683    0.406
       332  -9.0562    221.1012    237.5021   7.8733341597e+01  -7.0719707603e+00    0.1793101    0.1050376  26.77 0.0008835916    1.539    0.350
       333  -9.4335     34.7008     31.4473   7.9985708586e+01   6.6832187590e+01    0.2505479    0.1758952  38.43  0.001482764    1.770    0.435
       334 -10.0604     36.8916     26.8433   7.6918750287e+01   6.7268758665e+01    0.4200335    0.2914557 -29.35  0.002586313    1.344    0.256
       335 -10.0891     24.4791     30.4875   8.4723002116e+01   6.8141462642e+01     0.284631    0.2038365 -54.11  0.001138196    1.898    0.473
       336  -9.4926     25.9773     27.2499   8.2572201683e+01   6.8511158078e+01    0.2000618    0.1668154  11.37 0.0004105596    1.272    0.214
       337 -10.4308     88.0755     32.7887   5.9305047814e+01   5.7681640276e+01    0.3397239    0.2723027  55.91   0.00195284    1.360    0.265
       338  -9.4547    153.8961     31.8939   4.3802782600e+01   4.2605554518e+01    0.3198883    0.1899474  52.00 0.0008169768    1.585    0.369
       339 -10.0612    248.4825     30.1558   3.2476050657e+01   2.1645517200e+01    0.2687008    0.2202073 -26.33  0.001250192    1.593    0.372
       340 -10.2815    234.0642     30.2600   3.3688401894e+01   2.4508227665e+01    0.3742192    0.1886065  57.31  0.001447577    2.244    0.554
       341  -9.3365    160.5492     31.3353   4.2565602275e+01   4.1062043226e+01    0.4331001    0.1037032  55.24  0.001449041    3.409    0.707
       342  -9.0738    160.9165     27.4280   4.1402927364e+01   4.1427467364e+01    0.2924358     0.191386   1.57  0.001399311    2.392    0.582
       343  -9.2771     94.1435     30.1503   5.6456173896e+01   5.6737866377e+01    0.3536836    0.1569192  46.66  0.001073079    1.965    0.491
       344  -8.8788    139.7505    236.9376   9.5381870771e+01   4.9315638341e+00    0.1742568     0.161863  25.31 0.0004084165    1.082    0.075
       345  -9.1559    222.1369    233.5075   7.7859186143e+01  -6.6263665927e+00    0.1857928    0.1636721 -15.55  0.000858621    1.323    0.244
       346  -8.7235     32.0451    232.6700   1.1811290826e+02   2.0582138696e+01    0.1648865    0.1321416  63.19 0.0004844465    1.046    0.044
       347  -9.9394    186.9975    230.9886   8.4382277030e+01  -1.2632564408e+00    0.2189139    0.1439543  -2.11  0.001142556    1.705    0.413
       348  -9.1974    163.2596    226.9703   8.8745415534e+01   3.0794471823e+00    0.2398176    0.1788951 -65.68 0.0006608366    1.939    0.484
       349  -9.1387    223.8602    225.0474   7.6064981722e+01  -5.5951238406e+00    0.2080434    0.1568448  16.07 0.0005795408    1.189    0.159
       350  -8.1169    143.3046    225.6933   9.2936028563e+01   6.4823846547e+00    0.1327135    0.1025332  61.21 0.0002681063    1.604    0.376
       351  -8.7024    132.1189    225.2103   9.5373082798e+01   8.3544129214e+00    0.1844065     0.150968  56.33  0.000444936    1.322    0.244
       352  -9.1720    189.5833     28.9213   3.7934125746e+01   3.4440701852e+01    0.2081578    0.1632833  65.31 0.0005444225    1.242    0.195
       353  -9.6481    100.8502     26.3252   5.3139557148e+01   5.5729710860e+01     0.450763    0.1490968  57.44  0.001652463    2.923    0.658
       354 -10.1661    223.0701     26.2958   3.3829356673e+01   2.7284977999e+01    0.3397327    0.2651077  23.00  0.002031381    2.115    0.527
       355  -9.5549    208.2871     26.6635   3.5329036771e+01   3.0453856887e+01    0.2236163    0.1624533 -74.59 0.0005942191    1.246    0.198
       356 -10.0849    204.9708     24.7849   3.5236349818e+01   3.1414505709e+01    0.4145555    0.2840918  41.63  0.001251636    1.983    0.496
       357 -10.6312    246.9863     21.0162   3.0812803122e+01   2.3038982619e+01    0.3151594    0.1929833 -72.78  0.001430919    1.441    0.306
       358  -9.9848    241.5863     25.3257   3.2065647977e+01   2.3590521105e+01    0.2444663    0.2089043 -73.02  0.001179631    1.129    0.114
       359  -8.1441      1.7193    224.3105   1.2361144183e+02   2.5337023245e+01    0.1202777   0.06375831  65.17 0.0002174715    1.565    0.361
       360  -8.5647    196.3283    222.3584   8.0995460536e+01  -1.2262768687e+00    0.1426684   0.09128542  -4.12 -3.973226e-05    1.786    0.440
       361  -9.2982     88.7831    220.8505   1.0467971754e+02   1.5892845641e+01    0.2204377    0.2089239  46.75 0.0006901738    1.101    0.092
       362 -11.0518      2.0995     25.2201   9.4903657327e+01   7.0881123169e+01    0.2156655    0.1459633 -35.77 0.0003661073    1.152    0.132
       363  -8.0685    117.6552    212.3152   9.6791022415e+01   1.3313775655e+01    0.1469363    0.1029209  63.34 0.0007047879    1.715    0.417
       364  -8.9972    242.3630    209.6723   6.9905539603e+01  -5.7417036002e+00    0.1611747     0.149581 -46.37 0.0007872165    1.650    0.394
       365  -8.8689    230.8478    209.6236   7.1975682730e+01  -4.1708186380e+00    0.1971608    0.1358487   7.16 0.0004081127    1.388    0.280
       366  -7.8996    145.3214    210.3069   9.0011578317e+01   9.1873727758e+00    0.1441526     0.106831  -3.99 0.0003134881    1.640    0.390
       367  -8.5901    123.8857    206.0809   9.4349488788e+01   1.3640821778e+01    0.1801199    0.1596053  -8.27            0    1.245    0.197
       368 -10.4701     62.3449     22.4242   6.3875433890e+01   6.3928694647e+01    0.4295765    0.2890214  30.58  0.001449723    1.295    0.228
       369  -9.2817     35.0738    201.0384   1.1497984145e+02   2.7256147746e+01    0.2131562    0.1268041  65.77 0.0007783397    1.633    0.388
       370 -10.1294    232.6655     23.6680   3.2448750057e+01   2.5593143585e+01    0.3719979    0.1924005 -86.29  0.001948866    2.046    0.511
       371 -10.5609    153.6656     22.9430   4.1226980370e+01   4.3673991758e+01     0.235123    0.2115239  64.70 0.0003023078    1.065    0.061
       372  -9.7431    131.8732     21.3839   4.4462427124e+01   4.9081811042e+01    0.3163477    0.2191983  18.66  0.001658065    1.830    0.454
       373  -9.2500    124.9703     23.4930   4.6507489917e+01   5.0501052718e+01    0.1987796    0.1186619  59.60 -9.542608e-05    1.473    0.321
       374 -11.9879    116.9949     22.3096   4.7788159094e+01   5.2497159914e+01    0.2391363    0.2143989  24.74 0.0003172804    1.143    0.125
       375  -8.2853    120.2728    199.6201   9.4178137037e+01   1.5657412575e+01    0.1468319     0.110942  75.55 0.0006025649    1.699    0.411
       376  -9.5531     55.0158     18.9989   6.5226776901e+01   6.5613366499e+01    0.1898152    0.1506058  16.02  0.001214365    1.026    0.026
       377  -8.8803      6.0516    194.9624   1.2104709127e+02   3.1435090775e+01    0.1842375    0.1285255 -50.73 0.0009564201    1.716    0.417
       378  -9.9894     84.7599     20.8234   5.5534075638e+01   5.9787752965e+01    0.3281637    0.2568816 -69.39 0.0008438803    2.023    0.506
       379  -8.8255     79.9856     22.0962   5.7542898750e+01   6.0621100566e+01    0.1827355    0.1607062 -80.07  0.001024257    1.672    0.402
       380  -9.1408    241.9706    193.7400   6.6985877305e+01  -3.2011957695e+00    0.1751049    0.1434611  -2.89 0.0003911174    1.096    0.088
       381  -8.6647     55.4758    181.1159   1.0787239373e+02   2.9707795076e+01    0.2043399    0.1275146 -70.62 0.0005603723    1.511    0.338
       382 -10.6369    101.0015    176.0087   9.5089308915e+01   2.4387620222e+01    0.2085517    0.2026284  72.87            0    1.008    0.008
       383  -9.6131      6.8678    174.7063   1.1941927874e+02   3.6146449535e+01    0.2222974    0.1509252  36.36  0.001338192    1.599    0.375
       384  -8.8805    139.1665     20.3290   4.2813725794e+01   4.7443245433e+01    0.2891624    0.1840883  -7.47  0.001451516    2.115    0.527
       385  -8.7232     95.0784     21.0650   5.2675286335e+01   5.7571917367e+01    0.2285801    0.1721079 -84.35  0.001104505    2.038    0.509
       386  -9.6582    199.8586     18.7940   3.4365741211e+01   3.3244907934e+01    0.2713493    0.2263285 -28.20  0.001753655    1.445    0.308
       387  -8.3465    193.3268     20.2269   3.5383203641e+01   3.4573675346e+01    0.1192735   0.08665094  53.42 0.0002493538    1.512    0.339
       388  -9.2445    225.7587     16.0424   3.1435114321e+01   2.7905862220e+01    0.2134646    0.1151439 -47.70 0.0007820799    1.610    0.379
       389  -9.5834     18.6019    174.0909   1.1649581415e+02   3.5332464035e+01    0.2162522    0.1951246  -0.79 0.0009030062    1.441    0.306
       390 -10.4674      7.3954    166.2765   1.1861160439e+02   3.8152027290e+01    0.2991185    0.2281814  25.69 0.0005535536    1.574    0.365
       391  -9.0945    151.9175     18.1334   4.0093581456e+01   4.4597418470e+01    0.1933686    0.1648282 -82.46 0.0003719032    1.165    0.141
       392 -10.6910     14.8460    165.7236   1.1667573151e+02   3.7707898225e+01    0.3041752    0.2019645 -31.20  0.001370315    2.024    0.506
       393  -8.4058     32.4544     18.2174   7.5130464052e+01   6.9086636329e+01    0.1474223    0.1070903 -36.16 0.0005824756    1.567    0.362
       394 -10.4756     11.8120    163.8220   1.1727879286e+02   3.8418564187e+01    0.2705063     0.186577  83.21 0.0004143208    1.311    0.237
       395 -12.1040     35.8428    158.3298   1.1026289301e+02   3.7662885824e+01    0.8734365    0.4175418  53.88  0.003727094    2.427    0.588
       396 -12.0069     30.4902    154.5894   1.1128890457e+02   3.9136980473e+01    0.6361539    0.4777642  67.97   0.00224585    1.368    0.269
       397 -10.2179     24.4120    162.9162   1.1389978709e+02   3.7590056974e+01    0.2488071    0.1915886  27.94  0.000485652    1.498    0.332
       398  -9.3104    206.3613     16.9043   3.3301820845e+01   3.1997134030e+01    0.2222139    0.1456876 -89.16 0.0007629675    1.390    0.281
       399  -8.6444    111.8759     15.1038   4.6358540865e+01   5.4399046690e+01    0.1871282    0.1681514  78.11 0.0005652518    1.204    0.169
       400 -10.5824     34.5003    150.0044   1.0956544168e+02   3.9923883030e+01    0.4981678    0.2807287 -21.39  0.002101601    2.873    0.652
       401 -10.6220      2.1516    155.1301   1.1900799813e+02   4.1252130168e+01    0.4752939    0.1833609 -75.27  0.002152882    2.083    0.520
       402  -8.7643    250.5134     14.0091   2.9234295435e+01   2.3164327129e+01    0.1658405   0.09645308 -40.09  0.001031853    1.594    0.373
       403  -8.4234    154.5564     14.4790   3.8653060428e+01   4.4325779716e+01    0.1298682    0.1128121  78.98 0.0002030183    1.020    0.020
       404  -9.3730    249.0147    153.9579   5.7929895924e+01   2.3397223887e+00    0.2113903     0.144018 -10.69 0.0006698071    1.691    0.409
       405  -9.1642     45.8825    151.5720   1.0649575819e+02   3.8333209298e+01    0.2295198    0.1689663 -57.96 0.0003824708    1.247    0.198
       406 -11.1027     19.9110    150.4999   1.1376232531e+02   4.1103910349e+01    0.4744602    0.2432214 -69.84  0.002316206    1.625    0.385
       407  -9.8217      8.8166    147.8086   1.1654857513e+02   4.2616718699e+01    0.3607821    0.1840493  -4.95  0.001232841    3.210    0.688
       408 -10.0543      3.7820    146.2594   1.1777690921e+02   4.3337112198e+01    0.3049312     0.188817  58.88  0.001130718    1.718    0.418
       409 -11.1714     13.0320    150.6217   1.1567774292e+02   4.1610085629e+01    0.4550278    0.3124572   4.76  0.002561557    1.937    0.484
       410  -9.7956     13.3723    145.2048   1.1500863484e+02   4.2944903947e+01    0.2873658    0.1835814  88.93  0.000863242    1.487    0.327
       411 -10.5177     16.5372    142.1942   1.1376716098e+02   4.3468782886e+01     0.499987    0.2928639 -12.44  0.001692978    2.524    0.604
       412  -8.1393     80.2142    145.0118   9.5205748118e+01   3.5507145938e+01    0.1945779    0.1175336 -58.16 0.0003794436    1.572    0.364
       413  -8.8856     89.5626     13.4188   5.1147568284e+01   5.9528205620e+01    0.2982976     0.158243  63.81  0.001423145    2.055    0.513
       414  -8.7389      7.0446    141.7286   1.1642384856e+02   4.4254214987e+01    0.1735521     0.155699 -87.48 0.0008491363    1.110    0.099
       415 -10.0908      2.0176    139.6259   1.1762736381e+02   4.5091501362e+01    0.4556368    0.1957716 -87.56  0.001934823    2.319    0.569
       416  -9.5574      2.1423    133.9864   1.1702431548e+02   4.6483968645e+01    0.3416445    0.2005256  59.18  0.001816229    1.919    0.479
       417 -10.4981      2.0649    130.4672   1.1667696372e+02   4.7362087200e+01    0.5081263    0.2631167 -33.07  0.002509108    2.346    0.574
       418 -10.1630     41.4098    138.9409   1.0591528656e+02   4.2073316544e+01    0.2830948    0.2345438  54.16  0.001137133    1.309    0.236
       419  -9.1960    230.6902    137.0150   5.7337117853e+01   8.3513058134e+00    0.1996322    0.1585573 -33.42 0.0005351838    1.090    0.083
       420  -9.3471     33.9697    138.0000   1.0804232288e+02   4.3056706565e+01    0.3130881    0.1689885  31.04  0.001421502    2.019    0.505
       421  -8.9671     35.3560    135.2874   1.0721032752e+02   4.3621003848e+01    0.2317136    0.1218929 -62.44  0.001065618    1.611    0.379
       422 -10.1513     15.4041    135.8325   1.1334084354e+02   4.5160447698e+01    0.3088816     0.193174 -65.09  0.001672086    1.316    0.240
       423  -8.9366    235.9908    136.5185   5.6366565833e+01   7.5050750097e+00    0.1834796    0.1373706  44.38 0.0005634656    1.557    0.358
       424  -9.2959     47.8671    134.1636   1.0312717969e+02   4.2606365393e+01    0.3887551     0.191051  45.59  0.001621311    2.334    0.572
       425  -9.7469     41.3075    133.6838   1.0510431944e+02   4.3438550830e+01    0.2171692    0.1893402 -84.09 0.0005353793    1.129    0.114
       426 -10.5659     44.4452    130.3225   1.0354495070e+02   4.3971771149e+01    0.4406692    0.3013291   9.56  0.001276689    1.807    0.446
       427  -8.8553    248.6468    134.1545   5.3912759551e+01   5.7598343242e+00    0.1922342    0.1057245 -31.51 0.0004521006    1.667    0.400
       428 -10.1110     28.6987    132.1111   1.0879703128e+02   4.5046251435e+01    0.2125376    0.2058719 -89.06 0.0003042168    1.133    0.117
       429 -10.1061     21.2955    131.2845   1.1097112574e+02   4.5869374880e+01    0.3567028    0.2178413  70.41  0.001026523    1.976    0.494
       430 -11.0525     88.5869    127.9951   8.9031629362e+01   3.8492516660e+01    0.2764347    0.2613975 -46.77 0.0002890076    1.011    0.011
       431 -10.7091      9.2956    131.3125   1.1462233249e+02   4.6715705751e+01    0.4876374    0.1700468 -55.88  0.001620675    2.269    0.559
       432 -10.0920     34.5018    127.0380   1.0617519200e+02   4.5816933467e+01    0.3393596    0.1329637 -74.30  0.001216528    2.882    0.653
       433 -10.4053     61.6871    130.8162   9.8131296010e+01   4.1787945666e+01    0.2905462     0.251855 -23.81 0.0003068438    1.245    0.197
       434 -10.0332     55.9822    125.6590   9.8953766885e+01   4.3835686936e+01    0.2333142    0.1867346 -59.29 0.0008338136    1.137    0.120
       435 -10.9359      7.0095    123.5814   1.1439154860e+02   4.8789837566e+01    0.5346643     0.274931 -20.09  0.002500717    2.703    0.630
       436  -9.0643    131.0444    122.9545   7.5364262175e+01   3.1636154454e+01    0.2283743    0.2236307  -9.27  0.001185722    1.013    0.013
       437  -8.2189     72.2714    123.6479   9.3227171547e+01   4.2146716498e+01    0.1501669    0.1166937  83.13  0.000393171    1.633    0.388
       438  -9.8150     38.8131    123.3470   1.0414785449e+02   4.6342027298e+01    0.2363548    0.1854609  -1.08  0.001290019    1.511    0.338
       439  -9.4378    220.9788    121.6988   5.5571882048e+01   1.2922765414e+01    0.2596026    0.1801295 -45.69 0.0001723344    1.311    0.237
       440 -10.8068     27.9201    115.8144   1.0646884029e+02   4.9251378916e+01    0.3519889    0.2413013  62.26 0.0003215589    1.816    0.449
       441  -9.6984     20.7053    112.5977   1.0837599196e+02   5.0626906675e+01    0.2619298    0.1841116  45.37  0.001321191    1.680    0.405
       442 -10.9805     20.9489    108.3377   1.0758299168e+02   5.1668883283e+01    0.5884916     0.399679 -10.11  0.003194351    1.767    0.434
       443  -8.7258     20.0314    103.9930   1.0715273429e+02   5.2808475854e+01    0.2098162    0.1554753 -46.01 0.0006002292    1.186    0.157
       444 -11.8798     21.0659    119.4808   1.0934021428e+02   4.8873921144e+01    0.8825696    0.4299141  44.49  0.004014878    2.459    0.593
       445 -10.1137     13.9410    113.4845   1.1079244464e+02   5.0875531544e+01    0.2930478    0.2035673  13.63  0.001238139    1.727    0.421
