#   1 NUMBER                 Running object number                                     
#   2 MAG_AUTO               Kron-like elliptical aperture magnitude                    [mag]
#   3 X_IMAGE                Object position along x                                    [pixel]
#   4 Y_IMAGE                Object position along y                                    [pixel]
#   5 X_WORLD                Barycenter position along world x axis                     [deg]
#   6 Y_WORLD                Barycenter position along world y axis                     [deg]
#   7 A_WORLD                Profile RMS along major axis (world units)                 [deg]
#   8 B_WORLD                Profile RMS along minor axis (world units)                 [deg]
#   9 THETA_WORLD            Position angle (CCW/world-x)                               [deg]
#  10 FWHM_WORLD             FWHM assuming a gaussian core                              [deg]
#  11 ELONGATION             A_IMAGE/B_IMAGE                                           
#  12 ELLIPTICITY            1 - B_IMAGE/A_IMAGE                                       
         1 -12.4212    119.8898     37.5172   4.2208522761e+01   5.0023182124e+01    0.9211255    0.5023505 -50.50  0.003545021    2.144    0.534
         2 -11.7006    106.1615     20.3852   3.9017276947e+01   5.5289098167e+01    0.4265078    0.3422298 -49.93  0.001387451    1.386    0.278
         3 -11.5473     35.8412     18.8468   6.2524203548e+01   6.9802756334e+01    0.6357065    0.3888531 -31.49  0.003574787    1.625    0.385
         4 -11.7542     26.4618     28.1003   7.2278715934e+01   6.9688597783e+01    0.4316162     0.303003 -39.33  0.001292647    1.403    0.287
         5 -12.2983     20.0890     21.9897   7.3080763746e+01   7.1492155207e+01    0.5117415    0.2645851 -37.27  0.002217128    1.789    0.441
         6 -12.4430    136.4869     22.2943   3.4069338233e+01   4.7893275848e+01    0.7001998     0.373655  58.89  0.003443175    1.698    0.411
         7 -11.4963    127.2364     16.4545   3.3649442206e+01   5.0704463288e+01    0.3319131    0.2101404  49.11  0.001025074    1.555    0.357
         8 -12.8248    134.3965     15.0215   3.2063959671e+01   4.9140526893e+01    0.7379701    0.3334053  72.01  0.003326962    2.094    0.522
         9 -10.3185     88.7034      7.6801   3.7896363815e+01   6.0544636727e+01     0.383916    0.2061491  49.80  0.001294767    1.601    0.375
        10 -10.5859     90.8223     21.5030   4.3117786759e+01   5.8692956721e+01    0.5622316    0.2300352 -30.00  0.002408898    2.587    0.613
        11 -11.4622     86.0657     13.5701   4.1046630651e+01   6.0593233226e+01    0.5798331    0.3374628 -41.95  0.002968366    2.009    0.502
        12 -12.1249    121.4201     11.8768   3.3050980195e+01   5.2528694302e+01     0.898994    0.1897029  63.74  0.003039422    3.600    0.722
        13 -13.2872    163.9983     18.9746   2.9359469662e+01   4.1768576658e+01    0.4200993     0.287021  46.35   0.00130659    1.708    0.415
        14 -11.7846     67.7603     17.9735   4.8494410098e+01   6.4073488933e+01     0.491026    0.4191485  61.06  0.003059776    1.299    0.230
        15 -10.8191     14.0470      8.6272   6.9731293678e+01   7.4284273540e+01    0.2805268    0.1989195  -5.78 0.0008004652    1.231    0.188
        16 -12.2692     16.2995     14.0882   7.1341080360e+01   7.3199932910e+01     0.773058    0.3993309  -7.54  0.003511802    2.846    0.649
        17 -11.7233     22.7451     11.2938   6.5719927096e+01   7.2784278859e+01    0.4211517    0.2669095   6.14   0.00199277    1.623    0.384
        18 -11.5695    228.5541     15.9676   2.3032507687e+01   2.8324866485e+01    0.2527483    0.1876485 -76.52 0.0003976144    1.167    0.143
        19 -10.7736    225.2375     12.9822   2.2627839491e+01   2.9287560128e+01    0.2715254    0.1392919 -39.70  0.001141879    1.652    0.395
        20 -11.0045    148.0741     16.1339   3.0501929988e+01   4.5785773941e+01    0.3905385     0.173872  43.47  0.001631929    2.916    0.657
        21 -12.2585    104.6066     13.1506   3.6604909981e+01   5.6379609949e+01    0.4161052    0.3628556 -10.72  0.002632599    1.293    0.227
        22 -12.1870     48.6184     12.9768   5.3357650572e+01   6.8382427166e+01    0.5820444    0.2701924  49.92  0.002699083    2.103    0.524
        23 -11.9219    192.1461      8.9435   2.4080587091e+01   3.6497062085e+01      0.50787    0.3179896  -1.32  0.002625593    2.869    0.651
        24 -11.7134    212.0831      9.1185   2.2667303723e+01   3.2305401381e+01    0.4866914    0.2996499 -11.27  0.002674555    2.642    0.621
        25  -9.9139      5.1951      9.7436   7.6629365823e+01   7.5072914662e+01    0.1969376    0.1124878 -17.87 0.0007625737    1.699    0.411
        26 -11.5226    169.3858      9.3822   2.6188641749e+01   4.1502303951e+01    0.4336231     0.162521  59.40  0.001543917    2.508    0.601
        27 -11.3250    163.8389      6.7165   2.6017554496e+01   4.3021537729e+01    0.4610156    0.2419868  -9.21  0.002145715    3.039    0.671
        28 -11.3580    145.4131      9.5033   2.8853944913e+01   4.7054106741e+01    0.2318851    0.2045341  54.74 0.0005609681    1.210    0.174
        29 -11.5088    122.2325      5.7778   3.0828813203e+01   5.2874962607e+01     0.325923    0.2106148 -24.52  0.001151036    1.748    0.428
        30  -9.4562      1.0000      7.8468   7.8739602097e+01   7.5760291526e+01    0.1769294   0.05801438 -48.13 0.0007942755    2.886    0.654
        31 -11.9877    184.3423      5.9909   2.3991706580e+01   3.8483357939e+01    0.4332135    0.2312353 -75.21  0.002311876    1.854    0.461
        32 -11.5192    177.0804      5.9540   2.4591114373e+01   4.0094536623e+01    0.3393699     0.159483  77.37 0.0006398453    1.949    0.487
        33  -9.5355     77.6732      7.3201   4.0528011038e+01   6.3040639319e+01    0.2047137    0.1203586  63.59 0.0009956893    1.630    0.387
        34 -10.9480     74.5364      3.5855   3.9667161454e+01   6.4048757905e+01    0.4835403    0.2630626  61.62  0.002519848    1.677    0.404
        35  -9.8942     62.9045      6.6510   4.4660051924e+01   6.6250754234e+01    0.2180519    0.1614278   8.02  0.001316627    1.413    0.292
        36 -11.6102    234.3099      2.9733   2.0077129175e+01   2.8593093983e+01    0.4306993    0.1700354 -66.72  0.002235386    2.410    0.585
        37 -10.8032    137.6985      4.3399   2.8232072807e+01   4.9331852709e+01    0.2542834    0.1788041  82.81  0.000755829    1.285    0.222
        38 -12.9254    132.7971      2.7221   2.8342885654e+01   5.0624820670e+01     1.123527    0.2819738  73.68  0.003804581    3.911    0.744
        39 -10.8927    219.1570      3.6582   2.1054146947e+01   3.1439813038e+01    0.2259779    0.1752241  83.64  0.001002595    1.290    0.225
        40 -11.5007    206.8824      3.1871   2.1708275878e+01   3.3960390519e+01    0.4086879    0.2200915 -84.24  0.002369426    1.731    0.422
        41  -9.4931     57.8565      4.1589   4.5116935139e+01   6.7511890879e+01    0.1586212    0.1165017  28.48 0.0009679652    1.229    0.186
        42 -10.1843     41.7062      3.8238   5.1358344987e+01   7.0644351216e+01    0.2424372    0.1540484  16.57 0.0007424696    1.609    0.378
        43  -9.8607     21.9911      4.0238   6.1832230457e+01   7.3849944898e+01    0.1566318    0.1476889 -50.70 0.0007307599    1.690    0.408
        44 -10.4879    223.8477      2.8903   2.0625297706e+01   3.0597010611e+01    0.1579365    0.1377075 -68.94 0.0005126867    1.195    0.163
        45 -10.7826    157.1946      3.2183   2.5715875018e+01   4.4866437912e+01    0.1801968    0.1254575 -67.37  0.000852518    1.361    0.265
        46 -11.1338    116.3343      2.3177   3.0530054890e+01   5.4552839478e+01    0.2421874    0.2203064  40.90  0.001491261    1.176    0.149
        47 -11.2424    105.3732      2.1561   3.2281763161e+01   5.7145063234e+01    0.2833479    0.2200153 -83.63  0.001197168    1.376    0.273
        48 -11.1959      2.5874      1.8489   7.3948359766e+01   7.6535189445e+01     0.329567    0.1641236  14.45  0.001815325    2.012    0.503
        49 -10.3003    152.5049      1.4656   2.5696520960e+01   4.6103579899e+01    0.2445833    0.1074383  75.28 0.0006904736    2.020    0.505
        50 -10.4356     82.0699      1.3268   3.6722139353e+01   6.2562955545e+01    0.1822475    0.1023715  62.51 0.0003626495    1.560    0.359
        51 -10.9227     10.9166    126.6328   1.0440794034e+02   4.7948660604e+01     0.270337    0.1822407 -85.51  0.001074384    1.382    0.276
        52 -10.7600    248.9475    249.8540   6.5662994930e+01  -8.6138447488e+00    0.1772014    0.1358293  22.71  0.001367095    1.646    0.393
        53  -9.5685    239.3168    250.3254   6.7294489369e+01  -7.7557371686e+00    0.1152727   0.06311673  -7.61 0.0007044436    1.672    0.402
        54  -9.4354     47.3181    134.6743   9.3246767767e+01   4.2482419534e+01    0.1532461    0.1071626  67.39 0.0004125701    1.675    0.403
        55 -10.4744      2.3066    126.0264   1.0724920307e+02   4.8635321528e+01    0.2410142    0.1651578  58.73 0.0009146716    1.557    0.358
        56 -12.6570    103.9367    122.4604   7.2457458464e+01   3.6979380040e+01    0.3347822    0.3228855 -11.15 0.0004426589    1.052    0.050
        57  -9.4534     84.8516    123.3421   7.8565147154e+01   4.0126753258e+01    0.2082788    0.1458711  18.44 0.0004083262    1.686    0.407
        58  -9.7639     56.1970    122.1372   8.7904470366e+01   4.4709691696e+01    0.2021459    0.1718593  68.25 0.0004925863    1.309    0.236
        59 -10.2412     45.1727    120.3933   9.1440765732e+01   4.6519895923e+01     0.246206    0.1993163  68.01 0.0007894194    1.392    0.282
        60 -10.2295     43.7836    116.7859   9.1249956736e+01   4.7628968768e+01     0.269926    0.2249692  77.79 0.0007526114    1.337    0.252
        61 -10.2659      7.0582    114.5370   1.0429864431e+02   5.1375192627e+01     0.452146     0.215555 -65.49  0.002086554    1.705    0.414
        62 -12.3070      2.4685    111.9458   1.0564928972e+02   5.2307945487e+01    0.5016513    0.2635398 -75.23 0.0004929985    1.633    0.388
        63 -11.1447      4.2454    104.9109   1.0410269469e+02   5.4041900138e+01    0.3672679    0.3237541  17.11  0.002294496    1.321    0.243
        64  -9.6359     79.1210    114.8571   7.8426994700e+01   4.3204208734e+01    0.2152914      0.17853 -24.73 0.0009443549    1.300    0.231
        65  -9.4605     67.4907    114.9491   8.2415373895e+01   4.4998267175e+01    0.2139849    0.1342272 -87.04 0.0008086922    2.518    0.603
        66 -10.5968     34.8708    103.6714   9.1994143589e+01   5.2008691644e+01     0.557624    0.2499363   4.84  0.001913905    3.684    0.729
        67 -12.0105     17.7650    101.1769   9.8263746093e+01   5.4152668180e+01     0.436207    0.3536217  29.55  0.001269038    1.390    0.280
        68 -11.7553     24.9502    107.6473   9.6584824959e+01   5.1899034163e+01    0.8057904    0.4181741 -52.08  0.003671613    1.676    0.403
        69 -11.4358     21.5484    114.4850   9.8993064599e+01   5.0383444976e+01    0.4420486    0.2646346  -0.98   0.00151824    2.121    0.528
        70 -11.4466     28.1630    113.1284   9.6321681205e+01   5.0179824249e+01    0.5281572    0.2933286   7.04  0.002330709    2.272    0.560
        71  -9.5128     93.9781    112.4971   7.3005446549e+01   4.1212819591e+01    0.2198436    0.1297699  59.84 0.0008094872    2.473    0.596
        72  -9.9641     48.8962    112.2083   8.8460485108e+01   4.8225004183e+01    0.2233366    0.1998706  67.86   0.00106612    1.237    0.192
        73  -9.7352     66.0001    110.7201   8.1947492240e+01   4.6295199623e+01    0.2063268    0.1977903   3.71 0.0005387847    1.086    0.079
        74 -10.8445     15.5977    109.3508   1.0042320920e+02   5.2180929224e+01    0.3478537    0.1962649  44.22  0.001642654    2.025    0.506
        75 -11.1970     79.9904    108.0997   7.6447607858e+01   4.4734388995e+01    0.4691515    0.3073515  26.76 0.0005873951    1.679    0.404
        76 -10.7595     51.6507     99.3633   8.4510091143e+01   5.1163002913e+01    0.6430106    0.1683569 -47.37  0.001934111    3.526    0.716
        77 -11.7417      9.3841     97.4285   1.0099712532e+02   5.5680706065e+01    0.4863832    0.3708642  68.22 0.0008654064    1.511    0.338
        78 -12.9677    248.2513     94.6275   3.7500172748e+01   1.4320372387e+01    0.5755551    0.3009838 -30.75  0.003010972    1.848    0.459
        79  -9.1787    145.5108    100.5237   5.5666296434e+01   3.3398357592e+01    0.1504341    0.1441936 -34.35 0.0008098629    1.035    0.034
        80  -9.6838     80.7934     98.1691   7.3522096676e+01   4.6989188592e+01    0.2131953    0.1748402 -19.17 0.0005812417    1.335    0.251
        81 -10.4464     82.9987     93.2638   7.1375044946e+01   4.7742081307e+01    0.2829678      0.21864  29.77 0.0003157515    1.349    0.259
        82 -10.9269     78.1576     92.2804   7.2773640895e+01   4.8826314081e+01    0.4784684    0.3721178 -37.86  0.002374921    1.260    0.206
        83 -11.3044     69.1503     95.6099   7.6948416690e+01   4.9544881765e+01    0.3526638    0.2637264  29.49 0.0005494496    1.397    0.284
        84 -10.5442     42.8349     94.7079   8.6850657890e+01   5.3421496342e+01    0.3313533    0.2932712 -66.99  0.001218187    1.151    0.131
        85 -10.6816     30.9607     95.8463   9.1919487677e+01   5.4401719526e+01    0.2625051    0.1903054 -61.43 0.0008023212    1.252    0.202
        86 -11.3701     27.0500     85.9825   9.1375058496e+01   5.7245866563e+01    0.8094494    0.5192037  13.78  0.003311157    1.731    0.422
        87 -11.9550     22.4701     94.3429   9.5096192488e+01   5.5541483753e+01    0.3396197     0.280025 -35.98 0.0006630217    1.163    0.140
        88 -12.0469     18.1564     90.6266   9.6168023518e+01   5.6822971279e+01    0.4245613    0.2963463 -79.66 0.0004840481    1.498    0.332
        89 -11.0549    125.8036     94.8129   5.8921455943e+01   3.8817616954e+01    0.2548586     0.238921 -59.98 0.0002263522    1.082    0.076
        90 -11.1934     35.0712     92.0948   8.9397300075e+01   5.4936252900e+01    0.6596405    0.3235257 -73.91  0.002556552    2.582    0.613
        91 -11.4539     44.2036     85.3561   8.3918211811e+01   5.5556774428e+01    0.5146217    0.3723012  10.06  0.001981076    1.532    0.347
        92 -10.1645     37.1184     85.8701   8.7033555972e+01   5.6258037544e+01    0.2816328    0.1987869  29.89 0.0007400173    1.523    0.344
        93 -11.8401     89.2625     89.8258   6.8252817224e+01   4.7362596144e+01     0.416085    0.3059584 -32.79 0.0004181922    1.415    0.293
        94 -11.1348     98.3782     91.0332   6.5675009743e+01   4.5326582207e+01    0.2640418    0.2201256  38.60 0.0001758234    1.222    0.182
        95 -10.4247     49.2955     91.2137   8.3383080056e+01   5.3489674704e+01    0.2980244     0.197413  38.22  0.001427437    1.634    0.388
        96 -12.2831      7.1258     89.1874   1.0057964783e+02   5.7910621374e+01    0.4593979    0.3781194   0.47 0.0006934914    1.363    0.267
        97 -10.1227     66.1963     88.7575   7.6120202229e+01   5.1639434612e+01    0.2942427    0.1792205 -28.24  0.001038944    2.007    0.502
        98  -9.9160    103.9980     88.0396   6.3054513223e+01   4.4836203311e+01     0.245846    0.1863375 -12.32 0.0009017715    1.667    0.400
        99 -10.8348     80.2093     83.9853   6.9575858632e+01   5.0338207281e+01    0.4348248    0.2845883 -43.54  0.001990391    1.484    0.326
       100 -11.3611     75.1801     78.7122   6.9727464605e+01   5.2395478668e+01     0.617342     0.542915  68.44  0.003290325    1.379    0.275
       101 -12.9061    247.8055     76.4665   3.3869025965e+01   1.7064450692e+01     0.467075    0.3258151 -70.84  0.002950976    1.555    0.357
       102 -10.4064    113.5936     83.3326   5.8840723483e+01   4.3789575945e+01    0.4690177     0.305008 -66.39  0.001926281    2.188    0.543
       103 -10.2150     67.1480     81.6931   7.3659648584e+01   5.3109704996e+01    0.3640205    0.2608869 -12.68  0.001696975    1.723    0.420
       104 -11.4618     53.4029     76.5713   7.7556676810e+01   5.6386760869e+01    0.5686563    0.3769791 -53.32  0.002769754    1.481    0.325
       105 -11.0574     58.2474     77.8413   7.5965478469e+01   5.5383572708e+01    0.3019495    0.2302655 -40.51 0.0007723369    1.235    0.190
       106 -11.3821     13.9790     74.9902   9.4737571032e+01   6.0993716588e+01    0.5219502    0.2793548 -73.29  0.002426062    1.986    0.497
       107 -10.3184     14.1454     67.5404   9.2887911562e+01   6.2756450270e+01    0.2824982    0.1583694  17.74  0.001419641    1.928    0.481
       108 -10.6563     95.1876     76.4554   6.2165362442e+01   4.9038130785e+01     0.442333    0.2461429  50.31  0.001521975    1.925    0.481
       109 -11.9290     85.7189     73.5858   6.4338660136e+01   5.1507126177e+01     0.953145    0.4394892  39.53  0.003716059    2.211    0.548
       110 -11.5433     79.3373     67.8701   6.4628187421e+01   5.3883737135e+01    0.9070182    0.5396063 -63.82  0.003560997    2.710    0.631
       111 -12.0464     75.0456     53.4841   6.0966376990e+01   5.7413607175e+01    0.5456536    0.3524235 -51.13  0.001432007    1.811    0.448
       112 -11.1483     72.6102     47.7488   5.9635535000e+01   5.8877520061e+01    0.3428712    0.2526597 -50.20  0.001312425    1.579    0.367
       113 -10.5660    143.2814     84.4119   5.1719164542e+01   3.7023107682e+01    0.2431033    0.2125113 -35.63 0.0003680416    1.142    0.124
       114 -10.3982     24.5953     73.8860   8.9520696404e+01   6.0405459890e+01    0.2815528    0.2143176 -66.23  0.001374518    1.341    0.254
       115  -9.8094    104.0096     74.5455   5.8841169778e+01   4.7578279635e+01    0.2353418    0.1455697  47.75  0.001038837    1.627    0.385
       116 -10.8790     34.8663     71.7093   8.4183286259e+01   5.9874751536e+01    0.5237825    0.1964998  30.43  0.002064713    2.713    0.631
       117 -10.5519     29.9397     72.0000   8.6533294973e+01   6.0334161955e+01     0.308809     0.188376  24.02  0.001251825    1.737    0.424
       118 -11.3440     41.1010     72.7153   8.1670646331e+01   5.8910454683e+01    0.3814381    0.2740679 -42.65  0.001096377    1.264    0.209
       119 -10.4310     40.0007     69.0000   8.1029437522e+01   5.9887711115e+01    0.3184139     0.180247  13.46  0.001059245    2.105    0.525
       120 -10.9137      2.0098     71.6856   9.9686923288e+01   6.2498667829e+01    0.3632245    0.1856267 -63.34  0.001371808    1.616    0.381
       121 -10.5082    187.1693     70.4762   3.9893725673e+01   2.9675685264e+01    0.4544325    0.1615178 -44.28  0.001745005    2.528    0.604
       122 -11.0839    122.8796     68.8239   5.1868328975e+01   4.4479895012e+01    0.4366946    0.2687151  42.18  0.001489825    1.703    0.413
       123 -10.7812    220.4787     66.9132   3.4736737968e+01   2.3402862549e+01    0.3602394    0.1852735  71.70  0.001779947    2.362    0.577
       124 -11.0458     58.9409     64.6878   7.1360963420e+01   5.8120521661e+01    0.5432189    0.2297791 -48.58  0.002136334    2.342    0.573
       125 -12.4490      5.9183     62.3128   9.5722479553e+01   6.4511500137e+01    0.6329917    0.4070007 -12.73  0.002170236    1.626    0.385
       126 -10.9909     91.6453     62.7691   5.8687827310e+01   5.2405670493e+01     0.411328     0.285751  70.78   0.00174972    2.073    0.518
       127 -10.4611     91.5177     57.0590   5.6699012089e+01   5.3452627032e+01    0.3517245    0.2090023  55.69 0.0006821773    1.849    0.459
       128  -9.9815     51.1639     56.4774   7.1736644524e+01   6.1005032567e+01    0.2828764    0.1826155 -35.29 0.0008137492    1.502    0.334
       129 -11.5556     40.7571     57.0522   7.6702999174e+01   6.2372630096e+01    0.4237641    0.2275993  40.83  0.001485229    2.120    0.528
       130 -10.7729     51.6912     61.6361   7.3367789147e+01   5.9878831241e+01    0.3604409    0.2399677  46.18  0.001600097    1.770    0.435
       131 -11.4402     43.4905     62.3909   7.7290315914e+01   6.0886114157e+01    0.3103052    0.2394357 -40.16 0.0005059416    1.199    0.166
       132 -10.9515     46.3226     59.0344   7.4833248228e+01   6.1199828503e+01     0.299085    0.2683347 -69.44 0.0008970388    1.394    0.283
       133  -9.5983    157.8519     63.1524   4.2724914649e+01   3.7375217146e+01    0.3874935    0.1273173  43.29  0.001105442    4.899    0.796
       134  -9.4968    105.9729     63.7715   5.4713793297e+01   4.9157890462e+01    0.1968625    0.1186645  48.86 0.0008725235    1.632    0.387
       135 -10.3409     81.8085     60.1116   6.1019437476e+01   5.4890806766e+01    0.4136889    0.2249902  64.29  0.001430202    3.572    0.720
       136 -11.7654     25.3927     57.5470   8.4407436919e+01   6.4056340931e+01    0.6297037    0.5435427  36.32  0.003551495    1.372    0.271
       137 -11.1828    117.4958     55.7315   4.8952139390e+01   4.7921666260e+01    0.4244787    0.2873508 -66.25  0.001676569    1.989    0.497
       138 -10.5601     32.6273     52.7004   7.9103066256e+01   6.4293310010e+01    0.5544776    0.2003261  20.66  0.001973485    3.602    0.722
       139  -9.5121     67.3614     54.8550   6.4384529347e+01   5.8604837314e+01    0.1992522    0.1251598 -30.33 0.0009345888    1.675    0.403
       140 -10.0069      7.7932     54.1578   9.2630601242e+01   6.6254722287e+01     0.184931    0.1699882 -59.62  0.001221317    1.213    0.176
       141 -11.4913     60.6374     48.0637   6.4432631331e+01   6.1034410269e+01    0.7451577    0.3309474 -34.68  0.003040164    2.413    0.586
       142 -11.3112     46.2666     48.9983   7.1101987620e+01   6.3198592058e+01    0.5480768    0.3619227 -21.70  0.002784284    1.631    0.387
       143 -11.2178     43.9248     43.9952   7.0190164135e+01   6.4480659422e+01    0.3541493    0.2814229 -31.15 0.0007660561    1.191    0.161
       144 -10.5097     39.3368     44.2863   7.2533830954e+01   6.5086841081e+01    0.3007555    0.2212636   2.71   0.00131529    1.386    0.278
       145 -10.5565    111.8107     50.6305   4.8641928424e+01   5.0028638074e+01     0.583797     0.337932  38.09  0.002551509    1.930    0.482
       146 -11.8835    117.8041     44.0284   4.4911321466e+01   4.9621324873e+01    0.5206151     0.469999 -40.18  0.002259219    1.154    0.134
       147 -10.3376     50.3414    249.6874   1.0501834336e+02   1.4706701910e+01    0.1297759   0.07006446  55.13 0.0006794271    1.700    0.412
       148 -10.3722     51.8290     48.3531   6.8320039482e+01   6.2459806730e+01     0.255345    0.2098526 -18.11 0.0007473269    1.152    0.132
       149  -9.6346      2.0224     48.9834   9.4386982936e+01   6.7743547177e+01    0.1537942    0.1275335 -26.49  0.000996151    1.093    0.085
       150 -11.4455     20.7923     46.0668   8.2926782797e+01   6.6940640874e+01    0.3610116    0.2401211 -35.25 0.0008816065    1.318    0.241
       151 -10.3371     26.3186     43.0330   7.8772881906e+01   6.6968095056e+01    0.1860922     0.150581 -30.45 0.0006894234    1.094    0.086
       152 -10.1190     13.0077     47.4484   8.7725809548e+01   6.7342238413e+01    0.2806163    0.1380799 -41.79  0.001387183    1.723    0.420
       153  -9.6733    146.4759     47.0666   4.0068955643e+01   4.2433984694e+01    0.2060516    0.1349252 -33.94    0.0010244    1.570    0.363
       154  -9.1578     89.9937     47.0236   5.3464392004e+01   5.5441250703e+01    0.1636356    0.1555489  17.13 0.0009595344    1.021    0.020
       155  -9.6378     82.3402     47.2930   5.6035387836e+01   5.7007273446e+01     0.145437    0.1046769  15.96 0.0007027883    1.652    0.395
       156 -10.1740    138.4907     44.3474   4.0698909814e+01   4.4699979094e+01    0.3719239    0.2032048  32.44  0.001473109    2.867    0.651
       157  -9.9804    133.8489     45.6565   4.2012043250e+01   4.5615302109e+01    0.2046905    0.1842546  48.85 0.0003692421    1.132    0.117
       158 -10.0830    200.2544     45.2312   3.1994338032e+01   3.0532896003e+01    0.1937611   0.09878904  83.92 0.0008076699    2.414    0.586
       159 -10.8917    109.5255     41.8242   4.6115820168e+01   5.1855097786e+01    0.5480084    0.2635877 -22.26  0.002150584    2.786    0.641
       160 -10.4318    155.9701     42.2493   3.7052903096e+01   4.0862148655e+01    0.2429303    0.2029135 -21.85 0.0008514939    1.373    0.272
       161 -10.4679     92.7325     41.4608   5.0513810166e+01   5.5693208107e+01     0.340865    0.1775832  47.82  0.001524833    1.793    0.442
       162  -9.7277     17.7104     41.6306   8.3023178836e+01   6.8136793130e+01     0.214193    0.1237899 -23.20  0.001091058    1.768    0.434
       163 -11.2484     78.3549     37.1616   5.3323630668e+01   5.9390666006e+01    0.5780436    0.3778231 -74.51  0.002072728    3.388    0.705
       164 -11.2212     79.9705     32.7344   5.0954166279e+01   5.9677456056e+01    0.4666862    0.2942981  32.73  0.002325815    1.646    0.392
       165 -10.5135    231.3784     38.5668   2.7533813780e+01   2.5142482128e+01    0.2420934    0.1294632 -35.85  0.001361542    1.680    0.405
       166 -10.5811     22.0656     37.1744   7.8790089782e+01   6.8568312708e+01    0.4485268    0.2027096  41.15  0.001964555    2.930    0.659
       167 -10.5426    183.3575     38.0296   3.2149101377e+01   3.5138765966e+01    0.2131334    0.1666503 -88.23 0.0002504058    1.220    0.180
       168 -11.4702     48.4010     30.6661   6.2242206428e+01   6.6022086873e+01    0.6460419    0.2287854  37.98  0.002573228    2.744    0.636
       169 -10.3951     43.0178     28.0290   6.3528753257e+01   6.7312978570e+01    0.1923528    0.1631812   5.34  0.001207647    1.015    0.015
       170 -11.3453     60.6133     36.6411   5.9668888080e+01   6.2945756204e+01    0.3774289    0.2538709 -21.16  0.001230377    1.591    0.371
       171 -12.1572     57.7242     30.5174   5.8121683597e+01   6.4402142834e+01    0.4374594    0.3276036 -15.12    0.0012883    1.366    0.268
       172  -9.6224    132.9645     36.9903   3.9399938170e+01   4.6994155367e+01    0.2505039    0.1435977 -87.15  0.001019324    2.647    0.622
       173 -11.0171      4.8505     35.8642   8.8581674902e+01   7.0346029581e+01      0.32618    0.2144115  11.51  0.001022263    1.546    0.353
       174 -10.1303    176.4753     35.6418   3.2362312840e+01   3.6983951571e+01    0.2393316    0.1551014 -55.86 0.0007294737    1.470    0.320
       175  -9.9654    153.0947     36.1506   3.5721333979e+01   4.2328856146e+01    0.1952467    0.1744373  54.10 0.0004483141    1.191    0.160
       176  -9.5633     94.0589     35.8132   4.7950204711e+01   5.6197588047e+01    0.2104795    0.1544476  87.24 0.0006886881    1.897    0.473
       177 -10.3474    229.4800    248.4590   6.8656523839e+01  -6.5426956275e+00    0.1130839   0.08106466  -4.87  0.000174558    1.012    0.012
       178 -11.7717    106.9765     31.7004   4.3053043582e+01   5.3791219296e+01    0.5954022    0.3434671  16.73  0.002398604    3.018    0.669
       179 -12.0908    113.3149     25.1229   3.9241393366e+01   5.3090219353e+01    0.6229699    0.3143772  58.02  0.002031701    1.762    0.433
       180 -10.3336    240.2645     32.7356   2.5649568547e+01   2.4199684896e+01    0.2015246    0.1643633  20.21   0.00134126    2.069    0.517
       181  -9.6029    169.8091     33.4030   3.2601290698e+01   3.8780050061e+01    0.1845306    0.1111904  58.62 0.0008076856    1.660    0.398
       182 -11.7511    160.0086     29.7892   3.2887876573e+01   4.1484148596e+01    0.3546317    0.3493316  52.54 0.0004331289    1.187    0.157
       183 -11.8266    164.3330     27.6654   3.1725010761e+01   4.0727013302e+01    0.2786436    0.2275393  67.09 0.0004553355    1.205    0.170
       184 -10.2283     67.8332     32.0294   5.4849825496e+01   6.2257137106e+01    0.2357981    0.1842218  29.46 0.0006852192    1.193    0.162
       185 -11.7823    126.5009    241.7975   8.7775195974e+01   6.8418237989e+00    0.3230446    0.2155673  41.44  0.001863194    1.444    0.307
       186 -10.8268    243.8497    242.1450   6.5303468193e+01  -7.1738631570e+00    0.1605241   0.09807269  -7.86  0.001060122    1.339    0.253
       187 -10.3919     31.0908     26.7630   6.9056480989e+01   6.9298007938e+01    0.3039591    0.2335022 -34.65  0.001874882    1.310    0.237
       188 -10.2354     11.2770     30.8115   8.2611813941e+01   7.0834813714e+01    0.2346286    0.1708841  16.73 0.0009342657    1.384    0.278
       189 -12.1253    125.6976     28.1775   3.7856834950e+01   4.9804871422e+01     0.491955    0.3869739  79.05   0.00280743    1.256    0.204
       190  -9.8287     99.0983     30.2393   4.4440180367e+01   5.5786519050e+01    0.2180764    0.1551919 -86.64  0.001075716    1.948    0.487
       191  -9.5651     86.0354     30.4745   4.8138053093e+01   5.8675294362e+01    0.2024747    0.1231678  51.40 0.0005224675    1.513    0.339
       192 -10.1376    197.7320     29.4188   2.8475134279e+01   3.3058127303e+01     0.222149     0.113358  78.95  0.001118958    2.019    0.505
       193 -11.1453    189.0608     27.5376   2.8877924581e+01   3.5157212521e+01     0.305134    0.2679989  33.66  0.001687606    1.511    0.338
       194 -11.6032    183.2771     25.4631   2.8955163321e+01   3.6674239748e+01    0.3588015    0.2477096  58.63  0.001416926    1.544    0.352
       195  -9.8023    150.0361     27.4552   3.3607007948e+01   4.4099482712e+01    0.1976537    0.1205378  69.40 0.0003886408    1.536    0.349
       196 -10.3757    230.5915     26.2460   2.5020181375e+01   2.6776946963e+01    0.1504855    0.1021326 -29.96 0.0009466655    1.604    0.377
       197 -11.0521     67.5301    240.9994   1.0063696620e+02   1.4450081681e+01    0.2241083    0.1667027  13.32 0.0008487487    1.537    0.349
       198 -11.4212    143.7898     25.0517   3.3804949084e+01   4.5852359191e+01    0.3791332    0.2145069  80.20  0.001820488    1.865    0.464
       199 -10.7107     72.3748    238.1475   9.9308469581e+01   1.4439305732e+01    0.3004065    0.2129673 -15.52  0.001658058    2.050    0.512
       200  -9.9738    246.3359    230.6853   6.3097242890e+01  -5.9443466438e+00    0.0925715   0.08511558 -18.64  0.000704695    1.692    0.409
       201 -10.9519    146.6191    238.0076   8.2970341189e+01   4.8582358945e+00    0.2889715    0.2238783  84.97  0.001621757    2.269    0.559
       202  -9.9513     59.6487     23.9121   5.4275962680e+01   6.4957637396e+01    0.1763169    0.1527516 -13.77 0.0004675329    1.169    0.145
       203 -10.2528     13.9398     23.3169   7.7588696016e+01   7.1945924894e+01    0.1924559    0.1490017 -25.81  0.000558392    1.110    0.099
       204  -9.7831    233.4757    226.9937   6.4611512000e+01  -4.0973487499e+00    0.1385521   0.09650677 -52.47 0.0008093863    2.505    0.601
       205  -9.9102    248.6732    223.7025   6.1595460431e+01  -5.2575782712e+00     0.116881   0.06705139  -8.84 0.0003771805    1.632    0.387
       206 -10.5909     85.4742     18.0000   4.3088543180e+01   6.0271341182e+01    0.5102952     0.124268  52.87  0.001799264    3.190    0.687
       207  -9.9699    164.6490    212.0034   7.5184495692e+01   7.0008069314e+00     0.182937    0.1560613 -22.19 0.0005277965    1.127    0.112
       208 -11.0133    179.1215     20.6352   2.8153339124e+01   3.8142911227e+01    0.4418656    0.2237574  44.01  0.001952798    2.801    0.643
       209  -9.7489    171.3084    209.3290   7.3336493481e+01   6.5373285780e+00     0.138294   0.09244012  -9.52 0.0003493494    1.661    0.398
       210 -10.0753    152.3534    206.8626   7.6997072953e+01   9.7448265483e+00    0.2765357    0.1717461 -59.56  0.001325167    2.118    0.528
       211 -10.4976    246.2919     19.9457   2.2722689141e+01   2.4590074540e+01    0.1647935    0.1110455 -50.21 0.0008314881    1.145    0.127
       212  -9.7629    216.5096     20.5315   2.4841682706e+01   3.0187179294e+01    0.1188563   0.09461384 -64.48 4.196265e-05    1.003    0.003
       213  -9.5271    101.0000    203.9886   8.8611340297e+01   1.7898528811e+01    0.2166772   0.07914019 -58.82 0.0007980644    2.912    0.657
       214  -9.8025     74.3742     19.7143   4.7109360176e+01   6.2494336715e+01    0.2157631    0.1626502  44.98 0.0005379404    1.182    0.154
       215 -10.1970     46.5393     19.4281   5.7621848393e+01   6.7951626230e+01    0.2649326    0.1874099  12.26  0.001523742    1.425    0.298
       216  -9.4217    171.6898    190.6235   6.9959431638e+01   9.9492705035e+00     0.147994   0.09755067 -12.65 0.0007029317    1.786    0.440
       217 -12.1904      4.6206    185.7456   1.1124630469e+02   3.3233022286e+01    0.4262023    0.3571927  51.11  0.002078091    1.172    0.147
       218 -11.4996      3.0071    181.7108   1.1140845267e+02   3.4335929398e+01    0.3225088    0.2560821 -14.13  0.001978507    1.682    0.405
       219  -9.5453    194.5844     19.4847   2.6392210299e+01   3.4868100829e+01    0.1217286    0.1016009 -68.28 6.514596e-05    1.016    0.016
       220  -9.5977     86.0128    185.5205   8.9779452141e+01   2.4300610974e+01    0.2193199    0.1375072  30.85  0.001024821    1.569    0.363
       221  -9.4291    175.6500    180.2989   6.7183475141e+01   1.1312146629e+01    0.1297455    0.1130399  78.49 0.0007036483    1.688    0.408
       222  -9.7395     28.1849    175.8342   1.0431376000e+02   3.3680903786e+01    0.1838131    0.1511767 -50.93 0.0006463077    1.323    0.244
       223 -10.7469    186.7428     14.9894   2.6000092881e+01   3.7054917374e+01     0.207226    0.1583314  82.00 0.0006306352    1.215    0.177
       224  -9.1682     51.7164    173.6758   9.7544200716e+01   3.1732340665e+01    0.1415806    0.1028408 -38.61 0.0003028935    1.598    0.374
       225 -12.2367      9.1670    167.0806   1.0878120724e+02   3.7524416368e+01    0.3454748    0.3030556  51.54  0.001400869    1.174    0.149
       226 -11.8289     11.6226    162.7579   1.0775156231e+02   3.8441817075e+01    0.3290078    0.2322991 -83.82  0.001599485    1.244    0.196
       227  -9.0458     74.6306     13.3034   4.4124090841e+01   6.3131384487e+01    0.1253829   0.09945751 -78.72 0.0007033448    1.748    0.428
       228 -11.1182     14.0252    159.0876   1.0674938263e+02   3.9202059060e+01      0.27492    0.2278051 -71.97 0.0006959041    1.115    0.103
       229 -10.4442     19.0659    164.7731   1.0582199590e+02   3.7325250819e+01     0.242575    0.1889441 -21.99  0.001360873    1.622    0.384
       230 -10.1140    204.9552    163.2261   5.8063565107e+01   9.8612711648e+00    0.2407053    0.1712311 -35.67 0.0006548699    1.225    0.183
       231  -9.8429     53.5634    155.7781   9.4581504157e+01   3.6150200953e+01    0.2122623    0.1355466 -81.99 0.0006281437    1.680    0.405
       232 -10.6909      9.3490    155.4926   1.0779055504e+02   4.0483761299e+01    0.2401545    0.1110883 -77.46  0.001074701    1.889    0.471
       233  -9.8791     65.6492     10.4236   4.5605450870e+01   6.5317785342e+01    0.2329319    0.1165849  59.32  0.001055208    2.009    0.502
       234 -10.0280    104.2421    154.0007   7.9347196815e+01   2.9191920387e+01    0.2121101    0.1268354 -54.48 0.0008957991    1.647    0.393
       235 -12.1810     22.1340    149.7496   1.0341005631e+02   4.0982489516e+01    0.7335202    0.3254418 -36.30  0.001851205    3.196    0.687
       236 -10.8014      3.3912    152.7397   1.0929901339e+02   4.1604849756e+01    0.3105027    0.1765646  62.24  0.001551418    1.776    0.437
       237 -11.5926      3.0632    147.5073   1.0897328594e+02   4.2979847485e+01    0.4587846    0.2655015 -36.84  0.002273867    2.068    0.516
       238 -11.3208      5.5530    142.4589   1.0777984600e+02   4.4135781542e+01    0.2680913    0.2099353  85.94 4.732906e-05    1.154    0.133
       239 -11.7315      1.9534    141.3111   1.0878828712e+02   4.4659266028e+01     0.432875    0.2381805 -77.64  0.001592009    1.543    0.352
       240  -9.5393    141.2251    152.4000   6.9291723922e+01   2.3035055643e+01    0.2100251    0.1410766  48.38 0.0005219886    1.650    0.394
       241 -11.5543     47.7934    147.0292   9.5059786125e+01   3.9141672133e+01    0.6512381    0.4224226 -29.90  0.002964427    1.939    0.484
       242 -11.3117     15.9881    147.9369   1.0510000329e+02   4.1958722826e+01    0.2855981    0.2593834  58.60 0.0009371942    1.148    0.129
       243  -8.9688     74.3252    145.7267   8.6548542703e+01   3.6015666606e+01    0.1529829    0.1131447  64.84  0.000698206    1.580    0.367
       244 -11.1576     33.1687    144.4393   9.9321890238e+01   4.1384815578e+01    0.2989743    0.2572331  83.06 0.0007975319    1.130    0.115
       245 -12.4259     12.9418    137.0412   1.0490973019e+02   4.5058147401e+01    0.6653371    0.4399576 -83.27  0.003488582    1.372    0.271
       246 -10.2930     40.5872    138.8162   9.6130040091e+01   4.2126686082e+01    0.4342365     0.159654 -64.67  0.001602501    2.382    0.580
       247  -9.4542     79.3610    138.1475   8.3516793868e+01   3.7224821030e+01    0.2211308     0.142803 -70.71 0.0009421315    1.726    0.421
       248 -10.1999     31.8702    137.7000   9.8824412331e+01   4.3305089535e+01     0.263088    0.2262874  51.78   0.00107825    1.223    0.182
       249 -11.8231     21.9892    136.2407   1.0187396133e+02   4.4573273824e+01    0.5246062    0.3651746  47.95   0.00209765    1.526    0.345
       250 -11.3405     30.0709    133.0267   9.8761841356e+01   4.4721019747e+01    0.4221359    0.2369411 -38.91  0.001118163    1.997    0.499
       251  -9.4658     73.3202    133.6570   8.4520001271e+01   3.9302480125e+01      0.15948    0.1166419  72.31 0.0007049855    1.723    0.420
       252 -10.0074     39.2392    133.3687   9.5734783670e+01   4.3722607847e+01    0.2013679    0.1746211 -10.44 0.0006892968    1.316    0.240
       253  -9.6308     92.9917    129.7739   7.7491082557e+01   3.7135164119e+01    0.2312936    0.1763278 -82.15  0.001046891    1.628    0.386
       254 -10.5619     22.8763    126.9620   1.0035385157e+02   4.6968511018e+01    0.2049951    0.1981478 -36.82 0.0002774719    1.134    0.118
