#   1 NUMBER                 Running object number                                     
#   2 MAG_AUTO               Kron-like elliptical aperture magnitude                    [mag]
#   3 X_IMAGE                Object position along x                                    [pixel]
#   4 Y_IMAGE                Object position along y                                    [pixel]
#   5 X_WORLD                Barycenter position along world x axis                     [deg]
#   6 Y_WORLD                Barycenter position along world y axis                     [deg]
#   7 A_WORLD                Profile RMS along major axis (world units)                 [deg]
#   8 B_WORLD                Profile RMS along minor axis (world units)                 [deg]
#   9 THETA_WORLD            Position angle (CCW/world-x)                               [deg]
#  10 FWHM_WORLD             FWHM assuming a gaussian core                              [deg]
#  11 ELONGATION             A_IMAGE/B_IMAGE                                           
#  12 ELLIPTICITY            1 - B_IMAGE/A_IMAGE                                       
         1 -12.9606     83.1647     81.6057   9.5011490515e+01   4.9679958850e+01     2.317366     1.170378 -61.18  0.009214308    2.271    0.560
         2 -11.1735     58.6967      5.3212   7.2305958829e+01   6.8876520069e+01     2.388391    0.6986465  50.83   0.00853112    3.480    0.713
         3 -12.4518     50.7511     93.6488   1.0883384246e+02   5.1686052688e+01     2.432594     1.503619 -45.99   0.01222904    1.726    0.420
         4 -12.1844     38.8210     85.7541   1.1152571343e+02   5.4950034843e+01     1.814144    0.8255727 -56.41  0.008315681    1.932    0.483
         5 -13.2306     55.6577     68.0330   1.0103391949e+02   5.7127351825e+01     2.460129     1.508036  51.98  0.007341096    1.927    0.481
         6 -11.7854     69.6027     18.9377   7.5661773967e+01   6.4718333467e+01    0.9045612    0.5590538  19.86  0.004036435    2.173    0.540
         7 -11.4456     14.7847     36.3182   1.1066249122e+02   6.8848226211e+01     1.272225    0.6469636 -56.21  0.003228445    1.560    0.359
         8 -12.1249    117.8129     49.5993   7.3782954792e+01   4.8899882630e+01     1.495967     1.375032  52.64  0.008004939    1.110    0.099
         9 -11.0406      7.0563     56.0199   1.1903797908e+02   6.4703504579e+01     1.148874    0.6772651 -87.05  0.006326289    1.615    0.381
        10 -12.3839      8.3823     26.1567   1.1126068088e+02   7.1585945348e+01    0.8259565    0.5933547 -26.36  0.005191019    1.453    0.312
        11 -11.8013     48.0508     20.7148   8.6174593931e+01   6.8305881895e+01     1.419733     1.076236 -80.58  0.003595491    2.253    0.556
        12 -11.8640    129.4845     20.4625   5.9400733276e+01   5.0222760910e+01     1.262891    0.9150496  30.44  0.005058672    1.500    0.333
        13 -12.3621    102.2100     55.2837   8.0361943018e+01   5.1450476188e+01      2.73544     1.448536  27.09  0.009315136    3.264    0.694
        14 -13.1529     71.5060     30.5215   8.0688925396e+01   6.2399685732e+01     3.081133     1.089675  51.07   0.01070349    3.368    0.703
        15 -11.9602     37.1731     41.7918   1.0081451921e+02   6.5482150968e+01     1.487236     0.887473  -2.12  0.006688379    2.718    0.632
        16 -12.4433     54.9835     36.6342   9.0407521761e+01   6.4136983354e+01    0.8672178    0.8011149  75.53  0.004596475    1.316    0.240
        17 -12.8278     84.2464     57.5124   8.7030132367e+01   5.4710186039e+01     2.352012     1.496738 -12.48   0.00693192    2.760    0.638
        18 -12.2862     31.8401     22.2069   9.5592747982e+01   7.0285363949e+01     1.358625    0.9591697 -56.52  0.007755384    1.418    0.295
        19 -12.4416     24.6268      6.1236   9.1323676883e+01   7.4247164647e+01    0.7920146    0.4046937 -45.60  0.002895435    1.720    0.418
        20 -11.9656    110.2093     31.2203   6.8429793943e+01   5.3706601675e+01     1.009976    0.7499837  68.48  0.004327588    1.509    0.337
        21 -12.5611    113.6650     20.2865   6.2775546143e+01   5.4353418130e+01     1.603361     1.063031  10.92  0.007101194    1.885    0.470
        22 -12.9149     99.7254      7.7601   6.0244622878e+01   5.9343617009e+01    0.9950264    0.6022266  53.52  0.002629056    1.564    0.361
        23 -11.7538     90.4995     21.1971   6.9508248842e+01   5.9863189240e+01    0.7549255    0.4323362 -10.61  0.002500072    2.287    0.563
        24 -13.1206     16.7186     10.0133   9.8974513096e+01   7.4369852172e+01      1.45574     1.027809  60.57  0.008123655    2.332    0.571
        25 -12.7333      2.9340     17.6536   1.1194511351e+02   7.3792662855e+01    0.3961661    0.2580596 -38.15 0.0005944549    1.386    0.279
        26 -12.8079      3.8320      9.9197   1.0828658850e+02   7.5408985098e+01    0.6813923    0.2990292 -53.75   0.00166075    1.717    0.418
        27 -11.3175     23.7910     30.1912   1.0358069438e+02   6.9468687545e+01    0.9927383    0.3664199 -63.67  0.003929423    2.857    0.650
        28 -10.8702    133.8929     52.9601   7.0986741236e+01   4.4402591663e+01     2.734991      1.29059 -11.21  0.006204132    7.044    0.858
        29 -11.2162    165.8032     59.2185   6.6395371242e+01   3.5374940745e+01     2.359687    0.4665039 -32.35  0.006191107    4.433    0.774
        30 -10.3582    203.0720     25.8328   5.0533811733e+01   3.0200888154e+01    0.7889965     0.649483  61.51  0.004385321    1.273    0.214
        31 -11.1868    212.6826      4.7990   4.3515885604e+01   2.9877623006e+01    0.8191712       0.4334 -88.61  0.002413971    2.108    0.526
        32 -10.3397    221.5224     11.3823   4.4701557507e+01   2.7151646944e+01    0.4172592    0.3269756 -50.11  0.001453401    1.173    0.148
        33  -9.7046    226.2027      8.3012   4.3515820399e+01   2.6335027909e+01    0.3936324    0.2443339  12.42  0.001193737    2.160    0.537
        34 -10.4070    213.1146     24.1321   4.9018915173e+01   2.7911065791e+01    0.6948023     0.399121  49.21  0.003278803    1.911    0.477
        35 -10.6071    211.0430     17.3450   4.7257756639e+01   2.9104405722e+01    0.5374396    0.3587255  54.95  0.001358343    1.597    0.374
        36 -10.1914    213.4312     11.8864   4.5482838340e+01   2.9048166098e+01    0.4143357    0.2964805  75.68  0.001871939    1.459    0.314
        37 -11.8697     74.6262     49.5627   8.7565702816e+01   5.8152269033e+01     1.509432    0.7561713 -38.53  0.006275176    2.002    0.500
        38 -10.2924    248.7096      2.2622   4.0569111595e+01   2.1839484205e+01    0.2592094    0.1964312 -55.85  0.000536477    1.204    0.169
        39 -11.0617    236.8910     30.8420   4.8683880527e+01   2.1697430303e+01    0.7801985    0.5230038  -9.08  0.004105513    1.576    0.365
        40 -10.0630    243.6300     12.1318   4.3342157173e+01   2.2053064425e+01    0.4996201    0.3064744  -7.92  0.002361686    1.802    0.445
        41  -9.9305    243.9182      5.1137   4.1548611108e+01   2.2624045880e+01     0.460974     0.158629 -26.29  0.001974009    2.344    0.573
        42 -10.2012    239.8360     16.8592   4.4812098921e+01   2.2440874581e+01    0.5847256    0.2043012 -41.53  0.001519857    2.373    0.579
        43 -10.2908    177.2134     20.3351   5.1782338368e+01   3.7451887395e+01    0.6937292    0.4313963  69.84  0.003210994    1.619    0.382
        44  -9.4576    189.5212      8.3131   4.6520364509e+01   3.5408975712e+01    0.4956144    0.2003781  52.39  0.001920692    2.540    0.606
        45 -10.1479    181.8267      5.1322   4.6237372938e+01   3.7712258083e+01    0.5360329    0.3376963  86.61  0.002440675    1.655    0.396
        46 -10.0018    173.5924      7.8107   4.7983150512e+01   3.9659983955e+01    0.6970035     0.279951 -15.01  0.002541675    2.762    0.638
        47 -11.2490    178.5931     28.2961   5.4240058996e+01   3.6205338245e+01     1.190195    0.4472281  52.57  0.004311098    2.606    0.616
        48 -10.1454    187.1550     20.2072   5.0553043141e+01   3.4855769110e+01    0.5263486     0.446119  45.68  0.002082721    1.247    0.198
        49  -9.9171    147.2533     23.9610   5.7484847784e+01   4.5067147490e+01    0.6350687    0.3354004 -19.57  0.001967287    2.007    0.502
        50 -10.5469    164.7961      4.7826   4.7912228924e+01   4.2299370262e+01    0.9607727    0.4507143  62.97  0.003170078    1.982    0.495
        51 -11.3318    150.2516     15.2690   5.3699272831e+01   4.5232171257e+01     1.098577    0.7695628  15.49  0.003016634    1.687    0.407
        52  -9.9906    166.9902     12.5535   5.0396837345e+01   4.0981256067e+01    0.6423227    0.3571147  86.07  0.002691577    2.052    0.513
        53 -11.2707    159.3520     20.5021   5.4269541635e+01   4.2209457815e+01    0.8257214    0.5741894   2.49  0.001601719    1.695    0.410
        54 -10.2779    204.2724     17.1334   4.7821677607e+01   3.0800132998e+01    0.7638412    0.3330079  28.67  0.002393192    4.534    0.779
        55  -9.7045     81.9082     20.3304   7.1877092940e+01   6.1919122935e+01    0.4402986    0.3514783 -65.69  0.002279275    1.639    0.390
        56 -10.1877    233.3219     17.0097   4.5329822669e+01   2.3882793193e+01    0.5712113    0.2909275  57.18  0.002529564    2.134    0.531
        57 -10.2789    199.1732     16.2504   4.8048062619e+01   3.2171027499e+01    0.3055825    0.2422614  50.07 0.0009871502    1.348    0.258
        58 -11.0520    199.3221      5.6934   4.4832109675e+01   3.3127178395e+01    0.8411633    0.3784221 -27.44  0.002496646    2.004    0.501
        59 -11.0741    233.2399     10.0439   4.3494662051e+01   2.4556278961e+01    0.4397899    0.3507466   7.28 0.0002384963    1.451    0.311
        60 -12.3637    111.1887      7.5620   5.7498548185e+01   5.6453249159e+01     1.074168     0.331428  67.59  0.002202798    3.497    0.714
        61  -9.6648     78.0318      8.9520   6.7147154893e+01   6.4341523157e+01    0.2609594    0.2396167 -61.78 0.0007361014    1.305    0.234
        62  -9.1426     77.6660      4.6273   6.4820354394e+01   6.4946335505e+01    0.2762128     0.174374   8.79 0.0008758886    1.879    0.468
        63  -8.9059    139.1888      8.3660   5.2705714778e+01   4.8926717930e+01     0.233623      0.17017  56.00  0.001061449    1.315    0.239
        64 -10.7809    132.2508      4.4787   5.2200911559e+01   5.1167746784e+01    0.5511743    0.3270156  50.32  0.001590652    1.610    0.379
        65 -11.1739    138.6805      2.3267   5.0328196686e+01   4.9616041123e+01    0.4264882    0.3023321  -0.89 0.0004409718    1.554    0.356
        66  -9.4585    152.5512     25.5172   5.7168906849e+01   4.3461154344e+01    0.5784737    0.3545263  -7.31 0.0008159106    1.947    0.486
        67  -9.2478    250.4846      7.8721   4.1854087438e+01   2.0968122996e+01    0.2854854    0.1175323 -30.05  0.001067219    1.916    0.478
        68  -9.4570    191.1593     40.0410   5.6282002478e+01   3.1564526188e+01     0.322987    0.2448497   0.30 0.0008158741    1.486    0.327
        69  -9.7741    235.3272    249.2351   9.3495909522e+01  -2.0669593650e+00    0.2220917    0.1121813  37.77  0.001139868    1.688    0.407
        70  -8.9116    183.5180    250.1684   1.0160506666e+02   4.3573336705e+00    0.1929579   0.09605646  48.43  0.001158693    2.303    0.566
        71  -8.6407    161.5798    250.2231   1.0519631462e+02   7.2217649615e+00    0.1190927   0.09199063  -9.63 0.0009471278    1.633    0.388
        72  -9.6959    151.4296    249.9058   1.0685425086e+02   8.5897997897e+00    0.1940549    0.1263511  48.33 0.0007570582    1.458    0.314
        73  -8.8223    124.8078    249.9966   1.1136943766e+02   1.2045082218e+01     0.145894    0.1080313   3.38 0.0007687975    1.946    0.486
        74 -11.4071     15.3560     86.1389   1.2014467114e+02   5.6929781257e+01     1.054567    0.2958366 -57.15  0.004237686    2.915    0.657
        75 -12.3174     27.2659     79.0377   1.1461427361e+02   5.7698541262e+01     1.728748    0.5569348 -54.48  0.006993071    2.638    0.621
        76  -9.1380    217.5166    246.9350   9.5870946574e+01   3.0552015631e-01     0.155203   0.09341116 -28.63  0.001131331    2.048    0.512
        77  -8.6961    211.3563    239.8026   9.5910369362e+01   1.7280975230e+00    0.1302425   0.08311816  -8.74 0.0009453586    1.704    0.413
        78 -10.5832     14.8591    237.5659   1.2962961075e+02   2.6243987659e+01    0.3246105     0.154888  78.53  0.001239837    1.914    0.478
        79  -9.7287     12.5970    231.7856   1.2984734067e+02   2.7345032159e+01    0.2663851    0.1269973  64.29  0.001905186    1.593    0.372
        80  -8.5602    128.0201    238.0003   1.0969366500e+02   1.3133511822e+01    0.1345547    0.0959348  39.45 0.0006411503    1.028    0.027
        81  -8.9462    180.4916    234.5296   1.0024369568e+02   6.3811192695e+00    0.1097419   0.07896814  27.75 4.273993e-05    1.029    0.028
        82  -9.0005    227.0080    231.6249   9.2387457521e+01   4.4661822174e-01    0.1529471   0.09284601  26.75 0.0005409928    1.194    0.162
        83 -11.7192     41.1689     50.7033   1.0192971156e+02   6.3000157570e+01    0.8983381    0.4865503  20.70  0.004162077    2.370    0.578
        84  -8.4298    218.6752    230.6812   9.3547039284e+01   1.6179154365e+00    0.1104668   0.06194258  15.05 0.0003696953    1.675    0.403
        85  -9.4582    202.3001    229.0299   9.5933306263e+01   3.9724392065e+00    0.1869596    0.1184881  34.56 0.0003143754    1.247    0.198
        86  -8.7800     50.3398    227.6210   1.2296242476e+02   2.4244930126e+01    0.1635371    0.0821055  57.19 0.0009858679    1.586    0.370
        87  -8.7900     53.3207    224.2958   1.2222486266e+02   2.4445073064e+01   0.08786878   0.07892986  13.18 0.0004358433    1.615    0.381
        88  -9.1039     99.2283    223.7841   1.1359947664e+02   1.8940989822e+01    0.1767815   0.07603189  29.98 0.0008827875    2.464    0.594
        89  -8.7189    111.9764    225.3122   1.1136439820e+02   1.7020150239e+01    0.1915842   0.05144849  49.59 0.0007045307    4.252    0.765
        90  -8.4241     33.6653    219.6563   1.2562494181e+02   2.7285847253e+01   0.08617514    0.0791823 -25.50 0.0003014468    1.763    0.433
        91  -8.9591      3.1957    214.1424   1.3101988856e+02   3.1035708419e+01    0.1536916   0.05433781  80.01 0.0008669659    2.605    0.616
        92 -11.2867     97.0966     21.4472   6.7652980599e+01   5.8284645525e+01    0.3019111    0.2738208 -16.83 0.0001831926    1.074    0.069
        93  -9.6060     26.6382    212.1983   1.2660311368e+02   2.9235493617e+01    0.1529337   0.09827441  53.52  0.001135324    1.129    0.114
        94  -8.8635     13.7204    212.3553   1.2903256119e+02   3.0420080577e+01    0.1104862     0.049778  60.00 0.0007012619    1.657    0.396
        95  -8.5952    244.4832    204.4603   8.5681477589e+01   6.2410517006e-01    0.1115673   0.07852988  13.39 0.0008087757    1.040    0.039
        96  -9.4168     17.8954    202.2392   1.2786067475e+02   3.1798159936e+01    0.1876881    0.1703536  73.66  0.001605901    1.338    0.252
        97  -9.1913     98.6391    142.9456   1.0377825144e+02   3.3520336897e+01    0.3802382    0.2030278 -82.33 0.0008629766    3.643    0.726
        98  -9.7491     70.6813    142.8345   1.1092701224e+02   3.7733835213e+01    0.2455611    0.1671707  48.74 0.0005854416    1.350    0.259
        99  -9.5102     80.0655    141.2321   1.0825177326e+02   3.6751126766e+01    0.2039364    0.1800869 -82.02  0.000441962    1.120    0.107
       100 -11.4525     53.5646    133.7188   1.1429603670e+02   4.1964752800e+01     0.763947    0.4011806  64.93  0.003599166    2.165    0.538
       101 -10.3605     29.5425    119.7168   1.1948288161e+02   4.7768101038e+01    0.4703462    0.3548137  54.09   0.00244651    1.264    0.209
       102 -11.1474     47.4161    129.3860   1.1545809565e+02   4.3671712386e+01    0.8226398    0.3442342 -61.33  0.002771193    2.223    0.550
       103 -11.2425     43.0191    115.5798   1.1493234891e+02   4.7364643460e+01     0.716688     0.522854 -72.30  0.002557912    1.247    0.198
       104 -11.1659     35.7734    109.3771   1.1632695121e+02   4.9592862296e+01    0.6974844     0.462652  25.40  0.002660113    1.750    0.429
       105 -10.8040     41.7071    128.6382   1.1697752607e+02   4.4478190620e+01    0.3445093    0.2371392  84.58  0.002000553    1.365    0.267
       106 -11.2194     36.8737    121.7749   1.1755871345e+02   4.6569716317e+01    0.7209975    0.5614947  35.02  0.004503632    1.391    0.281
       107  -9.1090    237.0426    135.4950   7.4084099513e+01   9.1742727697e+00    0.1845242    0.1161543  41.45  0.001035827    1.599    0.375
       108  -9.3254     31.2772    134.5744   1.2050185607e+02   4.4200106691e+01     0.213371    0.1463028  24.01 0.0007280675    1.726    0.421
       109 -10.7082     56.4954    112.4434   1.1034495241e+02   4.6505502011e+01     0.628562    0.3795643  37.20  0.001085856    1.689    0.408
       110 -10.6685     56.4090    125.5928   1.1239637410e+02   4.3463345951e+01    0.3941706    0.3171435 -70.86  0.001436432    1.191    0.160
       111 -10.4862     59.2260    120.7341   1.1085613881e+02   4.4224234091e+01    0.4358075    0.3311624  73.16  0.002500337    1.298    0.230
       112  -9.5170     63.7846    113.8665   1.0837322601e+02   4.5213400506e+01    0.3871278    0.1707759  43.48  0.001672779    2.218    0.549
       113 -11.0512     65.7867    130.9409   1.1053938422e+02   4.1029744605e+01    0.2614815    0.2352399  86.17  0.001650059    1.039    0.037
       114 -11.4857     67.8060    121.8073   1.0853665139e+02   4.2827120626e+01    0.9002178    0.3887426 -51.19  0.003807943    2.430    0.589
       115 -10.1452     72.9008    129.2947   1.0831774064e+02   4.0413195237e+01    0.2911307    0.2198561 -84.78  0.000344491    1.341    0.254
       116  -9.3729     34.6046    129.7571   1.1910069967e+02   4.4962894573e+01     0.292802    0.1741089  74.56  0.001537519    1.655    0.396
       117  -8.4557     81.0153    125.2387   1.0538497319e+02   4.0122694056e+01    0.1737858    0.1106636  38.65  0.000648862    1.556    0.357
       118  -8.8296     75.9757    125.1989   1.0678471680e+02   4.0887504452e+01     0.236742    0.1342689  60.58  0.001069744    2.051    0.513
       119  -8.9929     18.2446    124.9804   1.2326371020e+02   4.7546935801e+01    0.1824047    0.1577977  87.61 0.0006085469    1.094    0.086
       120 -10.8035     19.1336    118.8233   1.2246549416e+02   4.8890299303e+01    0.4795186    0.2326403 -68.32  0.001773967    1.803    0.445
       121  -9.9742     91.3292    121.1845   1.0177148726e+02   3.9383744140e+01    0.3964535    0.3814906  44.23  0.001403645    1.108    0.098
       122  -9.7108     92.3596    114.7349   1.0018235830e+02   4.0639317762e+01    0.4618681    0.2823422 -76.33  0.001356104    2.179    0.541
       123  -8.9440    132.0675    119.6423   9.0827458310e+01   3.2221357606e+01    0.2013954    0.1784354  38.77  0.000550949    1.095    0.087
       124  -9.6078    105.5030    117.8352   9.7220156971e+01   3.7659443555e+01    0.4472993    0.2952734  76.81  0.001953238    2.240    0.553
       125  -9.4268    116.0022    116.8570   9.4232009148e+01   3.5917572328e+01    0.2248043    0.2059005 -52.81 0.0002882649    1.122    0.109
       126  -9.3887     81.4669    114.9013   1.0333353076e+02   4.2380775719e+01    0.3024887    0.2099625  24.31  0.001505193    1.761    0.432
       127  -8.5498     23.2580    115.4262   1.2090521762e+02   4.9334403500e+01    0.1595928   0.09978949  48.52 0.0005070556    1.543    0.352
       128  -9.8103     98.3947    113.3754   9.8200794383e+01   3.9896028310e+01     0.423389    0.2840804  27.90  0.001700758    1.762    0.432
       129 -10.3471    132.9840    110.8930   8.8540474640e+01   3.3760522136e+01    0.4995939    0.3631069  46.73  0.002476454    1.344    0.256
       130  -9.6595    107.9051    109.3442   9.4669480673e+01   3.9037168760e+01    0.3151087    0.2074285 -27.52  0.001383421    2.111    0.526
       131  -8.5058    104.3845    109.2659   9.5618306680e+01   3.9710099296e+01    0.2425377    0.1695954  63.63 0.0004920675    1.664    0.399
       132 -10.6424     68.8627    106.0237   1.0536688591e+02   4.6329361310e+01    0.7243387    0.3514061 -37.47  0.002686356    3.320    0.699
       133  -9.6661     74.7894    107.2135   1.0378413581e+02   4.5173815218e+01    0.3529815    0.2742881  30.89  0.001212407    1.422    0.297
       134 -10.6941     77.8603    101.9965   1.0174312442e+02   4.5902480307e+01    0.6969643    0.3209763  40.26  0.002922713    2.180    0.541
       135  -9.5059    113.9591    107.0124   9.2477895399e+01   3.8373302053e+01    0.2884909    0.2095877 -47.80  0.001220388    1.395    0.283
       136 -10.2228    133.9195    103.0795   8.6350670859e+01   3.5103567708e+01    0.4123895    0.2193179 -39.81  0.001259246    1.945    0.486
       137 -10.5754    141.7303    102.1494   8.4220081970e+01   3.3609200061e+01    0.3767774    0.3243316  -5.14 0.0008817734    1.303    0.233
       138  -9.7753    105.6421    102.9145   9.3759274256e+01   4.0847869263e+01    0.3642385    0.2850322  66.24  0.001261603    1.424    0.298
       139  -8.9170    106.1062     98.8007   9.2602654796e+01   4.1646080787e+01    0.2554314    0.1960862  57.91 0.0007745142    1.377    0.274
       140  -9.3814    171.0868    102.6153   7.7894808465e+01   2.7063368502e+01    0.3901059    0.2429072  27.05  0.001681385    1.983    0.496
       141  -9.2538    115.4747    100.5615   9.0464430626e+01   3.9428302327e+01    0.2570007    0.1375026 -36.32  0.001020871    2.189    0.543
       142  -9.1191    110.8755    100.6409   9.1739065644e+01   4.0324339935e+01    0.2227288    0.1952554 -38.55 0.0003850455    1.186    0.157
       143 -10.1977    122.4561     99.1687   8.8246492346e+01   3.8292432095e+01    0.4243444    0.3458784  10.46  0.002122226    1.513    0.339
       144  -9.4583    160.3117     96.9830   7.8652195019e+01   3.0439422460e+01    0.4975175     0.250907  35.29  0.001549852    2.408    0.585
       145  -9.7482    156.5408     94.7095   7.8851691387e+01   3.1693279149e+01    0.4102962    0.3416583  74.20  0.002082737    1.425    0.298
       146  -9.2943    226.6923     95.7462   6.6572733766e+01   1.6134880181e+01    0.2168385    0.1955246  41.60 0.0008341743    1.220    0.180
       147  -9.8715    140.6730     95.4172   8.2674117379e+01   3.5121759930e+01      0.34664    0.2728472  47.62 0.0005283873    1.261    0.207
       148 -10.6082    113.6996     94.6619   8.9403596384e+01   4.1022294503e+01    0.5607764    0.3031053  50.30  0.002333257    1.920    0.479
       149 -10.1261    123.9451     81.7427   8.2966362156e+01   4.1481896471e+01    0.5485751    0.3099469 -51.44  0.002245567    1.936    0.483
       150 -10.9180    123.8396     92.8003   8.6171882179e+01   3.9295423748e+01     0.646997    0.4072568  61.76  0.002762412    1.940    0.485
       151 -11.2675    120.2590     86.8143   8.5437196953e+01   4.1270774783e+01    0.8160324    0.3313685  53.17  0.002790851    2.819    0.645
       152 -11.2348    106.6729     88.6283   8.9735709630e+01   4.3713231532e+01    0.9706105    0.6120965 -31.19  0.004199077    1.938    0.484
       153 -11.5237     98.8595     77.1634   8.8729258146e+01   4.7713398571e+01    0.9791762    0.6089787  52.36  0.004373875    1.734    0.423
       154 -11.3566    103.9574     80.7056   8.8254474605e+01   4.5939423145e+01    0.5519255    0.3839738  26.57  0.001230371    1.775    0.436
       155 -10.1728    105.9437     75.8880   8.6206090777e+01   4.6538595156e+01    0.3981399    0.3233014  74.30  0.001146203    1.463    0.317
       156  -9.9695    149.3900    106.8255   8.3644915185e+01   3.1075043302e+01    0.5084786    0.2331118 -35.33   0.00181155    2.366    0.577
       157  -8.5292    213.0085     89.4893   6.7042162080e+01   1.9829394418e+01    0.2007907    0.1039454  32.16 0.0008092726    2.442    0.591
       158 -10.3842    131.7376     62.3972   7.4785281240e+01   4.3313860979e+01    0.6661922    0.3995082  74.39  0.001271365    2.558    0.609
       159 -10.9723    145.5681     86.4908   7.9013415849e+01   3.5685111007e+01    0.7885228    0.6602753 -15.76  0.004008061    1.293    0.227
       160 -10.6263    150.5516     66.4933   7.1797233612e+01   3.8018219921e+01     0.564177    0.4656639 -42.97  0.002833552    1.218    0.179
       161  -8.8944    131.9306     67.4968   7.6438815038e+01   4.2353739736e+01    0.2845439     0.190047  46.25  0.001113111    1.510    0.338
       162 -12.1590    145.8054     75.2095   7.5592546875e+01   3.7665491422e+01    0.9891183    0.5166962  52.91  0.003967092    1.933    0.483
       163 -10.9924    139.4753     69.0044   7.5105155188e+01   4.0281056121e+01    0.9633244    0.4804204  56.47  0.001925454    2.120    0.528
       164 -11.6817      5.3322    144.2031   1.2798631239e+02   4.4287208739e+01    0.6098018    0.3821392  87.74  0.002224986    1.321    0.243
       165  -8.9459    234.1516    200.0835   8.6554260421e+01   2.4629555934e+00     0.195418    0.1145959 -12.78  0.001244971    1.691    0.409
       166  -8.9134    224.7453     85.0067   6.4180905651e+01   1.7933291310e+01    0.1919442    0.1607566 -18.16  0.001110013    1.070    0.065
       167 -10.5129    161.2435     81.8717   7.4222059785e+01   3.2836625729e+01    0.4150093    0.3460869  48.35 0.0005398694    1.205    0.170
       168 -12.3535     11.4222    127.9733   1.2540504043e+02   4.7405942487e+01     1.157225    0.9376035 -77.59  0.002431716    1.197    0.165
       169  -8.7608    173.0480     83.0194   7.2180634920e+01   2.9857470094e+01    0.2229229    0.2116155  -9.29 0.0004439735    1.017    0.017
       170 -10.8156    133.7560     80.5022   8.0080351366e+01   3.9513300531e+01     0.501546    0.3783662  63.52  0.001525124    1.478    0.323
       171  -9.8173    216.1249     77.6794   6.3512172693e+01   2.0748220551e+01    0.5317937    0.2833147 -49.91  0.002249229    2.319    0.569
       172  -9.5118    112.0681     58.1443   7.8500259588e+01   4.8708003771e+01    0.2980344     0.208451 -19.82 0.0008883033    1.696    0.410
       173 -10.2081    101.5373     69.1038   8.5368425161e+01   4.8853188457e+01    0.5550789    0.5202721  34.68  0.002591585    1.103    0.093
       174 -10.2969    114.3438     77.5109   8.4292117849e+01   4.4425402290e+01    0.4954922    0.3536305 -45.67   0.00110227    1.387    0.279
       175 -10.1542    124.0030     74.9317   8.0861206167e+01   4.2798854158e+01    0.5799819    0.3132926  42.99  0.001895096    1.918    0.479
       176 -10.9907    118.6057     64.8483   7.9016904759e+01   4.5955045083e+01    0.7572117    0.4705503  46.10  0.002426296    1.632    0.387
       177 -10.3843    126.1733     70.0899   7.8746066162e+01   4.3224530533e+01    0.5312979    0.3683181 -86.04  0.001763019    2.339    0.573
       178 -10.9953    114.8815     70.4201   8.1895828856e+01   4.5720641582e+01    0.8129194    0.5204775  60.07  0.003531059    1.801    0.445
       179 -10.3124    108.3570     69.5649   8.3482203193e+01   4.7316031612e+01    0.6207321    0.2395169 -49.30 0.0009881208    2.855    0.650
       180 -10.7818    111.5397     64.3415   8.0815472313e+01   4.7648334757e+01    0.5531037     0.407349 -17.03  0.001547326    1.653    0.395
       181  -8.7136      5.7625     77.9836   1.2270843076e+02   5.9505028381e+01    0.3661554    0.2489942   3.57  0.002211303    1.930    0.482
       182  -9.5481      3.3676     74.2790   1.2320055123e+02   6.0523735809e+01    0.3427356    0.2034614 -47.10  0.001661408    1.729    0.422
       183  -9.5052      6.0002     71.0000   1.2174929729e+02   6.1169015397e+01     0.350949     0.160684  18.33  0.001766136    2.624    0.619
       184  -9.3288    203.9257     76.0430   6.4884254810e+01   2.3706113726e+01    0.4369933    0.2231532  38.60  0.001795885    2.269    0.559
       185  -8.9402    248.4313     76.4961   5.9052570110e+01   1.4171044569e+01    0.1315417    0.1105203 -23.17 0.0008062003    1.046    0.044
       186  -9.9794    163.8603     75.0244   7.1662670658e+01   3.3353964362e+01    0.3470062    0.3165462  76.17 0.0007837408    1.204    0.170
       187  -9.7057    125.7052     64.8480   7.7134317677e+01   4.4307420486e+01    0.3629775    0.2895108   5.95 0.0008779949    1.533    0.348
       188 -10.2096    190.4821     76.9629   6.7308198242e+01   2.6688876579e+01    0.4379922    0.2639315  27.94 0.0006165436    2.126    0.530
       189 -10.0207    178.2053     69.7583   6.7364230357e+01   3.0702208342e+01    0.5648838    0.3409873  37.46  0.001505603    1.862    0.463
       190  -8.8774    170.4774     70.3492   6.8963781877e+01   3.2495842374e+01     0.300505    0.1785019  52.81  0.001299547    1.691    0.409
       191 -11.3162    152.8622     43.5724   6.3619148728e+01   4.1005075152e+01     1.248706    0.5126929  66.04  0.003052352    2.795    0.642
       192  -8.2834    169.5229    200.5260   9.7609545255e+01   1.2071816894e+01    0.1192827   0.09577908  31.90 2.229498e-05    1.044    0.042
       193  -9.1755     27.3854    193.7775   1.2557930265e+02   3.2427736498e+01    0.1801669    0.1251662 -78.61  0.001229659    1.500    0.333
       194 -10.0519    160.4035     50.8524   6.4680484512e+01   3.7998378110e+01    0.4765307    0.3983074 -25.49  0.002099231    1.185    0.156
       195 -10.4611    143.5752     58.1736   7.0584874159e+01   4.1129527524e+01    0.2731682     0.255529  21.40 0.0002915104    1.093    0.085
       196 -10.5701    140.6850     52.0993   6.9130528830e+01   4.2840839618e+01     0.463872    0.4145705  73.38  0.001360199    1.193    0.162
       197 -10.9925    154.8837     49.5092   6.5281311582e+01   3.9616227162e+01     0.796978    0.5024382  14.76  0.003137744    2.344    0.573
       198 -11.4977    147.2631     53.7817   6.8289374547e+01   4.0909584670e+01    0.4525244     0.354559  49.68 0.0002127578    1.279    0.218
       199 -10.8378    145.0225     49.0210   6.7109791694e+01   4.2221450195e+01    0.4482197     0.338617  49.74   0.00215231    1.323    0.244
       200 -11.2134    141.7357     45.0551   6.6391091363e+01   4.3668107139e+01    0.4746615    0.3823931   4.34 0.0003801279    1.413    0.292
       201 -10.4357    135.9341     41.8862   6.6481489842e+01   4.5634705684e+01    0.4417112    0.3145623 -79.55   0.00120463    1.904    0.475
       202  -9.8633     84.3845     67.7556   9.0458502633e+01   5.2517622120e+01    0.3946017    0.2948356  46.36  0.001485334    1.407    0.289
       203  -8.2586     93.6269     65.7186   8.6730147527e+01   5.1166366989e+01    0.1508814    0.1173045   4.24 0.0007012966    1.702    0.413
       204 -11.6751     58.1407     48.5443   9.3749898985e+01   6.1150286623e+01    0.8588514    0.6581283 -85.02  0.004416558    1.773    0.436
       205 -12.1065     20.8332     56.3855   1.1279215068e+02   6.3691093602e+01     1.217569    0.6231314 -50.87  0.002254515    1.712    0.416
       206  -8.9392    211.8936     59.8311   5.9275838459e+01   2.4036131055e+01    0.2149173    0.1826625  13.49  0.000514131    1.248    0.199
       207  -9.3967    200.9844     59.9968   6.0836892365e+01   2.6582057823e+01    0.2400552    0.2144488  54.69 0.0007880728    1.183    0.155
       208  -9.5242    179.5216     44.8260   5.9459886244e+01   3.3920392410e+01    0.3813301    0.2437119  16.09 0.0009635098    2.136    0.532
       209 -10.7472    174.6446     56.3905   6.3912412250e+01   3.3564736577e+01    0.9512842     0.546468   6.42  0.002891515    3.020    0.669
       210 -10.1903    173.7107     48.2555   6.1485553259e+01   3.4948605924e+01    0.6021986    0.3915741  89.35  0.002557794    2.075    0.518
       211 -10.4534    185.3103     55.5579   6.1894610522e+01   3.1009303755e+01    0.6219861     0.330331 -14.66  0.001788932    2.294    0.564
       212 -11.0899    182.9184     51.7951   6.1117737090e+01   3.2123866334e+01    0.8045632    0.4390519  47.76  0.003108105    1.898    0.473
       213 -10.0612    150.2675     59.4301   6.9556790722e+01   3.9250726146e+01    0.5538761    0.3065503  63.92  0.002206998    2.036    0.509
       214  -8.6278    137.4416     59.2183   7.2336116543e+01   4.2475523413e+01    0.2875924    0.1714411  44.03 0.0007546924    1.734    0.423
       215  -8.4181    250.3032     58.6808   5.4494655057e+01   1.5837198947e+01    0.1338324   0.08642746 -48.97 0.0007026951    1.628    0.386
       216  -9.6042    243.7985     55.7132   5.4423615052e+01   1.7501551287e+01    0.4177099    0.1907245 -30.47  0.001907134    1.816    0.449
       217 -10.0995    222.9089     56.3633   5.6931014907e+01   2.1950856544e+01    0.4069482    0.3060804  50.21  0.001625139    1.433    0.302
       218  -9.6064    233.7677     55.2915   5.5391893693e+01   1.9679567897e+01    0.2857064    0.2547483  73.04  0.001100691    1.287    0.223
       219 -10.2997    198.0309     54.7585   5.9744790090e+01   2.7985993823e+01     0.289978    0.2667881  58.43 0.0002991853    1.149    0.129
       220  -9.7994    193.2189     53.8063   6.0161325767e+01   2.9288448826e+01    0.2785541    0.2503719  61.83 0.0006668511    1.172    0.146
       221  -9.8667    211.4279     50.0710   5.6605737838e+01   2.5367855335e+01    0.4110703    0.2692762 -13.04  0.001277664    1.602    0.376
       222  -8.9590     66.0018     50.9482   9.1421169859e+01   5.9372696787e+01    0.2032319    0.1849516 -31.83  0.001169659    1.062    0.058
       223 -10.5161    224.5806     47.9713   5.4470752914e+01   2.2571674464e+01    0.3415526    0.2162529 -32.47 0.0006231228    1.396    0.284
       224  -9.9669    220.0527     43.2495   5.3683565665e+01   2.4158848195e+01    0.4809583    0.1964555 -32.23  0.001782246    2.078    0.519
       225 -10.3177     66.9082     44.1817   8.8461209593e+01   6.0627580988e+01    0.4170778    0.3172335 -34.11  0.001214043    1.270    0.213
       226 -10.6207    207.0966     45.1295   5.5735503932e+01   2.7003967516e+01    0.4500091    0.3179956 -26.41 0.0008133341    1.316    0.240
       227  -8.7202    248.9757     45.0613   5.1241793747e+01   1.7603348351e+01    0.1989038    0.1459413  15.34 0.0006575451    1.605    0.377
       228  -9.2800    203.4355     37.7578   5.4031698758e+01   2.8773577943e+01    0.4244243    0.2330575  31.82  0.001239396    2.456    0.593
       229 -10.4601    227.5626     29.4024   4.9131424778e+01   2.3949856941e+01    0.5634475    0.3139547 -43.10  0.001720564    1.640    0.390
       230  -9.3895     11.1457    192.1353   1.2879929257e+02   3.4230071600e+01    0.2292352    0.1192824  40.90  0.001521423    1.564    0.361
       231  -8.7555    215.8567    189.3744   8.7722290407e+01   6.2751331789e+00    0.1750314   0.08702071  30.78 0.0009492485    1.749    0.428
       232 -10.4905    192.7585     33.1425   5.3946321308e+01   3.1983321821e+01    0.5504331    0.3569646  -8.43  0.001624399    1.741    0.426
       233 -11.0121    218.7999     34.3807   5.1353002987e+01   2.5453014975e+01    0.6070181    0.3831661  59.23  0.001279423    1.680    0.405
       234 -10.0252      1.7196    186.8971   1.3051944538e+02   3.5989220404e+01    0.4576521    0.1043305 -81.31  0.002041828    3.937    0.746
       235 -10.3682      1.6409    177.9865   1.3024525451e+02   3.7683601559e+01    0.3458736    0.1152751  88.32   0.00174841    2.746    0.636
       236 -10.7055    211.6199     31.0466   5.1155460499e+01   2.7534626724e+01    0.7894728    0.4318984  37.72   0.00342447    2.286    0.563
       237  -9.6429    219.7005     25.1140   4.8674998179e+01   2.6231062614e+01     0.325393    0.2141638  83.29 0.0006257261    1.701    0.412
       238  -9.5022    245.0203    187.5056   8.2797591432e+01   2.1805084538e+00    0.1942991    0.1398026  -8.08 0.0004658826    1.228    0.185
       239  -9.8558     11.3633    185.1762   1.2848132030e+02   3.5509467608e+01    0.2501986    0.1466777 -59.97   0.00161513    2.138    0.532
       240  -9.0816     32.3348    184.4762   1.2402566424e+02   3.3680206883e+01    0.1793614    0.0921315 -80.73 0.0007771883    1.904    0.475
       241 -10.1145      6.2825    182.5957   1.2943667647e+02   3.6427799767e+01    0.2367541    0.1544442  84.30 0.0006142276    1.308    0.236
       242  -9.4274    213.8762     42.4852   5.4168675860e+01   2.5696947959e+01    0.4410521    0.2391043  -4.84  0.001796322    2.444    0.591
       243 -10.0033    196.6152     48.5180   5.8102471816e+01   2.9140108290e+01    0.5956447    0.3912826  83.75  0.002044521    1.898    0.473
       244 -12.3025      8.3603    110.8045   1.2500168882e+02   5.1561099543e+01     1.189875    0.5131039 -54.94  0.005870284    2.391    0.582
       245  -9.5273    235.8103     39.5814   5.1072371930e+01   2.1006087985e+01    0.2659266    0.1668648 -31.02 0.0007370682    1.372    0.271
       246 -10.0976    180.5887     38.3222   5.7220467910e+01   3.4480561175e+01    0.5514073    0.3708871 -43.19  0.002603079    1.466    0.318
       247  -9.7411    174.7759     38.6510   5.8192815533e+01   3.5946691346e+01    0.3302982    0.2174838  42.76 0.0009113121    1.624    0.384
       248  -8.8765     61.5761     40.4417   8.9136661825e+01   6.2295786240e+01      0.22712    0.1338074  26.48  0.001012625    2.131    0.531
       249 -10.1011    147.5465     34.8753   6.1508138943e+01   4.3605669831e+01    0.8488178    0.4013212  74.40  0.002960172    2.801    0.643
       250  -8.7621    198.0262     37.4879   5.4613021062e+01   3.0146492259e+01    0.2055124    0.1417509  65.25 0.0005164295    1.512    0.339
       251  -8.9238    124.2314     35.9497   6.6865083677e+01   4.9506133627e+01    0.2150539    0.2065408   3.97  0.001165986    1.032    0.031
       252 -11.1326    134.8560     33.8378   6.3653589962e+01   4.7077377141e+01    0.3102917    0.2842256   1.41 0.0003333047    1.121    0.108
       253 -10.5501    138.9598     31.9455   6.2079101556e+01   4.6261752827e+01    0.2766345    0.2530158 -47.83            0    1.120    0.107
       254  -9.8977    248.7233     26.0628   4.6500741320e+01   1.9623424851e+01    0.3415126    0.2504351  17.81  0.001954463    1.672    0.402
       255  -8.7278     18.0322    182.3232   1.2695658446e+02   3.5462509234e+01    0.1565027     0.107918  55.29  0.000459623    1.134    0.118
       256 -10.1506    247.0814     33.1243   4.8407663628e+01   1.9256956901e+01     0.481194    0.2596689  47.84   0.00165554    2.172    0.540
       257  -8.7647     36.7849    179.2928   1.2273021126e+02   3.4224121798e+01    0.1868377    0.1063577  51.53 0.0007977741    1.414    0.293
       258  -8.8090     80.0235    176.7360   1.1285287813e+02   2.9522776909e+01    0.1621821     0.132015 -40.06  0.000729183    1.645    0.392
       259  -8.3455    194.5219    175.5597   8.9023436949e+01   1.1363666302e+01    0.1248072    0.1027547  21.05 0.0002509931    1.012    0.012
       260  -9.9350    241.0991     22.8718   4.6269575713e+01   2.1579268807e+01    0.3401096    0.2004981 -46.46 0.0009325444    1.549    0.354
       261 -10.6750    246.8485     19.2325   4.4920201034e+01   2.0689119374e+01    0.4401867    0.2644279  74.43  0.001639117    1.873    0.466
       262  -9.5375      7.4778    174.4547   1.2886848113e+02   3.7900338905e+01    0.1898883    0.1444155  83.49 0.0005905717    1.171    0.146
       263 -10.2977     18.8454    165.4225   1.2589858035e+02   3.8731564975e+01    0.2645592    0.1751906  49.30  0.001258236    1.279    0.218
       264 -10.1918     11.4434    164.8844   1.2756260351e+02   3.9480570825e+01    0.3084774    0.1273525  43.63  0.001741991    1.928    0.481
       265 -10.4718      2.8596    159.8476   1.2929944137e+02   4.1190848365e+01    0.4130938    0.2413953  89.86  0.002704971    1.449    0.310
       266 -10.3947     15.2802    160.0460   1.2642513651e+02   4.0147568902e+01    0.3173417    0.1451648 -60.87  0.001723482    2.398    0.583
       267  -8.9654      9.5586    158.3582   1.2767755014e+02   4.0973114365e+01    0.1985024     0.138165 -45.50 0.0008223249    2.031    0.508
       268  -8.2612     85.3346    154.3098   1.0881845453e+02   3.3223489397e+01    0.1220226    0.1023261 -13.07 0.0007043255    1.677    0.404
       269 -10.8917     32.6739    150.7346   1.2156719503e+02   4.0504050398e+01    0.4719313    0.2205923  29.75  0.002451772    2.212    0.548
       270 -10.1253     46.3462    144.5342   1.1748913117e+02   4.0400635537e+01    0.3736808    0.2919215 -14.16  0.002224816    1.971    0.493
       271 -10.7841     21.5067    137.9068   1.2341532222e+02   4.4357747687e+01    0.7770182    0.5388914 -11.57  0.004510387    2.372    0.578
       272 -10.9183     30.7483    141.7142   1.2129452944e+02   4.2659869645e+01    0.5081164    0.4370643  84.60   0.00318428    1.090    0.083
       273 -11.1821    167.0462     24.6589   5.4618211813e+01   3.9679623688e+01    0.6479033    0.3509282  43.27 0.0005637853    2.018    0.504
       274 -11.0427     15.4944    151.9222   1.2590585067e+02   4.1831758455e+01    0.5778126    0.1889759  64.78   0.00245337    3.212    0.689
       275  -9.1323    155.2123     32.5368   5.9272542888e+01   4.1882344914e+01     0.290926    0.1958031   2.40 0.0006171149    1.856    0.461
       276 -12.0201     20.7435    147.2051   1.2429777440e+02   4.2388259193e+01    0.6284907     0.598683  12.44  0.004738547    1.410    0.291
       277  -8.6755    136.2977     25.6829   6.0165976545e+01   4.7778620117e+01      0.31071    0.1796441   6.39  0.001164058    2.560    0.609
       278 -12.4048     21.2532     98.8624   1.1968670950e+02   5.3423178418e+01     1.423798    0.6094125 -57.33  0.005964227    2.132    0.531
       279 -10.3363     39.7031    146.8489   1.1943948051e+02   4.0621670023e+01    0.3280754    0.2897013 -50.21  0.001180637    1.420    0.296
       280  -9.4608    232.5552     20.5191   4.6320147297e+01   2.3714643515e+01    0.3719908    0.1765022  69.75   0.00127719    2.262    0.558
       281 -10.8035     37.0341    144.2799   1.1988677226e+02   4.1463676934e+01     0.507093    0.3243622 -29.80  0.002632499    2.697    0.629
       282  -8.9235      7.8338    151.7006   1.2775420521e+02   4.2500961501e+01     0.188196     0.130002 -76.51 0.0007907478    1.388    0.280
       283  -9.7419     66.3135    148.6055   1.1281310691e+02   3.7074495123e+01    0.2911382    0.2080514  39.79  0.001709739    1.348    0.258
       284  -9.0569     86.5999     16.2067   6.8237264093e+01   6.1455443742e+01    0.2387622    0.1993763  78.48  0.001272959    1.465    0.318
       285  -9.3141    177.7915     14.8417   4.9879991054e+01   3.7866047063e+01     0.506962    0.1722981  73.13  0.001711103    3.089    0.676
       286  -8.5787     67.7536     13.4417   7.3397053478e+01   6.5924485301e+01    0.2184369    0.1319409  48.61 0.0006814653    1.710    0.415
       287  -8.3880     64.1949     13.6414   7.4940048895e+01   6.6607153433e+01     0.184725    0.1454851  13.82 0.0003790822    1.318    0.241
       288 -11.2249      4.2374     91.6011   1.2468091131e+02   5.6339265658e+01     1.643952     0.423498 -76.07  0.004014916    3.035    0.671
       289 -10.1449    107.5209    247.7222   1.1414762287e+02   1.4533190778e+01    0.3133335     0.161142  57.78  0.001080419    2.083    0.520
       290 -12.0790     30.0421     62.7338   1.1017037652e+02   6.1373618108e+01     1.848499    0.7146397 -32.09  0.005134514    6.775    0.852
       291  -9.4705      3.3245    246.6819   1.3176232534e+02   2.5897740480e+01    0.1734063     0.111558 -75.62   0.00147569    1.919    0.479
       292  -8.7126     31.2425    247.0011   1.2718625246e+02   2.3276320245e+01    0.1075599   0.06942394  85.61 0.0004443967    1.579    0.367
       293  -8.8453     58.2978    246.6263   1.2258332149e+02   2.0513643797e+01    0.1073578   0.05118922  58.22 0.0007027576    1.745    0.427
       294  -9.9182    142.2413    243.7240   1.0778568814e+02   1.0522654037e+01    0.2470436    0.1648758  22.19  0.001042535    1.509    0.337
       295  -9.1296     91.3983    245.2056   1.1675571256e+02   1.6868828282e+01     0.124643   0.08755276  79.03  0.000948491    1.677    0.404
       296  -8.9587    206.3140    244.6698   9.7320258146e+01   1.9305085656e+00   0.09112742   0.07101678  44.65 0.0007044752    1.677    0.404
