#   1 NUMBER                 Running object number                                     
#   2 MAG_AUTO               Kron-like elliptical aperture magnitude                    [mag]
#   3 X_IMAGE                Object position along x                                    [pixel]
#   4 Y_IMAGE                Object position along y                                    [pixel]
#   5 X_WORLD                Barycenter position along world x axis                     [deg]
#   6 Y_WORLD                Barycenter position along world y axis                     [deg]
#   7 A_WORLD                Profile RMS along major axis (world units)                 [deg]
#   8 B_WORLD                Profile RMS along minor axis (world units)                 [deg]
#   9 THETA_WORLD            Position angle (CCW/world-x)                               [deg]
#  10 FWHM_WORLD             FWHM assuming a gaussian core                              [deg]
#  11 ELONGATION             A_IMAGE/B_IMAGE                                           
#  12 ELLIPTICITY            1 - B_IMAGE/A_IMAGE                                       
         1 -15.4063    134.8671    117.0652   8.0454279276e+01   3.2292663793e+01       5.8546     2.022363 -39.31   0.01762077    3.236    0.691
         2 -15.5081    147.9426    106.4980   7.4293300973e+01   3.1715869119e+01     7.165404     1.851895 -48.77   0.01727745    5.073    0.803
         3 -15.1919     44.4153    103.4555   1.0468131141e+02   5.0312704930e+01     2.631152     2.178021   6.52   0.01562176    1.409    0.290
         4 -15.4628     27.0454     69.5582   1.0329761130e+02   5.9739978722e+01     2.800472     1.638415 -47.09   0.01543767    1.376    0.273
         5 -15.4865    135.5934     94.9174   7.4193296730e+01   3.6885402013e+01     3.357555     3.056541 -15.16   0.01505368    1.126    0.112
         6 -13.9310     82.9649     49.2534   7.4996174264e+01   5.6390629041e+01     1.412809    0.9145955 -43.73  0.006379324    1.656    0.396
         7 -14.7516     71.1188     43.4448   7.7023843366e+01   5.9437505873e+01      2.65504     1.234642 -46.35   0.01128328    2.495    0.599
         8 -14.4757     56.7256     48.0722   8.4396876542e+01   6.0849650830e+01     1.576969     1.223583 -14.79  0.009315996    1.175    0.149
         9 -13.0062     10.1363     47.0333   1.0448930687e+02   6.5679473416e+01    0.7090428    0.4458799 -44.71  0.004159893    1.210    0.173
        10 -14.4653     17.8330      9.7532   8.6363529687e+01   7.1734629780e+01     1.551115    0.9330249   5.99   0.00695949    1.591    0.372
        11 -13.8194    164.1620      5.4686   4.0786142877e+01   4.3169082897e+01     1.772231    0.9285644  84.17  0.008170711    2.046    0.511
        12 -13.8459    186.7860     12.2795   3.9939359077e+01   3.6972198815e+01     1.756994    0.5596887  62.18     0.006974    2.623    0.619
        13 -13.3981    194.6540      4.1531   3.6987050376e+01   3.5874571716e+01     1.629036    0.5656686  74.83   0.00658934    2.703    0.630
        14 -12.2222     64.6669      8.2599   6.4066574587e+01   6.5348926934e+01    0.4296344    0.4117195  28.52  0.002965289    1.375    0.273
        15 -12.4044     55.7014     11.9385   6.9287038309e+01   6.6476122253e+01    0.5600544    0.3526136  24.66   0.00324888    1.443    0.307
        16 -13.0208     56.1114      4.3612   6.5373662199e+01   6.7247374141e+01    0.8294573    0.4451001  33.58  0.004001372    1.640    0.390
        17 -11.4703     87.6350      2.8681   5.4318336033e+01   6.1362528016e+01    0.3404032    0.2072089  32.49  0.001867246    1.486    0.327
        18 -10.2790    202.2003    207.6078   8.4687951142e+01   1.0765220995e+00    0.1935758    0.1112061  26.63  0.000639286    1.695    0.410
        19 -12.3332    186.5583    248.4344   9.4402143349e+01  -2.6107747144e+00    0.4629424      0.29965  30.32  0.002822298    1.254    0.202
        20 -10.2917      1.5084    205.4659   1.2690867026e+02   3.0390048299e+01    0.2308465   0.08849521 -81.85  0.001212451    2.179    0.541
        21  -9.7950    235.0056    196.5093   7.6397651803e+01  -2.4627512806e+00    0.2986562    0.1238609 -46.20  0.001185196    3.326    0.699
        22 -10.3130    123.5125    194.6734   9.9378638309e+01   1.7088702336e+01    0.2953941    0.1666171  42.47  0.001371086    1.634    0.388
        23 -11.1367    192.0500    191.9612   8.3822328656e+01   5.4436642104e+00    0.3993803    0.3293085 -47.50  0.002257609    1.418    0.295
        24 -11.6639    151.5327    210.5215   9.5686731221e+01   9.1627973120e+00    0.4934871    0.3491215 -31.94  0.002635564    1.659    0.397
        25 -12.4260      8.3402    187.8874   1.2453995251e+02   3.3544547113e+01    0.5352789    0.2486074  33.38  0.003001029    2.255    0.557
        26 -11.3856     10.0065    184.2373   1.2394892518e+02   3.4204910364e+01    0.3067642    0.2239885  51.05  0.001273529    1.346    0.257
        27 -10.5904    140.1357    175.2811   9.2116276176e+01   1.8262747845e+01    0.2605183    0.2007554 -37.02  0.001188139    1.398    0.285
        28  -9.5494     53.6038    217.2464   1.1747454018e+02   2.2568430663e+01    0.1583377      0.10269 -65.82 0.0009470001    1.594    0.373
        29 -11.0844    146.9920    209.6977   9.6534028898e+01   1.0089847357e+01    0.3434371    0.3094142  -0.23  0.002088606    1.197    0.164
        30 -15.4676     69.2669    196.8443   1.1209598026e+02   2.4920463543e+01     3.041968     1.451094  56.81   0.01379745    2.226    0.551
        31 -10.2364    207.1375    166.1332   7.5536448795e+01   7.3098670661e+00    0.1869827    0.1798133  80.36  0.001086676    1.337    0.252
        32 -11.2839    148.5798    202.7611   9.5062207482e+01   1.1137362210e+01    0.4085565    0.3036761 -84.29  0.002053072    1.996    0.499
        33 -12.7540     20.4632    153.5454   1.1899447593e+02   4.0367197637e+01    0.7013524    0.6564667 -58.12  0.004042055    1.263    0.208
        34  -9.5341    198.5100    149.9998   7.3732755679e+01   1.1959326171e+01    0.2091524    0.1243537 -16.06 0.0008085644    2.406    0.584
        35 -11.2394    107.8718    147.8889   9.4858760490e+01   3.0385772582e+01     0.430873    0.3240931  -4.72  0.001769426    1.883    0.469
        36 -12.5487    106.2218    141.8062   9.4048691828e+01   3.2127611797e+01    0.8279632    0.7644902 -18.94  0.004456633    1.185    0.156
        37 -10.2791    174.2185    249.3251   9.6890777998e+01  -8.8320759053e-01    0.3167951    0.1267635  28.51  0.001354146    2.664    0.625
        38 -14.7724    147.6370    130.5871   8.0598134646e+01   2.6597463518e+01     1.810906     1.611112  14.18  0.009197791    1.199    0.166
        39 -10.6017    239.7950    243.5519   8.3868337467e+01  -9.5087494154e+00    0.2215723   0.09234398  30.22  0.001140657    2.085    0.520
        40 -11.7190    164.9368    131.2227   7.6602609618e+01   2.2751720796e+01    0.6289716    0.2118843 -41.04  0.001967353    2.975    0.664
        41 -10.0871    182.5130    129.4467   7.2248968183e+01   1.9305633967e+01    0.1523326    0.1468841 -17.96 0.0001916919    1.017    0.017
        42  -9.2821    103.2689    127.6680   9.1767901816e+01   3.6033696863e+01    0.1508352    0.1190494  88.35 0.0003408815    1.586    0.369
        43 -11.7419    185.0180    118.4981   6.9003190674e+01   2.0921346469e+01    0.4257363    0.3771339  23.05  0.001534072    1.189    0.159
        44 -12.2346    191.0258    114.4821   6.6760771862e+01   2.0360954236e+01    0.7660573    0.5041522  26.75    0.0032792    1.948    0.487
        45 -13.5446    185.3877    110.0174   6.6766338630e+01   2.2483839320e+01     1.650594     1.048766  17.22  0.006303828    2.574    0.611
        46 -10.2718      7.0427    241.3422   1.2762533092e+02   2.2882897841e+01    0.2098468    0.1200474  79.44  0.001461319    1.384    0.277
        47 -11.3607    200.7316    237.9434   9.0108771433e+01  -3.2631172819e+00    0.4191664    0.2120389 -25.13  0.002066652    2.461    0.594
        48  -9.5353    175.0529    106.4862   6.8015480223e+01   2.5528847726e+01    0.2280423    0.1539427  48.64 0.0005333112    1.517    0.341
        49 -11.6344    181.4855    239.3268   9.4031377625e+01  -5.2853483560e-01    0.3015616    0.2413789  -2.41  0.001829681    1.285    0.222
        50  -9.9780    177.3214     88.2986   6.2626952255e+01   2.8439234923e+01    0.1545897    0.1203622  15.22 0.0003333135    1.622    0.384
        51 -10.3250      6.7556     84.1650   1.1404310539e+02   5.7773085915e+01    0.3865045   0.08118834 -59.11  0.001525221    2.803    0.643
        52  -9.9979     89.7263     83.7790   8.4360832441e+01   4.8512652767e+01    0.2722914    0.1690404 -42.30  0.001190236    1.525    0.344
        53 -11.6743     93.3222     74.4908   8.0295161805e+01   4.9792387609e+01    0.6583772    0.5705084 -14.64  0.003580558    1.127    0.113
        54 -12.4310    104.6344     75.8225   7.7152902551e+01   4.7342624044e+01    0.7814641    0.6604404  24.11  0.004104596    1.199    0.166
        55 -11.8772    105.0177     69.0016   7.4810374243e+01   4.8585285602e+01    0.7662873    0.5767547  81.98  0.003463147    2.153    0.536
        56 -11.6700     99.0319     69.4237   7.6807905645e+01   4.9700441512e+01    0.5127792    0.3809534  50.44  0.002057456    1.493    0.330
        57 -11.0912    177.3156     72.0996   5.8106703860e+01   3.1273630229e+01    0.3790289    0.2016957 -59.10  0.001370802    2.719    0.632
        58 -10.1949    172.2628    237.4108   9.5556534458e+01   1.1979536997e+00    0.1966505    0.1653058 -83.51  0.001213811    1.833    0.454
        59 -12.1980     15.5816    227.2127   1.2545762767e+02   2.4735505885e+01    0.5696763    0.2000167  64.12  0.002764768    2.724    0.633
        60 -12.9117     10.5020    229.7630   1.2649383336e+02   2.4732384954e+01    0.7601035    0.3214367  53.13  0.004513853    1.848    0.459
        61 -11.2440    177.0001     64.7800   5.6088210389e+01   3.2547647724e+01    0.6182528    0.3046328  60.75  0.002466292    2.089    0.521
        62 -10.2328    250.5876     63.2013   4.5098491611e+01   1.5980927267e+01     0.408005    0.1037109 -36.86   0.00139672    3.171    0.685
        63 -10.2996    250.4608     57.9906   4.3959174577e+01   1.6748914254e+01    0.2695112    0.1874682 -42.35   0.00125867    1.242    0.195
        64 -12.0942    249.7645     50.8580   4.2460465381e+01   1.7882574010e+01    0.7157015      0.35604 -31.18  0.003160518    1.994    0.499
        65 -10.6468    250.3937     43.7773   4.0850558520e+01   1.8706008041e+01    0.2894697    0.1602627 -35.49  0.001447758    1.654    0.395
        66 -13.8001     47.1016     81.7562   9.8734720996e+01   5.5101687186e+01    0.9542918    0.8029518   9.28  0.005057756    1.303    0.232
        67 -12.4871      2.4204     52.3189   1.0932817522e+02   6.4991840803e+01    0.9838564    0.2618572 -64.32  0.003975172    3.162    0.684
        68 -12.2059    212.2997    227.7131   8.6245405926e+01  -3.5571554988e+00    0.3501958    0.1935022  19.15  0.001787669    1.885    0.469
        69 -10.2398    193.8503     55.7967   5.0733425220e+01   2.9813343081e+01    0.2082464    0.1627495 -66.41  0.001034722    1.339    0.253
        70 -11.3796    126.7502     43.2888   5.9959033681e+01   4.8046034125e+01    0.4154796    0.3330739  40.79  0.001879552    1.179    0.152
        71 -10.4346     16.2434     25.0569   9.4038710342e+01   6.9413242853e+01     0.247361    0.1549409 -16.79 0.0009782555    1.438    0.305
        72  -9.8976    164.6374    227.6971   9.5628959795e+01   3.9684421465e+00    0.1339476   0.09325432   8.47 0.0007036895    1.729    0.422
        73 -11.6226     23.9630     21.9201   8.8735442348e+01   6.9250234409e+01    0.4352741    0.2409773   7.40  0.002430857    1.957    0.489
        74 -12.3230    223.2497    219.0930   8.2709703785e+01  -3.9769985555e+00    0.6902451     0.327567 -25.57  0.003278567    2.337    0.572
        75 -12.6076    205.4980    229.4897   8.7833273246e+01  -2.7805633258e+00    0.5880646    0.2933101  28.17  0.002941962    1.852    0.460
        76 -14.6861     93.4225    192.1556   1.0597134338e+02   2.2499140147e+01     2.157817     1.419073  88.92   0.01065868    1.860    0.462
        77 -10.6823     14.1815    211.0711   1.2481026481e+02   2.8103611776e+01    0.2235205    0.1198788  76.25  0.001020313    1.602    0.376
        78 -14.3430     71.6652    183.2286   1.0989783559e+02   2.7663242444e+01     1.409875    0.8744212  48.88   0.00701722    1.539    0.350
        79 -11.2945    217.4991    206.8153   8.1580249527e+01  -1.2758548498e+00    0.2626688    0.2077347  58.92  0.001482671    1.965    0.491
