#   1 NUMBER                 Running object number                                     
#   2 MAG_AUTO               Kron-like elliptical aperture magnitude                    [mag]
#   3 X_IMAGE                Object position along x                                    [pixel]
#   4 Y_IMAGE                Object position along y                                    [pixel]
#   5 X_WORLD                Barycenter position along world x axis                     [deg]
#   6 Y_WORLD                Barycenter position along world y axis                     [deg]
#   7 A_WORLD                Profile RMS along major axis (world units)                 [deg]
#   8 B_WORLD                Profile RMS along minor axis (world units)                 [deg]
#   9 THETA_WORLD            Position angle (CCW/world-x)                               [deg]
#  10 FWHM_WORLD             FWHM assuming a gaussian core                              [deg]
#  11 ELONGATION             A_IMAGE/B_IMAGE                                           
#  12 ELLIPTICITY            1 - B_IMAGE/A_IMAGE                                       
         1 -11.7444     27.0908     54.2372   9.2585212998e+01   6.3302406573e+01     1.169136    0.6671724 -19.46  0.002019607    1.940    0.484
         2  -9.8287    141.1869     33.8216   4.8184221011e+01   4.5478940197e+01    0.7167013    0.4454108 -73.34   0.00326147    2.269    0.559
         3 -10.8588    131.6440     35.4675   5.0592161515e+01   4.7534770615e+01    0.6372964    0.4024568 -22.49  0.001040797    1.891    0.471
         4 -12.9307     62.5573     44.6841   7.4142566888e+01   6.0473399357e+01    0.7146447    0.4722675  58.89  0.001127689    2.411    0.585
         5 -10.5665     75.1746     27.3315   6.2755209209e+01   6.0785144744e+01    0.4396469    0.3305031 -42.82  0.002576045    1.611    0.379
         6 -11.6944     14.3244     38.5195   9.3581109858e+01   6.7393730622e+01    0.8093412    0.6263735  66.49   0.00289617    2.345    0.574
         7 -12.5008    107.6001     29.1339   5.3967018017e+01   5.3839821255e+01    0.4602616    0.3780909  21.37  0.002719856    1.274    0.215
         8 -11.8510    105.1762     21.0485   5.1680698465e+01   5.5303951057e+01    0.2810953    0.2436532 -61.65 0.0003765911    1.400    0.285
         9  -9.8348     26.1268     21.6543   8.1018342865e+01   6.9099490525e+01    0.4795949    0.2837873 -13.44  0.001947173    1.739    0.425
        10 -10.2653     31.1592     27.7535   8.1103688276e+01   6.7582993399e+01    0.5635154    0.3107984 -23.36  0.002536289    1.842    0.457
        11 -11.4435     19.0779     28.5185   8.7495941107e+01   6.8738391448e+01    0.3994171    0.2589566 -43.62 0.0006434722    1.474    0.322
        12  99.0000     16.1128     18.4139   8.4897057739e+01   7.0636990141e+01     1.092085     0.515677  -8.23  0.004926856    3.206    0.688
        13 -10.3134     23.1271      1.9077   7.3140523071e+01   7.2114105370e+01    0.1955877    0.1405485  -5.62 0.0004916821    1.148    0.129
        14 -11.3803      7.3777     15.3988   8.8511897866e+01   7.1874261982e+01    0.4583721    0.3465936  -7.91  0.001749044    1.089    0.082
        15 -10.3009     18.2524      1.6379   7.5656807889e+01   7.2732313380e+01    0.4851957     0.208287  16.79  0.002288074    3.011    0.668
        16 -11.7624     14.0438     11.2452   8.2811343970e+01   7.1901789877e+01    0.2730646    0.1979807 -11.12 0.0002901931    1.082    0.075
        17 -10.6591     24.9221      6.9459   7.4769413981e+01   7.1276601591e+01    0.2413462     0.144863 -35.04 0.0006669204    1.718    0.418
        18 -11.9391     20.4560      6.5303   7.6948350147e+01   7.1862102428e+01    0.4893984    0.2852941  23.60  0.002019184    1.544    0.353
        19 -11.0126    218.7863     17.9818   3.3954182070e+01   2.9336817751e+01    0.7402659    0.2784884 -39.22  0.002802613    2.374    0.579
        20 -10.0183    211.9253     16.0076   3.4137768897e+01   3.1047542892e+01    0.4394966    0.1878155 -60.15  0.001487087    2.438    0.590
        21  -9.9034    211.9953     10.1281   3.2853925136e+01   3.1678844968e+01    0.3100806     0.213716  74.75  0.001954678    1.332    0.249
        22 -10.8534    208.6142      4.4370   3.1904748587e+01   3.3012928277e+01    0.4511024    0.3163438 -42.08  0.002037144    1.456    0.313
        23 -11.2927    174.7197     22.7854   3.9790086152e+01   3.8776781828e+01    0.5891573    0.3687004  60.18  0.003193905    1.486    0.327
        24 -11.0814    182.2692     18.3783   3.7739636410e+01   3.7497421237e+01    0.5384377    0.3876961  12.75  0.000469923    2.262    0.558
        25 -10.8000    166.5011     17.5779   3.9494127306e+01   4.1295847679e+01     0.385903    0.2922943 -17.77  0.001689451    1.678    0.404
        26  -9.1491     70.1865     19.2580   6.1140113119e+01   6.2708887198e+01    0.3596061    0.1859798 -40.95  0.001131338    2.378    0.580
        27 -11.6972     61.3410     16.9632   6.3322731355e+01   6.4581078928e+01    0.7188232    0.3234029  33.10  0.002976082    2.229    0.551
        28 -10.7241    116.9690     15.5738   4.7110050280e+01   5.3204887576e+01    0.5337488    0.2377684  63.39 0.0003742409    2.035    0.509
        29  -9.9088    199.5226     18.5426   3.5897349350e+01   3.3517739877e+01    0.3406975    0.2683491 -72.75  0.002049845    1.102    0.093
        30 -11.6371    229.7757     14.4705   3.2316021424e+01   2.7419108212e+01    0.5411763    0.2929945 -66.61  0.002416909    1.680    0.405
        31 -11.0281    243.5597     13.9993   3.1201260821e+01   2.4680657424e+01    0.3175895    0.2341647  57.97  0.001387217    1.728    0.421
        32 -10.3916     79.1632     12.1284   5.5270961186e+01   6.1738920722e+01    0.2350192    0.1906702  -7.82 0.0004806966    1.299    0.230
        33 -10.7078     42.8202     15.4713   7.0217793229e+01   6.7771084471e+01    0.2945766    0.2053466  32.06  0.001872903    1.326    0.246
        34  -9.5527     43.0834      9.7747   6.7423032671e+01   6.8421280650e+01    0.2730948    0.1802847  10.47  0.001200395    1.446    0.308
        35 -10.5948    175.4962     13.1832   3.7222775645e+01   3.9635512874e+01     0.566043    0.2730782  70.08  0.002296895    1.805    0.446
        36 -10.0159    106.5518      6.2418   4.6030572090e+01   5.6433291549e+01    0.5748246    0.4127073  24.01  0.002951754    1.529    0.346
        37 -11.1059     97.6970     12.8853   5.0509948791e+01   5.7784511651e+01    0.4900432    0.2344173  54.07  0.001009585    1.750    0.429
        38  -8.7992     97.5805      7.1772   4.8386806618e+01   5.8336944948e+01    0.2550873    0.1590339  23.48 0.0008550184    1.835    0.455
        39  -8.5814     89.4693     13.3562   5.2822106824e+01   5.9498979380e+01    0.3370171    0.2152528  50.86  0.001451888    1.346    0.257
        40  -9.2688     90.2193      9.0665   5.0940812928e+01   5.9750662016e+01    0.2832164    0.1539999  29.51 0.0009262884    2.036    0.509
        41  -9.9961     87.4606      5.9409   5.0424866614e+01   6.0613730861e+01    0.2633948    0.2048883  68.07 0.0008763942    1.386    0.278
        42 -10.3839     90.1122      1.9665   4.8176877663e+01   6.0387160767e+01    0.4177312    0.1864859  59.78  0.001506497    1.944    0.486
        43  -9.8044     31.9773     12.7269   7.4009292936e+01   6.9638871914e+01    0.2861152    0.2030388  37.29  0.001863833    1.582    0.368
        44 -10.3005    146.0169     12.3433   4.0928243043e+01   4.6701333232e+01    0.5015186    0.1855188  61.75  0.002071345    2.198    0.545
        45 -10.9353    133.1526     12.6710   4.3104369390e+01   4.9716127442e+01    0.2098863    0.2012371  43.58 0.0002367692    1.148    0.129
        46  -9.3138    128.1700      9.4637   4.2952253340e+01   5.1186298191e+01    0.4380806    0.2972032 -18.20  0.002361126    1.780    0.438
        47  -8.6244     51.5061     12.4750   6.5133018376e+01   6.6774031624e+01     0.237268    0.1113156 -30.39  0.001219623    2.206    0.547
        48  -9.7171     69.5286     11.4950   5.8052101462e+01   6.3682963465e+01    0.2287498    0.1681692  34.47 -0.0001011616    1.148    0.129
        49  -9.6597     55.9896     10.7256   6.2557357658e+01   6.6215302517e+01    0.2342148    0.1578649 -17.99 0.0009172689    1.510    0.338
        50  -9.6561    224.1311      9.3780   3.1714547451e+01   2.9163450772e+01    0.2889166    0.1318675 -47.89  0.001317733    1.881    0.468
        51  -9.7854    201.4307      8.0749   3.3325387044e+01   3.4223433397e+01    0.3504902    0.2125024 -72.10  0.002006399    1.540    0.351
        52 -10.7390    191.8401      7.9615   3.4196779811e+01   3.6394692917e+01    0.4877049    0.3372397 -55.01  0.001440932    1.368    0.269
        53 -10.6698    195.1334      3.5369   3.2862337898e+01   3.6092826206e+01    0.5235257    0.2194004  64.25  0.002370113    2.106    0.525
        54  -8.7981     38.8503     11.2024   7.0010498455e+01   6.8881840739e+01    0.1610879    0.1404934  -4.38 0.0008910726    1.228    0.186
        55  -9.7576    165.8452      8.9342   3.7274511364e+01   4.2330772210e+01    0.3088559    0.1689646 -37.45  0.001080675    1.925    0.481
        56  -9.6586    119.9829      8.9644   4.4279835802e+01   5.3135298022e+01    0.2625244    0.1884468 -15.91 0.0009714663    1.664    0.399
        57  -9.3152      6.7800      8.6962   8.5853064715e+01   7.2936511023e+01      0.22356    0.1762045  27.85   0.00156109    1.629    0.386
        58  -8.9264      1.2931      8.8258   8.9249677303e+01   7.3353465843e+01    0.2226258   0.08501628 -47.99  0.001172272    2.470    0.595
        59 -10.3957    248.0160      4.7621   2.9163699201e+01   2.4837006180e+01    0.2271451    0.1789434 -77.99 0.0002839335    1.109    0.098
        60 -10.1898    250.0738      1.4767   2.8435225773e+01   2.4793365468e+01     0.221086    0.1750311 -89.94 0.0005490699    1.234    0.189
        61  -9.9028     74.4139      8.1169   5.5035699660e+01   6.3073134827e+01    0.2836602    0.1846851  43.28  0.001679489    1.287    0.223
        62 -10.8794     73.8026      3.0706   5.3059933565e+01   6.3651912084e+01    0.3451758    0.2761855  21.64  0.001471451    1.147    0.128
        63  -9.8056     69.5079      2.4286   5.4096354904e+01   6.4547830586e+01    0.2021282     0.174978  21.60 0.0005401304    1.096    0.088
        64  -9.9210    232.2085      6.1078   3.0462551771e+01   2.7841931234e+01    0.2553555    0.2006391  83.14  0.001234972    1.236    0.191
        65 -10.8613    236.9880      7.0140   3.0308878160e+01   2.6773145726e+01    0.3037396    0.1798194 -69.72  0.001252272    1.423    0.297
        66 -11.0214    236.4030      3.1658   2.9603164489e+01   2.7304574205e+01    0.4953554    0.2105816  84.75  0.002582297    2.248    0.555
        67  -8.4826     69.3630      7.1610   5.6222081515e+01   6.4144005145e+01    0.1438131    0.1097695 -28.42 0.0001697499    1.500    0.333
        68 -10.1360     61.6873      6.4922   5.8523660006e+01   6.5642454564e+01    0.3452395    0.2052618  55.38  0.001929945    1.812    0.448
        69  -8.3852     45.8823      5.3537   6.4085151750e+01   6.8471484376e+01      0.17484    0.1256898  26.61    0.0011487    1.151    0.131
        70  -9.5024    152.9335      4.9635   3.7830568327e+01   4.5751208050e+01    0.2620835    0.1891614 -17.95  0.001372717    1.740    0.425
        71  -9.5773     39.3691      4.8671   6.6682210727e+01   6.9537607401e+01    0.2653987    0.1936423  35.87  0.001434169    1.337    0.252
        72 -10.6282     30.8269      3.1039   6.9817236051e+01   7.0965508348e+01    0.2255792    0.1754685 -33.88 0.0006944608    1.621    0.383
        73 -10.7413    217.4138      2.5975   3.0824274939e+01   3.1302256029e+01    0.3676841    0.2104157  85.59   0.00135585    1.526    0.345
        74  -9.3943    166.0100      1.9973   3.5428193984e+01   4.2939764972e+01    0.3337906    0.2157982  77.04  0.001943303    1.313    0.238
        75  -8.4503    145.9535      3.7441   3.8426975912e+01   4.7507763083e+01     0.174684    0.1389296  76.95 0.0004230393    1.078    0.072
        76  -8.5497     48.3378      7.6734   6.4179435423e+01   6.7826883549e+01    0.1027426    0.0968796 -89.42 0.0007051637    1.726    0.421
        77 -11.0356    179.6092      2.0920   3.3999134474e+01   3.9769661266e+01    0.2599747    0.1734221  77.56 0.0003487692    1.267    0.211
        78  -9.1862    127.4121      1.7804   4.0621945071e+01   5.2025488603e+01    0.2764418    0.1150612  46.37  0.001247648    2.308    0.567
        79  -9.9714    115.8049      1.9219   4.2684202503e+01   5.4694493800e+01    0.1958709    0.1526164  61.49 0.0003301981    1.079    0.073
        80  -8.8912     81.8441      2.0717   5.0349356145e+01   6.2111910714e+01    0.2117037    0.1455161  69.78 0.0006463634    1.655    0.396
        81  -9.5378     55.8817      1.4455   5.8270940256e+01   6.7164641106e+01    0.1705317    0.1056405  37.29 -3.521873e-05    1.332    0.249
        82  -9.1666     49.9964      1.9898   6.0771904634e+01   6.8132858218e+01    0.1778252    0.1405031  23.85 0.0004446007    1.028    0.027
        83  -8.9438    173.3032      5.1554   3.5428103979e+01   4.0944053780e+01    0.1805087    0.1613122  30.70  0.001204884    1.440    0.305
        84 -10.9075    159.8688      2.7213   3.6338616421e+01   4.4316237904e+01    0.4235139    0.2376107  69.29    0.0013018    1.493    0.330
        85  -8.6381    135.9173      1.4681   3.9195910566e+01   5.0062819852e+01    0.1898354    0.1063735  68.75 0.0006499015    1.504    0.335
        86 -10.2053     67.6398    118.3332   9.3687601645e+01   4.4122456757e+01    0.3998646    0.2016087 -56.87  0.001672419    1.848    0.459
        87  -9.3932    201.5804    249.6792   8.4609502526e+01  -5.8239192210e+00    0.2141426    0.1543737  16.22  0.000556645    1.164    0.141
        88 -10.2733    115.8918    248.5146   1.0178592880e+02   6.8340741977e+00    0.2614025    0.2280753  45.88  0.001195853    1.048    0.046
        89  -9.3018     70.4816    115.9810   9.2246772656e+01   4.4286547301e+01    0.2301529    0.1982078  70.47 0.0003492752    1.321    0.243
        90  -9.0484    239.2982    117.3406   5.2893368766e+01   1.0381036930e+01    0.1302124    0.1001428 -10.16  0.000703425    1.665    0.399
        91  -9.1883     47.9907    115.4150   9.9552489491e+01   4.7377119654e+01    0.4009846    0.1958966  41.43  0.001406416    2.261    0.558
        92  -9.7338     48.7196    111.9614   9.8614228677e+01   4.8141087207e+01      0.40808    0.2901217  57.32   0.00207426    1.706    0.414
        93  -8.3672     76.3029    114.6520   9.0059584621e+01   4.3728841554e+01    0.1507262    0.1156199  79.62 0.0007039964    1.693    0.409
        94  -9.8126     32.1073    112.1172   1.0427687060e+02   4.9839222051e+01    0.3117493    0.2315381  72.18  0.001497619    1.611    0.379
        95  -9.9478     20.6493    113.0073   1.0827622459e+02   5.0594334174e+01    0.2082826    0.1755182  46.82 0.0009384705    1.354    0.261
        96  -8.6468    121.0633    111.6730   7.5821123890e+01   3.6237984418e+01    0.2135344    0.2004835  44.53  0.001115803    1.074    0.069
        97  -8.0819     40.4897    112.4106   1.0149176277e+02   4.8940540379e+01    0.1355802    0.1230205 -57.08 0.0001138032    1.019    0.018
        98 -10.1355     62.9515    110.7861   9.3562622547e+01   4.6620815129e+01    0.2501433    0.1942723 -54.23 0.0002093431    1.195    0.163
        99  -9.5525      2.2955     86.8275   1.1053262740e+02   5.7970762542e+01    0.3749903    0.1232644 -53.96  0.001336589    2.179    0.541
       100 -11.2665      5.0213    108.3267   1.1279094244e+02   5.2772656146e+01    0.6449901    0.4570081 -62.77  0.003943948    1.146    0.127
       101  -9.7818      2.0675     92.3517   1.1149906023e+02   5.6705233307e+01    0.2967839    0.2089461  50.90 0.0004385854    1.755    0.430
       102  -9.5266     13.2382     96.2241   1.0809139597e+02   5.5155306432e+01    0.2565667    0.1936037 -36.16 0.0007091726    1.285    0.222
       103  -9.5198      8.9677     98.5336   1.0999896685e+02   5.4876659258e+01    0.4649315     0.248404 -83.79  0.001862934    2.075    0.518
       104  -9.3471      4.1640     98.0216   1.1161414870e+02   5.5269660158e+01    0.3424031    0.2184322 -46.17  0.001209321    1.385    0.278
       105  -9.4780     16.7470     99.1763   1.0734029973e+02   5.4218043001e+01    0.3174956    0.1831178 -44.10  0.001270121    1.572    0.364
       106  -9.1059     20.4984     98.5424   1.0588386855e+02   5.4094896291e+01    0.2376661     0.192857  42.27  0.001456056    1.443    0.307
       107  -8.8029    103.1390    108.8016   8.0235743914e+01   4.0450283276e+01    0.2065045     0.178754 -11.08 0.0003849807    1.294    0.227
       108  -9.5988     52.7789    107.7321   9.6336802974e+01   4.8684589271e+01    0.3266315     0.163905 -46.17  0.001414778    1.869    0.465
       109  -9.1546     44.0899    108.2469   9.9437640282e+01   4.9571347990e+01    0.3463241    0.1935099 -76.40  0.001499549    2.189    0.543
       110  -9.8817     20.9220    108.5027   1.0745889137e+02   5.1669823976e+01    0.3842568    0.2165199 -36.13  0.001916389    1.895    0.472
       111  -8.6341     20.4827    104.0317   1.0685841592e+02   5.2783406989e+01    0.1897182    0.1465306 -66.45  0.001027912    1.139    0.122
       112 -10.1251    116.7401    107.5941   7.5962403247e+01   3.8034083991e+01    0.3682359    0.2685911 -12.38  0.001596705    1.902    0.474
       113  -8.5474     81.0155    109.0000   8.7184822118e+01   4.4330022165e+01    0.2393754   0.08511054  35.22 0.0008003238    2.928    0.658
       114  -9.9988     69.3295    107.2987   9.0617469172e+01   4.6550997150e+01    0.3495206    0.2343476  -4.31  0.001535738    2.141    0.533
       115  -9.4545     71.8704    104.1845   8.9009265942e+01   4.6908724565e+01     0.423815    0.1741012  43.01  0.001565264    2.686    0.628
       116  -8.9580     58.1110    108.1813   9.4612231047e+01   4.7899749236e+01    0.2081131    0.1797047 -30.98 0.0002807509    1.163    0.140
       117  -9.9329     36.2542    107.6487   1.0202790251e+02   5.0533448015e+01    0.4154495    0.2145992 -43.89  0.001915515    1.855    0.461
       118  -9.1408     39.0182    102.9936   1.0013132797e+02   5.1380264948e+01    0.2170617    0.1799903 -43.49   0.00049138    1.107    0.096
       119  -9.9811     34.9068    103.3055   1.0164885517e+02   5.1715100973e+01    0.3087917    0.1610852  32.42 0.0009743549    2.085    0.520
       120 -10.1381     91.8144    104.6815   8.2640342224e+01   4.3488237643e+01    0.4636296    0.3907416 -44.71  0.002408983    1.153    0.133
       121 -10.4310     62.6871    104.8067   9.2273346102e+01   4.8093625705e+01    0.3356273    0.2593814   1.31 0.0007987501    1.524    0.344
       122  -9.4381    132.4161    103.9014   7.0723479247e+01   3.5528717684e+01    0.2958328    0.2179894  38.03 0.0007289587    1.408    0.290
       123 -11.3636    102.1310    101.8981   7.8714654459e+01   4.2203105453e+01    0.5276858    0.4444284 -22.59 0.0006223568    1.284    0.221
       124 -10.8971    110.3769     99.6200   7.5643691550e+01   4.1080419524e+01    0.6581546    0.4778827  67.03  0.002121302    1.777    0.437
       125 -10.8891     41.6696     99.3886   9.8421698273e+01   5.1963555447e+01    0.7557727    0.2758078  34.86   0.00272349    2.873    0.652
       126 -10.0918     51.3302    102.3369   9.5642196436e+01   5.0157474345e+01    0.2520535    0.1950254 -22.11    0.0010375    1.409    0.290
       127  -9.9755     50.2714     99.7492   9.5426134274e+01   5.0900242122e+01    0.3637871     0.226214 -25.57  0.001314327    1.963    0.491
       128  -8.5543    127.0038    101.9927   7.1639972926e+01   3.7102365796e+01    0.2822436    0.1700566  21.78  0.001023196    2.662    0.624
       129  -9.0118     80.8007    101.8012   8.5435937836e+01   4.6047794099e+01    0.2362225    0.2018739 -57.62 0.0003587938    1.183    0.155
       130  -9.5230     79.0268     99.0000   8.5291950650e+01   4.6983169725e+01    0.2679435    0.2058017  24.21  0.000743059    1.392    0.282
       131  -9.3168     57.2145    100.0970   9.3052422128e+01   4.9945999482e+01    0.2260604    0.1752084 -31.66 0.0006842861    1.304    0.233
       132  -9.8784    137.7725     97.3728   6.7591355814e+01   3.5710843635e+01    0.4205607    0.3260245  12.81  0.001941956    1.692    0.409
       133 -10.5417    124.7678     97.7525   7.1084375909e+01   3.8478561509e+01    0.4828604    0.3093629  18.73  0.001871376    2.435    0.589
       134  -9.0714    171.1543     97.0373   5.9923497733e+01   2.8215516243e+01    0.2173184    0.1984709  -7.99            0    1.256    0.204
       135  -8.5746    150.0223     97.0282   6.4535504720e+01   3.3026137939e+01    0.1809742    0.1730726 -52.29 0.0009667096    1.040    0.038
       136  -8.4895    155.5711     95.7995   6.2939065770e+01   3.2006306895e+01    0.2019832    0.1419857 -52.73 0.0003772263    1.471    0.320
       137 -11.2808    117.7044     97.8706   7.3063801381e+01   3.9951070490e+01    0.3139853    0.2753702  -8.02 0.0003661051    1.276    0.216
       138  -8.7823     86.9089     96.1671   8.1936943623e+01   4.6286005868e+01    0.2190001    0.2059234  84.35 0.0007454118    1.201    0.167
       139  -9.3266     80.2518     94.9443   8.3799487969e+01   4.7699735110e+01    0.2963932    0.2469124 -88.84  0.001518981    1.537    0.349
       140 -11.1178     47.2404     81.9902   9.2157587862e+01   5.5338368462e+01     1.624489     0.390168  39.01  0.005040391    4.746    0.789
       141 -11.3276     31.6884     93.4754   1.0079247351e+02   5.4354223223e+01    0.4633179    0.4221362 -37.37  0.002088152    1.066    0.062
       142 -11.4701     29.7585     85.9618   9.9874636018e+01   5.6270461236e+01    0.8130521    0.4871558 -14.99  0.002016024    2.067    0.516
       143 -13.1136     52.9400     74.5348   8.7883444750e+01   5.6238961050e+01    0.6866072    0.3733463 -55.79  0.001211699    1.901    0.474
       144 -10.8807     45.2241     68.7580   8.9240206454e+01   5.8419897421e+01    0.3889995    0.2236124 -39.49 0.0002334543    1.600    0.375
       145  -9.1990     23.2374     94.6233   1.0415065940e+02   5.4809824776e+01    0.2410825     0.192009 -16.47   0.00145866    1.353    0.261
       146  -8.2843    166.5579     94.4850   6.0214674821e+01   2.9748527868e+01    0.1469487    0.1450567 -42.63 0.0001248985    1.063    0.059
       147  -9.8777     46.9566     92.8052   9.4993401085e+01   5.2919105706e+01    0.3623038     0.188652 -52.86 0.0009063194    1.696    0.410
       148 -10.4790     42.8210     88.3305   9.5450645609e+01   5.4418474298e+01    0.4615801    0.2282742  26.76   0.00132049    2.180    0.541
       149  -9.3694    134.9946     91.4104   6.6647450937e+01   3.7533014188e+01    0.2265151     0.202368 -42.55 7.950387e-05    1.128    0.114
       150  -8.7551    106.6017     91.2147   7.4402439494e+01   4.3640285062e+01    0.2081438    0.1409991 -35.16 0.0005582808    1.553    0.356
       151  -9.5682     52.5657     90.3584   9.2328017334e+01   5.2802924457e+01    0.2540897    0.2063648 -39.75 0.0006060111    1.126    0.112
       152  -8.6658     10.3327     90.3110   1.0812821566e+02   5.6723094756e+01    0.1793794    0.1272073   5.17 0.0008059115    1.640    0.390
       153  -9.0465      6.6279     89.1795   1.0931027077e+02   5.7201004308e+01    0.2721749    0.1603926 -62.24  0.001524518    1.374    0.272
       154 -10.8564    118.9949     83.5367   6.8616014289e+01   4.2613659683e+01    0.5767178    0.3165241  43.23  0.002408854    1.811    0.448
       155  -9.6143    133.0335     82.6566   6.4660073098e+01   3.9679066620e+01    0.2892722    0.2028695 -54.56 0.0003533247    1.566    0.361
       156 -11.0128    128.2889     85.6717   6.6743823935e+01   4.0159699497e+01    0.5840065     0.411772  14.76 0.0006161404    2.051    0.512
       157 -10.4380    124.0089     85.7025   6.7884526915e+01   4.1097096185e+01    0.4492594     0.270502 -20.35  0.001531631    2.568    0.611
       158 -10.4871     86.7331     88.3887   7.9816362796e+01   4.8021852927e+01    0.3504916    0.3408652  60.23 0.0008041826    1.129    0.114
       159 -10.0523     71.1907     88.7057   8.5189351071e+01   5.0551045693e+01    0.4513768    0.2210966 -54.92 0.0004521566    2.111    0.526
       160 -11.0006     80.3466     83.4484   8.0520402949e+01   5.0191817203e+01    0.5033649     0.371113  31.19  0.002562259    1.384    0.278
       161  -9.3202     73.4254     83.8604   8.3034527929e+01   5.1253346709e+01    0.3759519    0.2338017  48.07  0.001732097    1.868    0.465
       162  -9.4279     73.5088     79.6728   8.1777225678e+01   5.2128597048e+01    0.3090093    0.2372244 -30.63  0.001240493    1.290    0.225
       163 -10.0951     15.9414     88.0385   1.0560116408e+02   5.6886984416e+01    0.3632166    0.3016327 -50.90  0.001446391    1.006    0.006
       164  -9.0140     97.5009     86.9888   7.5956170989e+01   4.6320042282e+01    0.2238911    0.1445239 -45.02 0.0006400751    1.541    0.351
       165  -9.9905     65.3975     85.5911   8.6381419302e+01   5.2116244580e+01    0.3348181    0.2463285 -28.33  0.001026216    1.400    0.286
       166  -9.6365    104.2663     85.6323   7.3482373000e+01   4.5268604919e+01    0.2778074    0.2287557 -11.89 0.0001878576    1.379    0.275
       167 -10.2321    155.2990     83.7115   5.9743473226e+01   3.4363423914e+01    0.4718417    0.2794167 -27.90  0.001849745    2.084    0.520
       168 -10.9076    152.2305     80.6149   5.9562463731e+01   3.5643429175e+01    0.5210242    0.2690311  57.30  0.002103709    1.999    0.500
       169  -9.4580    146.0411     84.4836   6.2035645480e+01   3.6363549854e+01    0.2364951    0.1465444  52.70 0.0006304441    1.600    0.375
       170 -10.2721      2.5431     80.4544   1.0934529222e+02   5.9410456032e+01    0.3476576    0.2216548 -58.82  0.001974807    1.250    0.200
       171  -9.4611    178.4943     81.4989   5.4511082380e+01   2.9370774729e+01    0.1430906    0.1388972 -77.01 -3.417622e-05    1.055    0.052
       172 -10.6704    180.2870     74.5727   5.2409723335e+01   3.0142140325e+01    0.4192488    0.3120109  12.11  0.001335036    2.105    0.525
       173 -10.1413    175.0121     75.2436   5.3531453709e+01   3.1256425957e+01    0.2567174    0.2050487  57.76 0.0007551114    1.250    0.200
       174 -10.1167     20.4032     79.1794   1.0202410257e+02   5.8584211953e+01    0.3712738    0.2620032 -75.63  0.001208697    1.577    0.366
       175  -9.1503     18.1178     72.6486   1.0146343630e+02   6.0203422984e+01    0.3067616    0.1768603 -51.42  0.001054303    1.419    0.295
       176  -9.7848    137.0797     78.8140   6.2551899785e+01   3.9478546276e+01    0.2733334    0.2400269  87.30 0.0009586305    1.254    0.203
       177 -10.8748     89.5156     74.1023   7.4612177481e+01   5.0450207901e+01     0.581123    0.3382273 -35.58  0.001576683    1.792    0.442
       178 -10.3463     94.3057     69.1982   7.1512391124e+01   5.0469607516e+01    0.5938411    0.3140812 -40.18  0.001655576    1.918    0.478
       179 -10.9637     97.2373     63.9277   6.8882950580e+01   5.0848987707e+01    0.2866744     0.241994 -17.62  0.000221105    1.232    0.188
       180  -8.5154     12.5742     78.2051   1.0494735809e+02   5.9350418619e+01    0.1769726   0.09268775 -52.21 0.0004763898    1.517    0.341
       181  -9.3377    110.5673     76.9758   6.9028320461e+01   4.5685212583e+01    0.2854838    0.2303703  11.37 0.0008817172    1.447    0.309
       182  -9.2566    111.0358     72.2186   6.7430314586e+01   4.6480455451e+01    0.3189766    0.2091916 -20.83  0.001156523    1.957    0.489
       183 -10.3412     27.8288     76.4982   9.8409635045e+01   5.8571281730e+01    0.3261396    0.2441098 -33.65  0.001057062    1.207    0.171
       184  -9.7108    184.9585     75.9149   5.1939863676e+01   2.8837384549e+01    0.2112575    0.1967824 -74.70 0.0003674703    1.007    0.007
       185 -10.5943    145.5633     72.2131   5.8672101957e+01   3.8695039040e+01    0.4960423    0.2689417 -31.71  0.001617052    2.097    0.523
       186  -9.1899    141.4757     75.4696   6.0541892887e+01   3.9072817902e+01    0.1470875    0.1425995  45.45 5.324126e-05    1.045    0.043
       187  -8.9130     68.5484     74.7962   8.2087498309e+01   5.3933224806e+01    0.1984218    0.1315276 -45.42 0.0005100013    1.457    0.314
       188 -10.0463     63.7052     74.4542   8.3767631006e+01   5.4744962362e+01    0.2623645    0.2414409  72.93  0.001538465    1.374    0.272
       189  -8.4513     37.6507     75.2179   9.4118596154e+01   5.7901230897e+01    0.1862249    0.1027226 -45.66 0.0003469939    1.580    0.367
       190 -10.5859    170.2218     73.3632   5.3925923662e+01   3.2696228679e+01      0.28177    0.2591581  89.54 0.0006412526    1.048    0.046
       191  -8.6336    152.1940     73.1785   5.7495259205e+01   3.6971683628e+01    0.2033116    0.1696054 -78.66 0.0004904442    1.322    0.243
       192  -9.2904    137.4749     72.6600   6.0666444589e+01   4.0498609052e+01    0.3231481    0.1461415 -38.88  0.001240227    2.273    0.560
       193 -11.8403      2.3338     66.3044   1.0669047810e+02   6.2548355353e+01    0.4351311    0.2073319 -61.01  0.001173939    1.698    0.411
       194 -10.3500      9.2019     62.3698   1.0283093586e+02   6.3013375028e+01    0.3429045    0.2654937 -38.01 0.0009830486    1.064    0.060
       195 -10.6081      4.0461     59.7491   1.0449174064e+02   6.3857744020e+01    0.5793678    0.2538881 -38.14   0.00296844    1.954    0.488
       196  -8.2282    199.4931     71.4665   4.8497822472e+01   2.6263215075e+01    0.1374661    0.1274327 -71.22 0.0001317652    1.045    0.043
       197 -10.2220    101.8369     70.3266   6.9539166067e+01   4.8751648651e+01    0.3491716     0.272572  25.82  0.001790785    1.347    0.258
       198  -9.5921    105.6214     65.8702   6.6990139541e+01   4.8777005112e+01    0.4541933    0.2574687  58.51  0.001905474    2.132    0.531
       199 -11.5344     79.6627     69.7998   7.6566541950e+01   5.3081393508e+01    0.2947881    0.2491826  18.26 0.0003022795    1.172    0.147
       200  -9.7827     83.0070     64.1841   7.3587446677e+01   5.3543778065e+01    0.4624862    0.2390558 -43.13  0.001288947    1.959    0.490
       201  -8.3683    215.5050     70.5165   4.5987670007e+01   2.2896991563e+01    0.1364822    0.1179156 -65.90 0.0001872959    1.023    0.023
       202  -8.8254     36.7423     70.2607   9.3134906301e+01   5.9061163004e+01    0.1892475    0.1337912 -28.12  0.001057316    1.345    0.257
       203  -9.4471      9.6392     69.5187   1.0429127399e+02   6.1452503256e+01    0.3324205    0.1658629 -18.17  0.001633814    2.371    0.578
       204  -9.5196    173.6176     69.0153   5.2150184505e+01   3.2621943303e+01    0.2612361    0.2020355  55.80 0.0005471813    1.289    0.224
       205  -9.9521    119.6816     67.9838   6.3730936086e+01   4.5362252167e+01     0.405908    0.3087885  42.21   0.00205935    1.281    0.219
       206  -8.9308     63.2550     69.5064   8.2412186391e+01   5.5821584339e+01    0.3438196    0.1354281  30.89  0.001315127    2.770    0.639
       207 -10.1277     45.2716     55.0458   8.4888668379e+01   6.1136979140e+01      0.45021    0.3055749  40.03  0.001735119    1.704    0.413
       208 -10.6802     18.6839     47.4371   9.4356294069e+01   6.5367608642e+01    0.4700387    0.3592488 -26.75  0.002207389    1.086    0.079
       209  -9.1007     30.3329    247.6622   1.1900549792e+02   1.8268304079e+01    0.1284497   0.06349168  61.76 0.0007051933    1.743    0.426
       210 -10.3650     26.4395     45.4065   9.0024271616e+01   6.5056601281e+01    0.5474287    0.2041747 -33.99   0.00114364    2.914    0.657
       211  -9.4371     32.3290     48.0565   8.8200446092e+01   6.3961692568e+01    0.2894745    0.2340657  61.59  0.001236988    1.973    0.493
       212 -10.9620     45.9133     48.0216   8.2178098517e+01   6.2347449585e+01    0.5557045    0.3737728  14.58 0.0005816282    1.517    0.341
       213 -10.2772     38.1458     47.1258   8.5255759978e+01   6.3478814709e+01    0.5839007    0.3247521   2.82  0.002754525    2.398    0.583
       214 -11.4760     32.4293     63.8859   9.3130263247e+01   6.0837648206e+01    0.5975182    0.2635882 -51.97  0.002786113    1.993    0.498
       215 -11.0707     28.1232     63.8291   9.4959280059e+01   6.1263312949e+01    0.5700895    0.3873049 -44.69  0.001846636    1.260    0.206
       216 -10.4370    143.5486     66.6735   5.7518765649e+01   4.0113304465e+01    0.4291916    0.2619534  40.52  0.001907579    1.786    0.440
       217  -9.9772    136.4337     55.2881   5.5713562368e+01   4.3617813531e+01    0.7393435    0.2982874 -26.82  0.002498922    3.561    0.719
       218 -10.9602    134.1053     64.1407   5.8931959582e+01   4.2741628939e+01    0.6947185    0.4348183 -71.52   0.00186492    2.652    0.623
       219  -8.9103    133.3294     58.3273   5.7348171135e+01   4.3868200606e+01    0.2251021    0.2179799 -25.35 0.0007247165    1.097    0.089
       220  -9.6794    129.7775     57.7826   5.8016165120e+01   4.4779169542e+01    0.3554732    0.1759033  61.25  0.001416169    2.214    0.548
       221  -9.3414     75.0595     65.8956   7.6919399190e+01   5.4630028084e+01    0.2607542     0.192657 -34.95 0.0006029443    1.323    0.244
       222  -8.8552     77.4356     62.0501   7.4802452158e+01   5.4937548908e+01    0.2210781    0.1808481   1.01 0.0005116749    1.261    0.207
       223  -9.1001     14.9136     64.7537   1.0091963221e+02   6.2136514850e+01    0.3237058    0.1657928 -13.53  0.001574171    2.392    0.582
       224  -8.4766     60.6665     64.6591   8.1853201156e+01   5.7168822087e+01    0.1455883   0.09852633 -12.70 0.0007051253    1.752    0.429
       225  -8.8016    203.0048     63.0181   4.5961382659e+01   2.6802187046e+01    0.2139595    0.1462848 -69.91 0.0003459155    1.550    0.355
       226  -9.3815     65.4505     62.1521   7.9206674027e+01   5.6919356314e+01    0.3335128    0.2687243  68.76  0.001788461    1.841    0.457
       227  -9.2971    193.9673     61.3099   4.6853587763e+01   2.9110141710e+01    0.3258577    0.1901438 -38.44  0.001239332    1.691    0.409
       228  -8.1121    110.2654     62.6678   6.4626789212e+01   4.8347362508e+01    0.1392095    0.1139116 -75.38 0.0006971187    1.580    0.367
       229  -8.7787     54.2661     49.5791   7.9244720360e+01   6.0913971862e+01    0.2147368     0.150527  31.95 0.0008011056    1.424    0.298
       230  -9.4672     53.0016     53.7402   8.1231070173e+01   6.0346088000e+01    0.3456706    0.2413949   7.10  0.001881839    1.540    0.350
       231  -9.8887     54.0028     61.1463   8.3324078207e+01   5.8809557814e+01    0.2381961     0.202668 -53.71 0.0004168003    1.345    0.257
       232 -10.0367    163.1528     57.6793   5.0993337719e+01   3.6899957423e+01    0.4696688    0.1961291 -27.97  0.001672668    3.205    0.688
       233  -9.5489    151.2886     60.9029   5.4197775522e+01   3.9224847744e+01    0.2887107    0.2011245  48.85 0.0009897223    1.417    0.294
       234 -11.2422    142.1902     59.6776   5.5760730511e+01   4.1575329527e+01    0.3305912    0.2775685  19.18 0.0001847599    1.417    0.294
       235  -8.7921    115.2962     61.0741   6.2729379045e+01   4.7519685606e+01    0.1928151    0.1894649 -66.98  0.001093774    1.093    0.085
       236 -10.6274    171.5332     59.3342   4.9948254381e+01   3.4652437186e+01     0.373748    0.2988302  45.29  0.001457151    1.362    0.266
       237 -10.1006    167.2294     57.0127   5.0076774160e+01   3.6029991897e+01    0.3740126    0.2104664 -43.18  0.001183375    1.780    0.438
       238  -8.5339    104.8747     60.0076   6.5302049799e+01   4.9952139434e+01       0.3252    0.1744036  26.15  0.001207948    2.865    0.651
       239 -10.0917     70.4754     59.8923   7.6576085607e+01   5.6526898632e+01    0.3323521    0.2168305  49.91  0.001640655    1.832    0.454
       240 -10.2992     40.2740     58.7676   8.8226880944e+01   6.1024233939e+01    0.2477662    0.2349785 -26.12 0.0006117237    1.189    0.159
       241  -9.6723     15.7687     59.9411   9.9310857873e+01   6.3087151823e+01    0.5116739    0.2644007 -75.48  0.002194537    3.051    0.672
       242 -10.6468     10.7355     50.9932   9.9178574316e+01   6.5258121756e+01    0.4274544    0.3306728  40.80   0.00215411    1.711    0.416
       243  -9.9555      7.0262     52.0000   1.0119652807e+02   6.5288856943e+01    0.2905968    0.1718247  22.22  0.001169528    1.888    0.470
       244  -8.8935    198.9124     58.0563   4.5347272851e+01   2.8474896371e+01    0.1959525    0.1783036 -71.80 0.0002966613    1.047    0.045
       245  -8.6914    181.5596     58.0621   4.7946098041e+01   3.2481143729e+01    0.2093619    0.1325388 -39.17  0.001023176    1.584    0.369
       246  -9.8471     65.0273     56.6570   7.7503220248e+01   5.8006304608e+01    0.2137132    0.1822746 -15.95 0.0003225721    1.091    0.083
       247 -10.2055     62.7078     53.1282   7.7158516158e+01   5.9007402200e+01    0.4503594    0.3540983  -5.84  0.001812226    1.267    0.211
       248  -9.6539    146.2393     29.0767   4.5838558975e+01   4.4847476834e+01    0.4937333    0.1706844  57.53  0.001707583    2.438    0.590
       249 -10.1261    115.0712     46.2542   5.7946419964e+01   4.9890517900e+01    0.3997483    0.2926828  32.36   0.00129401    1.433    0.302
       250  -9.1866    113.0264     41.1790   5.6763881547e+01   5.1069159757e+01    0.2109179    0.1929234  -7.53 0.0002894324    1.168    0.144
       251 -10.8957    118.7710     52.4416   5.9034849605e+01   4.8131310706e+01    0.5458085    0.3809437  36.83 0.0001100142    1.470    0.320
       252 -11.6889    125.8922     45.4545   5.5045490348e+01   4.7535552437e+01    0.7596614    0.6461414  35.19  0.002211692    1.191    0.161
       253  -9.6548    163.3163    246.3730   9.1677785456e+01   1.3248847557e-01    0.1984396    0.1380984   1.56 0.0007358424    1.703    0.413
       254 -10.1563    136.5023     37.6222   5.0268323478e+01   4.6109975846e+01    0.3213384    0.2730297  58.23  0.001105371    1.074    0.069
       255  -8.6739      1.4332    243.9800   1.2416458873e+02   2.1950813541e+01    0.1553255   0.08785327 -88.36 0.0004056693    1.531    0.347
       256  -9.4291     98.7570     55.0698   6.5461335749e+01   5.2054568231e+01    0.2758446    0.2214172 -42.47 0.0007637555    1.339    0.253
       257  -9.7753     93.6302     54.8855   6.6970973184e+01   5.3129913889e+01    0.3605186    0.2398258  31.53 0.0003881567    1.543    0.352
       258 -10.2831     92.7966     51.0477   6.5902797832e+01   5.3922688180e+01    0.2960129    0.2511128  38.04  0.000351959    1.114    0.102
       259 -10.0328     88.1155     48.4987   6.6486944843e+01   5.5259701344e+01    0.6243597    0.2715008 -37.19  0.002519161    2.389    0.581
       260  -9.4632    241.4084     54.6402   3.9494252128e+01   1.9903330516e+01    0.2725817    0.1787452 -84.92   0.00122095    1.601    0.375
       261  -9.1169    151.0229     54.6976   5.2464501666e+01   4.0249482772e+01    0.2720636    0.2018526  39.69  0.001052651    1.474    0.322
       262  -9.5454    145.8058     52.4365   5.2854438580e+01   4.1832190401e+01    0.3042665    0.2331221 -87.84  0.001560465    1.510    0.338
       263 -10.8779    153.7455     48.4907   5.0150995175e+01   4.0510805957e+01    0.4825408    0.4096696 -42.87  0.001744806    1.237    0.191
       264  -9.3522     80.0773     54.5894   7.1322405955e+01   5.5786841533e+01    0.2734171    0.2381435 -71.56   0.00102041    1.549    0.354
       265  -8.8780    190.9032     54.0760   4.5515584880e+01   3.0898048965e+01    0.2114854    0.1666525  29.76  0.001133211    1.734    0.423
       266  -9.5621    102.3911    242.7839   1.0396586953e+02   9.8784310352e+00    0.1661558    0.1167783 -49.03 0.0009549292    1.709    0.415
       267  -8.9961    106.7272     52.8235   6.2384178546e+01   5.0732184719e+01    0.2387121    0.1722074  40.67 0.0002617059    1.318    0.241
       268 -11.0666    174.4116     50.4339   4.7099936494e+01   3.5294172959e+01    0.2702857    0.2555393 -59.91 0.0002001665    1.112    0.101
       269  -9.5126    165.0042     52.0573   4.9114932557e+01   3.7299649077e+01    0.2749305    0.1896524  65.96    0.0013973    1.385    0.278
       270  -8.8104     83.3950     51.2771   6.9026411982e+01   5.5723850598e+01    0.2435159    0.1748983 -45.41  0.001281699    1.550    0.355
       271  -9.3429    181.8501     50.2038   4.5879256544e+01   3.3569961014e+01    0.3109001    0.2019074 -29.99  0.001556642    1.741    0.426
       272  -9.2056    164.0633     46.5971   4.7775078677e+01   3.8306485627e+01    0.2954541    0.2276022  16.23  0.001524991    1.828    0.453
       273 -10.1638     79.9443     44.1592   6.7616826746e+01   5.7509029391e+01    0.5188465    0.3504663  25.47  0.002710545    1.527    0.345
       274  -9.3892    234.8039     47.0369   3.8585492310e+01   2.2293645712e+01    0.1911319    0.1558334 -83.54 0.0002961992    1.128    0.114
       275  -9.3845    202.1654     46.7006   4.2197660353e+01   2.9374482863e+01    0.2285599    0.1634554  53.33 0.0008747771    1.546    0.353
       276  -8.1308     84.2727     47.6007   6.7419363144e+01   5.6148859611e+01    0.1315151    0.1084977 -71.87 0.0006983677    1.746    0.427
       277  -9.7693    243.8876     44.3348   3.7153753433e+01   2.0836110199e+01    0.2789629    0.2277115  83.08   0.00119366    1.248    0.199
       278  -9.3618    249.1392     41.1460   3.6046632810e+01   2.0233946410e+01     0.217131    0.1582581  89.75  0.001005725    1.313    0.238
       279  -9.6794    158.3850     39.9056   4.6875893616e+01   4.0578327286e+01    0.4234904    0.2075978 -35.90  0.001388401    2.124    0.529
       280  -9.2057     95.3828     35.6225   5.9600655617e+01   5.5659339041e+01    0.3186527    0.2058385  65.53  0.001559524    1.915    0.478
       281  -8.9626     97.8822     44.1117   6.1923094366e+01   5.3941800357e+01    0.2649371     0.177687  42.92 0.0003044211    1.379    0.275
       282 -10.7296     92.8588     43.7732   6.3307157037e+01   5.5031491644e+01    0.7371839     0.480963 -76.22 0.0006990169    3.697    0.730
       283 -12.1209     89.6409     33.6514   6.0573951748e+01   5.7111424353e+01    0.4295459    0.3427613  40.92 0.0001813394    1.134    0.118
       284 -10.7887     78.9297     33.2025   6.3810259260e+01   5.9294028894e+01    0.6827483    0.3848457  32.30  0.003011172    1.791    0.442
       285  -9.3661    202.5884    242.3163   8.3278098772e+01  -4.8878295946e+00    0.2069569   0.09773859  31.96 0.0005699138    1.880    0.468
       286  -8.9750      8.5981     43.8609   9.8137929259e+01   6.6798640681e+01    0.1788269    0.1448668 -48.53 0.0005181227    1.214    0.176
       287  -8.4583    206.6621    240.6986   8.2244789269e+01  -5.2092268537e+00    0.1276921   0.08177923   1.61 0.0007036708    1.665    0.400
       288 -10.5051      6.5595     39.2791   9.7754319520e+01   6.7803000891e+01    0.3677815    0.1938983  13.17  0.001894338    1.986    0.497
       289 -10.7265      4.4182     36.2121   9.7886582195e+01   6.8510167892e+01    0.4093976    0.2499119 -54.94   0.00254105    1.540    0.351
       290  -8.3719      4.6279     45.1222   1.0045640587e+02   6.6797161289e+01    0.1606667   0.07940194 -44.99  0.000325963    1.564    0.361
       291  -8.6329    209.8995     43.7208   4.0561647920e+01   2.8053930514e+01    0.1741383    0.1478137 -82.89 0.0003365381    1.049    0.046
       292  -8.8944    184.6910     44.0291   4.3886490487e+01   3.3767030002e+01    0.1892595    0.1659856 -76.47 0.0007694289    1.041    0.040
       293  -9.4502    141.8333     43.4146   5.0965057185e+01   4.4069465754e+01    0.4613318    0.1910998  43.22    0.0017181    2.797    0.642
       294  -9.0294    101.0727     26.1369   5.4562065894e+01   5.5632728645e+01    0.2746449    0.1648417  54.14  0.001145642    1.500    0.334
       295  -8.9924    128.0011    240.5897   9.8258066969e+01   6.4678241613e+00    0.3757176   0.06242359  43.89 0.0009590547    6.220    0.839
       296  -8.8926    246.9542    239.2248   7.4721934204e+01  -1.0152568230e+01    0.1465122   0.08193217  28.18 0.0008822758    1.688    0.408
       297 -10.2499    103.2233     43.0151   6.0008866707e+01   5.2966063255e+01     0.417999    0.2216221  51.24 0.0003470568    1.760    0.432
       298 -11.8061    103.7453     38.7122   5.8356433739e+01   5.3456018500e+01    0.3672696    0.3113899  85.30  0.000325326    1.466    0.318
       299 -10.4449     35.9165     41.1693   8.4113125500e+01   6.4802513737e+01    0.3587723    0.2135045   8.97 0.0003600097    1.864    0.463
       300 -11.1281     41.0427     38.6506   8.0837207657e+01   6.4602268350e+01    0.3872516    0.2237907  -6.98 0.0008403802    2.270    0.560
       301  -8.3025    191.5388     42.0147   4.2443730142e+01   3.2445884675e+01    0.1912876    0.0910918 -56.60 0.0006201506    2.344    0.573
       302 -10.3608    228.4086     38.5822   3.7441615737e+01   2.4752597116e+01    0.4003574    0.2061926 -33.15  0.001599381    2.068    0.516
       303  -9.2354    222.5527     40.6124   3.8470171587e+01   2.5721156786e+01    0.2091034    0.1673928 -49.85 0.0006650815    1.189    0.159
       304  -8.9398     48.8583     40.6927   7.8203117685e+01   6.3208355758e+01    0.3002304    0.1281976 -38.41  0.001361679    2.262    0.558
       305  -8.5541    197.3697     39.7617   4.1146455608e+01   3.1405886208e+01    0.1720805     0.125588 -25.60 0.0009459189    1.671    0.402
       306  -8.6225    165.5671     39.4765   4.5569984329e+01   3.8913409406e+01    0.1364698    0.1221445  89.57 9.210856e-05    1.029    0.028
       307 -10.5807    178.3587     36.8033   4.2932537097e+01   3.6217166733e+01    0.4056114    0.3180821 -87.44  0.001625253    1.211    0.174
       308  -8.7756    120.3575     37.9010   5.3876017225e+01   4.9847441009e+01    0.2634151    0.1135996 -41.09  0.001077428    2.540    0.606
       309  -8.8467    110.1267     38.3233   5.6530349613e+01   5.2105966212e+01    0.3238838    0.1219763  43.01   0.00120971    2.684    0.627
       310  -9.1185    114.6818     35.3297   5.4367181467e+01   5.1477321248e+01     0.283614    0.1631679  66.13  0.001003845    1.919    0.479
       311  -9.8306    117.6344     32.9075   5.2845036504e+01   5.1112472268e+01    0.2688511    0.1967093  43.95 0.0004707694    1.273    0.214
       312  -8.0415     25.0000     37.9712   8.8098013013e+01   6.6545706193e+01    0.1816358    0.0613314 -49.28 0.0004946858    2.745    0.636
       313  -8.9094    238.5432     37.3000   3.6218275855e+01   2.2836396578e+01    0.1862809    0.1368474  53.07 0.0008140517    1.739    0.425
       314  -9.5672    209.3190     33.3117   3.8252918396e+01   2.9551387400e+01    0.3858967    0.2049431 -28.98  0.001895711    2.227    0.551
       315  -9.0724    185.9135     36.1755   4.1738702130e+01   3.4522555052e+01    0.2152348    0.1584001 -73.30 0.0009598592    1.331    0.249
       316  -8.8872    163.6139     36.1168   4.4958462707e+01   3.9816470627e+01    0.2445607    0.1401162  61.04  0.001189233    1.586    0.370
       317 -10.8774     71.8571     30.3674   6.5118040730e+01   6.1005177995e+01    0.3100726    0.2642053  28.12    0.0010505    1.070    0.066
       318 -11.1112     56.3728     35.1633   7.2911359701e+01   6.2963836837e+01    0.3958146    0.3822707   5.24  0.001118994    1.289    0.224
       319 -11.1528     51.9571     29.0080   7.2214220970e+01   6.4561390022e+01    0.2057765     0.180216  10.93 0.0003095202    1.112    0.100
       320  -9.2183    223.4165     34.5989   3.7082692868e+01   2.6323679543e+01    0.2240273    0.1663773 -56.96 0.0006135047    1.167    0.143
       321 -10.0792     50.8273     32.5837   7.4163010113e+01   6.4205698914e+01    0.3463401    0.2225916  17.85  0.001158282    1.569    0.363
       322  -8.8177    122.9512     33.8852   5.1957485449e+01   4.9765971457e+01    0.2022544    0.1628255  36.57 0.0003066359    1.249    0.200
       323 -10.2553    248.3420     30.7856   3.4085926363e+01   2.1725294050e+01    0.2662113    0.2063272 -58.08 0.0009922239    1.094    0.086
       324  -9.2371    161.0372     31.3418   4.4042312067e+01   4.1029269030e+01    0.4560094    0.1978948  47.80  0.001889437    2.485    0.598
       325  -9.4659    154.2782     31.9082   4.5293116698e+01   4.2580739852e+01    0.2916263    0.1900318  55.39  0.001522463    1.423    0.297
       326  -8.9344     42.8596     31.0482   7.6999425654e+01   6.5581606614e+01    0.3403309    0.1791437 -50.03  0.001390905    2.550    0.608
       327  -8.8474    189.0012    239.7592   8.5524071997e+01  -2.5782819466e+00    0.1671106    0.0924303  32.29 0.0008777609    1.590    0.371
       328  -9.3611    221.4730    237.4871   7.8957356885e+01  -6.7340382836e+00     0.121885    0.0966534   2.16 0.0001632221    1.008    0.008
       329  -9.5702     34.5620     31.3135   8.0929519153e+01   6.6612526468e+01    0.2328366    0.1794965  25.83  0.001510815    1.338    0.252
       330  -9.8513     37.0018     26.6468   7.7846704042e+01   6.7030714186e+01    0.4506612    0.2527758 -39.62   0.00252324    1.776    0.437
       331  -9.9725     24.6660     30.9552   8.5606522673e+01   6.7782501556e+01    0.2354176    0.1834641 -38.37 0.0007993942    1.298    0.230
       332  -9.9789     25.9634     27.0863   8.3399671244e+01   6.8275737766e+01    0.2662214    0.1728652  -1.80 0.0006280714    1.504    0.335
       333 -10.1450    233.9504     30.4785   3.5234878078e+01   2.4644471588e+01    0.4013837    0.1838404  57.58   0.00184815    2.438    0.590
       334  -9.0938    139.8776    237.0535   9.5255320923e+01   5.2932244568e+00    0.1934228    0.1592975  51.70   0.00040637    1.246    0.198
       335  -9.8807    186.0107    233.2134   8.5090390186e+01  -1.0972522885e+00    0.4783175    0.1321238 -34.48  0.001318022    6.886    0.855
       336  -8.9568     32.0760    232.6662   1.1769903354e+02   2.1096225039e+01    0.1655496     0.129408  61.15 0.0004630674    1.059    0.056
       337  -9.0837    176.8479    231.3645   8.6655804677e+01   5.8765926745e-01    0.1916906    0.1078727  24.71 0.0006363845    1.751    0.429
       338  -9.1119    162.6130    225.6958   8.8731808924e+01   3.7860574702e+00     0.383371    0.2575555 -78.94  0.001734542    2.961    0.662
       339  -8.9720    223.9734    225.0486   7.6427868818e+01  -5.2487566923e+00    0.1867679    0.1517641   3.07 0.0005790978    1.034    0.032
       340  -8.6949    131.9719    225.4794   9.5341939791e+01   8.7059027357e+00    0.2044341    0.1194087  36.75 0.0003869134    1.517    0.341
       341  -8.8488    196.4741    222.4950   8.1244484528e+01  -9.0757982106e-01    0.1315625    0.1095505   4.30 1.769577e-05    1.053    0.051
       342  -8.7836    189.5034     28.9117   3.9482606509e+01   3.4595603286e+01     0.197862    0.1534272  79.35 0.0004583921    1.159    0.137
       343  -8.8486    124.6877     29.5044   5.0140350242e+01   4.9898367503e+01      0.29758    0.1202207  58.90  0.001202022    2.200    0.545
       344 -10.3435    223.5062     25.8802   3.5212327239e+01   2.7394612425e+01    0.2976991    0.2447855  41.10  0.001061211    1.730    0.422
       345  -9.2764     88.9306    220.9615   1.0438922198e+02   1.6251302433e+01    0.2043101    0.1820064  51.65 0.0006635677    1.049    0.047
       346  -8.0676    203.2614    217.6926   7.9088572504e+01  -1.1352975093e+00    0.1096159    0.1046811  83.93  0.000175818    1.525    0.344
       347  -8.6605    242.2983    209.8514   7.0519148970e+01  -5.4375395225e+00    0.1792817    0.1413909 -40.60 0.0007511947    1.477    0.323
       348  -8.0223    145.6223    210.2884   8.9981318489e+01   9.4777963468e+00    0.1432414    0.1035583  61.93 0.0007017895    1.731    0.422
       349  -8.7762    230.9298    209.3353   7.2425622698e+01  -3.8100311152e+00    0.1739519    0.1365519   7.45 0.0004546919    1.151    0.131
       350  -8.3693    123.9729    205.9918   9.4259782160e+01   1.3975741855e+01    0.1585347    0.1504899  45.96 0.0009337669    1.027    0.027
       351 -10.0265    165.3151     20.6962   4.0493082052e+01   4.1240110184e+01    0.2461695    0.1804173  78.00 0.0002756292    1.220    0.180
       352  -8.1147     95.3313    205.3088   1.0091852006e+02   1.8710200546e+01    0.1345838    0.1091611 -15.28 0.0004029632    1.667    0.400
       353  -9.5269    241.6528     25.3952   3.3564761228e+01   2.3713239302e+01    0.2106062    0.1540536 -78.06 0.0007625733    1.155    0.134
       354  -9.3167    208.4582     26.5072   3.6803764556e+01   3.0586022592e+01    0.2066205    0.1112861  72.06 0.0008339403    1.730    0.422
       355 -10.0927    204.6071     23.9078   3.6609465183e+01   3.1754861481e+01    0.4175552    0.3455072 -89.15  0.002310429    1.063    0.059
       356  -8.3770    161.7905     26.4313   4.2565998697e+01   4.1433062831e+01    0.1855849    0.1090697  56.58 0.0004308704    1.571    0.363
       357  -9.5744     35.0359    201.0501   1.1461833341e+02   2.7694539607e+01    0.2183381    0.1236831  63.97  0.001128942    1.702    0.413
       358 -10.3923     62.1405     22.8996   6.5582461735e+01   6.3717922908e+01    0.5111737    0.2909037  27.76  0.002267238    1.752    0.429
       359  -8.4611    120.2020    199.4276   9.4121660094e+01   1.6021583952e+01    0.1962802    0.1238883  47.34 0.0004019515    1.537    0.350
       360 -10.2124     41.2439     21.7977   7.3786496979e+01   6.7159353247e+01    0.2408819    0.2244374  30.06 0.0004904614    1.435    0.303
       361 -10.9040      2.0863     25.0807   9.5365539853e+01   7.0654949520e+01     0.236652     0.156262 -46.35 0.0004634439    1.353    0.261
       362 -10.1569    232.5860     23.5560   3.3936366919e+01   2.5776133858e+01    0.3908908    0.1900471 -86.28  0.001941278    2.276    0.561
       363  -9.1943    124.9587     23.4805   4.8110322688e+01   5.0526125452e+01    0.1848926    0.1594773  57.05 1.787767e-05    1.025    0.024
       364 -10.0327    153.6435     23.0274   4.2851801290e+01   4.3768869272e+01    0.2420768    0.1721502  66.94  0.000309199    1.241    0.194
       365 -12.0181    117.0383     22.2228   4.9360265690e+01   5.2497238110e+01    0.2753772      0.22722  29.04 0.0003809492    1.263    0.208
       366  -8.7622      6.4967    194.5248   1.2052583913e+02   3.1980434497e+01    0.1200241   0.09824972  87.56 0.0008090088    1.076    0.071
       367  -9.7856     84.6112     20.7872   5.7135594543e+01   5.9716979775e+01    0.3545998    0.2382021 -57.87 0.0008405301    2.357    0.576
       368  -8.9045     79.9230     22.3221   5.9188996133e+01   6.0480040386e+01     0.224374    0.1707877 -46.18  0.001312647    1.669    0.401
       369  -8.4293    188.6155     22.2810   3.7966399300e+01   3.5584828860e+01    0.1548717    0.1246786 -22.88 0.0007599331    1.558    0.358
       370  -9.5376    132.0358     21.2542   4.6009831817e+01   4.9107500533e+01    0.2288709    0.2024055 -23.65  0.000790234    1.295    0.228
       371  -9.0871     46.5611     25.3972   7.2987652308e+01   6.5889381036e+01     0.515021    0.2472269  31.38  0.002590193    1.996    0.499
       372  -8.2561     93.0360     20.4578   5.4595756532e+01   5.8003881052e+01    0.4728707    0.1838212  51.50  0.002050056    2.178    0.541
       373  -8.6677    241.9999    193.5584   6.7619301663e+01  -2.8904634309e+00    0.1717016    0.1168959  30.37 0.0005164194    1.546    0.353
       374  -8.9215     36.6470     19.3080   7.4805802873e+01   6.8136331561e+01    0.2440218    0.1227117 -17.61  0.001168078    2.496    0.599
       375  -9.6953    144.8967     17.7106   4.2687938926e+01   4.6428944704e+01    0.3815547    0.2546497  35.20  0.002032388    1.786    0.440
       376  -8.9076    225.6335     15.8570   3.2929982470e+01   2.8125737576e+01    0.2328191    0.1108719 -48.35  0.001248969    1.806    0.446
       377  -8.1817     73.6712    187.6656   1.0383013907e+02   2.6009677476e+01    0.1391701    0.1073053 -29.58 -0.0001599681    1.723    0.420
       378  -8.6552     55.3970    181.2417   1.0763186800e+02   3.0006081678e+01    0.1870974    0.1211152 -84.43 0.0004550013    1.559    0.359
       379 -10.6482    101.0048    175.9991   9.5058800232e+01   2.4615951685e+01    0.2064715    0.1972523  71.57            0    1.002    0.002
       380  -9.3581     72.4519     15.1793   5.8658389188e+01   6.2737476951e+01    0.2736836    0.1834742  56.57   0.00111271    1.604    0.377
       381  -8.4249     75.1543     12.3827   5.6609886613e+01   6.2507608337e+01    0.1929275    0.1098075  50.37  0.001034694    1.565    0.361
       382  -9.6067      7.3602    174.8001   1.1893061111e+02   3.6498226156e+01    0.1766311    0.1387999  72.62 0.0008446804    1.128    0.113
       383  -9.6439     18.6085    174.1088   1.1613475511e+02   3.5706995668e+01    0.2152275    0.1919928  10.16 0.0009074291    1.448    0.309
       384  -8.4247     11.4837    172.4962   1.1774818857e+02   3.6710585095e+01    0.1257783    0.1042096 -85.63 0.0008099127    1.052    0.049
       385  -8.5809    154.5527     14.4799   4.0286783421e+01   4.4458810732e+01    0.1294979    0.1118532  77.93 0.0001656833    1.005    0.005
       386 -10.3930      7.3061    166.1737   1.1825750346e+02   3.8561845582e+01    0.2648215    0.1964106 -54.25 0.0006282108    1.434    0.303
       387 -10.3274     11.7801    163.5677   1.1690638425e+02   3.8837839330e+01    0.2387674    0.1685699  84.28 0.0003388591    1.251    0.201
       388 -11.9959     30.6592    154.8801   1.1098660484e+02   3.9305223247e+01    0.6236983    0.4623867  65.65  0.002470286    1.361    0.266
       389  -9.8604     24.1942    163.0273   1.1363967312e+02   3.7897629235e+01    0.2404117    0.1968425  11.91 0.0005914795    1.547    0.354
       390  -9.5481     20.9392    160.4956   1.1423474330e+02   3.8814924543e+01    0.2307571    0.1657221 -79.12 0.0004578225    1.192    0.161
       391 -11.7393     37.2795    159.4827   1.0973027229e+02   3.7485705095e+01    0.6672295    0.3801224  55.91   0.00322673    1.882    0.469
       392 -10.6053      2.1672    155.0865   1.1863911539e+02   4.1607050250e+01    0.4487664    0.1674086 -72.80  0.002046204    2.130    0.531
       393  -8.3193     84.6808     14.2620   5.4517386669e+01   6.0403597950e+01    0.1141963   0.09765528  86.82 0.0003485922    1.549    0.354
       394  -9.2765    248.9216    153.8613   5.8882251930e+01   2.5579280278e+00    0.2005838     0.156164 -15.98 0.0006186354    1.280    0.219
       395  -8.7143    151.9625     18.2273   4.1734902160e+01   4.4689828857e+01    0.1821243    0.1542557  70.99 0.0003840081    1.037    0.035
       396  -9.1491     46.0020    151.4631   1.0622940260e+02   3.8546137097e+01    0.2062333    0.1671115 -72.46 0.0001886838    1.113    0.102
       397  -9.9607     20.1964    150.9014   1.1341363429e+02   4.1248713291e+01    0.4400413    0.1616364 -52.84  0.001699453    2.572    0.611
       398 -11.1402     12.6703    150.7605   1.1545688114e+02   4.1894558488e+01    0.4771001    0.2855633   8.78  0.002508219    2.281    0.562
       399 -10.0725      8.0759    147.9740   1.1642870898e+02   4.2920027752e+01    0.3135592    0.1897709 -27.65  0.001307761    2.289    0.563
       400 -10.1596      3.9721    146.0172   1.1735717819e+02   4.3682387764e+01    0.2682633    0.2096762  60.81 0.0009170474    1.309    0.236
       401  -9.4804     35.6988    149.0196   1.0883367598e+02   4.0272258361e+01    0.1959735    0.1521307 -70.91 0.0003609961    1.137    0.121
       402 -11.6948     18.7084    141.4888   1.1275900823e+02   4.3707373027e+01    0.7702543     0.435054  -9.06  0.003569605    2.828    0.646
       403  -9.7490      2.1376    139.9869   1.1729056826e+02   4.5268782569e+01    0.3552238    0.1701804  79.38  0.001516949    2.338    0.572
       404 -10.8013      2.4395    132.0617   1.1641383562e+02   4.7177929022e+01    0.6235184    0.2703581 -77.04  0.002391158    1.953    0.488
       405 -11.1552      6.2589    124.3855   1.1442863923e+02   4.8813017667e+01    0.6131569     0.358197 -40.00  0.002442484    1.828    0.453
       406 -10.1318      9.5797    131.0117   1.1420261603e+02   4.6975265506e+01    0.4834208    0.1629805 -50.89  0.001434539    2.678    0.627
       407  -9.4013     12.9979    127.0148   1.1269140174e+02   4.7720530892e+01    0.1982256    0.1576992  85.82 0.0006069447    1.226    0.184
       408 -10.0199     41.6277    138.9586   1.0566540365e+02   4.2188638950e+01    0.2527381    0.1964533  45.48 0.0007195052    1.372    0.271
       409  -9.1116    230.6642    137.0315   5.8351918968e+01   8.5037410702e+00    0.1961895    0.1554322 -35.65  0.000495756    1.113    0.102
       410  -8.9237     75.3658    135.8528   9.4899208167e+01   3.8635812586e+01    0.3032271     0.161294 -45.94 0.0006542207    1.911    0.477
       411 -11.7272     44.8287    131.2293   1.0344996875e+02   4.3788289305e+01    0.6351367    0.5302015  51.26  0.003643379    1.289    0.224
       412  -9.5716     15.6268    135.3306   1.1292334136e+02   4.5475565512e+01    0.2193993    0.1687261  12.24 0.0008871128    1.601    0.375
       413  -8.7434    248.7927    133.9887   5.4934208497e+01   5.9093524785e+00    0.1804976    0.0892268 -39.40 0.0004464226    1.701    0.412
       414 -10.3388     28.7042    132.0839   1.0856738388e+02   4.5196545664e+01    0.2093662    0.2008999  76.80 0.0003189406    1.131    0.116
       415  -9.5803     61.8261    130.9598   9.8102501752e+01   4.1781776954e+01    0.2208354    0.2081651  43.28  0.000361882    1.131    0.116
       416  -9.8472     18.8230    129.1860   1.1119100387e+02   4.6751065391e+01     0.489411    0.2739114  86.60  0.002334293    2.029    0.507
       417 -11.0815     88.5501    127.9410   8.9252501400e+01   3.8509683064e+01     0.256126    0.2504928  49.77 0.0002345311    1.055    0.052
       418 -10.9117     34.1246    125.8885   1.0594027266e+02   4.6238482993e+01    0.6462785    0.2650832 -82.23   0.00212911    3.879    0.742
       419  -9.1109     59.6820    125.0219   9.7630428529e+01   4.3552612596e+01    0.2131719    0.2000054  36.24 0.0007705181    1.147    0.128
       420  -9.4868     55.4578    125.3122   9.9034556064e+01   4.4020665136e+01    0.2393614    0.1310655  29.84  0.001066107    1.971    0.493
       421  -9.1554    241.1344    123.8749   5.3987062863e+01   8.9366516324e+00    0.2087973    0.1650771 -55.74  0.001122237    1.261    0.207
       422  -9.8901     39.4203    123.1099   1.0378579651e+02   4.6402966002e+01    0.2554296    0.2253581  -3.69 0.0004199019    1.302    0.232
       423  -9.5173    131.0552    122.9789   7.5979421748e+01   3.1625080907e+01    0.2234825    0.2206318 -86.52 0.0003027709    1.020    0.020
       424  -8.6158     71.9416    123.5047   9.3423996271e+01   4.2222880493e+01     0.205515    0.1457316  34.32 0.0004152591    1.483    0.326
       425  -9.2432    221.0499    121.5641   5.6609775933e+01   1.3051060589e+01     0.215745    0.1675747 -41.10  0.000353929    1.152    0.132
       426 -10.0494     28.0552    115.9907   1.0629807709e+02   4.9252579266e+01    0.2584645    0.2095535 -77.71 0.0004454476    1.176    0.150
       427 -11.6571     21.0301    119.4523   1.0913584298e+02   4.8983561502e+01      0.81876    0.4148623  49.56  0.003803991    2.395    0.582
       428 -10.6302     13.7676    113.5405   1.1063347544e+02   5.0965925706e+01    0.3874279     0.208233  21.74  0.001836706    2.155    0.536
       429 -10.1661     13.9332    109.7497   1.1002016897e+02   5.1874413026e+01     0.362422    0.2262895 -43.81 0.0009692272    1.516    0.340
       430  -9.2236    236.7952    121.1527   5.4061593510e+01   1.0180507674e+01    0.1844587    0.1527699 -17.16    0.0010813    1.338    0.253
       431  -8.5604    123.7596    121.0328   7.7451586799e+01   3.3568593902e+01    0.2075545    0.2011437 -51.53 0.0003292745    1.022    0.022
       432 -10.2954     61.8349    120.4319   9.6012768802e+01   4.4408680053e+01    0.2618028    0.2313475 -70.09 0.0002833063    1.109    0.098
       433  -9.5121     62.5592    115.8005   9.4797989660e+01   4.5452175453e+01    0.3381788    0.1798279 -75.04 0.0007752088    2.653    0.623
       434  -9.2649     93.8552    119.0259   8.5591127105e+01   3.9759283485e+01    0.2556413    0.2236983  24.88 0.0007597993    1.209    0.173
       435  -9.6379     43.5016    119.2317   1.0176694735e+02   4.6935407249e+01    0.3328266    0.1757656  35.66  0.001176754    2.024    0.506
       436 -10.3190      3.6247    117.2007   1.1438442988e+02   5.0715237263e+01    0.3648763    0.2196394 -57.05  0.001758225    1.388    0.280
