#   1 NUMBER                 Running object number                                     
#   2 MAG_AUTO               Kron-like elliptical aperture magnitude                    [mag]
#   3 X_IMAGE                Object position along x                                    [pixel]
#   4 Y_IMAGE                Object position along y                                    [pixel]
#   5 X_WORLD                Barycenter position along world x axis                     [deg]
#   6 Y_WORLD                Barycenter position along world y axis                     [deg]
#   7 A_WORLD                Profile RMS along major axis (world units)                 [deg]
#   8 B_WORLD                Profile RMS along minor axis (world units)                 [deg]
#   9 THETA_WORLD            Position angle (CCW/world-x)                               [deg]
#  10 FWHM_WORLD             FWHM assuming a gaussian core                              [deg]
#  11 ELONGATION             A_IMAGE/B_IMAGE                                           
#  12 ELLIPTICITY            1 - B_IMAGE/A_IMAGE                                       
         1 -13.4474     28.0877     58.5666   1.1847507689e+02   6.1215838429e+01     1.136264    0.7969728  39.53  0.006088417    1.881    0.468
         2 -12.8693     41.7897     21.0933   9.9927389949e+01   6.5711101018e+01    0.4973684    0.2728646  25.58 0.0009345942    1.725    0.420
         3 -12.2120    216.2849     14.8318   5.9858908719e+01   2.9833290804e+01     0.459033    0.3813006  69.11  0.001732203    1.252    0.202
         4 -13.4477    186.7057      6.5855   6.1158457311e+01   3.7607269727e+01    0.9154599    0.4450738 -78.78  0.003956299    2.728    0.633
         5 -11.8387     57.3734      7.0884   8.8233744372e+01   6.5083913548e+01    0.4479366    0.3610466 -28.65  0.003188703    1.521    0.342
         6 -11.5081     43.9835      8.7555   9.3878610583e+01   6.6879716751e+01    0.2503754    0.1887531  18.41  0.001076548    1.130    0.115
         7 -12.0084    165.4576      1.7941   6.2563417363e+01   4.3069310379e+01    0.6863089     0.159712  70.29  0.002243269    4.052    0.753
         8 -10.9335     95.9858    225.1643   1.3077632545e+02   1.4775729274e+01     0.238752    0.1263545  62.23   0.00109255    2.047    0.512
         9 -10.9949    149.4879    222.6687   1.1921234989e+02   6.0412727086e+00    0.4173388     0.242531 -60.53  0.001956209    2.096    0.523
        10 -11.4171    230.4701    223.4944   1.0309988793e+02  -8.2065465341e+00    0.3488487    0.1138388  44.55   0.00131682    3.408    0.707
        11 -10.8239    226.1799    221.2050   1.0348900578e+02  -7.1684611932e+00    0.1613868    0.1590854  59.86 0.0006844845    1.373    0.272
        12 -10.0413    174.0000    221.9602   1.1397969490e+02   1.7267592305e+00    0.2120364   0.07914937 -46.78 0.0006498829    2.962    0.662
        13 -10.1257    211.3839    218.1564   1.0577432065e+02  -4.2208047589e+00    0.1801561    0.1240291 -50.25 0.0006959893    1.770    0.435
        14 -11.1288    222.7450    214.2402   1.0285956248e+02  -5.4945662241e+00    0.2495715    0.2092951  85.70  0.001398719    1.970    0.492
        15 -11.1795    232.5685    211.1333   1.0042628870e+02  -6.6103462290e+00    0.2209818    0.1461915  29.72  0.001200602    1.460    0.315
        16 -10.8823    115.3988    209.2446   1.2446959133e+02   1.4902185698e+01    0.2479477    0.1793123 -74.53  0.001290142    1.487    0.328
        17 -10.2854     56.4983    205.9720   1.3673750660e+02   2.4780942895e+01    0.1875764   0.09400159  83.70 0.0008093457    2.485    0.598
        18 -10.4437     48.8356    202.0056   1.3791258670e+02   2.6664571004e+01    0.2244644    0.1214987  79.34  0.001089764    2.004    0.501
        19  -9.6759     41.5891    202.1751   1.3943223938e+02   2.7519952412e+01    0.1730703   0.09931208 -63.94 0.0009440663    1.637    0.389
        20 -10.9278      5.1924    199.6671   1.4642218468e+02   3.1913267579e+01    0.2812524    0.1398736  54.31 0.0008842608    1.856    0.461
        21 -10.5001    149.4788    198.9977   1.1523757806e+02   1.0823900777e+01    0.2041052    0.1288486 -79.19 0.0008099669    2.585    0.613
        22 -10.1048    133.6551    196.3442   1.1831755273e+02   1.4397739093e+01    0.2272383    0.1648988  77.76 0.0007175807    1.687    0.407
        23 -12.4675    160.2877    192.3911   1.1162794531e+02   1.0115952517e+01    0.6669094    0.4916596  80.81  0.002486285    1.874    0.466
        24  -9.7528    215.3575    194.6713   1.0053903111e+02  -8.6721576586e-01    0.1353852    0.1130844  87.33 0.0007043924    1.785    0.440
        25  -9.6565    199.3024    191.6516   1.0315272580e+02   2.6692629706e+00    0.1396622    0.1157178 -88.03 0.0007039611    1.693    0.409
        26 -10.4300     94.7528    186.7535   1.2570296435e+02   2.3502781389e+01    0.2269645    0.1147787 -73.43  0.000887793    2.441    0.590
        27 -10.2783    109.3228    185.9909   1.2216509170e+02   2.1186903523e+01    0.2381183    0.1176558 -79.63 0.0007050046    4.307    0.768
        28 -10.1940    183.4078    183.4751   1.0483858694e+02   7.3699393720e+00    0.3341421    0.1423823 -43.77  0.001249152    2.399    0.583
        29 -10.6899    224.2262    183.2595   9.6538984620e+01  -4.2707022844e-01     0.219888    0.1052544 -49.27 0.0008838633    2.406    0.584
        30 -10.0179    191.6763    178.3417   1.0203614315e+02   6.7518403737e+00    0.1489147    0.1192611 -89.57  0.000705083    1.729    0.422
        31  -9.6144     28.3159    176.7198   1.3964456147e+02   3.4821100264e+01    0.1273739   0.07954218  71.79 0.0002993573    1.574    0.365
        32 -10.2328    105.7928    175.2118   1.2115617032e+02   2.4338907172e+01    0.2589552    0.1498976  75.11 0.0009530947    2.797    0.643
        33 -11.5103     34.6484    173.3593   1.3784862493e+02   3.4936599754e+01    0.3491073    0.1763651  78.67  0.001570866    2.443    0.591
        34 -10.1611    176.3183    171.6727   1.0394053177e+02   1.1252474129e+01    0.1537199    0.1214012  87.65            0    1.680    0.405
        35  -9.9157     88.4986    168.0247   1.2415356515e+02   2.8984379336e+01     0.216699    0.1211781 -85.63 0.0008098388    2.705    0.630
        36 -10.7140     55.4973    167.6315   1.3220944761e+02   3.3847402386e+01    0.2407828    0.2025774  72.13 0.0009955239    1.149    0.130
        37 -10.2551     44.3249    168.3234   1.3498189178e+02   3.5042499652e+01    0.1294359   0.09262731 -43.50  0.000704801    1.686    0.407
        38 -10.2990    111.9868    167.4909   1.1823034440e+02   2.5062086997e+01    0.2216298    0.1180671  61.03 0.0008103306    2.534    0.605
        39 -10.4486     99.3308    166.6638   1.2121921360e+02   2.7507294922e+01    0.1571646     0.109472  77.44 0.0007052114    1.733    0.423
        40 -10.6401     79.6690    164.0018   1.2567701301e+02   3.1344067072e+01    0.2392936    0.1131549 -82.57 0.0007052118    4.371    0.771
        41 -10.9327     24.3072    159.6711   1.3865924383e+02   3.9195898496e+01     0.215021    0.1454676 -19.72  0.001160694    2.441    0.590
        42 -11.7602    106.4840    158.0310   1.1779031743e+02   2.8327898705e+01    0.6174338    0.3830373  68.85  0.002519232    2.210    0.548
        43 -10.8911    167.7137    157.5339   1.0281159117e+02   1.6108963567e+01    0.3841619    0.2573542  73.81  0.001532008    2.225    0.551
        44 -10.7263    218.4450    156.1950   9.1932829179e+01   5.7400062977e+00    0.3693822    0.1341794 -43.78  0.001298871    2.630    0.620
        45 -10.7395    119.1820    156.4694   1.1425827957e+02   2.6340965170e+01    0.3801131    0.2576863  49.65    0.0017338    1.495    0.331
        46 -10.0956     81.3327    154.6573   1.2362821589e+02   3.3361441344e+01     0.153504    0.1058874  77.58 0.0007050835    1.755    0.430
        47  -9.6425     23.5314    153.5087   1.3810942540e+02   4.0714373646e+01    0.1274238    0.1013224 -82.11 1.454169e-05    1.042    0.040
        48 -10.4014    189.8587    150.7239   9.6437124739e+01   1.2798277959e+01    0.3014991    0.2030993 -69.42  0.001242063    2.094    0.522
        49 -11.4262    107.3267    145.5618   1.1503138536e+02   3.1176627726e+01    0.5563439    0.3221772  71.27  0.001947959    3.073    0.675
        50 -10.5277     55.7291    145.9783   1.2883897542e+02   3.9048990012e+01    0.2489092    0.1215619  64.86 0.0008948623    3.526    0.716
        51 -10.5216    148.4740    144.9689   1.0448187176e+02   2.3054106438e+01    0.2287628    0.1378242 -70.92 0.0008100045    2.569    0.611
        52 -10.3767     88.3253    144.6688   1.1989183164e+02   3.4683336539e+01    0.1534439    0.1108058  79.53 0.0006490116    1.706    0.414
        53 -11.8205     83.2062    130.7091   1.1841722239e+02   3.8870910927e+01    0.6239667      0.21513 -59.00  0.002073789    3.006    0.667
        54 -12.3313     98.9696    128.3032   1.1348547083e+02   3.6804217539e+01    0.8357279    0.5058871 -89.66  0.002850955    3.476    0.712
        55 -11.0757     43.6519    123.7537   1.2830830611e+02   4.5765645541e+01     0.399039    0.2342614  75.16  0.001754998    2.707    0.631
        56 -11.4889     27.0036    120.8118   1.3255970119e+02   4.8067340726e+01     0.552181     0.269161  86.65  0.002041111    4.023    0.751
        57 -11.7465    193.2797    118.6658   8.8198975034e+01   1.8639490617e+01    0.6093345    0.4285749 -69.57  0.001891387    1.778    0.437
        58 -10.5003     72.0675    121.1726   1.1954386186e+02   4.2814907150e+01    0.4097214    0.2405942  71.80   0.00153801    3.264    0.694
        59 -11.3786    141.2278    115.3285   9.9045879580e+01   3.1279191604e+01    0.7068087    0.2525879 -41.83  0.002241491    2.888    0.654
        60 -10.8663      2.1825    115.4934   1.3873439957e+02   5.1086634720e+01    0.2584022    0.1412343 -77.06  0.000894552    1.596    0.374
        61 -10.7464    108.1824    112.4965   1.0708160986e+02   3.8759533988e+01     0.514969    0.2404468 -62.76  0.001629805    3.465    0.711
        62 -10.8632     78.4525    112.3066   1.1564431148e+02   4.3930159228e+01    0.4303774    0.2585621 -80.62  0.001641657    2.990    0.666
        63 -12.1068    159.7717    110.3793   9.3306483954e+01   2.8124821058e+01     0.769061     0.411038 -58.15  0.002788205    2.403    0.584
        64 -10.6266    174.2111    111.1250   9.0279540206e+01   2.4600017516e+01    0.3631717    0.2024167 -49.19  0.001078969    1.826    0.452
        65 -10.2035    117.7231    125.9710   1.0782097246e+02   3.3826668860e+01      0.27574    0.1648126  75.34 0.0008898989    3.493    0.714
        66 -11.7898     14.9320    110.2567   1.3432039365e+02   5.1432260431e+01    0.5580816     0.342626  81.79  0.002996813    2.143    0.533
        67 -12.1823     44.4095    101.5096   1.2363397695e+02   5.0801098322e+01    0.6068549    0.3881588 -85.30  0.002859632    2.309    0.567
        68 -12.2767    151.5426    103.9063   9.3531117977e+01   3.1368720943e+01    0.4019002    0.2653468  73.97  0.001608395    2.128    0.530
        69 -12.2287    127.6695    100.8190   9.8673691940e+01   3.7340234983e+01     0.616627    0.3083007 -55.92  0.002233413    2.500    0.600
        70 -12.9017    141.0010    104.9540   9.6376246436e+01   3.3548374590e+01    0.5728227    0.4810728  77.89  0.002810012    1.360    0.265
        71 -13.2330    111.3020    100.3319   1.0299250250e+02   4.0818231410e+01     1.290638    0.5512278  56.69  0.003912711    3.976    0.749
        72 -10.6520     81.9024    100.3417   1.1162845195e+02   4.6078241396e+01    0.2202813    0.1784174  56.02  0.001161271    1.453    0.312
        73 -11.0634     62.8973     95.6751   1.1637133010e+02   4.9877646898e+01    0.4179035     0.192717 -69.51  0.001260419    5.000    0.800
        74 -12.8207    170.3487     90.8892   8.5843540783e+01   2.9502018650e+01    0.4170487    0.3438684  84.18 0.0008697959    1.332    0.249
        75 -10.9061     33.9049     88.4874   1.2412186903e+02   5.4695226892e+01    0.3609967    0.1593234 -66.79  0.001528522    2.714    0.632
        76 -11.9557     42.1746     87.8933   1.2122051583e+02   5.4008902097e+01    0.3798376     0.226934 -10.98  0.001852992    2.339    0.572
        77 -11.7641     87.0877     87.3145   1.0648864333e+02   4.7990148294e+01     0.415567    0.2983522  71.35  0.001924312    2.221    0.550
        78 -11.1718    104.7342     83.5583   1.0011459130e+02   4.5536909177e+01    0.4188698    0.2719908 -70.21  0.001699012    2.630    0.620
        79  -9.9615    140.6865     83.3427   9.0470893011e+01   3.7919548318e+01    0.1556717    0.1196191 -79.60 0.0007047085    1.705    0.414
        80 -10.7198     24.2272     80.7673   1.2562648990e+02   5.7157055229e+01    0.3076481    0.1808395 -85.13  0.001411468    3.110    0.678
        81  -9.5859      1.6781     77.7072   1.3270442940e+02   5.9266984114e+01    0.1205215   0.06395275 -39.70 0.0007014982    1.611    0.379
        82 -11.2783     82.6927     73.5133   1.0379543095e+02   5.1443642579e+01    0.4319004    0.2925621 -78.17  0.001779627    3.179    0.685
        83 -10.9586     62.6042     74.4068   1.1068019823e+02   5.4318125673e+01    0.2646496    0.1221588 -51.91  0.001154025    2.205    0.546
        84 -12.1642    223.4313     71.8008   7.1805356612e+01   2.0242290753e+01    0.2615434    0.2316502 -64.18 0.0002780773    1.048    0.045
        85 -10.3237    115.9874     72.9944   9.3776909041e+01   4.5251049417e+01    0.2324301     0.185416 -84.26  0.001142722    1.757    0.431
        86  -9.7462     72.2414     73.3761   1.0714512789e+02   5.3130569061e+01    0.1692134    0.1249725  42.51 0.0002711159    1.522    0.343
        87 -10.3109     95.0062     71.8017   9.9443842337e+01   4.9602199479e+01    0.3168479     0.150863 -57.51  0.001059794    3.849    0.740
        88 -10.7632     51.8558     70.2229   1.1316809972e+02   5.6515845617e+01    0.2781595    0.1742708 -46.32  0.001002634    1.440    0.305
        89 -10.3616    195.3111     68.0153   7.5203638023e+01   2.7483022454e+01    0.2628108    0.1539607  61.07  0.001187491    1.658    0.397
        90 -11.5374     19.3729     59.5584   1.2207518110e+02   6.1746753623e+01    0.2855685    0.1908609 -29.33  0.001146036    1.293    0.227
        91 -11.1485    219.7088    248.6974   1.0946922489e+02  -1.0224864321e+01      0.21796    0.1539649 -60.72  0.001188649    2.558    0.609
        92 -12.2383    237.5054     63.9836   6.8185481406e+01   1.8337182285e+01    0.3185724      0.22011 -87.80  0.001701495    1.506    0.336
        93 -11.2920     42.0238     62.6757   1.1447112154e+02   5.9077484702e+01    0.1716339    0.1459909 -10.25 0.0005950851    1.110    0.099
        94 -10.4675    101.8471     61.8446   9.4264526270e+01   5.0047457256e+01    0.3283848     0.221528 -83.35  0.001255845    3.607    0.723
        95 -10.2388     72.5403     58.5264   1.0235739403e+02   5.5779377708e+01    0.2337234     0.119824 -50.73  0.001038041    2.388    0.581
        96 -11.1629      8.7962     57.1742   1.2549519767e+02   6.2923738970e+01    0.4489996    0.2920388 -80.11  0.002583141    2.443    0.591
        97 -10.3489    119.5159     56.9956   8.7861876238e+01   4.7187094426e+01    0.1963393    0.1172135 -58.01 0.0008096989    2.516    0.603
        98 -10.0649     54.3095     54.6450   1.0744643521e+02   5.9056199734e+01     0.114188    0.1021421 -81.67  0.000704329    1.727    0.421
        99 -10.6222    161.5084     53.3210   7.7331185623e+01   3.8005158996e+01    0.2682252    0.1244457  58.63  0.001086215    2.010    0.502
       100 -10.2543     39.2899     53.0330   1.1251247760e+02   6.1119080628e+01    0.1726765    0.1290907 -33.08            0    1.131    0.116
       101 -11.3372    149.6899     52.4581   7.9449558396e+01   4.0975632434e+01    0.3463921    0.1269019  54.58  0.001270798    2.464    0.594
       102 -10.6329     92.3239     50.8173   9.3442612515e+01   5.3633825481e+01    0.2656487    0.1131557 -43.42  0.001086845    2.623    0.619
       103 -10.5125     82.4428     47.3116   9.5303246482e+01   5.5950170573e+01    0.2078585    0.1631139  60.60  0.001031293    1.733    0.423
       104 -10.3744    156.9553     45.0117   7.5847881818e+01   4.0290302651e+01    0.2155344    0.1907489  59.09 0.0004510684    1.045    0.043
       105 -11.1171      6.7237     42.3798   1.2223149957e+02   6.5737224695e+01    0.4335651    0.3544946  70.74  0.003013861    2.202    0.546
       106 -11.7445     71.0099     42.3047   9.7289927510e+01   5.8609075967e+01    0.5015827    0.3058221  54.51  0.002500335    2.390    0.582
       107 -11.9494     42.2010     37.4512   1.0605930415e+02   6.3355012745e+01    0.6773528    0.3127504  15.54  0.002552985    3.053    0.672
       108 -11.5752     46.6417     35.6587   1.0367581984e+02   6.3081714005e+01    0.3061658    0.1911967  12.39 0.0006835544    1.645    0.392
       109 -10.1741     82.5288     38.0090   9.1983501516e+01   5.7273921205e+01    0.2658257    0.1619601  60.04  0.001269534    2.458    0.593
       110 -10.7750    119.6401     34.0853   8.0432786710e+01   5.0356655424e+01    0.2597439    0.2400301 -44.98  0.001000085    1.242    0.195
       111 -10.4763     73.3712     32.5136   9.2914534184e+01   5.9588755117e+01    0.2286887    0.1856519  80.12  0.001303779    2.245    0.555
       112 -11.1799    104.8064     30.4964   8.2914314640e+01   5.3946904997e+01    0.5061115    0.1990179  54.62  0.001944376    2.468    0.595
       113 -11.8998     22.8741    240.1354   1.4603897452e+02   2.1691489421e+01    0.2582358    0.1512633  77.54  0.001664325    1.364    0.267
       114 -10.9650    240.0657     20.5048   5.8784501500e+01   2.3851456598e+01    0.2210062     0.166552 -67.58 0.0004673687    1.107    0.097
       115 -10.7900      7.9689    240.5053   1.4855304624e+02   2.3231409465e+01    0.1513628   0.09101186  47.41 0.0009687679    1.587    0.370
       116  -9.8733    134.4655     18.4168   7.2252087905e+01   4.8767033731e+01    0.1306009     0.112336  57.29 9.643799e-05    1.023    0.022
       117 -10.0446     88.6652     18.3126   8.2911729972e+01   5.8510165771e+01    0.1127076    0.0990781 -81.20 0.0007045378    1.684    0.406
       118 -10.7261      6.1485    235.6243   1.4857330128e+02   2.4374622232e+01    0.1850072    0.1087915  83.01 0.0004661882    1.284    0.221
       119 -10.8270     12.7638    227.4547   1.4695001257e+02   2.5332305994e+01    0.1984342    0.1217944 -86.56 0.0005672778    1.290    0.225
       120 -10.3716    104.5559    225.2734   1.2901900676e+02   1.3358611893e+01     0.241048    0.1286244 -67.23   0.00113821    2.073    0.518
