#   1 NUMBER                 Running object number                                     
#   2 MAG_AUTO               Kron-like elliptical aperture magnitude                    [mag]
#   3 X_IMAGE                Object position along x                                    [pixel]
#   4 Y_IMAGE                Object position along y                                    [pixel]
#   5 X_WORLD                Barycenter position along world x axis                     [deg]
#   6 Y_WORLD                Barycenter position along world y axis                     [deg]
#   7 A_WORLD                Profile RMS along major axis (world units)                 [deg]
#   8 B_WORLD                Profile RMS along minor axis (world units)                 [deg]
#   9 THETA_WORLD            Position angle (CCW/world-x)                               [deg]
#  10 FWHM_WORLD             FWHM assuming a gaussian core                              [deg]
#  11 ELONGATION             A_IMAGE/B_IMAGE                                           
#  12 ELLIPTICITY            1 - B_IMAGE/A_IMAGE                                       
         1 -11.9689    236.5505     16.2660   3.3011721819e+01   2.5237772418e+01    0.2814918    0.2719485 -21.13   0.00141734    1.431    0.301
         2 -11.7556    239.0651     22.4835   3.4086039300e+01   2.4001022421e+01    0.3524711    0.2274013 -49.44  0.001078229    1.327    0.246
         3 -11.6038    111.6146     19.3067   5.0662690143e+01   5.3843484767e+01    0.4657729    0.3701631  34.05  0.002074848    1.195    0.163
         4 -12.0878    156.5066     11.0902   4.0016294998e+01   4.4017009985e+01    0.6962469    0.4043916   1.55  0.003239144    2.785    0.641
         5  -9.7872     29.4984     17.2063   7.8248979497e+01   6.9117358620e+01    0.3392256    0.1543916 -18.61 0.0009703526    2.944    0.660
         6 -10.4174    101.4971     16.1093   5.1865945153e+01   5.6434333520e+01    0.3258004    0.2258534  13.84   0.00106592    1.624    0.384
         7 -11.0672     57.1623     13.9586   6.4617832006e+01   6.5444748953e+01    0.5323727    0.3094942  12.88  0.002121183    1.952    0.488
         8 -11.3476     39.5543     16.0061   7.2927888113e+01   6.7953556878e+01    0.2104722    0.1660382  10.32 0.0002289325    1.069    0.064
         9 -11.4069     18.6945      3.6824   7.7149962889e+01   7.2190558503e+01    0.5498771    0.3295395  41.30  0.003320197    2.294    0.564
        10  -9.9517     23.5399      2.4615   7.3928356975e+01   7.1760702340e+01    0.2167006    0.1220494  25.30 0.0008841556    1.581    0.367
        11 -11.1567     20.0403     15.3075   8.2186224095e+01   7.0467350770e+01    0.6570558    0.2844061  12.75  0.002454797    3.195    0.687
        12  -9.9423     19.0201     10.9599   8.0656019581e+01   7.1193114200e+01    0.2061225    0.1369227 -29.13 0.0003692412    1.339    0.253
        13 -10.3940     16.1677      8.3610   8.0926721306e+01   7.1853746785e+01    0.2617998    0.1605683  31.07 0.0009046138    1.773    0.436
        14 -11.4944     12.0802      6.9566   8.2514686968e+01   7.2460910375e+01    0.3875748    0.2332394 -16.84  0.002326527    1.415    0.293
        15 -11.4955    249.9378      9.1686   3.0655441711e+01   2.3330530250e+01    0.5706781    0.1629544 -34.05   0.00253065    3.214    0.689
        16 -11.8142    246.1241      2.7558   2.9671658827e+01   2.4772157214e+01    0.6766716    0.2572851  84.72  0.003288079    2.698    0.629
        17 -12.6045    122.3009     11.3581   4.5651349908e+01   5.2144936804e+01    0.4390347    0.2757211  58.54 0.0003716026    1.360    0.265
        18 -12.1424    127.0743      5.0128   4.2660717046e+01   5.1575295037e+01    0.4158598    0.3394499  35.99 0.0004359696    1.244    0.196
        19 -11.9961    210.0024      9.2338   3.3679853534e+01   3.1705807910e+01    0.4135812    0.2854473 -71.99  0.001317427    1.292    0.226
        20 -11.4885    215.9765      7.2712   3.2744054218e+01   3.0592521926e+01    0.3366197    0.1764372 -48.69 0.0003419151    1.714    0.417
        21 -11.8009    212.6156      6.2698   3.2799955130e+01   3.1432721832e+01    0.3583342    0.2663919 -31.60  0.001486577    1.534    0.348
        22 -11.4503    227.9484     13.3243   3.3075972474e+01   2.7367184664e+01     0.219222    0.1760411 -37.05  0.001473442    1.385    0.278
        23  -9.2995     92.8977     10.1614   5.1713656629e+01   5.8872177962e+01    0.1792058    0.1631747  67.38 0.0004388668    1.251    0.201
        24 -10.1379     47.5556      8.7197   6.5958928407e+01   6.7619534281e+01     0.302365    0.1797718  15.33 0.0009227436    1.696    0.410
        25  -9.1195    102.3285      8.2980   4.8715900162e+01   5.6977605246e+01    0.1368454   0.08127248  35.18 0.0003444137    1.637    0.389
        26  -9.7073     77.9957      8.0324   5.4934507598e+01   6.2162344892e+01    0.2069054    0.1266635  24.50  0.001128052    1.631    0.387
        27 -10.7355     23.8248      7.5634   7.6428069258e+01   7.1097532503e+01    0.2922679     0.160198  15.80 0.0007693113    1.783    0.439
        28 -10.4555      4.1040      7.1200   8.7252381552e+01   7.3154145601e+01    0.2522994    0.1491834  16.29  0.001675238    1.613    0.380
        29 -10.5354      6.2059      2.0486   8.3448745889e+01   7.3686975723e+01    0.3388528    0.1595065  14.36  0.001638941    2.137    0.532
        30 -10.5944    107.0016      4.5253   4.6289149079e+01   5.6247448220e+01    0.3908901    0.2224001 -43.25  0.002013155    2.189    0.543
        31  -8.9425     65.4112      5.2607   5.7661513382e+01   6.4858450453e+01    0.1536595     0.109109 -28.74 0.0009417725    1.599    0.375
        32 -11.2671     90.4965      3.0349   4.9469288572e+01   5.9998033401e+01    0.3336836    0.2564989  59.92  0.001118548    1.257    0.204
        33  -9.5514     84.9456      1.1876   5.0116856583e+01   6.1319137553e+01    0.2414051     0.105112  58.30 0.0004480855    2.029    0.507
        34  -9.8260    163.5944      2.7743   3.6784288949e+01   4.3076489869e+01    0.1638981    0.1096874 -44.63 0.0005362037    1.582    0.368
        35  -9.1477     69.2095      1.8958   5.4901607559e+01   6.4433812049e+01    0.1725555    0.1155313  26.89 0.0004602757    1.319    0.242
        36 -11.9402    189.6485      6.8373   3.5009662158e+01   3.6572135718e+01     0.550162    0.2865853  40.58  0.002570508    2.779    0.640
        37  -9.2129     34.3089      1.9415   6.8348504943e+01   7.0370840634e+01    0.1594954    0.1178025   1.97 0.0004196112    1.100    0.091
        38 -12.1999    183.0040     13.0001   3.7243411951e+01   3.7509525255e+01    0.4624482    0.3790666  64.45  0.002925277    1.197    0.164
        39 -11.0239    186.8040     13.8107   3.7027572986e+01   3.6533869936e+01    0.2764034    0.2215885 -88.16  0.000614657    1.097    0.088
        40  -9.9068    137.7895      1.5870   3.9857032457e+01   4.9320827252e+01     0.181381    0.1090999  82.25 0.0009375523    1.684    0.406
        41  -9.8659    200.4997      4.4779   3.3431718384e+01   3.4317687958e+01    0.2207626   0.08547757 -42.73  0.001037859    2.361    0.576
        42  -9.0515     40.5720      5.4124   6.7299471868e+01   6.9069562613e+01    0.1183985   0.09163845  10.97 4.149631e-05    1.005    0.005
        43  -8.5630     42.2689      1.3471   6.4496391571e+01   6.9231414988e+01    0.1215516   0.07331763  11.23 0.0003071697    1.617    0.382
        44  -9.1382     46.3318    112.7055   1.0110885307e+02   4.8010198867e+01    0.1368763    0.1037487  70.67  0.000702547    1.636    0.389
        45 -10.4762      2.2426    112.0282   1.1530631503e+02   5.1800501653e+01    0.1891388    0.1749709  52.39 0.0005580682    1.290    0.225
        46 -11.4276     20.7492    109.7021   1.0901422314e+02   5.1145811969e+01    0.4301038    0.2329493  41.56  0.002160385    2.168    0.539
        47 -10.4125      6.9203    109.2954   1.1345545709e+02   5.2184742573e+01    0.2548224    0.1727821  20.10 0.0009895384    1.785    0.440
        48  -9.6496     88.1291    105.7639   8.5851009979e+01   4.3726295762e+01    0.2031895     0.198225  89.76 0.0002817735    1.115    0.103
        49 -10.6512     79.9930    103.7012   8.7915651980e+01   4.5562680788e+01     0.333272    0.2560937   7.36 0.0008248036    1.542    0.352
        50 -10.4785      8.4947    103.2478   1.1205392790e+02   5.3530462348e+01    0.2526881    0.1884145 -86.40  0.001103743    1.353    0.261
        51  -9.7311     11.6091    101.7160   1.1076584379e+02   5.3700579610e+01    0.2014201    0.1486832 -52.94 0.0006832625    1.138    0.121
        52 -10.1772     45.3335    102.0165   9.9193847422e+01   5.0698927676e+01    0.2043969    0.1977339   0.15 0.0004318731    1.140    0.122
        53  -9.1815     53.4179    100.5502   9.6061283648e+01   5.0098836323e+01    0.1422516    0.1222759 -40.07 9.643552e-05    1.064    0.060
        54  -8.7482     97.2389     98.3245   8.0999819624e+01   4.3774341596e+01    0.1495683    0.1130827 -19.98 0.0002266025    1.523    0.344
        55  -9.7319     69.1483     96.5824   8.9663116853e+01   4.8886387980e+01    0.3204085    0.1801617 -50.35  0.001242972    1.644    0.392
        56 -10.7708     16.0867     95.0239   1.0806537380e+02   5.4982913609e+01    0.2713025    0.2085711  70.10  0.001131171    1.610    0.379
        57  -9.3715     34.2249     95.5753   1.0169951705e+02   5.3368262115e+01    0.1778637     0.124802  -4.02 0.0009510473    1.699    0.411
        58  -9.8360    116.4134     93.5222   7.3956442359e+01   4.1001444483e+01     0.236141    0.2020749  71.29  0.001177033    1.383    0.277
        59  -9.1353      1.1786     94.0534   1.1313729865e+02   5.6092125330e+01    0.1707653   0.07521043 -67.63 0.0004452157    1.794    0.443
        60  -9.7225     88.2204     90.4916   8.1627493790e+01   4.7132384233e+01    0.5779234    0.3085767 -68.54  0.001768554    4.347    0.770
        61 -10.4805     34.2950     89.7056   1.0037076772e+02   5.4729109095e+01    0.3271277    0.1731851  30.15   0.00120767    2.093    0.522
        62 -10.0071    139.1878     87.5286   6.6191711301e+01   3.7203747844e+01    0.3513412      0.20823 -50.59  0.001080236    1.843    0.457
        63  -9.8092    120.9298     87.8038   7.1027955486e+01   4.1209471146e+01    0.2229216    0.1991434  12.47 0.0002878368    1.178    0.151
        64  -8.9272     52.7626     88.6230   9.3337504402e+01   5.2940701336e+01    0.1465029   0.09152676 -33.68 0.0006919517    1.623    0.384
        65 -10.2391    131.4868     86.5756   6.7855721070e+01   3.9129092990e+01    0.2445605    0.2346441 -43.45 0.0003267149    1.058    0.055
        66  -9.9052     27.9998     85.0112   1.0164782964e+02   5.6380197382e+01    0.1974637    0.1743919 -53.89  0.000603409    1.096    0.087
        67  -8.7115     81.7213     84.7298   8.2080472602e+01   4.9502532087e+01    0.1421719    0.1087254 -11.05            0    1.489    0.328
        68  -9.7824     76.0839     83.1737   8.3532581495e+01   5.0776044853e+01    0.2410153    0.1947705 -40.91 0.0005641391    1.171    0.146
        69  -9.4788     71.1089     82.5527   8.5077367912e+01   5.1702857374e+01     0.232871    0.1848622 -53.73  0.001236226    1.311    0.237
        70 -10.3964     54.6280     80.5153   9.0449737243e+01   5.4504498151e+01    0.2723601    0.2096115 -39.80  0.001165156    1.163    0.140
        71  -8.9015    112.5830     81.5131   7.1481894863e+01   4.4235579497e+01    0.1499646    0.1418684  -4.10 0.0001386154    1.037    0.036
        72 -10.1918      7.4749     80.1579   1.0843902865e+02   5.8946775194e+01     0.224916    0.1827003 -36.05  0.001097651    1.155    0.134
        73  -9.7798    104.2792     78.6548   7.3036507854e+01   4.6512806656e+01    0.2752917    0.1996342 -41.94 0.0008112463    1.380    0.275
        74  -8.8491     90.3794     79.7401   7.7711538000e+01   4.8996928985e+01    0.1428453    0.1168096  73.05 0.0006975945    1.670    0.401
        75  -9.4528     36.0156     76.7072   9.6520229380e+01   5.7489980834e+01    0.1763876    0.1509385 -32.69 0.0003257142    1.031    0.030
        76  -9.1849     98.9702     76.3000   7.3915596575e+01   4.8035964782e+01    0.2039712    0.1780836  28.16 0.0003373373    1.131    0.116
        77 -11.1402     77.1483     75.3163   8.0764694119e+01   5.2233749734e+01     0.501372    0.2381105  32.99  0.001750793    2.247    0.555
        78  -9.5549    108.1351     75.2609   7.0829893937e+01   4.6373497266e+01    0.2613134    0.1639325   4.30 0.0009599981    2.886    0.654
        79  -9.0812     20.6827     75.2874   1.0222659537e+02   5.9161273945e+01    0.1154278   0.09666917  71.28 0.0001498651    1.591    0.372
        80 -10.0069      2.2893     73.0965   1.0907253623e+02   6.0797917326e+01    0.2113981    0.1706608 -13.15 0.0005576827    1.343    0.255
        81  -9.5550     21.7282     81.2889   1.0319899975e+02   5.7739108302e+01    0.3013391   0.08832452 -46.11  0.001171336    2.746    0.636
        82  -8.7636     24.9838     73.9364   1.0018006923e+02   5.9114804022e+01    0.1533792    0.1203363 -46.04 0.0009379272    1.066    0.062
        83  -9.2774    103.9136     72.7095   7.1268691466e+01   4.7727784662e+01    0.1948937    0.1818446  30.11 0.0002355594    1.063    0.060
        84  -9.9990     45.6541     72.1928   9.1483290752e+01   5.7407899523e+01    0.2117982    0.1940227 -52.64 0.0006095351    1.211    0.174
        85  -9.1165     30.4830     72.4624   9.7592472496e+01   5.8951305878e+01    0.1293023     0.111471 -39.40 5.361856e-05    1.049    0.047
        86  -9.8354     64.5873     70.6077   8.3772770150e+01   5.5189419510e+01    0.2679136     0.163746  35.24  0.001306823    1.705    0.413
        87  -8.8893     39.4459     71.4790   9.3731466844e+01   5.8262368065e+01    0.1330616    0.1137616 -33.51 9.764719e-05    1.015    0.015
        88 -10.2975    136.7804     69.5905   6.1457569416e+01   4.1035543108e+01     0.241487     0.230736 -36.71 0.0003983046    1.072    0.067
        89 -11.4793     97.4334     68.9329   7.2021365075e+01   4.9740818238e+01    0.4386551    0.2783315 -27.88  0.001078975    1.711    0.415
        90 -10.2048    101.6413     68.5003   7.0589872546e+01   4.8972713715e+01    0.2663189    0.2022975 -50.44 0.0006089747    1.469    0.319
        91  -9.4381     17.9141     70.3654   1.0216131198e+02   6.0447588865e+01    0.1759429    0.1385548 -35.37 0.0008637094    1.093    0.085
        92  -8.7063    142.7231     68.7028   5.9802779095e+01   3.9794492218e+01    0.1452781    0.1151383  16.19  0.000242698    1.533    0.348
        93  -9.1285     89.8436     67.8450   7.4075376276e+01   5.1417651335e+01    0.1820674    0.1721051 -77.57 0.0002906018    1.299    0.230
        94  -9.3000    111.0376     65.9480   6.7005174201e+01   4.7459733327e+01     0.206456    0.1752236 -79.35  0.001060238    1.531    0.347
        95  -9.7767     70.6763     66.1845   8.0108895374e+01   5.5111758603e+01    0.2073322    0.1805409  32.34  0.000319019    1.217    0.179
        96  -9.5264     59.4590     66.4834   8.4373814775e+01   5.6771162950e+01    0.2287205    0.2007818  18.67 0.0009045817    1.172    0.147
        97  -9.3629     61.6915     64.2804   8.2804476051e+01   5.6878270394e+01    0.1920514    0.1456129 -11.74 0.0001635697    1.348    0.258
        98 -10.3015      3.8265     64.8517   1.0671140270e+02   6.2517713903e+01    0.2369523      0.19678  65.66 0.0009378018    1.634    0.388
        99 -11.0803      3.8932     59.6514   1.0548291984e+02   6.3620384714e+01    0.3015245    0.1600929 -42.11 0.0005619594    1.492    0.330
       100 -11.9356      7.9309     56.5148   1.0292958590e+02   6.4048169569e+01    0.2383223    0.1862971 -31.60  0.000310541    1.096    0.088
       101 -11.1521     43.0836     62.6681   8.9619616052e+01   5.9678164178e+01    0.3323429    0.2819698  56.26   0.00121973    1.638    0.389
       102  -9.3211     17.8696     63.9156   1.0054852724e+02   6.1834396265e+01    0.3036258    0.1172678  42.88  0.001162715    4.365    0.771
       103  -9.1652     66.8598     63.1470   8.0489757139e+01   5.6305317641e+01    0.1857467    0.1441704 -17.76 0.0003289739    1.259    0.206
       104  -9.6429     90.6129     62.0302   7.1871205050e+01   5.2331413251e+01    0.2331446    0.1979905  51.33 0.0008074701    1.314    0.239
       105  -9.1107     71.1155     62.1489   7.8592127087e+01   5.5807732480e+01    0.1694062    0.1647893  61.98 0.0003446307    1.295    0.228
       106 -12.0620    150.8816     57.7297   5.4754425817e+01   3.9620373404e+01    0.2598307    0.2534916 -57.25 0.0002923391    1.057    0.054
       107 -10.3486     96.0519     57.6088   6.8633218142e+01   5.2023491231e+01    0.4270386    0.2709095 -38.18  0.002059978    1.606    0.378
       108 -10.2032     59.6864     58.1212   8.1486866757e+01   5.8351947395e+01    0.3096345    0.2371318 -20.47  0.001102414    1.230    0.187
       109  -8.6163     50.6745     59.6864   8.5572901627e+01   5.9318541840e+01    0.1404132   0.09264019 -15.57 0.0006868386    1.665    0.399
       110 -10.0448     32.6737     63.3879   9.4149297402e+01   6.0661276224e+01    0.2519858    0.2072353  -5.16  0.001586067    1.199    0.166
       111  -9.2412     34.5165     57.5217   9.1569177955e+01   6.1660726602e+01    0.1884028    0.1540927 -68.46 0.0005499772    1.604    0.376
       112  -9.5198     69.0000     56.0522   7.7243203818e+01   5.7272863138e+01    0.3746257   0.07400926 -42.95  0.001052148    4.942    0.798
       113  -8.8108    159.6907     56.7135   5.2718989309e+01   3.7651599054e+01    0.1429194    0.1094396  28.51 0.0005820311    1.573    0.364
       114  -9.9486    112.0638     55.8388   6.3366825221e+01   4.8933978698e+01    0.2087796    0.1981327  37.66 0.0004458261    1.056    0.053
       115  -9.0987     26.5660     56.5170   9.4693408285e+01   6.2642167122e+01    0.1275652    0.1034957 -31.31 9.317983e-05    1.008    0.008
       116  -9.8015     80.5402     54.6925   7.2655348260e+01   5.5505700910e+01    0.3682643    0.2080847  22.66  0.001581845    2.239    0.553
       117  -9.8492    206.8791     51.8490   4.3986952179e+01   2.7193597377e+01    0.3393957    0.1825922 -23.51  0.001437836    2.449    0.592
       118  -9.9166    162.8676     52.0986   5.0804264623e+01   3.7565586639e+01    0.2786987    0.1850536 -49.21  0.001354254    1.577    0.366
       119  -9.2353    144.9776     52.9786   5.4543434712e+01   4.1754803178e+01    0.1663301    0.1623944  61.77            0    1.027    0.026
       120  -9.3936     44.1247     52.6630   8.5869285601e+01   6.1496817775e+01    0.1795371    0.1475972  -2.48   0.00110626    1.125    0.111
       121  -9.2953    203.0015     51.5307   4.4418627896e+01   2.8122791685e+01    0.1924623     0.108566 -83.43 0.0005293664    2.456    0.593
       122 -10.2091    126.8902     50.0884   5.7666031890e+01   4.6460723415e+01    0.2256266    0.2005481   6.68  0.001262013    1.202    0.168
       123 -10.9757    106.6644     50.4923   6.3033529482e+01   5.0949440141e+01    0.2423085    0.2386633  50.06 0.0002205399    1.130    0.115
       124 -10.0083     17.7171     50.7267   9.6877061672e+01   6.4546011859e+01    0.3239618    0.1376209   9.87  0.001467615    2.944    0.660
       125  -8.8300     73.6598     50.2974   7.3468863382e+01   5.7479709162e+01    0.1259542    0.1118347  83.65 0.0007033197    1.662    0.398
       126  -9.2390     55.5301     49.5386   8.0062609453e+01   6.0522359405e+01    0.2616259     0.166057 -15.92  0.001204503    1.758    0.431
       127  -9.8882     59.0454     47.8187   7.8031356310e+01   6.0296130572e+01    0.2312066    0.1783994  35.95 0.0006992365    1.383    0.277
       128 -10.3062      5.7881     48.3014   1.0168422704e+02   6.5843414656e+01    0.2553198    0.1351663 -39.06 0.0003500054    1.498    0.332
       129  -9.2055    212.9442     49.5453   4.2674337526e+01   2.6150621360e+01    0.1945877    0.1236948  66.44  0.001019249    1.573    0.364
       130  -9.3943     49.5223     49.2656   8.2407223088e+01   6.1417285973e+01    0.1777146    0.1080123 -29.14 0.0009151176    1.571    0.363
       131 -11.0351     26.4927     48.2132   9.2066662807e+01   6.4273371592e+01    0.3744221    0.1998404  17.89  0.001885137    2.004    0.501
       132  -9.7929     89.0675     47.9876   6.7406016886e+01   5.4982502952e+01    0.2024295    0.1812872  12.25  0.001191124    1.014    0.014
       133  -9.8812     84.8430     46.6409   6.8278297884e+01   5.6016069904e+01    0.3703948    0.2101166 -17.55  0.001616018    2.273    0.560
       134  -9.1140     45.9960     47.2210   8.3133505255e+01   6.2252549118e+01    0.2140837    0.1430659  28.79 0.0003220023    1.527    0.345
       135  -9.7775     42.5632     46.0014   8.4150313066e+01   6.2909546953e+01    0.2214766    0.1451205 -44.48  0.001236054    1.504    0.335
       136 -10.4175     34.0158     46.0827   8.7934927900e+01   6.3900587877e+01    0.2306641     0.156229 -40.54 0.0005202215    1.319    0.242
       137  -9.4038    233.1183     47.9192   4.0023275337e+01   2.2005070471e+01    0.1979046    0.1413016 -60.68 0.0003852724    1.247    0.198
       138  -9.0282    142.9615     46.4729   5.2961376752e+01   4.3175126311e+01    0.1942057    0.1226212  88.67 0.0004985346    2.356    0.576
       139 -10.6714    166.5105     43.2198   4.7651404745e+01   3.7920568228e+01    0.4772379    0.2464731  69.26  0.002069612    2.001    0.500
       140  -9.3870     19.9748     43.7109   9.3570863978e+01   6.5713970267e+01    0.1710311    0.1405485 -12.53  0.000635373    1.116    0.104
       141  -9.7361    142.9742     42.7810   5.1815194723e+01   4.3678403825e+01    0.3104126    0.1319945  43.24  0.001168294    2.594    0.614
       142 -10.6313     56.4513     41.8546   7.6786418732e+01   6.1689999843e+01    0.2882325    0.2074787   8.91  0.000334446    1.382    0.276
       143 -10.1875    112.5299     39.3155   5.7559455978e+01   5.1263827988e+01    0.2495437    0.2324275  21.57 0.0006278867    1.048    0.045
       144  -9.3687     28.0350     41.2745   8.8931489331e+01   6.5407441004e+01    0.1695901    0.1370087  -4.78 0.0003707277    1.127    0.112
       145  -9.3479     40.0823     39.0140   8.2590426081e+01   6.4434186296e+01    0.1552617    0.1524466  45.31 0.0004232618    1.487    0.328
       146  -9.5668     35.8724     38.8527   8.4416866974e+01   6.4973157823e+01    0.1944977    0.1385306 -17.82 0.0004280621    1.247    0.198
       147  -9.6794    108.9342     43.5113   5.9971595971e+01   5.1485155133e+01    0.1982234    0.1885523   0.06 0.0004965762    1.080    0.074
       148  -8.9484    148.8665     37.8013   4.9153820664e+01   4.2908778661e+01    0.1815007    0.1546683 -78.90 0.0004252072    1.255    0.203
       149 -10.0332     83.5010     36.8372   6.5003372256e+01   5.7727924268e+01    0.3784767    0.2291276 -56.03  0.001652253    2.847    0.649
       150 -10.5006     78.7058     31.1440   6.4331693567e+01   5.9430546593e+01    0.3292107    0.2158435  57.72 0.0005772094    1.866    0.464
       151  -9.6359    127.8339     36.6707   5.3033439157e+01   4.8084620499e+01    0.2224469    0.1931598  -1.82  0.001140728    1.269    0.212
       152  -9.0441     62.3861     36.2837   7.2246175246e+01   6.1622143454e+01    0.1390192   0.09021449   9.06 0.0007007378    1.740    0.425
       153  -9.5144     33.8190     34.8423   8.3787525810e+01   6.5891880683e+01    0.1850117    0.1384044 -12.84 0.0004158018    1.144    0.126
       154 -10.2099    247.1676     33.9112   3.5745799445e+01   2.0965590413e+01    0.2026418    0.1308137 -61.37  0.001175067    1.333    0.250
       155  -9.1035     77.3157     34.6727   6.6204988291e+01   5.9215143140e+01     0.121985    0.1082855 -77.82 0.0007044581    1.674    0.402
       156 -10.0137    100.3751    247.1970   1.0682550245e+02   9.7272220503e+00    0.1606788    0.1139389 -83.72 0.0009522832    1.699    0.412
       157 -11.3344    237.8028     32.2199   3.6211377321e+01   2.3079102366e+01    0.4233572    0.2305257  81.93  0.002095622    1.901    0.474
       158 -10.8006    235.3260     29.2965   3.5817075208e+01   2.3954617907e+01     0.268823    0.2180538 -41.02  0.001409074    1.288    0.224
       159 -10.3922    237.4657     26.4595   3.5038777151e+01   2.3855995380e+01    0.2444051    0.1802999 -86.94 0.0006215996    1.235    0.190
       160 -10.9950    215.9871    222.1035   7.9663140330e+01  -3.6939244934e+00    0.2791542    0.1862978  13.00  0.001599796    1.433    0.302
       161  -9.4653    193.6536     33.5814   4.1176068961e+01   3.2675705731e+01    0.2592771   0.08394772  53.40 0.0009603116    3.131    0.681
       162  -9.7127    115.0718     32.1252   5.4410681124e+01   5.1610941898e+01    0.2142418    0.1679101  30.95 0.0005709067    1.264    0.209
       163  -9.3171     59.8660     31.8605   7.1409701914e+01   6.2687384102e+01    0.1631558    0.1490984  32.52 0.0007079465    1.310    0.237
       164  -8.7876     37.5592     32.5608   8.1145310628e+01   6.5812883986e+01    0.1225904    0.1026952  -9.20 0.0001716938    1.073    0.068
       165  -9.0985    132.3161     31.3303   5.0330034817e+01   4.7683261420e+01    0.1440028   0.09748086  30.76 0.0007046168    1.682    0.405
       166 -10.0563    124.5740     30.4521   5.1667832282e+01   4.9614947485e+01    0.2306461    0.2005587  54.51 0.0005109386    1.052    0.050
       167 -10.4626     43.1670     29.7023   7.7435047178e+01   6.5523111258e+01    0.2714923    0.1625083 -40.94 0.0007615736    1.746    0.427
       168  -9.8921    110.7914     29.5207   5.4524567032e+01   5.2896063715e+01    0.2445739    0.2020313  24.67 0.0006460262    1.203    0.169
       169  -9.1445     21.4514     30.5447   8.8025477307e+01   6.7930398686e+01    0.1194962   0.09566423 -18.19   0.00025093    1.047    0.045
       170 -10.1630     47.6761     28.5363   7.4980181323e+01   6.5058419309e+01    0.2142247    0.1755462  -2.26 0.0002000638    1.014    0.014
       171 -10.6583     15.6539     28.1160   9.0002943142e+01   6.8872621324e+01    0.3622921    0.1735782 -14.98  0.001734876    2.615    0.618
       172 -10.6454    216.5731     27.5680   3.7195683516e+01   2.8191015753e+01    0.2143042    0.1961728 -55.81   0.00117662    1.184    0.155
       173  -9.5475      1.7659     27.7350   9.7179145062e+01   6.9965915848e+01    0.1986522    0.1122589 -45.43 0.0005169347    1.414    0.293
       174 -10.7252    183.4740     26.1322   4.0556271667e+01   3.5969450070e+01    0.4046134    0.2644301  47.39  0.001920784    1.700    0.412
       175 -10.3928    179.3747     22.9055   4.0234326136e+01   3.7311260746e+01     0.308399    0.1770787  69.70  0.001394232    1.583    0.368
       176  -9.9401     80.9270     25.9924   6.1532552142e+01   5.9655329688e+01    0.2771527    0.2093912 -51.06  0.001152863    1.816    0.449
       177  -9.4845     76.9794     23.7774   6.1898918338e+01   6.0692698364e+01    0.2452216    0.1134186  54.15  0.000661517    2.357    0.576
       178 -10.4495     22.4573     26.7996   8.6001376487e+01   6.8450464689e+01    0.2791667    0.1458666  41.14  0.001427237    2.782    0.641
       179  -9.8282    206.4711     26.0007   3.7868531315e+01   3.0639343251e+01    0.1886683    0.1579408  88.29 0.0006459339    1.079    0.073
       180  -9.6889    120.5331     25.9740   5.1023089097e+01   5.1074584146e+01    0.2170364    0.1679239  56.36 0.0007971757    1.169    0.145
       181 -10.1427     30.0524     24.0955   8.1089642721e+01   6.8044492075e+01    0.2532735    0.1531256 -39.56 0.0009943745    1.623    0.384
       182 -11.0073    249.1482     23.5161   3.3503737489e+01   2.1845381604e+01    0.2545572    0.1797822 -74.07   0.00167461    1.217    0.178
       183 -11.6295    226.1991     22.6068   3.5198677738e+01   2.6685585264e+01    0.4072635    0.2047357  79.30  0.001724953    1.967    0.492
       184 -10.9582    222.7553     20.0233   3.4943855008e+01   2.7726278054e+01    0.2264521    0.1760462 -67.23 0.0007882963    1.089    0.082
       185 -11.0644    164.9688     21.5457   4.1794648489e+01   4.0917620788e+01    0.3384368    0.2250187  46.92  0.001077181    1.573    0.364
       186  -9.1354     98.7198     23.6054   5.5417546399e+01   5.6249014759e+01    0.1739565    0.1204643  62.67   0.00047194    1.535    0.349
       187  -9.4394      8.0265     22.6966   9.1880370463e+01   7.0405668542e+01    0.1581418    0.1192576 -12.65 0.0004275693    1.103    0.093
       188 -10.6804    218.3103     21.9467   3.5769522650e+01   2.8472443455e+01    0.1719575      0.14581 -60.94 0.0004524029    1.103    0.093
       189 -10.4695    141.8316     21.4489   4.5387634130e+01   4.6515495972e+01    0.2646585     0.204045  49.74 0.0005651093    1.216    0.178
       190 -12.1782     75.5802    218.4487   1.0892063044e+02   1.8927518513e+01    0.7542647    0.4937556  82.04  0.004065779    1.701    0.412
       191  -9.8309     51.0052     20.7525   7.0160134500e+01   6.5629496389e+01    0.3192643    0.1409879 -28.61  0.001524766    2.286    0.562
       192 -10.0146      1.6398     21.5974   9.4964644109e+01   7.1040612986e+01    0.2196936    0.1203732 -48.83  0.001345506    1.623    0.384
       193 -10.0059    205.9916     21.0521   3.6760042870e+01   3.1321247393e+01    0.1854503    0.1603694 -82.52  0.000305793    1.036    0.034
       194 -10.8499    149.9061     18.4048   4.3128343396e+01   4.4886333617e+01    0.3359588    0.2627077  75.51 0.0007491461    1.179    0.152
       195 -10.2771    154.6900     18.0589   4.2293525358e+01   4.3767067866e+01    0.2223199    0.1980805 -48.55 0.0004689007    1.212    0.175
       196 -12.2210     67.9856    216.0158   1.1032218121e+02   2.0480196755e+01     0.681954    0.3645881  74.30  0.003122346    2.401    0.584
       197  -9.2237    119.5237     18.8849   4.8791917075e+01   5.2067725422e+01    0.1792833    0.1320365 -22.46  0.000728359    1.517    0.341
       198 -10.8263    178.9355    215.8192   8.5914405014e+01   3.0719272682e+00    0.3799272    0.1784071 -52.55  0.001590622    2.850    0.649
       199 -11.1543    242.0901     17.0098   3.2741242332e+01   2.4019384085e+01    0.1869056    0.1476644 -67.99 0.0006383117    1.008    0.008
       200  -9.9291    185.5148    215.4903   8.4502661504e+01   2.0616227415e+00    0.1339822    0.1168698  12.06 0.0008103875    1.015    0.014
       201  -9.4877     87.0166     17.5051   5.6250185633e+01   5.9390675995e+01    0.1949916    0.1120675  49.14 0.0006475969    1.528    0.346
       202 -10.4688    247.6044    212.2807   7.2214135822e+01  -6.6767361231e+00    0.2997341    0.1814883   8.37  0.001681472    1.744    0.427
       203 -11.9219    236.7395    207.2834   7.3199930870e+01  -4.4528868696e+00    0.3993767    0.2967007   5.08  0.002490716    1.210    0.174
       204  -8.9595     77.1534     16.1707   5.8658697092e+01   6.1521490142e+01    0.1637097    0.1513129  63.25  0.001071845    1.364    0.267
       205 -10.7160     55.9562    204.4792   1.1178690325e+02   2.4574261228e+01    0.2646609    0.1875694 -78.83   0.00137042    1.347    0.258
       206 -11.2634    127.9327    201.1914   9.4667438572e+01   1.4490060734e+01    0.4959946     0.309237 -38.08  0.002231664    1.896    0.472
       207  -9.7214    124.0242    205.9655   9.6323888824e+01   1.4147137355e+01     0.198346    0.1834447  42.25            0    1.004    0.004
       208 -10.4956    216.3056    191.9802   7.4067130402e+01   1.0737942582e+00    0.1931799     0.158983 -17.37 0.0005294413    1.087    0.080
       209 -11.4286    161.8189    201.8927   8.7135296313e+01   8.5070709071e+00    0.3127524    0.2319178  13.98  0.001620017    1.466    0.318
       210  -9.6178    206.9731    189.9827   7.5478141795e+01   2.9467701024e+00    0.1685374    0.1450301 -14.20 0.0005809335    1.054    0.052
       211 -10.8582     10.8516     15.6132   8.7311537097e+01   7.1310502024e+01    0.2584699     0.177771   6.24  0.001156322    1.317    0.241
       212 -11.0293    216.5717    187.5562   7.3156304342e+01   1.7791360555e+00    0.3039549    0.2342173  85.93  0.001459331    2.730    0.634
       213 -10.7344    221.3898    186.1029   7.1967829744e+01   1.2424354719e+00    0.2515375    0.1947777  39.57  0.001448888    1.440    0.306
       214  -9.3220    143.8439     14.2183   4.2819918361e+01   4.6762495465e+01    0.1842887    0.1399549  41.31   0.00070664    1.355    0.262
       215  -9.5510      1.3768    184.7575   1.2226053634e+02   3.4659690185e+01    0.2942114   0.08851042 -74.75  0.001281184    2.659    0.624
       216 -10.7407    239.3561    179.3154   6.7414195104e+01  -4.7549555134e-01    0.2612436    0.1639558  44.45  0.001395311    1.901    0.474
       217  -9.0297     66.9793     12.9632   6.0609752335e+01   6.3803603518e+01    0.1515492     0.119217  30.49 -0.002661949    1.084    0.077
       218 -10.1177      7.0049    163.4960   1.1936527900e+02   3.9146549345e+01    0.1592031    0.1220496  28.79  0.000599931    1.561    0.359
       219 -10.4261    216.0805    156.6688   6.6922490183e+01   7.3100670526e+00    0.2538946    0.1883784 -44.80  0.001341591    1.351    0.260
       220 -10.4023      9.0164    155.7178   1.1817264113e+02   4.0845700518e+01    0.1650369    0.1466126  85.96 0.0003575733    1.114    0.102
       221 -11.1272      2.9386    152.6753   1.1943769764e+02   4.2012189921e+01    0.3696611    0.2296589 -39.92  0.001819772    1.961    0.490
       222  -9.5547    198.3237     10.3349   3.5000946460e+01   3.4225651257e+01    0.1217519   0.08924473  43.60 0.0007050873    1.712    0.416
       223  -9.6570     25.1214    152.1163   1.1359220788e+02   4.0383975308e+01    0.1738892    0.1335436  74.20            0    1.276    0.216
       224  -9.1001     32.0024    147.4724   1.1114420513e+02   4.0883301562e+01    0.1702775    0.1327548  28.56 0.0004055138    1.476    0.323
       225 -10.6610     11.7982    145.1070   1.1638995446e+02   4.3194898862e+01    0.2039085    0.1808486  87.83 0.0002676409    1.104    0.094
       226 -10.5533      3.2723    142.6583   1.1842483650e+02   4.4385582570e+01    0.2470839    0.1898913 -76.83 0.0007252934    1.048    0.046
       227 -10.2248     29.1744    137.9650   1.1067087651e+02   4.3502877741e+01    0.2377772    0.1907358  13.80  0.000738893    1.525    0.344
       228  -9.3039     19.5085    136.5110   1.1325676378e+02   4.4694222879e+01    0.1305812    0.1093668 -76.47 0.0008104784    1.016    0.016
       229 -12.9489    220.3635    117.8793   5.7586310157e+01   1.3505215295e+01     2.094819     1.192649 -18.52   0.00836507    2.679    0.627
       230  -9.5592     21.4932    141.9680   1.1337282698e+02   4.3190917015e+01    0.1960651    0.1105957 -72.23 0.0004104482    1.504    0.335
       231 -10.6302     15.9719    131.5866   1.1365600843e+02   4.6176561418e+01     0.291256    0.1602171 -89.63  0.001178393    1.926    0.481
       232  -9.7197    242.1631    127.7794   5.6315473754e+01   7.6742380950e+00    0.3006739   0.07553404 -42.89 0.0008539828    3.520    0.716
       233  -9.6866     28.0000    125.9820   1.0928763153e+02   4.6570653195e+01    0.2282284    0.0659181 -67.17 0.0008041669    2.954    0.662
       234  -9.9065     23.8125    125.2725   1.1046047404e+02   4.7104129388e+01    0.2242819    0.1584031 -81.95  0.000663922    1.345    0.257
       235  -9.3661     48.0084    126.0000   1.0311082411e+02   4.4546778879e+01    0.2131641   0.08073361  27.33 0.0008051084    2.961    0.662
       236  -9.8575     30.6069    123.3536   1.0807480194e+02   4.6984772556e+01    0.2565996    0.1183193 -71.80 0.0006844627    2.065    0.516
       237  -8.7985     93.7453    122.6790   8.8325754433e+01   3.8767477893e+01    0.1513709    0.1141685 -25.66 0.0005043744    1.540    0.351
       238  -8.9964     57.9583    117.9771   9.8404290739e+01   4.5328066804e+01    0.1721592    0.1541147 -54.73 0.0005006261    1.014    0.014
       239  -8.9982     98.4875    117.4480   8.5646648697e+01   3.9169939941e+01    0.1520386    0.1455155 -29.64 0.0001227364    1.029    0.029
       240 -10.0656     25.4337    116.3139   1.0857405979e+02   4.9164333519e+01    0.2345597    0.1627516  30.22  0.001319853    1.652    0.395
       241 -10.4362     11.1186    115.1773   1.1294510234e+02   5.0509075815e+01    0.2683691    0.1754666 -42.93  0.001023697    1.499    0.333
       242 -10.1538     32.2212    113.1858   1.0584330115e+02   4.9331179611e+01    0.2037744    0.1737028 -20.04 0.0003499119    1.304    0.233
