#   1 NUMBER                 Running object number                                     
#   2 MAG_AUTO               Kron-like elliptical aperture magnitude                    [mag]
#   3 X_IMAGE                Object position along x                                    [pixel]
#   4 Y_IMAGE                Object position along y                                    [pixel]
#   5 X_WORLD                Barycenter position along world x axis                     [deg]
#   6 Y_WORLD                Barycenter position along world y axis                     [deg]
#   7 A_WORLD                Profile RMS along major axis (world units)                 [deg]
#   8 B_WORLD                Profile RMS along minor axis (world units)                 [deg]
#   9 THETA_WORLD            Position angle (CCW/world-x)                               [deg]
#  10 FWHM_WORLD             FWHM assuming a gaussian core                              [deg]
#  11 ELONGATION             A_IMAGE/B_IMAGE                                           
#  12 ELLIPTICITY            1 - B_IMAGE/A_IMAGE                                       
         1 -13.6861    214.1123     26.2258   4.2713520372e+01   2.8633341388e+01     1.285795     0.566403  52.81  0.003151492    2.436    0.589
         2 -14.5253    213.8752     53.9899   4.9865909656e+01   2.4996080657e+01     1.696893    0.9969679 -60.82  0.007591964    1.956    0.489
         3 -14.0859    209.6565     39.7159   4.6706665831e+01   2.7992411178e+01     1.045814    0.8227177 -21.30  0.003549929    1.434    0.302
         4 -14.2450    205.4870      7.4991   3.8863149120e+01   3.2778533724e+01     1.227601    0.8824303 -26.80  0.006308569    1.539    0.350
         5 -14.5672    223.8628      8.8732   3.7527899404e+01   2.8315461575e+01     1.348522    0.8292333 -56.55  0.007464428    1.493    0.330
         6 -14.6663     24.4849     15.2121   8.7727845391e+01   7.0076108807e+01    0.9111583    0.5521621 -36.61  0.004112588    1.414    0.293
         7 -14.3651     18.0864      4.0514   8.5576275489e+01   7.2372286564e+01    0.8406293    0.4479741   9.45  0.004120775    2.009    0.502
         8 -14.6208    124.1534      8.2618   5.0432269993e+01   5.2753097677e+01     1.030933    0.9859607  10.17  0.003580633    1.119    0.106
         9 -12.1719     41.5488     15.2908   7.9531144439e+01   6.8052608359e+01    0.3164455    0.2107369  -6.38  0.001549194    1.392    0.282
        10 -14.1348    175.6419      4.9913   4.1394719877e+01   4.0338204769e+01     1.320907    0.6642368  81.16  0.005967791    2.035    0.508
        11 -11.8856      3.3215      5.2699   9.4623245318e+01   7.3447116336e+01    0.3307737    0.1831109 -42.50  0.001994745    1.489    0.328
        12 -11.6654    160.8563     17.6367   4.7215245138e+01   4.2798459565e+01    0.4379196    0.2659773 -74.78  0.001963036    2.173    0.540
        13 -12.8517     45.3196      2.4975   7.1344663887e+01   6.9134644876e+01     0.508455    0.2504046  40.55  0.001901631    1.988    0.497
        14  -9.5393    250.4936      1.4438   3.3886514814e+01   2.3228865752e+01    0.1197925   0.09689566 -68.46  5.71987e-05    1.020    0.020
        15 -15.9539     41.5767     73.3455   1.0083785676e+02   5.7257449425e+01     4.019243     1.827378 -64.55   0.01693723    2.497    0.600
        16 -15.3294    136.7466    238.5559   1.0524990257e+02   6.7765377494e+00     1.893793     1.113364  38.95  0.004064668    1.422    0.297
        17 -14.8823    244.8344    198.5222   7.8064636629e+01  -4.5502202391e+00     1.930902     1.427139  48.71   0.00855156    1.854    0.461
        18 -15.2577    163.0479    247.0250   1.0132018632e+02   1.3466092643e+00      1.73819    0.5553809  38.67  0.003477695    2.543    0.607
        19 -15.8592    153.5855    227.7157   1.0048729012e+02   5.8646906847e+00     1.697659       1.0533  45.70  0.004832946    1.436    0.303
        20 -13.6710    144.0142    207.2914   9.9403786717e+01   1.1066474641e+01    0.8102972    0.4784676 -60.15  0.002878512    2.099    0.524
        21 -15.0896    215.7506    206.4646   8.4817561299e+01  -1.0954673195e+00     1.491683     0.880703 -42.68  0.005848041    1.959    0.490
        22 -14.7248    218.1488    191.3165   8.1516683250e+01   8.2796217369e-01     1.122517    0.8662217  14.94  0.003771137    1.196    0.164
        23 -16.5983    200.9031    237.8494   9.2897672444e+01  -3.2227430097e+00     1.918943      1.23708 -41.96   0.00884505    1.903    0.474
        24 -15.9819    211.8577    235.4409   9.0499845013e+01  -4.5639841413e+00      1.36728    0.8705211 -34.83  0.005813637    1.763    0.433
        25 -16.4564     17.6441     96.1896   1.1412141195e+02   5.4024314641e+01     3.167813     1.534452 -76.86   0.01180934    2.015    0.504
        26 -16.4539    192.2705    161.5532   8.0535996848e+01   1.0734622275e+01     3.212053       2.0617 -44.25   0.01210614    1.612    0.380
        27 -15.8712    190.8225    124.6847   7.2279436372e+01   1.8121710856e+01     2.431952     2.173064   6.16  0.007524936    1.171    0.146
        28 -14.2911     35.6363    206.5500   1.2193684226e+02   2.6956447153e+01    0.6787329    0.5645535   0.35  0.004569988    2.001    0.500
        29 -16.1890    159.7574    181.8068   9.1627458430e+01   1.3127657002e+01     2.371727     2.087036  41.79   0.01168261    1.090    0.083
        30 -16.9529    156.8125    136.2808   8.2634095534e+01   2.3167885694e+01     6.608346     4.002522  31.34   0.02707689    1.918    0.479
        31 -17.3010     49.3977    177.8782   1.1642496193e+02   3.1630992060e+01     4.214095     1.531743 -74.00   0.01734778    2.752    0.637
        32 -16.0689     10.4211    186.7896   1.2553611057e+02   3.3626197589e+01      1.85416    0.7330573  74.19  0.008737746    2.676    0.626
        33 -16.7022    124.0890    171.9372   9.7955748793e+01   2.1785265925e+01     3.053846     1.894002  41.03   0.01435751    1.557    0.358
        34 -16.6520     58.8354    130.5798   1.0751685346e+02   4.1761201293e+01     2.581546     1.929013 -67.73  0.009334951    1.189    0.159
        35 -17.7421     83.1234    179.9207   1.0890752171e+02   2.6706337875e+01     4.701734     2.096806 -63.13    0.0205418    2.204    0.546
        36 -16.9637     82.1348    153.5090   1.0513472891e+02   3.3008212721e+01     3.162426     1.638382  31.77   0.01380432    2.182    0.542
        37 -16.9257      7.3378    212.7981   1.2764102671e+02   2.8531506658e+01     2.179188    0.7688737 -86.94   0.01101275    2.565    0.610
        38 -15.8197     24.7839    220.7444   1.2495009818e+02   2.5257342257e+01    0.9866389    0.5024618  50.22  0.005108152    1.617    0.382
        39 -16.4864     44.2830    245.1591   1.2303252477e+02   1.8516105550e+01     1.675885    0.5026317  49.82  0.008373733    2.480    0.597
        40 -15.7908     30.0577    248.0859   1.2560626436e+02   1.9603816011e+01    0.8211052    0.3543609  51.16  0.003851992    1.729    0.422
        41 -10.1799     26.2229    188.4827   1.2243633606e+02   3.1781138006e+01    0.2522265    0.1338099 -74.59  0.001175221    1.618    0.382
        42 -11.7969    250.3378    181.7115   7.3845236427e+01  -3.0046728232e+00    0.5387848    0.1530149 -36.52  0.002024019    3.236    0.691
        43 -14.5789    233.1472    165.0728   7.3421080845e+01   2.4228406012e+00     1.485506     1.286371  54.21  0.004829693    1.496    0.331
        44 -14.1316    240.5617    153.6421   6.9678726954e+01   2.9583575490e+00     1.376321    0.8766913  49.17  0.005568755    1.856    0.461
        45 -11.5779     11.3425    142.9225   1.2184273504e+02   4.3426890855e+01    0.3948038    0.2034483  54.63  0.001783513    2.050    0.512
        46 -12.2260     10.6827    155.4327   1.2313301101e+02   4.0581235164e+01      1.19233    0.3791252  89.50   0.00409974    4.428    0.774
        47 -13.0889      3.2674    145.0611   1.2399717660e+02   4.3508451030e+01    0.6699439    0.3578138 -64.46  0.003911344    1.562    0.360
        48 -12.6068      4.1195    138.6032   1.2322476270e+02   4.4942822387e+01    0.5496083    0.3047596 -80.77   0.00246899    1.425    0.298
        49 -13.1210      2.9721    131.0022   1.2280521804e+02   4.6784023422e+01    0.9633036    0.2644053 -80.19  0.003602159    3.477    0.712
        50 -12.2110    246.0023    134.1158   6.4476851776e+01   5.1492249256e+00    0.7395647     0.496349 -35.48  0.003901531    1.317    0.241
        51 -10.5808    241.7576    130.0154   6.4238296050e+01   6.6183677430e+00    0.3460214    0.1988455 -28.70  0.001612412    1.629    0.386
        52 -15.1678     39.9878    221.2667   1.2219009512e+02   2.3498372416e+01    0.9779349    0.4427362 -69.50  0.005438296    2.108    0.526
        53 -11.8644    217.2144    115.8419   6.5061522865e+01   1.4017536481e+01    0.6245076    0.4471726  41.25  0.003085678    1.504    0.335
        54 -11.4073     85.0891    108.6335   9.5207595433e+01   4.3371824502e+01    0.6184278    0.3293153 -69.39  0.002301605    2.684    0.627
        55 -11.2252    214.9216    108.9145   6.3762887717e+01   1.5744482565e+01    0.4314209    0.3440018 -15.22  0.001826379    1.342    0.255
        56 -11.5638    232.8035     52.3338   4.7039665185e+01   2.0856099443e+01    0.7348099    0.3640689 -40.02  0.003378598    1.777    0.437
        57 -12.5417    249.2404     75.9103   5.0629668957e+01   1.3831184938e+01    0.8160555    0.4562262 -42.20  0.003053033    1.540    0.350
        58 -12.9212    247.5986     65.0848   4.8315184424e+01   1.5790005797e+01     1.324025    0.6673134 -72.58  0.004829234    3.756    0.734
        59 -10.9421    205.1857     76.6127   5.7123827226e+01   2.3546833208e+01    0.3430232    0.3155904 -86.49  0.001093323    1.127    0.113
        60  -9.4935    124.6611     78.6985   7.5083281254e+01   4.2377742899e+01    0.1588004    0.1200242   7.94 0.0004703692    1.668    0.400
        61 -12.2935    134.9193     61.7804   6.6947625639e+01   4.3151546887e+01    0.5504242    0.5337613  40.17  0.002027187    1.045    0.043
        62 -11.9021    244.6420    247.3871   8.6629181079e+01  -1.0643534719e+01    0.3112814    0.2433868   6.33  0.001498163    1.122    0.108
        63 -11.9634    100.2099    248.6197   1.1329644419e+02   1.0596261606e+01    0.3509214    0.1789571  34.85  0.001907381    1.895    0.472
        64 -13.5020      5.7987    244.1111   1.2935058082e+02   2.2796240166e+01    0.3053403    0.1966126 -86.89  0.001485938    1.368    0.269
        65 -12.3857     97.9010    236.3410   1.1250434052e+02   1.3058852231e+01     0.467156    0.2790734 -81.42  0.002148898    2.073    0.518
        66  -9.2953     13.6062     60.2279   1.0836368524e+02   6.2419297963e+01    0.1061111   0.08792658  58.90 0.0004370994    1.641    0.391
        67 -11.4301     93.3279    237.1792   1.1346331135e+02   1.3567999603e+01    0.2720443    0.2065158  43.96 0.0008661622    1.195    0.163
        68 -10.9302    241.7211     46.5320   4.4652800999e+01   1.9684722615e+01    0.2981519    0.2553371 -89.47  0.001284343    1.174    0.149
        69 -10.7878     36.4503     39.2534   9.2124336736e+01   6.4748574688e+01     0.370171    0.1851659 -51.13  0.001582185    1.978    0.494
        70 -12.4483     43.6871     36.3429   8.7835618831e+01   6.4443895971e+01    0.6468495    0.4028715  18.42  0.002497869    1.709    0.415
        71 -11.5770    121.4811     31.1029   5.9514765837e+01   5.0903818131e+01    0.3423846    0.2704003  35.70  0.001855236    1.201    0.168
        72 -12.0143     89.3310    228.9291   1.1340218028e+02   1.5650373851e+01    0.2875305    0.1951123 -88.24 0.0004283189    1.600    0.375
        73 -11.3371    245.0380    226.8604   8.3159008731e+01  -8.2993589954e+00    0.3097166    0.2048242  17.97  0.001139625    1.267    0.211
        74 -11.3963      3.0590     18.7953   1.0060037727e+02   7.1205900359e+01    0.2422277    0.1416947 -12.83  0.001545528    1.661    0.398
        75 -11.2587     96.5267    226.1288   1.1168981215e+02   1.5131717457e+01    0.3388715    0.2194463 -77.47  0.001388032    1.742    0.426
        76 -11.2488     83.8618    226.0025   1.1417624966e+02   1.6977880703e+01    0.2929824    0.2277953  51.86  0.001267355    1.112    0.101
        77 -10.5113     79.1971    219.4863   1.1444268007e+02   1.8890746777e+01     0.233591    0.1604444  89.24  0.001233248    1.480    0.324
        78 -14.0900    123.4846    201.7971   1.0296405522e+02   1.5617247803e+01    0.9485147    0.6843528  40.87   0.00285007    1.270    0.213
        79 -10.9607    134.0113    204.5324   1.0110631008e+02   1.3301951614e+01    0.2431377    0.2054221 -52.02 0.0007104932    1.313    0.238
        80 -10.4219     30.3321    196.6924   1.2223617090e+02   2.9594757875e+01     0.294005    0.1078128  50.92   0.00141677    2.417    0.586
