#   1 NUMBER                 Running object number                                     
#   2 MAG_AUTO               Kron-like elliptical aperture magnitude                    [mag]
#   3 X_IMAGE                Object position along x                                    [pixel]
#   4 Y_IMAGE                Object position along y                                    [pixel]
#   5 X_WORLD                Barycenter position along world x axis                     [deg]
#   6 Y_WORLD                Barycenter position along world y axis                     [deg]
#   7 A_WORLD                Profile RMS along major axis (world units)                 [deg]
#   8 B_WORLD                Profile RMS along minor axis (world units)                 [deg]
#   9 THETA_WORLD            Position angle (CCW/world-x)                               [deg]
#  10 FWHM_WORLD             FWHM assuming a gaussian core                              [deg]
#  11 ELONGATION             A_IMAGE/B_IMAGE                                           
#  12 ELLIPTICITY            1 - B_IMAGE/A_IMAGE                                       
         1 -15.2148      6.1322    147.9626   1.4660869112e+02   4.3685868791e+01     5.754744     1.667835 -83.15   0.02355692    3.346    0.701
         2 -13.4158    194.5061     29.4468   6.9341970490e+01   3.2481999151e+01      1.42805     1.396628 -36.33  0.007253238    1.125    0.111
         3 -13.5715    209.4239      9.3602   6.2093639049e+01   3.0830133048e+01     1.385293    0.9717425  44.09  0.007379726    1.645    0.392
         4 -11.5399      3.0637     20.8770   1.2648454129e+02   7.1015871848e+01    0.3304511    0.2005167 -69.42  0.002005163    2.102    0.524
         5 -11.5536      2.1554      3.9268   1.2021871189e+02   7.3987437382e+01    0.4950227    0.2073349 -58.94  0.002385069    3.356    0.702
         6  -9.4897    191.9405    192.9866   1.1061398541e+02   6.0154542068e+00    0.2687024    0.1895651 -67.93  0.001280212    2.497    0.600
         7 -12.0755    138.4487    248.8848   1.2929458133e+02   6.7897373442e+00    0.5320888    0.2569034  49.60  0.002886511    1.696    0.410
         8 -11.5649    109.3456    249.4590   1.3464898146e+02   1.1216736356e+01    0.5128308    0.1978525  54.04  0.002456553    2.400    0.583
         9 -11.3253     98.9940    248.4952   1.3641933574e+02   1.2903439812e+01    0.3747413    0.2672046  15.08  0.002206407    2.535    0.606
        10 -10.0260     47.1557    249.5013   1.4546317450e+02   1.9656135356e+01    0.1765203    0.1465176  81.64 0.0008565646    1.312    0.238
        11  -9.9136     50.3135    245.5361   1.4469445723e+02   1.9937241652e+01    0.1714237    0.1309039 -51.32 0.0009283436    2.113    0.527
        12 -10.4317     29.5495    249.7983   1.4834568678e+02   2.1627058875e+01    0.2478453    0.1768338  77.18  0.001430045    1.165    0.141
        13 -11.3073     34.9724    245.0615   1.4722499449e+02   2.1814678031e+01    0.5130438    0.3145473 -73.24  0.003749951    1.761    0.432
        14 -10.6421     15.7822    250.4280   1.5053942146e+02   2.2983962731e+01    0.2601177   0.07663007  37.85  0.001406765    2.982    0.665
        15 -11.0268      3.0237    248.9185   1.5243219432e+02   2.4493414327e+01    0.4022147    0.1829255  57.52  0.002893528    1.492    0.330
        16 -10.4238     22.5371    245.0853   1.4924357763e+02   2.3169150755e+01     0.231954    0.1023648  63.05 0.0007250191    1.708    0.415
        17 -10.5799      5.6906    241.0405   1.5173724262e+02   2.5549844449e+01    0.1602656    0.1153109  52.40 0.0002966512    1.334    0.251
        18 -10.8407     12.6495    240.5718   1.5062216648e+02   2.4948641418e+01     0.199251    0.1468812  67.01  0.000959933    1.137    0.121
        19 -10.3957    183.3766    238.7388   1.1968357907e+02   8.5765765687e-01    0.1866137    0.1527918  -6.98 0.0005168854    1.433    0.302
        20 -11.1372    197.9697    246.3020   1.1809879371e+02  -2.4739855618e+00    0.4612333    0.1967106 -45.34  0.002285692    3.377    0.704
        21 -10.5548    248.5558    249.2392   1.0977327457e+02  -1.0407921339e+01    0.3288689    0.1431772  28.89  0.001830343    1.857    0.462
        22 -12.6916     36.0612    233.2099   1.4638036788e+02   2.3738685733e+01    0.2796439     0.228034 -86.76 0.0007547415    1.358    0.264
        23 -11.8522     68.3231    190.7570   1.3674567552e+02   2.7903776552e+01    0.2557661    0.2375619 -74.02 0.0004399723    1.301    0.232
        24 -14.8593     41.5665    225.4946   1.4493826798e+02   2.4492800879e+01     6.208711     1.177392  37.70   0.01363817    4.177    0.761
        25 -10.4166    173.7525    222.4815   1.1912784421e+02   4.7814877809e+00    0.3882026    0.2619904  58.60  0.002127175    1.756    0.430
        26 -10.8859     78.2662    177.9212   1.3304669006e+02   2.9214566914e+01    0.2379042    0.2045105 -87.10 0.0003875838    1.110    0.099
        27 -13.1132     65.0898    176.0793   1.3581828119e+02   3.1441865871e+01    0.4561309    0.2740133 -46.63  0.001554641    2.183    0.542
        28  -9.2441    100.1393    176.8407   1.2787454674e+02   2.6060897698e+01    0.2072405    0.1609264  68.99 0.0004826775    1.244    0.196
        29 -11.7246     85.6000    168.5367   1.3006955769e+02   3.0159139336e+01    0.5999392    0.5532946 -88.71  0.003788779    1.105    0.095
        30 -10.0216     98.2066    152.4939   1.2442789756e+02   3.1704458761e+01    0.2667005    0.2437006 -88.30 0.0007091127    1.050    0.048
        31 -12.0191     86.8041    151.7780   1.2719234949e+02   3.3714047406e+01    0.2795917    0.2458525 -44.50 0.0005429565    1.309    0.236
        32 -12.3938     67.1897    144.0266   1.3100449050e+02   3.8343504010e+01    0.7330421    0.4906011  74.29  0.003816197    1.661    0.398
        33  -9.0712    101.0863    148.2187   1.2293090857e+02   3.2176635457e+01    0.2010972     0.190828   3.29 0.0004368228    1.254    0.203
        34  -8.8269     39.6297    146.6973   1.3842340561e+02   4.1016333266e+01    0.1213198   0.08870512 -40.46 0.0007032547    1.748    0.428
        35 -12.8399      9.1352    207.2851   1.4968949802e+02   3.1282136684e+01    0.6656783     0.552031  30.54   0.00418315    1.698    0.411
        36  -8.4700    192.0275    144.0388   1.0053562524e+02   1.4381214384e+01    0.1752583    0.1648666  13.14 0.0003802339    1.021    0.021
        37  -8.6116    181.4340    144.5110   1.0288568892e+02   1.6620544702e+01    0.1496617    0.1431563  32.91 0.0001515621    1.042    0.040
        38  -8.9010    152.4852    213.0015   1.2192383186e+02   1.0030192360e+01    0.1603987    0.1334233 -53.06 0.0003519027    1.457    0.314
        39  -9.6525    109.6401    137.4807   1.1862334098e+02   3.3076920208e+01    0.3823907    0.2520911 -21.91  0.001565055    2.544    0.607
        40 -11.5855     62.3851    198.8219   1.3881081157e+02   2.7048480338e+01    0.2929493    0.2454482 -42.50 0.0006434619    1.730    0.422
        41 -10.4773     96.9616    134.7140   1.2143290644e+02   3.5955034797e+01    0.2454949    0.2107424 -43.30 0.0003813345    1.255    0.203
        42  -9.2030     81.0700    132.8432   1.2539006567e+02   3.8949944728e+01    0.2046344    0.1709703  75.77 0.0002775589    1.221    0.181
        43 -11.0842     57.2723    131.9339   1.3176614359e+02   4.2423242098e+01     0.476797     0.234879 -88.56   0.00181192    3.264    0.694
        44  -9.6295     34.8178    133.5819   1.3805713085e+02   4.4494693702e+01    0.1701732    0.1028484  47.74 0.0009254518    1.721    0.419
        45  -8.0926     91.3388    131.6990   1.2235854036e+02   3.7590731786e+01    0.1484123      0.10662  73.72 0.0003312742    1.667    0.400
        46  -9.0576    106.7662    124.0458   1.1650293034e+02   3.6646933870e+01    0.1903069    0.1833767 -61.97 0.0002841526    1.041    0.040
        47 -11.0496     18.7946    199.1567   1.4746596409e+02   3.1937352626e+01    0.2012484    0.1499165  64.73 0.0003063388    1.118    0.105
        48 -10.0196    167.6037    112.7462   9.8201989449e+01   2.5915658900e+01    0.3230222     0.272181 -79.45  0.000793659    1.450    0.310
        49  -9.5559    203.4516    111.3889   9.0339436153e+01   1.7623782292e+01    0.2987836    0.2046315   5.38 0.0008090165    2.084    0.520
        50  -9.8769    242.3499     89.3164   7.8320255567e+01   1.2282167469e+01    0.1448475    0.1069247  17.19 0.0007047468    1.731    0.422
        51  -8.6717    184.5281     77.4771   8.4869004683e+01   2.8159462931e+01    0.1545738    0.1499578  37.31 1.650924e-05    1.036    0.034
        52  -9.0542    157.2910     76.3441   9.0285751124e+01   3.5308237381e+01    0.1620394    0.1227665  14.35 0.0007026579    1.656    0.396
        53  -9.7991     34.3379     63.2747   1.2521659916e+02   6.0445586818e+01    0.2662655    0.1923456  49.53  0.001160486    1.822    0.451
        54 -10.1317     15.0448    197.0033   1.4804619431e+02   3.2720150133e+01    0.1709377    0.1278333  62.22  0.000459182    1.159    0.137
        55 -10.0349     23.7714     59.0506   1.2829995044e+02   6.2212564742e+01    0.3633054    0.1153538  38.63  0.001464256    4.183    0.761
        56 -10.1507     16.7961     55.9837   1.3035688559e+02   6.3342428513e+01    0.2121346    0.1714296  31.15 0.0008411145    1.535    0.349
        57 -10.3724      2.8298     47.2869   1.3411650875e+02   6.5905484516e+01     0.155438    0.1418821  59.01  0.001197352    1.452    0.311
        58 -11.1398    238.1578    247.6615   1.1127389946e+02  -8.7705055812e+00    0.2960013    0.2279387  59.98  0.001870934    2.489    0.598
        59  -9.8009     82.0218    249.0599   1.3947748983e+02   1.5228259307e+01    0.1938523    0.1002846  62.53  0.001143031    1.746    0.427
        60  -9.6599    152.3163    248.3291   1.2668662486e+02   4.6449350257e+00    0.1158095   0.08306887  19.33 0.0003879702    1.679    0.405
        61 -11.3196    124.8954    249.9769   1.3188633492e+02   8.7601336928e+00    0.5329514    0.1410203  39.62  0.002130211    3.110    0.678
