#   1 NUMBER                 Running object number                                     
#   2 MAG_AUTO               Kron-like elliptical aperture magnitude                    [mag]
#   3 X_IMAGE                Object position along x                                    [pixel]
#   4 Y_IMAGE                Object position along y                                    [pixel]
#   5 X_WORLD                Barycenter position along world x axis                     [deg]
#   6 Y_WORLD                Barycenter position along world y axis                     [deg]
#   7 A_WORLD                Profile RMS along major axis (world units)                 [deg]
#   8 B_WORLD                Profile RMS along minor axis (world units)                 [deg]
#   9 THETA_WORLD            Position angle (CCW/world-x)                               [deg]
#  10 FWHM_WORLD             FWHM assuming a gaussian core                              [deg]
#  11 ELONGATION             A_IMAGE/B_IMAGE                                           
#  12 ELLIPTICITY            1 - B_IMAGE/A_IMAGE                                       
         1 -11.9646     21.4800    116.7905   1.2157638775e+02   4.9167468491e+01    0.7573091    0.2920651 -62.23  0.003538142    2.301    0.565
         2 -10.6986     33.0000     20.5517   9.4129332840e+01   7.0474063890e+01     1.099746   0.09857921 -51.00  0.002083697   11.613    0.914
         3 -10.5155     12.6824     35.0785   1.1146459740e+02   6.9280799649e+01    0.4091463   0.06630591 -61.88  0.001366685    3.789    0.736
         4 -10.5155    210.9401     21.3570   4.8427598020e+01   2.8726297283e+01    0.4974207    0.2899194  30.96  0.001233256    2.262    0.558
         5 -11.4972    219.7899     11.2484   4.4797260976e+01   2.7575930800e+01    0.7258726    0.5972252 -47.41  0.003096782    1.105    0.095
         6  -9.9262     21.5190      6.0230   9.3367441345e+01   7.4631880830e+01    0.1969406    0.1058851 -46.05  0.001036195    1.602    0.376
         7 -12.5752    115.4852    228.3546   1.1101152447e+02   1.6115199602e+01    0.8093662    0.3348227  49.10  0.004357795    2.137    0.532
         8 -11.2332     98.9412    249.4109   1.1576063723e+02   1.5379757916e+01    0.6544993    0.1190782  40.71  0.002868298    3.318    0.699
         9 -11.4958    128.3308    240.5511   1.0988618931e+02   1.2765252145e+01    0.5436404    0.1759569 -48.87  0.002796137    4.168    0.760
        10 -11.1056    109.5012    247.7025   1.1380358935e+02   1.4286144764e+01    0.3622777     0.250712 -51.91  0.002803055    2.014    0.504
        11 -11.3404    120.4529    248.2702   1.1196318166e+02   1.2818669196e+01    0.4852021    0.3366409   3.25  0.003287839    2.350    0.574
        12 -11.5417    115.2527    246.4330   1.1270136761e+02   1.3718447993e+01    0.4421989    0.3230523 -60.16  0.003508982    1.878    0.467
        13 -11.3668    133.6353    249.1566   1.0978745100e+02   1.1004977605e+01    0.3507499    0.3051575 -28.12  0.003025737    1.586    0.369
        14 -10.7243    127.9398    249.4497   1.1078560206e+02   1.1708247316e+01    0.4044914    0.1961439  44.32  0.002624512    1.543    0.352
        15 -11.4474     73.3350    243.1784   1.1977580185e+02   1.9306918634e+01    0.3542465    0.2303807 -69.65  0.002724659    1.943    0.485
        16 -11.2317     67.1159    245.5820   1.2100522492e+02   1.9678690548e+01    0.3398591    0.2676607 -59.85  0.001622131    1.793    0.442
        17 -12.4525     39.5531    213.1569   1.2419227427e+02   2.7766520646e+01    0.8792512    0.5890965 -41.04  0.003305987    2.663    0.624
        18 -14.3452     48.3617    201.8629   1.2179431172e+02   2.8774902432e+01     3.870988     1.553715  61.87   0.01991908    2.491    0.598
        19 -10.1218     70.5810    177.7201   1.1507521277e+02   3.0585957251e+01    0.2784232    0.2409942 -20.43 0.0009907695    1.677    0.404
        20 -13.1038      9.9160    206.5357   1.2954976747e+02   3.1759496074e+01     1.113205     0.691124  34.61  0.004332112    1.554    0.356
        21  -9.5621     79.5880    167.4466   1.1188603741e+02   3.1389393309e+01    0.2113786    0.2039837  34.14 0.0001856514    1.245    0.197
        22 -11.3139     66.9202    164.0399   1.1447829005e+02   3.3768450076e+01    0.4010285    0.2663115 -43.82  0.001202659    2.043    0.511
        23 -10.6895     85.6006    160.9365   1.0965244574e+02   3.1837753303e+01    0.4143217     0.349394 -11.15  0.001409385    1.674    0.403
        24 -11.6525     99.6071    227.8602   1.1389018270e+02   1.8288979144e+01    0.4054657    0.2579901  40.05  0.002814874    1.206    0.171
        25 -10.5651     70.4965    144.9830   1.1126815571e+02   3.7293853219e+01    0.3424804     0.300067 -60.23  0.001100579    1.264    0.209
        26 -11.1255     66.1124    142.2253   1.1203906303e+02   3.8482452248e+01     0.507303    0.3332876  50.30  0.002831052    1.402    0.287
        27 -10.0845     88.1142    144.0164   1.0660915250e+02   3.4952884570e+01    0.2457695    0.2281328 -14.46 0.0005328786    1.345    0.257
        28 -10.2348     33.0000    143.4487   1.2085967823e+02   4.2056128195e+01     0.424805    0.1057797 -73.19  0.001604733    3.649    0.726
        29 -12.2018     28.7348    236.6415   1.2722398091e+02   2.5073844651e+01     0.488743    0.3997899  80.92 0.0005077706    1.346    0.257
        30  -9.2057     99.7342    145.1472   1.0387083551e+02   3.2888335193e+01    0.2521733    0.1805464   9.22  0.001244625    2.122    0.529
        31 -10.8235     58.5750    132.3866   1.1273903827e+02   4.1645393546e+01    0.5033118    0.2369716 -78.85  0.002194911    2.451    0.592
        32  -8.2887    109.9955    132.9990   9.9129603193e+01   3.3663085830e+01    0.2138304    0.1714417  -8.52 0.0006150329    1.708    0.415
        33  -8.9651     97.6928    129.4323   1.0163030641e+02   3.6529163264e+01    0.2717976    0.2108669  -5.97  0.001381038    1.903    0.474
        34 -10.8818     32.6507    125.0374   1.1915294026e+02   4.6238256509e+01    0.9779214   0.08383548 -71.42  0.002289305    8.615    0.884
        35 -10.5693    163.5560    246.9603   1.0451803485e+02   7.3151060879e+00    0.2312696    0.1840621 -49.20  0.001885565    1.848    0.459
        36  -7.9042     83.3305    110.6857   1.0194139648e+02   4.3041070935e+01    0.1466728    0.1042144  73.82 0.0007045028    1.678    0.404
        37 -11.2992     83.8173    235.7570   1.1740712329e+02   1.9126861072e+01    0.3141779    0.2183011 -79.39  0.002385769    1.770    0.435
        38  -8.7435     52.4974     89.5288   1.0740305449e+02   5.2454809905e+01    0.1357411    0.1226383 -74.31 0.0008099479    1.013    0.013
        39 -10.0395     33.0000     83.0940   1.1317449388e+02   5.6184259195e+01    0.6507975   0.06597161 -67.57  0.001398933    8.610    0.884
        40 -10.2358     32.7599    107.5444   1.1703645015e+02   5.0325997927e+01    0.7486949   0.09487484 -70.33  0.001913244    6.636    0.849
        41  -9.4118    196.4077    197.0996   9.2278490584e+01   8.3503947144e+00    0.2381452     0.142967  50.41  0.001348612    2.012    0.503
        42 -10.0570     32.9073     56.0571   1.0723471925e+02   6.2675072067e+01    0.5844827   0.08407688 -63.81  0.001290136    8.000    0.875
        43 -11.5346     83.1896    245.6363   1.1821734185e+02   1.7800101459e+01    0.4104495    0.2768759 -69.47   0.00320851    1.912    0.477
        44 -11.0740    140.3722    247.8865   1.0851926212e+02   1.0275098750e+01     0.337209    0.1466171  40.08  0.002060927    1.638    0.390
        45 -10.8056    195.9756     35.1998   5.4175822733e+01   3.0929828176e+01    0.5275653    0.3613358  68.25  0.002164695    1.530    0.346
        46 -11.0207    203.5993     28.6463   5.1314341573e+01   2.9764810236e+01    0.6843603    0.6084015 -49.81  0.003942751    1.080    0.074
        47 -15.5503      8.0778    240.5553   1.3084610413e+02   2.6397410273e+01     12.74116     2.023953 -82.96   0.05349974    6.738    0.852
        48 -11.3725    133.7689    230.0864   1.0786449458e+02   1.3385503562e+01    0.2794081    0.2216669  26.86  0.002126627    1.209    0.173
        49  -9.7765     65.4106    183.7086   1.1679649518e+02   3.0099067580e+01    0.3555821    0.2407816 -35.05  0.001411805    2.466    0.594
        50 -11.5024     83.9505    223.7748   1.1646589955e+02   2.0903068075e+01    0.4672442    0.3154466 -86.04  0.003313854    1.776    0.437
