#   1 NUMBER                 Running object number                                     
#   2 MAG_AUTO               Kron-like elliptical aperture magnitude                    [mag]
#   3 X_IMAGE                Object position along x                                    [pixel]
#   4 Y_IMAGE                Object position along y                                    [pixel]
#   5 X_WORLD                Barycenter position along world x axis                     [deg]
#   6 Y_WORLD                Barycenter position along world y axis                     [deg]
#   7 A_WORLD                Profile RMS along major axis (world units)                 [deg]
#   8 B_WORLD                Profile RMS along minor axis (world units)                 [deg]
#   9 THETA_WORLD            Position angle (CCW/world-x)                               [deg]
#  10 FWHM_WORLD             FWHM assuming a gaussian core                              [deg]
#  11 ELONGATION             A_IMAGE/B_IMAGE                                           
#  12 ELLIPTICITY            1 - B_IMAGE/A_IMAGE                                       
         1 -12.7691     78.4880     32.6992   6.6365979215e+01   5.9233127850e+01     1.045001    0.6476224  47.66  0.003316783    1.656    0.396
         2 -11.7335     30.6986     24.4260   8.2280139472e+01   6.7779937314e+01     0.486661    0.2728898 -36.23  0.002225019    1.592    0.372
         3 -10.6233    100.2416      6.4594   4.9531154330e+01   5.7619253421e+01    0.4988648    0.2442026  15.50  0.002107774    2.984    0.665
         4 -11.6774    125.0265      8.0241   4.4980392652e+01   5.1832549697e+01    0.7368988    0.1772335  48.95  0.002579266    3.362    0.703
         5 -12.2475    104.4987      9.5266   4.9733554757e+01   5.6411149430e+01    0.9298928    0.3362553  38.41  0.003605832    2.960    0.662
         6 -11.0863    105.2870      2.0378   4.6707026372e+01   5.6852812771e+01    0.4010863    0.2522182  65.64  0.001593777    1.518    0.341
         7 -12.0839    116.6522     14.8889   4.9045178825e+01   5.3160634240e+01    0.5466636     0.413422  20.57  0.002423139    1.397    0.284
         8 -10.8817    111.8731     13.1730   4.9450419975e+01   5.4417694905e+01    0.3826619    0.2546069  79.40  0.001968608    1.874    0.466
         9 -11.1171    130.6995     19.9179   4.7951785795e+01   4.9374357515e+01    0.4795924    0.2707555  70.03  0.001479875    1.838    0.456
        10 -11.2626    247.7034     19.1733   3.3489757386e+01   2.2544173374e+01    0.2824018    0.2207662  43.13  0.001711496    1.824    0.452
        11 -11.4826     18.8124     14.0027   8.3522569642e+01   7.0643934577e+01    0.4057739    0.2792698 -27.40  0.001897622    1.225    0.184
        12 -11.4573    160.4759     17.9930   4.2353921158e+01   4.2402149194e+01    0.5982292    0.4423051 -86.09  0.002142322    1.422    0.297
        13 -11.6069    148.2839     10.3047   4.1860226874e+01   4.6090776717e+01    0.4111528    0.2691077  74.24 0.0001924643    1.434    0.302
        14 -10.4267    153.9344     17.7181   4.3248396941e+01   4.4013615714e+01     0.287639    0.2202733  37.12 0.0003236633    1.406    0.289
        15 -10.7356    150.2032     15.9255   4.3282633201e+01   4.5094929494e+01    0.4081033    0.2943684  40.04  0.002103709    1.445    0.308
        16 -11.2229     84.0860     19.6742   5.9206290025e+01   5.9756017132e+01    0.4905557    0.2558599  22.81   0.00218172    2.382    0.580
        17 -11.9970     25.3778      7.0747   7.6653974743e+01   7.0862820962e+01    0.6727011    0.2464024 -36.20  0.001979713    2.581    0.613
        18 -12.5629     15.3571      6.6020   8.1750312404e+01   7.2046342883e+01    0.7530586    0.5082315  12.23  0.005178881    1.318    0.241
        19 -12.8636      4.6095     10.1810   8.9627534142e+01   7.2493749441e+01    0.7350394    0.4345692 -44.08  0.001149878    1.635    0.388
        20 -10.7324      2.1155      2.6041   8.7417544520e+01   7.3813378557e+01    0.2664861    0.2083663  -9.73  0.001447023    1.185    0.156
        21 -12.3287    242.7233     13.7242   3.2755265303e+01   2.4167141599e+01    0.3478415    0.2785905   0.73  0.002246134    1.972    0.493
        22 -11.1038    182.0816     15.2533   3.8768615429e+01   3.7493473330e+01    0.5148066    0.1918496  60.12  0.002207883    2.333    0.571
        23 -11.4625    169.3326     15.1278   4.0317192938e+01   4.0554991030e+01    0.3514317    0.3265363  41.80  0.001803614    1.195    0.164
        24  -9.8515    197.5564     13.3200   3.6582103578e+01   3.4066394700e+01    0.2259918    0.1100239 -36.11 0.0008331837    2.009    0.502
        25 -10.8249     93.8793      6.8317   5.1214700704e+01   5.8972765255e+01    0.2598608    0.1693172 -34.90  0.001449785    1.797    0.443
        26 -10.1098     61.6426     11.6779   6.3144852720e+01   6.4877848536e+01    0.3445419    0.2495736 -83.83   0.00151936    4.198    0.762
        27 -11.5446    249.5470      9.0544   3.1342433885e+01   2.3308148482e+01    0.4279372     0.161806 -42.50   0.00220887    2.114    0.527
        28  -9.8685     54.0173     11.0049   6.5713145431e+01   6.6259398972e+01    0.2463763    0.1269588  23.57 0.0009265715    2.031    0.508
        29 -10.3755     48.9846     11.0310   6.7753327943e+01   6.7073203352e+01    0.2352143    0.2007504 -49.78  0.001523464    1.886    0.470
        30 -11.3451    233.9299      7.0851   3.2034758515e+01   2.6698963126e+01    0.2090364    0.1671822 -32.70 0.0006573955    1.429    0.300
        31 -11.2551    200.8754      7.9579   3.4963293825e+01   3.3849774187e+01    0.4212762    0.1885993 -45.29  0.001260992    2.103    0.524
        32 -10.6899    194.9681      9.2247   3.5840829717e+01   3.5081273913e+01    0.2946944    0.1976455  -6.98  0.001603664    2.146    0.534
        33 -10.2928    197.5850      3.2307   3.4139931679e+01   3.5060765072e+01    0.2489428    0.1889454 -33.29  0.001127137    1.446    0.308
        34  -9.3996     38.4125      9.6584   7.1667237530e+01   6.8824413597e+01    0.2073838    0.1179687  17.24  0.001150968    1.724    0.420
        35  -9.9431     77.9014      9.0169   5.6533844366e+01   6.2087430007e+01    0.1908541    0.1552524  28.02 0.0003151301    1.015    0.014
        36 -10.6085    226.6313      7.3010   3.2626373906e+01   2.8217949862e+01    0.2781032    0.1018499 -44.91   0.00132474    2.311    0.567
        37 -12.3298    161.3919      6.1865   3.8828213830e+01   4.3309126720e+01    0.5786824    0.3781555  64.27  0.002078822    1.332    0.249
        38 -10.8814    139.5124      3.8458   4.1179699726e+01   4.8750344597e+01    0.4225429    0.2745527 -11.87  0.002320928    1.860    0.462
        39  -9.2093     61.1951      6.1661   6.0715551700e+01   6.5522820562e+01    0.1516286    0.1334965  36.35 0.0004791768    1.288    0.223
        40 -11.1228    208.5693      3.9989   3.3353655713e+01   3.2502182611e+01    0.3761141    0.1885095  61.90  0.001983347    1.906    0.475
        41  -9.8169    181.8073      4.3663   3.5967995229e+01   3.8617332869e+01    0.2207272   0.09017409 -29.95  0.000735934    2.538    0.606
        42 -10.8244    132.1685      4.3332   4.2499861977e+01   5.0455915413e+01    0.2922696    0.2618762  43.47   0.00120207    1.100    0.091
        43 -10.7705     71.4792      3.2521   5.5930865111e+01   6.3869419372e+01     0.338735    0.2641314  -3.33  0.002202201    1.263    0.208
        44  -9.8402     41.6393      3.5384   6.7115235618e+01   6.9043855492e+01    0.2107192     0.131631  18.51  0.000617298    1.407    0.289
        45  -9.3058     31.4096     12.1903   7.6225576512e+01   6.9448734882e+01    0.1553146    0.1011046 -36.68 0.0009478981    1.675    0.403
        46 -11.0262     92.0147     14.2559   5.4707260915e+01   5.8685797014e+01    0.2747129     0.186767  -8.25  0.001102863    1.577    0.366
        47  -9.5115     59.4855    112.5156   9.8262310566e+01   4.6208838704e+01    0.1439836    0.1280748 -48.45 -4.092148e-05    1.014    0.014
        48 -10.0294    116.2255    116.8799   8.1997937496e+01   3.5844924438e+01    0.2657226    0.2245406  25.21 0.0003517457    1.251    0.201
        49 -10.7693     28.0018    119.5246   1.0961688107e+02   4.7820698128e+01    0.2813566    0.2477346 -88.56  0.001419065    1.162    0.140
        50 -10.6560     13.1034    106.6367   1.1230029692e+02   5.2072125612e+01    0.4061375    0.2630637 -37.92  0.001896189    1.557    0.358
        51 -11.1378    142.4561    101.6395   7.0885918545e+01   3.3650673742e+01    0.3735009    0.2963446  20.39 0.0009935831    1.443    0.307
        52 -10.3561    146.5596     99.5555   6.9292323281e+01   3.3159119997e+01    0.2721306    0.2387545  38.19 0.0007342509    1.158    0.137
        53  -9.8226     62.6190    102.4273   9.4900076603e+01   4.8225638796e+01    0.2554246      0.21495 -57.52 0.0007020132    1.144    0.126
        54  -9.8107    133.4555    101.9746   7.3282964433e+01   3.5557393844e+01    0.3033345    0.1481222 -46.53  0.000837684    2.066    0.516
        55 -10.8997     46.0863     98.8181   9.9685052711e+01   5.1095590265e+01     0.373558    0.2255009  44.93  0.001560058    2.027    0.507
        56  -9.6679     27.3214    102.4111   1.0686767820e+02   5.2038841832e+01    0.2081956    0.1279034 -37.60 0.0008010383    1.615    0.381
        57 -10.8043     15.3548    100.7118   1.1060030627e+02   5.3340601678e+01    0.3773952    0.1851348 -63.18 0.0005918418    1.610    0.379
        58 -10.6522      3.9275     99.9445   1.1428189094e+02   5.4206206262e+01    0.3724856    0.1302317 -62.28  0.001585412    2.035    0.508
        59  -8.9430    108.6784    101.2524   7.9969065623e+01   4.0844250561e+01    0.1463285    0.1226568  77.82 0.0002329261    1.538    0.350
        60  -9.7845     53.8789     97.0444   9.6569370828e+01   5.0612910495e+01    0.5150378    0.2435703  11.02  0.001833821    3.686    0.729
        61 -12.9716    247.4499     97.9232   5.0348304777e+01   1.1574684018e+01     0.597702    0.5121564 -23.64  0.003690292    1.199    0.166
        62 -11.0710     75.2312     95.3673   8.8853343247e+01   4.8053533484e+01    0.5248255    0.3653246 -38.35  0.001997055    1.359    0.264
        63 -10.5952     21.4011     91.5545   1.0682564969e+02   5.5080248867e+01    0.3001743     0.188586  56.91  0.001226548    2.243    0.554
        64  -9.1992     62.1523     97.1404   9.3744953436e+01   4.9531558323e+01    0.1910132    0.1690172 -83.02 0.0008153055    1.334    0.251
        65  -9.9220     39.6734     96.5502   1.0140827481e+02   5.2307331229e+01    0.3125614    0.2111272  16.52  0.001667118    1.719    0.418
        66 -10.1322     39.4961     92.4863   1.0055190097e+02   5.3281504481e+01    0.3200196     0.223107 -36.69  0.001402459    1.341    0.254
        67 -10.2257     34.5912     91.5959   1.0210692757e+02   5.3965687140e+01    0.3794258    0.2215037  -3.67  0.001798889    2.322    0.569
        68  -9.8816     96.5388     96.2555   8.2226790411e+01   4.4249688080e+01    0.2412218    0.2043222  29.63 0.0002943618    1.219    0.180
        69 -11.6541      4.3264     87.9063   1.1223584832e+02   5.7000531848e+01    0.6610256    0.3116645 -48.60  0.003219394    1.685    0.406
        70 -10.6289     52.7151     92.0229   9.5733030075e+01   5.1925026541e+01     0.351585    0.2760451 -24.95   0.00194965    1.278    0.218
        71  -9.7584    156.0409     96.9697   6.6325985102e+01   3.1522306916e+01    0.2248592    0.2156405 -25.37 -0.001877172    1.024    0.023
        72  -9.9148     14.0716     84.0029   1.0798302588e+02   5.7340199208e+01    0.2987102    0.1574404  15.33  0.001560841    2.264    0.558
        73  -9.5867     91.4262     87.4216   8.1268682855e+01   4.7100278133e+01    0.2849226    0.2210928  84.91 0.0005845834    2.014    0.503
        74 -11.0938     25.4443     96.7870   1.0643263577e+02   5.3534101878e+01    0.4382888    0.3536034  24.20  0.002707897    1.459    0.315
        75 -10.0951     87.8080     97.4779   8.5321228129e+01   4.5525595819e+01    0.2853427    0.2017022 -44.87  0.001243631    1.330    0.248
        76  -9.5992    119.5311     86.4821   7.2549350367e+01   4.1744052185e+01    0.2987261    0.1504187  44.76 0.0007114381    2.008    0.502
        77 -10.0818     25.5274     84.5363   1.0384335623e+02   5.6390613439e+01     0.258353    0.2146042  80.59  0.001356872    1.529    0.346
        78 -10.2993    146.5592     83.3388   6.4650529308e+01   3.6315840820e+01     0.289169    0.2556823   0.49  0.000449679    1.229    0.186
        79 -10.0798    137.5874     83.8269   6.6975506964e+01   3.8282318077e+01    0.3527502    0.2224532  37.56  0.001448101    1.686    0.407
        80  -9.8613     40.6909     82.3432   9.7644134352e+01   5.5492022662e+01    0.2475016    0.2070094  72.72  0.001428864    1.621    0.383
        81  -9.9582     40.8433     79.1519   9.6752821436e+01   5.6191613503e+01    0.2823687    0.2346645 -49.78  0.001044469    1.119    0.106
        82 -10.6227     36.2007     78.3483   9.8313758622e+01   5.6842503810e+01    0.3093722    0.2560346  83.24  0.001804121    1.653    0.395
        83 -10.7031    161.3707     81.9421   6.0916282231e+01   3.3108371628e+01    0.3015076    0.2327839  67.09  0.001454507    1.433    0.302
        84 -10.6092    103.8073     80.6457   7.5330400440e+01   4.6155580749e+01    0.4274137    0.2741344  25.26  0.001864781    1.832    0.454
        85 -10.4293    106.1948     78.1544   7.3829136127e+01   4.6170270397e+01     0.347097    0.3208897  67.15  0.001001178    1.271    0.213
        86  -9.8166     20.1860     80.8948   1.0504149498e+02   5.7633073404e+01    0.2620702    0.1371175 -44.96  0.001349467    1.575    0.365
        87 -10.6906    176.9984     78.5617   5.6817341873e+01   3.0014646819e+01    0.2561477    0.2070081 -37.20 0.0001386122    1.216    0.178
        88  -9.6542    143.8656     78.1812   6.3760814593e+01   3.7889072721e+01    0.2334903    0.2012845  12.73 0.0004431475    1.277    0.217
        89 -10.7216    146.8505     74.9040   6.2083482059e+01   3.7778862846e+01    0.2515593    0.2260254  44.09 0.0003209739    1.105    0.095
        90 -10.3130      5.8571     77.2626   1.0972923661e+02   5.9354016393e+01    0.2413836    0.1999075  32.71  0.001625252    1.524    0.344
        91  -9.8664      3.8923     72.5348   1.0954486948e+02   6.0513923593e+01    0.2963678    0.1181759 -54.74  0.001092294    1.786    0.440
        92  -8.6914    189.6882     77.6864   5.4271997627e+01   2.7191252365e+01    0.1450503     0.114957  15.70 0.0005633172    1.634    0.388
        93 -10.0003     99.0085     75.8509   7.5286244110e+01   4.8051429375e+01     0.502325    0.1973868 -36.77  0.001762107    2.668    0.625
        94  -9.0866     69.4102     76.7816   8.5485175165e+01   5.3026206908e+01    0.2105956    0.1195118 -36.77 0.0009452254    1.690    0.408
        95 -11.4796     30.8222     71.5809   9.8631411439e+01   5.8843332570e+01    0.7042181    0.2388947 -46.06  0.001908318    2.350    0.575
        96  -9.9030     24.5154     74.4762   1.0187263277e+02   5.8745597643e+01    0.2177402    0.1769112 -20.13 0.0005611531    1.217    0.178
        97  -9.2156     16.6668     76.6951   1.0545782610e+02   5.8831006703e+01    0.2670047    0.1121701 -35.89  0.001195858    2.365    0.577
        98 -11.5738     20.8080     71.9892   1.0272943173e+02   5.9583574191e+01    0.5213189    0.2020129 -55.34  0.002238176    2.001    0.500
        99  -9.5099     93.7487     75.5103   7.6835047335e+01   4.9127267262e+01    0.2840582    0.1418228  35.96  0.001144188    2.102    0.524
       100 -11.3412    114.8228     71.3602   6.9149388119e+01   4.5659029963e+01    0.4621322    0.4175808  23.57 0.0009306725    1.079    0.073
       101 -11.0152     52.7324     71.3188   8.9972567623e+01   5.6509541846e+01    0.3532231    0.2413395 -27.47 0.0005466326    1.416    0.294
       102 -10.1683     56.9347     69.1544   8.7698190073e+01   5.6408514990e+01    0.2574153    0.2434752 -62.00  0.000814011    1.304    0.233
       103 -11.6894     56.0559     63.2620   8.6130454001e+01   5.7720699290e+01    0.5775053     0.363968 -43.96  0.001168678    1.457    0.313
       104  -9.4191    140.2239     70.6476   6.2341055955e+01   4.0073632964e+01     0.398598    0.2391686   6.89  0.001327056    3.557    0.719
       105 -10.5391     70.1857     69.3862   8.2861098533e+01   5.4425654657e+01    0.5054843    0.2063957  38.90  0.001999571    2.586    0.613
       106  -9.2488    126.6863     70.2997   6.5596972387e+01   4.3240169065e+01    0.1469184    0.1206128 -80.04 0.0003978561    1.608    0.378
       107 -10.8314     39.6854     66.4607   9.3626049388e+01   5.9061771169e+01    0.3417219    0.2310836  -8.62  0.001315099    1.625    0.385
       108  -9.5150    101.9276     69.0942   7.2185595294e+01   4.8762403987e+01    0.2428431    0.1749883   1.79  0.001125015    1.723    0.420
       109 -12.2638     32.1356     59.3468   9.4576950465e+01   6.1307102906e+01     1.031909    0.5327657  -0.83  0.001634929    2.731    0.634
       110 -10.4896     24.0209     60.2261   9.8277222844e+01   6.1856535721e+01    0.2314751    0.1395035 -28.49 0.0007113423    1.554    0.356
       111  -9.9249    148.6091     65.6327   5.8893419497e+01   3.8944955183e+01    0.3303806    0.2351945  60.03  0.001579019    1.442    0.307
       112  -9.9846    122.0647     65.9394   6.5410683377e+01   4.5039934841e+01    0.2191508    0.2069682  -7.01 0.0003989642    1.040    0.039
       113  -9.8329     10.7834     64.1588   1.0490102737e+02   6.1970514685e+01    0.2349633    0.1182833 -30.81 0.0007896494    1.918    0.479
       114 -10.5686     78.0090     60.6726   7.7127978980e+01   5.4811842061e+01    0.3189886    0.2760572 -28.35 0.0008184483    1.119    0.106
       115 -11.4772     18.3265     60.7553   1.0084755183e+02   6.2191051142e+01    0.5787699    0.3104918  -7.80  0.002851068    2.272    0.560
       116  -9.7413    106.7057     59.6197   6.7567235554e+01   4.9458879019e+01     0.237769    0.1994556   9.75 0.0005954134    1.214    0.176
       117 -11.8730     88.0239     57.2919   7.2534990405e+01   5.3602386077e+01    0.6809304    0.3975195  36.04  0.001828223    1.708    0.415
       118 -10.8275     86.6323     51.3526   7.0848624234e+01   5.4872887519e+01    0.4488991    0.3479902  34.43  0.001619838    1.250    0.200
       119 -10.7647    100.1820     57.2201   6.8671562176e+01   5.1219461620e+01    0.5897036    0.2479237  36.27  0.002162675    2.679    0.627
       120 -10.8459     99.3349     54.2870   6.7894494061e+01   5.1880388698e+01    0.4130072    0.2724404  33.15  0.001243767    1.517    0.341
       121  -9.9604    231.2173     57.3740   4.3294016345e+01   2.1039590493e+01    0.1757963    0.1192992  83.49 0.0005135621    1.631    0.387
       122 -12.0637    147.2411     53.8625   5.5578034596e+01   4.1120525633e+01    0.3812754    0.2909646  27.48 0.0002230507    1.484    0.326
       123 -10.1623    145.3376     47.4072   5.3961432035e+01   4.2515032562e+01    0.4391323    0.2555279 -37.24  0.001501604    1.769    0.435
       124  -9.7160    148.9662     41.4636   5.1382651616e+01   4.2451458079e+01    0.3002256    0.2106196  28.58 0.0005706698    1.690    0.408
       125 -10.0694    141.6447     45.0169   5.3971901827e+01   4.3734995013e+01    0.2277296    0.1795168  47.15 0.0004068056    1.206    0.171
       126  -9.4173    144.6782     42.6730   5.2605867497e+01   4.3325517239e+01    0.3058812    0.1613373  42.15 0.0007523179    1.993    0.498
       127 -10.4309      3.2110     56.5596   1.0626435018e+02   6.4009203273e+01    0.2375872    0.1783608 -44.67 0.0008908949    1.010    0.010
       128  -9.8113    132.9921     54.9785   5.9104790119e+01   4.4331665326e+01     0.313464    0.1995871  -0.84  0.001287112    2.402    0.584
       129 -10.1005    165.9404     53.1829   5.1723289708e+01   3.6703101611e+01    0.3316214    0.2190567 -50.23  0.001068528    1.611    0.379
       130  -9.8852    120.8571     54.6809   6.2002066120e+01   4.7169251752e+01    0.2506109    0.1969686 -15.81 0.0007690238    1.359    0.264
       131 -10.8853     41.7301     53.7949   8.8721955444e+01   6.1386734404e+01      0.23181    0.1837091 -21.04 0.0002892543    1.078    0.072
       132  -9.3604     44.3375     49.9895   8.6290081511e+01   6.1795436399e+01    0.1936989    0.1582561   8.87 0.0005929674    1.201    0.168
       133 -11.4389     58.3810     48.8517   8.0140286100e+01   6.0095749859e+01    0.5954778    0.5444623 -22.88  0.003773718    1.201    0.168
       134  -9.9454    161.2192     50.7712   5.1883351195e+01   3.8196128639e+01    0.3693887    0.1893035 -37.88  0.001588309    1.958    0.489
       135  -9.4681    140.6396     52.1459   5.6456268672e+01   4.2954383305e+01    0.2489774    0.1919801  67.79 0.0006049979    1.378    0.274
       136 -10.1134    107.0344     51.9541   6.4810014204e+01   5.0641549177e+01    0.5207841    0.1833895  45.44  0.001867036    2.695    0.629
       137  -8.9832    184.7872     55.9643   4.9291480846e+01   3.1761110782e+01    0.1794582    0.1124588 -33.66  0.000365109    1.612    0.380
       138  -9.4606    189.5505     51.4808   4.7354383250e+01   3.1276063860e+01    0.3225991   0.07067464  48.39 0.0008098041    6.023    0.834
       139  -9.6426     29.2145     49.5288   9.2682092227e+01   6.3544283844e+01    0.2226203    0.1463552 -56.47 0.0008801578    1.669    0.401
       140  -8.8270    228.2998     49.6847   4.1873603116e+01   2.2738269734e+01    0.1371386    0.0864939 -63.27 0.0003045331    1.612    0.380
       141  -9.5878    152.5714     44.3028   5.1566051487e+01   4.1197359224e+01    0.3447011    0.1450163 -27.39  0.001309484    2.689    0.628
       142  -9.5710     75.8092     45.4194   7.2315342645e+01   5.7829558490e+01    0.2383031    0.1772003   5.15  0.000829032    1.374    0.272
       143 -10.5482     76.4850     41.7077   7.0642646644e+01   5.8292166966e+01    0.3408566    0.2253145   8.39 0.0004786648    1.755    0.430
       144  -9.9461    104.8995     43.1088   6.2248160859e+01   5.2431398641e+01    0.4265622    0.1976689  37.91  0.001724718    2.256    0.557
       145 -11.5059     87.2394     39.6393   6.6239156569e+01   5.6571793537e+01    0.6555154    0.3284253 -34.10  0.002427893    2.020    0.505
       146 -11.5135     60.7077     26.8503   7.0325458985e+01   6.3183060260e+01    0.6883813    0.3743501  19.59  0.003271486    2.155    0.536
       147  -9.3045     21.0096    243.9920   1.2313471407e+02   2.0267244901e+01    0.1347673   0.09985922  62.79 0.0006744443    1.063    0.059
       148 -11.8727     64.9641     30.5778   7.0299347251e+01   6.1951656186e+01    0.5931275    0.2924831  42.77  0.002230437    2.017    0.504
       149 -10.4164    157.7324     40.5625   4.9482045239e+01   4.0442484026e+01    0.3917624    0.2521264 -53.65  0.001240056    1.766    0.434
       150  -9.7125     41.0174     39.4434   8.3765889622e+01   6.4093478898e+01    0.2576478    0.1569884  11.74  0.001261962    1.754    0.430
       151 -11.7774     56.6358     38.0582   7.6635117277e+01   6.2169186711e+01    0.5390014    0.3611173  -1.53  0.002914371    1.586    0.369
       152 -11.8208     48.7604     39.6185   8.0501804143e+01   6.3053146274e+01    0.4703388    0.3521924  30.82 0.0001309974    1.424    0.298
       153 -10.3385    107.6919     29.6079   5.6532227704e+01   5.3604096044e+01    0.4743417    0.3280585  83.76  0.002256132    2.246    0.555
       154  -9.8495    105.4421     33.7674   5.8665098360e+01   5.3582825202e+01       0.3263    0.1989286   1.23   0.00125215    2.245    0.554
       155 -10.2464     98.4219     41.2288   6.3414401410e+01   5.4074875568e+01    0.2704128    0.2498946 -54.86   0.00110152    1.336    0.251
       156 -10.4063    100.8139     38.1580   6.1577584819e+01   5.4000017821e+01    0.4270476    0.2894822  33.02  0.001596618    1.427    0.299
       157  -9.9053     13.4254     34.4498   9.4843104374e+01   6.7740089356e+01    0.3330069    0.1784513  31.06    0.0013483    2.249    0.555
       158 -11.0145     17.6807     38.6634   9.4266879887e+01   6.6629605298e+01    0.3817542    0.1982287 -38.68  0.001319952    1.535    0.348
       159 -10.5512     10.5134     41.5026   9.8672543163e+01   6.6625649089e+01    0.3910296    0.1837208  21.67  0.002107442    2.336    0.572
       160 -10.4531     12.9655     38.0234   9.6328633792e+01   6.7114225349e+01    0.2802903    0.1892498 -24.46 0.0004865307    1.235    0.190
       161  -9.5001    118.2502     41.9960   5.8315465496e+01   4.9630864859e+01    0.1972985    0.1851676  -1.01  0.001029722    1.080    0.074
       162  -9.7167    173.9855     39.1769   4.6377361815e+01   3.6674553900e+01    0.3146836    0.1590825  56.12  0.001022384    1.855    0.461
       163  -9.8137    220.9563     36.7031   3.9694709379e+01   2.6054884433e+01    0.1793914    0.1518474 -78.86 0.0004301319    1.071    0.066
       164  -9.9256    125.9993     36.5982   5.4603929376e+01   4.8561444166e+01    0.4179766    0.2193173  68.61  0.001714207    2.383    0.580
       165 -11.7795    244.1615     34.0687   3.6855145518e+01   2.1468711146e+01    0.2940242    0.1924834 -59.34  0.001056592    1.339    0.253
       166  -9.9379    147.4778     34.9832   4.9646466621e+01   4.3641334558e+01    0.2366935    0.1679167  59.96  0.001141541    1.309    0.236
       167 -10.6580    235.5938     33.1284   3.7433492526e+01   2.3357345519e+01    0.2239112    0.1701265  69.63 0.0007561654    1.372    0.271
       168  -9.7825    219.8089     32.5393   3.8854115735e+01   2.6830602556e+01    0.2176695    0.1532004   0.66 0.0008571657    2.345    0.573
       169 -10.7405     32.5145     41.7261   8.8438495644e+01   6.4670824675e+01    0.4729679    0.2631635  15.20  0.002506586    1.938    0.484
       170  -9.0274    193.5688     32.4754   4.1838881319e+01   3.2833437078e+01    0.1329074    0.1183608 -77.57 2.918816e-05    1.028    0.027
       171 -10.8396     70.5327     30.4910   6.8221285531e+01   6.0994138475e+01    0.3027662    0.2075981 -15.31 0.0008602836    1.439    0.305
       172 -10.0210     36.2792     25.5435   8.0134699369e+01   6.6936304573e+01    0.2420009    0.1680196 -35.85  0.001120341    1.424    0.298
       173 -10.4431     29.8494     30.5327   8.5291252164e+01   6.6898064779e+01    0.2404702    0.1978908  -9.73 0.0003982168    1.095    0.087
       174  -8.7162     21.3468    232.6812   1.2242267104e+02   2.2415983978e+01    0.1241571   0.06183709  62.98 0.0007048871    1.729    0.422
       175 -10.0637     23.3297     29.6230   8.8076487356e+01   6.7726367281e+01    0.2378352    0.2063271  53.66  0.001572242    1.951    0.488
       176 -11.3479      3.2762     27.4048   9.7490792302e+01   6.9713587326e+01    0.4306908    0.2129859 -28.45   0.00227091    1.720    0.419
       177  -9.3850    203.5947     28.5625   3.9662643376e+01   3.0972023935e+01    0.2327282    0.1267695 -10.26 0.0009535548    3.310    0.698
       178 -10.1731     88.9161     28.4768   6.1330197689e+01   5.7741495222e+01    0.2028321    0.1741733  -6.28 0.0009763347    1.142    0.125
       179 -11.3704    238.2075     27.6492   3.6019148918e+01   2.3483731217e+01    0.3905211    0.1454781  49.63   0.00154732    3.996    0.750
       180 -11.7812    242.6068     25.7935   3.5253291061e+01   2.2799543065e+01    0.4222055    0.1716133 -62.74  0.001812525    2.915    0.657
       181 -10.0650    228.0865     27.1891   3.6831276864e+01   2.5678854491e+01    0.1744829    0.1599537  72.65 0.0004857514    1.243    0.195
       182 -10.8894     12.3774     24.9348   9.1742451065e+01   6.9497507097e+01     0.243979    0.1593701 -24.85 0.0004166535    1.210    0.174
       183 -10.0944    179.9531     25.0254   4.1633350218e+01   3.6946158086e+01    0.2361514    0.1826298 -69.98 0.0003110688    1.305    0.234
       184  -9.8083    176.3129     23.3293   4.1655551542e+01   3.8009489535e+01    0.2020024    0.1851583  39.04 0.0008416356    1.229    0.186
       185 -10.7388    177.8791     19.7212   4.0472507700e+01   3.8026657779e+01    0.3226786    0.2200877  57.17  0.001250441    1.401    0.286
       186 -10.4294     50.1369     23.8671   7.3263358770e+01   6.5266317982e+01    0.3502947    0.2169997  -2.91  0.001485672    1.742    0.426
       187  -9.4745    185.1061     23.8774   4.0667870795e+01   3.5845708648e+01    0.1940779    0.1595349 -71.97 0.0002827829    1.171    0.146
       188  -9.2192    147.6970     24.0422   4.6193717655e+01   4.4859830688e+01    0.1782456     0.173064  44.55 0.0004863057    1.083    0.077
       189  -9.3352    128.1071     24.0834   4.9876716610e+01   4.9547349599e+01    0.2099719    0.1597657  37.51 0.0004694676    1.273    0.215
       190  -9.7485    115.2677     23.9332   5.2611680741e+01   5.2549696393e+01    0.2636314    0.1681428  31.76 0.0001962694    1.627    0.385
       191  -9.2377     55.8779    216.8357   1.1440143532e+02   2.1775485880e+01    0.1621631    0.1186595  71.21            0    1.234    0.189
       192 -10.1496    110.9589     17.5733   5.1278202753e+01   5.4199123495e+01    0.3249988    0.1702973  44.27 0.0005824638    1.703    0.413
       193  -9.3915    124.0017    205.9954   9.7995622476e+01   1.4165701771e+01    0.1937436    0.1790643  44.32  0.001161351    1.013    0.012
       194  -9.4275     50.0905    192.9222   1.1328249300e+02   2.7743615470e+01    0.1987349    0.1486147  71.83 0.0004589525    1.241    0.194
       195  -8.8225    223.2236    187.9762   7.3659179167e+01   6.5842937438e-01    0.1643432    0.1003281 -34.60 0.0008347526    1.523    0.343
       196  -9.3580    101.0406    176.0676   9.8639615703e+01   2.4531407087e+01    0.1884989    0.1791051 -19.26            0    1.168    0.144
       197  -9.5283     33.1661    165.6300   1.1435030758e+02   3.6026335467e+01    0.1618688    0.1262298   6.71 0.0007755302    1.733    0.423
       198 -10.6361    123.7476     21.7495   4.9975726685e+01   5.0822121438e+01    0.3790564    0.2101336  33.70  0.001564091    2.009    0.502
       199  -9.9724      2.3923    161.7700   1.2146789947e+02   3.9562061507e+01    0.1794655   0.08697903 -67.60 0.0009538087    1.672    0.402
       200  -9.9519     16.1454    159.7923   1.1796913437e+02   3.8976820975e+01    0.1886981    0.1467053  77.00 0.0005726891    1.186    0.157
       201 -11.1722    167.4590     29.2506   4.4567891992e+01   3.9475197240e+01    0.2480747    0.2338981  52.79 0.0003684668    1.107    0.097
       202 -10.2657     18.9920     20.2389   8.6290710988e+01   6.9678315610e+01     0.355291     0.156496 -16.53  0.001495478    3.363    0.703
       203 -10.0719     39.2347    158.9866   1.1201651050e+02   3.7019081849e+01    0.2199189     0.189237  44.36  0.001162462    1.267    0.211
       204  -9.3063     24.8230    154.4272   1.1521197943e+02   3.9526067063e+01    0.1471807    0.1257936  -9.22 0.0003778596    1.536    0.349
       205 -10.0014     11.5202    153.9400   1.1855333820e+02   4.0742816330e+01    0.1959404    0.1026944 -76.30 0.0005252127    1.571    0.363
       206 -10.6136      8.2059    151.7704   1.1917916587e+02   4.1507985944e+01    0.2101082    0.1496818  70.31 0.0007733373    1.368    0.269
       207  -9.2162     44.9374    151.0063   1.0943776297e+02   3.8371992916e+01    0.2139896    0.1469302 -38.80   0.00105149    1.691    0.409
       208  -9.7585    144.7600     16.2104   4.4241482784e+01   4.6380347530e+01    0.3092851    0.1433043  61.01  0.001378638    1.856    0.461
       209  -9.0467     30.7032    151.3361   1.1330700167e+02   3.9740797308e+01    0.1360103   0.08859611  72.88 0.0007030778    1.651    0.394
       210  -9.9277     80.3597     18.2402   5.9749345855e+01   6.0657639175e+01    0.3059124    0.1963919 -36.38  0.001662018    1.797    0.444
       211 -11.3152      4.3948    147.3366   1.1972698544e+02   4.2833070328e+01     0.228531    0.2020662  85.71 0.0002085659    1.138    0.121
       212 -12.7226     12.1412    125.6123   1.1525020011e+02   4.7547768358e+01    0.4567713    0.3782753 -80.20 0.0004950443    1.080    0.074
       213 -11.0076      6.6454    142.0896   1.1863483934e+02   4.3936517541e+01    0.2999397    0.1902843 -79.07  0.001019279    1.287    0.223
       214 -11.7850      6.7915    136.5395   1.1802035841e+02   4.5262090425e+01     0.493133    0.2658017  89.35  0.002546626    1.815    0.449
       215  -9.9047     64.0414     18.2746   6.5283046477e+01   6.3708124956e+01    0.2662062     0.160132  -5.27  0.001301656    1.835    0.455
       216  -8.6353     96.2684     18.2705   5.5174547559e+01   5.7371853052e+01    0.1308889   0.08753548  27.00            0    1.473    0.321
       217  -9.8737     55.2463     17.7417   6.8391874779e+01   6.5266052002e+01    0.1986675    0.1528577 -24.84 0.0006148363    1.342    0.255
       218 -10.4228    232.5028     16.9966   3.4230464759e+01   2.5921107235e+01    0.1800253    0.1068837 -38.09 0.0007459171    1.590    0.371
       219  -8.9638    210.4749     17.5150   3.6302608372e+01   3.0670762792e+01    0.1249245    0.1084336 -79.61 7.061433e-05    1.025    0.025
       220 -12.8410     13.1180    133.6794   1.1595930212e+02   4.5518641530e+01    0.6524481    0.4765196 -54.02   0.00232543    1.280    0.219
       221  -9.5217    115.7734    144.8045   8.8764443402e+01   2.9388032101e+01    0.2109677     0.182921  79.84 0.0004989606    1.329    0.248
       222 -10.3956    173.6920     16.3204   4.0082943931e+01   3.9386624296e+01    0.2068722    0.1679056 -81.03 0.0004594432    1.195    0.163
       223 -10.5182     29.8114    142.9285   1.1247980682e+02   4.1890001767e+01    0.2024775    0.1532335 -52.78 0.0004640742    1.278    0.217
       224  -9.8278    134.4885     15.1729   4.5668722044e+01   4.8944396188e+01    0.2577565    0.1606031 -72.84  0.001201162    2.302    0.566
       225 -11.0320     21.1270    142.6742   1.1482603092e+02   4.2708103827e+01    0.1996353    0.1492582  59.52 0.0009623502    1.422    0.297
       226 -10.7079    246.5018    139.5012   5.9536648427e+01   4.8991147832e+00    0.1364853    0.1141036 -24.91  0.000810544    1.027    0.026
       227 -10.2403     40.9627    146.6484   1.0991001199e+02   3.9876371220e+01    0.1806463    0.1705343  87.52  0.000589553    1.106    0.096
       228 -10.2768     63.9811    131.4813   1.0075396548e+02   4.0948944057e+01    0.2048567    0.1435391  31.06 0.0006097005    1.567    0.362
       229  -9.3922     68.3614     22.8688   6.5751106917e+01   6.2381097583e+01    0.1764896    0.1429423  -0.36 0.0005602831    1.106    0.096
       230 -12.4667     42.3903    128.8887   1.0676473022e+02   4.4140840940e+01    0.6064466    0.4352628 -49.20  0.003325357    1.299    0.230
       231 -12.5563     40.2582    115.9111   1.0513944607e+02   4.7569013807e+01    0.5640627    0.4697254  65.71  0.003302486    1.385    0.278
       232 -13.1036     33.4834    119.8045   1.0796206234e+02   4.7264862615e+01     1.035461    0.4936227 -55.01  0.004840123    1.733    0.423
       233 -11.6708    249.2678    127.4186   5.6518644799e+01   6.4252983772e+00    0.3556887    0.1494758 -38.15  0.001539637    1.998    0.499
       234 -10.6919     55.9686    125.7754   1.0208497919e+02   4.3382072292e+01    0.3075942    0.1905445 -66.04 0.0007430165    1.525    0.344
       235 -11.0124     75.4481    120.0124   9.4877345114e+01   4.2178535688e+01    0.2416238    0.2144892  31.77 0.0002277241    1.214    0.177
       236 -10.5689     20.0933    118.2512   1.1185976752e+02   4.8768962347e+01    0.3463555     0.234345 -85.10  0.001928968    1.471    0.320
       237 -10.7579     91.2799    121.2742   9.0348370902e+01   3.9369457261e+01     0.560333    0.3381607 -35.30  0.002367754    1.855    0.461
       238 -11.0095     66.3691    125.0230   9.8749170440e+01   4.2232777124e+01    0.3231195    0.1566831 -51.78   0.00135281    1.839    0.456
       239 -10.3008      7.2226    106.6921   1.1419787359e+02   5.2421070424e+01    0.2794294    0.1660848 -55.02 0.0004425595    1.358    0.264
       240 -10.1772      3.1455    113.3428   1.1636770993e+02   5.1062557342e+01    0.4026978    0.1904727  12.11  0.002027402    2.760    0.638
       241 -10.1305     17.6352    106.1530   1.1074946129e+02   5.1881065970e+01    0.2744384    0.1574955 -63.35 0.0008126838    1.399    0.285
       242 -10.3240      7.4996    115.5249   1.1532727386e+02   5.0286735554e+01    0.2219691    0.1927811  66.60 0.0009242845    1.301    0.231
       243 -10.3868      8.7920    111.5116   1.1438556393e+02   5.1173158927e+01    0.3227932    0.2517053 -84.76  0.001558657    1.223    0.182
       244 -10.2704     16.3466    109.7762   1.1174435501e+02   5.1098197084e+01    0.2531603    0.2342338 -47.55  0.001491191    1.159    0.137
       245  -9.7837     61.1359    121.1293   9.9566320224e+01   4.3885542499e+01    0.3617306    0.1880738 -64.50  0.001171795    1.909    0.476
       246  -8.5752     83.6819    113.7008   9.0846332255e+01   4.2433890488e+01    0.1526236    0.1126549 -20.29 0.0004791546    1.617    0.381
       247  -9.7572     64.3087    113.6500   9.6960241662e+01   4.5301966292e+01    0.1454873    0.1110529  80.24 0.0007043956    1.712    0.416
