#   1 NUMBER                 Running object number                                     
#   2 MAG_AUTO               Kron-like elliptical aperture magnitude                    [mag]
#   3 X_IMAGE                Object position along x                                    [pixel]
#   4 Y_IMAGE                Object position along y                                    [pixel]
#   5 X_WORLD                Barycenter position along world x axis                     [deg]
#   6 Y_WORLD                Barycenter position along world y axis                     [deg]
#   7 A_WORLD                Profile RMS along major axis (world units)                 [deg]
#   8 B_WORLD                Profile RMS along minor axis (world units)                 [deg]
#   9 THETA_WORLD            Position angle (CCW/world-x)                               [deg]
#  10 FWHM_WORLD             FWHM assuming a gaussian core                              [deg]
#  11 ELONGATION             A_IMAGE/B_IMAGE                                           
#  12 ELLIPTICITY            1 - B_IMAGE/A_IMAGE                                       
         1 -13.3459     66.8136    143.6078   1.2717082377e+02   3.8300951358e+01     3.046482     1.385767 -82.25   0.00283765    5.933    0.831
         2 -13.0981    189.6963     15.4664   6.4359555874e+01   3.5895975411e+01     1.860484    0.8859066 -20.57  0.008203276    2.906    0.656
         3 -13.8558    201.4940     18.5326   6.3713051874e+01   3.2722438906e+01     1.185029     1.004618  15.32  0.006749338    1.646    0.392
         4 -13.9514    207.7336     11.3764   6.1346395233e+01   3.2029392256e+01     3.040574      1.76617  21.29  0.001411796    4.111    0.757
         5 -12.6673      2.6028     14.8057   1.1552528335e+02   7.0479007153e+01      1.27916    0.2774349 -38.98  0.005754722    3.346    0.701
         6 -10.6652      2.1327      4.2913   1.1132482405e+02   7.1947039557e+01    0.3596858    0.1451605 -38.26  0.002190591    2.001    0.500
         7 -11.4544     24.3401    236.0278   1.4683631975e+02   2.2861032874e+01     0.295212     0.201511 -79.75  0.001215978    1.325    0.245
         8 -10.3348    248.3649    249.9099   1.0702377036e+02  -1.4209626670e+01     0.244788    0.1433569  27.08  0.001479627    1.471    0.320
         9  -9.3822    190.6582    250.3197   1.1759068733e+02  -5.3442017955e+00    0.1209463     0.093109  64.02 0.0007049788    1.719    0.418
        10 -10.8927    163.2855    249.2301   1.2261817790e+02  -5.5718202788e-01    0.3448793    0.2474174 -81.50  0.001902723    2.143    0.533
        11 -12.8399    127.8010    245.6010   1.2891940335e+02   6.1025999530e+00    0.6713772    0.3741131  44.60  0.003563366    1.515    0.340
        12 -12.5576    139.1782    248.5053   1.2712115807e+02   3.6742168040e+00    0.7144406    0.3367877  49.46  0.003459273    1.849    0.459
        13 -12.6748     99.2228    246.5338   1.3442810682e+02   1.0596288781e+01    0.7089869    0.4060679  62.37  0.003866668    1.651    0.394
        14 -12.5219    107.5822    247.1745   1.3293929492e+02   9.1486029354e+00    0.5282916      0.30458  52.37  0.002933308    1.450    0.310
        15 -12.8132     90.0434    245.9120   1.3606085518e+02   1.2136890222e+01    0.7707726     0.394738  62.27  0.002235419    1.916    0.478
        16 -10.8688     84.0177    238.5082   1.3640631265e+02   1.4467634282e+01    0.2056986    0.1614163  80.40 0.0004085115    1.116    0.104
        17 -14.5768     35.3462    247.2311   1.4577298001e+02   1.9410293627e+01      11.4679     4.137303  29.41   0.03420995    9.606    0.896
        18 -12.7012      4.8576    245.4103   1.5054214416e+02   2.3165009074e+01     1.105275    0.5428375  74.23  0.007175172    1.586    0.369
        19 -12.8988     14.5447    240.3674   1.4872713047e+02   2.3101293465e+01     1.576588    0.4784566  63.99  0.006931614    3.487    0.713
        20 -15.8422      8.0677    204.1104   1.4744864406e+02   3.1073136762e+01      8.89703     1.527592 -71.48   0.02013988    4.116    0.757
        21 -10.8711    173.5435    220.5506   1.1612869151e+02   2.4859639949e+00    0.2755828    0.1996753 -20.76  0.001420554    1.783    0.439
        22 -11.6313     78.9774    232.7857   1.3675474186e+02   1.6350753654e+01    0.3385566    0.2978691  26.53 0.0002861182    1.618    0.382
        23 -10.0471    228.9408    206.1564   1.0265242156e+02  -5.0241091404e+00    0.2512474    0.1840214 -47.61 0.0006002694    1.624    0.384
        24 -10.3444    193.2499    195.3616   1.0751338503e+02   3.3699816611e+00    0.8985563    0.4098744 -61.65   0.00216546    7.822    0.872
        25 -11.7921     66.5990    193.8011   1.3477638459e+02   2.6493043116e+01    0.4165973    0.2563833 -45.27  0.001608799    2.156    0.536
        26 -11.7798     71.9140    186.4801   1.3265631242e+02   2.7407947005e+01    0.3010108     0.232679 -53.68 0.0007110778    1.430    0.301
        27  -8.5822    181.5199    192.4286   1.0936238142e+02   6.2173428112e+00    0.1433939    0.1351512  32.68 9.957737e-05    1.011    0.010
        28 -11.1535     80.9455    174.6650   1.2886715884e+02   2.8817500070e+01      0.25403    0.2241836 -76.39 0.0003922384    1.076    0.071
        29 -13.3182     68.3287    172.1257   1.3144022544e+02   3.1274037890e+01    0.5124469     0.280932 -44.70  0.001735516    2.265    0.558
        30 -12.3661     87.4082    165.8486   1.2588346708e+02   2.9894718025e+01      1.69566    0.6561738  53.30  0.003365057    3.318    0.699
        31 -10.9750    239.6675    247.3029   1.0811351682e+02  -1.2636782101e+01    0.2563252    0.1189012  22.01  0.001187204    2.571    0.611
        32 -10.0558    100.2818    149.9386   1.1971592717e+02   3.1542703611e+01    0.3079447    0.2816069 -63.33 0.0008694966    1.058    0.055
        33  -9.5068    102.9744    146.0219   1.1822547311e+02   3.2001814433e+01    0.3279443    0.1860968 -34.75  0.001274903    2.439    0.590
        34 -12.1921     89.0029    149.1883   1.2245577862e+02   3.3626888996e+01    0.2987641    0.2578266 -38.59 0.0005180392    1.298    0.230
        35 -12.9043     41.6008    226.4654   1.4309963451e+02   2.2732814530e+01    0.4133778    0.3170652 -83.40 0.0008912709    1.207    0.171
        36 -11.0035     34.4359    140.8513   1.3510509119e+02   4.2796985038e+01    0.2412252    0.2161932  77.79  0.001244702    1.183    0.155
        37 -14.9861     48.8110    216.8403   1.4090192000e+02   2.3826162271e+01     2.143046      1.53133  54.04   0.01380595    1.309    0.236
        38  -9.6839    110.8322    135.8379   1.1397307460e+02   3.2973191151e+01     0.343238    0.2217988 -31.38  0.001187426    1.998    0.499
        39 -10.5674     98.3843    132.8637   1.1659983912e+02   3.5938617471e+01    0.2815679    0.2302588 -26.52 0.0004333741    1.443    0.307
        40 -12.2176    151.3148    228.8908   1.2196217339e+02   5.0225695993e+00    0.7185826    0.2793357  34.67  0.002682941    2.960    0.662
        41  -9.5356    107.7761    122.9421   1.1176235475e+02   3.6551529074e+01    0.2104421    0.1912558 -32.87 0.0003226589    1.144    0.126
        42 -10.7502    167.9181    112.9747   9.4265398890e+01   2.5753336166e+01    0.3841524    0.3019246 -83.40   0.00081321    1.569    0.363
        43  -9.5971    204.6607    110.8152   8.6252347585e+01   1.7536778536e+01    0.3807902    0.1966216  38.61  0.001421054    2.496    0.599
        44 -10.9739      1.6796     89.9110   1.3612597698e+02   5.6795151436e+01    0.3743497     0.102345 -65.26  0.001597895    2.772    0.639
        45 -10.6774     30.3565    235.8047   1.4580238864e+02   2.2212358565e+01    0.3244561     0.130757  56.37  0.001287612    2.093    0.522
        46  -8.7884    184.5073     77.4685   8.1438108800e+01   2.8503083233e+01     0.148722    0.1437217  84.01 -6.103325e-06    1.041    0.039
        47  -9.9311    115.5145     46.5334   8.7190213898e+01   4.9695152951e+01    0.2774477    0.2294717  81.86 0.0009851299    1.573    0.364
        48 -10.4194    111.4716     44.1301   8.7423151738e+01   5.0890276343e+01    0.3495933    0.2602213  79.31  0.001610049    1.955    0.489
        49 -11.0600    248.3146    245.2246   1.0623782798e+02  -1.3622658694e+01     0.281994    0.1663479   5.36  0.001570982    1.902    0.474
        50 -11.6010    103.1896    242.8879   1.3327682167e+02   1.0645893752e+01    0.3260816    0.2064171  63.25 0.0009317558    1.460    0.315
        51 -11.1580     75.5100    228.9840   1.3701441036e+02   1.7628195301e+01    0.3273291    0.1896663  68.90 0.0009280661    1.690    0.408
        52 -10.5893    143.2128    241.6477   1.2541987924e+02   4.1699361831e+00    0.1764469    0.1511253  63.86 0.0007006799    1.129    0.114
