#   1 NUMBER                 Running object number                                     
#   2 MAG_AUTO               Kron-like elliptical aperture magnitude                    [mag]
#   3 X_IMAGE                Object position along x                                    [pixel]
#   4 Y_IMAGE                Object position along y                                    [pixel]
#   5 X_WORLD                Barycenter position along world x axis                     [deg]
#   6 Y_WORLD                Barycenter position along world y axis                     [deg]
#   7 A_WORLD                Profile RMS along major axis (world units)                 [deg]
#   8 B_WORLD                Profile RMS along minor axis (world units)                 [deg]
#   9 THETA_WORLD            Position angle (CCW/world-x)                               [deg]
#  10 FWHM_WORLD             FWHM assuming a gaussian core                              [deg]
#  11 ELONGATION             A_IMAGE/B_IMAGE                                           
#  12 ELLIPTICITY            1 - B_IMAGE/A_IMAGE                                       
         1 -13.4121    172.9889     53.4797   5.9269730499e+01   3.4945490883e+01     2.105354       1.3248  28.56  0.006080647    2.155    0.536
         2 -13.4022    187.8507     39.6185   5.2578356403e+01   3.3063822092e+01     1.061044    0.9483131  79.48  0.003336461    1.076    0.071
         3 -12.8694    192.5248     33.6448   5.0154190481e+01   3.2635429312e+01    0.6927176    0.5858443  81.10  0.001440399    1.135    0.119
         4 -12.6436    191.5359     16.4561   4.5358599263e+01   3.4928347667e+01    0.7837194    0.6208926  80.12  0.004156779    1.170    0.145
         5 -12.5347    198.1183     23.1301   4.6433008928e+01   3.2480953377e+01    0.6608967    0.5057583 -73.88  0.002469253    1.305    0.234
         6 -13.8938    211.3132      8.7352   4.1120088477e+01   3.0739099356e+01     1.446379     1.237466   6.41  0.005664856    1.512    0.339
         7  -9.5484     79.6693      3.6629   6.2414158265e+01   6.3335642365e+01    0.1406442   0.08172268  23.30 0.0007052048    1.735    0.424
         8 -19.4949     27.1511    146.6584   1.2073263296e+02   4.1610798065e+01     19.26021      4.84003 -74.50    0.0676896    3.791    0.736
         9 -12.2553    249.2790    231.7170   8.6627082029e+01  -9.6101855303e+00    0.5275999    0.3232259 -15.56  0.003332212    1.599    0.375
        10 -12.6358    247.4089    245.9506   8.9256151953e+01  -1.0871316549e+01    0.7390755      0.50591 -31.93  0.005116062    1.813    0.448
        11  -9.7559    184.4910    212.0503   9.5070791485e+01   3.4273035596e+00    0.1830658    0.1298992 -37.21  0.001038776    1.610    0.379
        12  -9.8758     75.1871    249.5157   1.2029981279e+02   1.4772324680e+01    0.2723958    0.0997384 -60.27  0.001405757    3.174    0.685
        13  -9.5970    189.4176    207.8080   9.3397045979e+01   3.2145356176e+00    0.1733415    0.1215315 -21.41 0.0008412546    1.674    0.403
        14 -10.9647     68.1799    207.2605   1.1793064384e+02   2.3504176815e+01    0.2553752    0.1561265  50.37 0.0005021324    1.403    0.287
        15 -10.1805     72.5408    205.7406   1.1690560645e+02   2.3211330990e+01    0.3165513    0.2067087  28.02  0.001407354    2.022    0.505
        16 -10.6559     56.8063    213.4745   1.2071588667e+02   2.3765002572e+01    0.2346866    0.1563444  61.92 0.0009575672    1.216    0.178
        17 -10.8919    193.2381    195.4785   9.0462174123e+01   4.4822386012e+00    0.8974445    0.4639127 -60.98   0.00296044    5.171    0.807
        18 -11.0652     59.7412    203.4129   1.1924750923e+02   2.5404091220e+01    0.2713357    0.2302389 -28.29  0.001500083    1.941    0.485
        19  -9.0220     87.6641    202.5717   1.1346945271e+02   2.1666816289e+01    0.1667359    0.1530629  -4.54  0.001071137    1.598    0.374
        20 -10.4390    203.1865    199.6151   8.9284204204e+01   2.0242126554e+00    0.4054505    0.1134358  41.14  0.001423309    3.209    0.688
        21 -11.2833    150.7412    196.3216   9.9291566707e+01   1.2219661881e+01    0.3821474    0.2732189 -58.78  0.002044855    1.639    0.390
        22 -11.4165     62.3617    196.1380   1.1800975555e+02   2.6565906694e+01    0.3158731    0.2275331 -44.91  0.001193206    1.983    0.496
        23  -9.1250     82.5246    195.3048   1.1369562559e+02   2.3925102959e+01    0.2728879    0.1804734  68.48  0.001522848    1.452    0.311
        24 -11.0692     96.8337    190.9038   1.1006762643e+02   2.2655253157e+01    0.4599372    0.3564229 -36.45  0.000876195    1.803    0.445
        25 -11.0041     99.7148    187.3651   1.0895379507e+02   2.2938368747e+01    0.2722529    0.2381629  89.25 0.0007759272    1.099    0.090
        26  -8.1178     78.4452    193.4124   1.1434026103e+02   2.4917193896e+01     0.128571    0.1061438  70.95 0.0001532281    1.015    0.014
        27  -9.5079    156.7569    190.1824   9.6981504708e+01   1.2241098026e+01    0.1833333    0.1570806   8.37 0.0003483005    1.337    0.252
        28 -11.4302    150.1207    188.6908   9.8137443458e+01   1.3769362479e+01     0.420406    0.2973145  62.63  0.002130017    1.600    0.375
        29 -10.8448    141.7950    189.0273   9.9986808262e+01   1.5254527405e+01    0.3490596    0.1934081 -63.46  0.001522208    2.381    0.580
        30 -10.0775    238.2053    184.8072   7.9979223079e+01  -1.9286271972e+00     0.192666    0.1506649 -81.06 0.0009498495    2.824    0.646
        31 -11.0998     99.2222    180.8916   1.0814182552e+02   2.4401772995e+01    0.2965685    0.2816161 -36.90 0.0007471067    1.323    0.244
        32 -10.1340    151.8378    181.1671   9.6437860027e+01   1.4896121942e+01    0.3713946    0.2322766 -78.24  0.001480256    2.944    0.660
        33 -11.2066    144.6831    181.3256   9.8032229117e+01   1.6229764680e+01    0.3563149    0.3056208  75.00  0.001186808    1.265    0.209
        34 -11.7544    141.9849    175.6465   9.7612447763e+01   1.7886505773e+01    0.6853983    0.4699859  86.50  0.002981141    2.223    0.550
        35  -9.9504    187.7928    173.3175   8.7286909470e+01   9.3048760078e+00    0.4199627    0.2602837 -60.87  0.001782357    2.502    0.600
        36 -10.6629    240.3186    169.1096   7.6417080711e+01   4.0003397916e-03    0.2361954    0.1654902  25.84 0.0006953919    1.395    0.283
        37  -9.7131    231.0000    168.9844   7.8042127595e+01   1.7079187682e+00    0.2200863   0.07333813 -35.57 0.0004391471    2.929    0.659
        38  -9.9478    189.0889    178.4342   8.8046070531e+01   8.1437873893e+00    0.3693764    0.2764893  65.02  0.001014966    1.766    0.434
        39 -13.0452     50.0490    207.8354   1.2154231942e+02   2.5731400194e+01    0.4332866    0.2008993  60.20  0.002283894    1.960    0.490
        40  -9.3937      2.4469    161.7928   1.2767128198e+02   4.0292620807e+01    0.1648187    0.1189139  62.25 0.0003867495    1.289    0.224
        41 -10.9556     92.1778    158.0436   1.0625319315e+02   3.0656317326e+01    0.2559566     0.244237 -87.92 0.0003644879    1.110    0.099
        42  -8.6788    149.4461    155.9275   9.2065365513e+01   2.0497872473e+01    0.2044243    0.1321924 -74.24 0.0008062285    2.415    0.586
        43 -11.7749     97.8158    151.4016   1.0370528100e+02   3.1265367159e+01    0.5931857     0.455642 -33.12  0.003027518    1.667    0.400
        44  -9.5511    187.8729    152.5311   8.2851999911e+01   1.3113787812e+01    0.3745238    0.2503625  85.25   0.00137311    3.247    0.692
        45 -10.9768    133.8403    145.7170   9.3612473629e+01   2.5876340235e+01      1.26958    0.3206805 -54.72  0.003007886    5.907    0.831
        46  -9.8974    113.4365    151.4463   9.9809821186e+01   2.8512019485e+01    0.3221083    0.2076349  79.87  0.001009252    2.283    0.562
        47  -9.7755    174.4272    148.9154   8.4914084780e+01   1.6678013797e+01    0.2919717    0.2598289  66.02 0.0007580051    1.241    0.194
        48  -9.2042     92.3827    147.2422   1.0433455194e+02   3.3136690126e+01    0.2551444     0.179914 -71.98  0.001275694    1.429    0.300
        49 -10.1584    143.7080    145.6423   9.1213907884e+01   2.3875607248e+01    0.5360623    0.2375108 -62.82  0.001500654    4.525    0.779
        50 -11.3552    108.5477    138.2555   9.8413124465e+01   3.2445842928e+01    0.6327696    0.3674719 -41.79  0.002703037    1.930    0.482
        51 -11.8259     97.1243    137.3634   1.0122737328e+02   3.4671415889e+01    0.3216738    0.2810451 -83.75  0.000292145    1.119    0.106
        52 -10.8186    105.9884    130.7554   9.7494213743e+01   3.4663573584e+01    0.3961236    0.3314097 -74.74   0.00121968    1.220    0.180
        53 -10.0695    135.8024    128.9570   8.9335785599e+01   2.9197250294e+01    0.3551128    0.1779757 -44.28  0.001360703    2.017    0.504
        54 -10.2019    115.5994    128.9037   9.4530048181e+01   3.3292966599e+01    0.3301983    0.2860236 -29.89 0.0006469811    1.293    0.227
        55  -9.5435    161.7315    128.5569   8.2980976620e+01   2.3618248160e+01    0.4493325    0.2682022  66.92  0.001651039    2.516    0.603
        56 -10.5605    103.3200    124.6087   9.6855427370e+01   3.6588701809e+01    0.2993411     0.253832  -5.80 0.0006915539    1.504    0.335
        57 -10.4556    120.6678    122.9803   9.1806060741e+01   3.3658163513e+01    0.4786205    0.3109879 -20.17  0.001850356    2.518    0.603
        58 -10.2949    134.8286    120.6489   8.7552229735e+01   3.1249305538e+01    0.5551736    0.1148992 -47.95  0.001330439    5.020    0.801
        59  -9.4439    151.9002    118.9007   8.2872734197e+01   2.7869079065e+01    0.3581087    0.2144267 -65.59  0.001292386    2.547    0.607
        60  -9.3853    110.6798    118.1483   9.3331231620e+01   3.6724955738e+01    0.2318104    0.2026152  59.24 0.0003177082    1.191    0.160
        61  -9.9547    231.2693    113.6835   6.5444236592e+01   1.0719390706e+01    0.2639824    0.2374919   1.91 0.0007755196    1.141    0.124
        62  -9.7838    167.6469    112.7700   7.7597224050e+01   2.5507698585e+01     0.407201    0.2920128 -71.06  0.001217738    1.917    0.478
        63 -10.0908    134.6499    105.6745   8.3682818177e+01   3.4573460043e+01    0.5532389    0.1476792 -46.37  0.001511539    3.788    0.736
        64 -11.5950    119.2555    109.9508   8.8924431507e+01   3.6901872412e+01    0.5888408    0.4717727  69.09  0.002454682    1.451    0.311
        65  -9.7417    205.4676    110.1393   6.9106965855e+01   1.7109749581e+01    0.3221062    0.2186584  40.27 0.0007999048    1.568    0.362
        66 -11.2261     44.2379    210.8603   1.2289443030e+02   2.5828989947e+01    0.2672926    0.1932388 -72.96  0.001046303    1.420    0.296
        67  -9.3405    184.7951     84.6706   6.6224876153e+01   2.6716568124e+01    0.2819705    0.2318521 -44.38  0.001374529    1.201    0.167
        68  -8.6017    153.6447     81.7283   7.2039089371e+01   3.5015448121e+01     0.162404    0.1224197  20.77 0.0004610374    1.640    0.390
        69 -11.0734     71.9602    245.2185   1.2052513609e+02   1.5932804706e+01    0.2319053    0.1657902 -75.28  0.001651697    1.527    0.345
        70  -8.6697     84.0000    244.8655   1.1838376469e+02   1.4341146347e+01    0.1473717   0.06189688 -66.96 0.0007671287    2.703    0.630
        71  -9.9483    235.7353    250.4380   9.1908683103e+01  -9.7090748569e+00    0.1651451    0.0816543  28.53  0.000951072    1.641    0.391
        72 -10.0007     39.1367    212.6185   1.2398126020e+02   2.6078320110e+01     0.181329    0.1090326  48.32 0.0005850382    1.459    0.315
        73  -9.5260    167.7608    231.1759   1.0124244420e+02   3.3876790372e+00    0.2312651     0.167618  23.42 0.0006159024    1.411    0.291
        74  -9.5010     51.2354    225.8768   1.2273234981e+02   2.2083021954e+01    0.1179805   0.07783886  85.62   0.00029965    1.327    0.246
        75  -9.6309     62.8333    220.9587   1.2020820026e+02   2.1534712620e+01    0.3129376      0.14783  63.83  0.001600734    2.048    0.512
