#   1 NUMBER                 Running object number                                     
#   2 MAG_AUTO               Kron-like elliptical aperture magnitude                    [mag]
#   3 X_IMAGE                Object position along x                                    [pixel]
#   4 Y_IMAGE                Object position along y                                    [pixel]
#   5 X_WORLD                Barycenter position along world x axis                     [deg]
#   6 Y_WORLD                Barycenter position along world y axis                     [deg]
#   7 A_WORLD                Profile RMS along major axis (world units)                 [deg]
#   8 B_WORLD                Profile RMS along minor axis (world units)                 [deg]
#   9 THETA_WORLD            Position angle (CCW/world-x)                               [deg]
#  10 FWHM_WORLD             FWHM assuming a gaussian core                              [deg]
#  11 ELONGATION             A_IMAGE/B_IMAGE                                           
#  12 ELLIPTICITY            1 - B_IMAGE/A_IMAGE                                       
         1  -8.3870     80.3509     12.4870   8.1152120457e+01   6.0609448256e+01    0.2283684     0.188878 -38.48  0.001039839    1.526    0.345
         2  -9.4071    216.5011    248.9922   1.0724491167e+02  -6.6733771032e+00     0.244833    0.1311538  31.42  0.001376944    1.652    0.395
         3  -9.8768    230.5334    249.9835   1.0501728474e+02  -9.0616334417e+00     0.457364    0.1211945  46.79  0.001766661    3.643    0.725
         4  -9.9032    200.7834    246.8945   1.0963540447e+02  -3.7957129977e+00    0.2518026    0.2281143  29.06  0.001860061    1.181    0.153
         5  -9.8512    192.2316    248.3826   1.1132298303e+02  -2.5338088731e+00    0.2557324    0.2095368 -67.63  0.001741605    1.767    0.434
         6 -10.1121    186.4514    248.7196   1.1236752896e+02  -1.5949714813e+00    0.3700877     0.274286 -27.10  0.002444738    1.784    0.439
         7  -7.5568    163.2714    250.6849   1.1661811948e+02   2.0769026321e+00    0.1125513   0.08009841  67.32 0.0001752775    1.557    0.358
         8  -8.0096    133.2454    250.0224   1.2165821516e+02   7.1656000074e+00    0.1559545    0.1290092  63.46 0.0004611155    1.106    0.096
         9  -9.0134      8.2696    249.8450   1.4097961367e+02   2.3893539792e+01    0.2316084   0.07079302  36.11  0.001129533    4.840    0.793
        10 -11.2829    243.4295    240.9832   1.0143843291e+02  -1.0125700417e+01    0.3610897    0.2772291  29.59   0.00059306    1.089    0.081
        11  -7.3680    214.3126    243.2958   1.0676764265e+02  -5.6348142251e+00    0.1204537   0.07807805  21.15 0.0002751636    1.598    0.374
        12  -9.2649    179.6801    242.9916   1.1275793249e+02   3.2929403332e-01    0.2279559    0.1380066  36.06 0.0004453255    1.465    0.318
        13  -9.1303    176.5590    242.1946   1.1319593924e+02   9.7915676806e-01    0.2223383    0.1375082  39.67 0.0005707862    1.338    0.253
        14  -9.5957    145.8622    237.5695   1.1800488868e+02   6.9584421338e+00    0.3038634    0.2064371  75.56  0.001199076    1.770    0.435
        15  -9.4519     92.7813    238.2102   1.2726367642e+02   1.5379636240e+01    0.2341878    0.1951555 -80.84  0.001742561    1.328    0.247
        16  -9.6137      8.2169    236.3242   1.4033753918e+02   2.6137041618e+01    0.1957262    0.1519087 -83.42 0.0007924211    1.447    0.309
        17  -9.6283    188.5266    234.1972   1.0993389244e+02  -5.9454777302e-03    0.2512385     0.211566  88.67  0.001266426    1.625    0.384
        18  -7.8172    222.8930    234.2914   1.0387799218e+02  -5.9851130243e+00    0.1702328    0.1238051  31.63 0.0003574601    1.102    0.093
        19  -9.5817    170.3483    245.1576   1.1468229068e+02   1.6389373476e+00    0.3107142    0.2131194 -71.31  0.001841968    2.208    0.547
        20  -8.8716     99.5865    228.2247   1.2509064213e+02   1.6066548626e+01    0.1869628    0.1603374 -54.52 0.0003593833    1.584    0.369
        21  -9.5449    107.4237    230.4376   1.2395317443e+02   1.4465631841e+01    0.4003994     0.236159 -53.53  0.002353292    2.090    0.522
        22 -10.7420    103.9303    227.6281   1.2426234159e+02   1.5498222520e+01    0.8758187    0.2937509 -52.28  0.003815828    3.727    0.732
        23 -10.4915    108.2608    223.2178   1.2299800672e+02   1.5587963361e+01    0.3965985    0.2975969  76.33  0.002594298    1.220    0.180
        24  -8.3332    114.4114    234.4132   1.2316603533e+02   1.2684767590e+01    0.2349612    0.1124748 -59.91   0.00125586    2.400    0.583
        25  -8.5603     89.3143    230.8405   1.2713816246e+02   1.7154565676e+01    0.2095152    0.1255975  57.40 0.0008746221    1.346    0.257
        26  -9.3146    139.9071    229.4063   1.1803366259e+02   9.2739998703e+00    0.3662716    0.1838076  47.85  0.001913684    1.625    0.385
        27  -8.8778    135.8047    227.5721   1.1854203232e+02   1.0278698255e+01     0.288756    0.2438586  14.22   0.00184912    1.699    0.412
        28  -8.7386    146.8410    228.3472   1.1663846554e+02   8.2439492764e+00     0.197571    0.1777015 -45.87 0.0004748561    1.411    0.291
        29  -7.5117     81.9531    222.7599   1.2761728873e+02   1.9658969514e+01    0.1501985    0.0836144  46.77 0.0008781436    1.599    0.375
        30  -9.4932    120.2567    217.9052   1.2016934008e+02   1.4568992036e+01    0.4104129    0.1724278 -60.13   0.00190907    2.746    0.636
        31  -8.7501    156.0895    218.4978   1.1356312414e+02   8.2018406589e+00    0.2082124    0.1835121  59.16 -0.0002731936    1.076    0.070
        32  -8.8783     99.6976    218.4983   1.2401010207e+02   1.7779485361e+01    0.3071758    0.1957094  51.11  0.001220518    1.337    0.252
        33  -8.9438     87.2770    214.4541   1.2581691656e+02   2.0404985245e+01    0.1884373    0.1454804 -68.53   0.00126165    1.395    0.283
        34 -10.8840    107.8559    209.5029   1.2143737010e+02   1.8137982906e+01    0.4653012    0.3811872 -85.61  0.003061996    1.199    0.166
        35  -9.7760    124.0618    208.1858   1.1818457771e+02   1.5674910061e+01    0.4031146    0.2479629 -60.56   0.00221499    1.793    0.442
        36  -7.3677    229.3776    208.8338   9.8407846412e+01  -3.8272805024e+00     0.169463    0.1148693 -16.73  0.000943444    1.661    0.398
        37  -8.6254    129.0247    202.4657   1.1642676646e+02   1.5865409521e+01    0.2534597    0.1717414 -58.61  0.001418405    1.622    0.383
        38  -6.8645    202.4984    213.4136   1.0409717273e+02   4.2822275931e-01    0.1310254     0.109003  36.84 0.0001033886    1.023    0.023
        39  -7.1160    165.5053    200.5886   1.0898476271e+02   9.4702576465e+00     0.135614    0.1164757  43.52 0.0001327063    1.061    0.057
        40  -7.5535     79.3433    201.3217   1.2584617614e+02   2.4059623041e+01    0.1061713   0.09666973 -29.46 0.0004232214    1.728    0.421
        41  -9.0527     98.8178    196.4507   1.2152329069e+02   2.2080624014e+01    0.2863912    0.1545262 -45.52  0.001380512    2.566    0.610
        42  -7.8002    248.2247    163.1879   8.6109811923e+01  -7.6254249710e-01     0.172353     0.162026 -53.65 0.0006873633    1.328    0.247
        43  -7.9467    104.8492    160.8268   1.1501226528e+02   2.8424377535e+01    0.1835014     0.175936  73.95 0.0003765128    1.138    0.122
        44  -7.9629    249.5823    158.7583   8.4937841633e+01  -3.5449202230e-01    0.1881683    0.1224778 -41.60 0.0009473242    1.642    0.391
        45  -8.8714    248.7996    153.0675   8.3852344714e+01   6.6793090678e-01    0.3504299    0.2205418  51.31  0.001159064    1.724    0.420
        46  -9.8667    217.0890    151.4802   8.9238193749e+01   7.4519944043e+00    0.2670057    0.2468142  48.40 0.0003748173    1.125    0.111
        47  -8.4155    249.4343    134.4081   7.9632464313e+01   3.4655133136e+00     0.247324    0.1712639   9.36  0.001179413    1.845    0.458
        48  -8.3720    236.1584    133.5943   8.1720675932e+01   6.3799195032e+00    0.2246051    0.2033808  51.85 0.0004124778    1.177    0.150
        49  -7.2771      7.7221    116.6415   1.3108299659e+02   4.9452064424e+01    0.1137557   0.06318522 -51.85 0.0003590274    1.661    0.398
        50  -8.4301    248.1931    104.7921   7.3018708649e+01   8.4832256529e+00    0.2384879    0.1470144 -70.01 0.0009007262    2.774    0.640
        51  -7.6812      1.5529     89.5054   1.2903363814e+02   5.5429872531e+01    0.1103808   0.08053336 -63.24 0.0002495207    1.027    0.026
        52  -9.3900    232.5269     78.0900   6.9006303736e+01   1.6351378596e+01    0.3058576    0.2641635  24.43 0.0003685221    1.336    0.251
        53  -7.5091    184.5567     78.0030   7.7388056741e+01   2.8205317871e+01    0.2192634    0.1510136 -35.47 0.0003699743    1.484    0.326
        54  -8.4548     94.8348     52.5403   9.1463776913e+01   5.2426752456e+01    0.2464457    0.1815062 -42.11 0.0006876847    1.382    0.276
        55  -8.5533    130.8210     48.2878   8.0297392509e+01   4.5909294956e+01    0.2574681    0.2146035   5.76 0.0004462213    1.257    0.204
        56  -7.3502     96.5307     45.4933   8.8589190197e+01   5.3269589529e+01     0.134999    0.1196944  -2.40 9.680496e-05    1.014    0.014
        57  -7.7018     92.3259     36.7163   8.6753304453e+01   5.5357544349e+01    0.1180969    0.1067306 -78.04 0.0001810202    1.601    0.376
        58  -8.7635    226.3298     29.6505   5.7791595483e+01   2.4804741503e+01    0.3425956    0.2253417 -34.94  0.001299498    1.555    0.357
        59  -8.4873     77.4632     29.9751   8.8881567618e+01   5.8838685315e+01    0.1912045    0.1126324 -33.60  0.001028717    1.602    0.376
        60  -7.4726    199.2908     22.9990   5.9595800119e+01   3.2410028370e+01    0.1873792    0.1761865  85.91 0.0004137204    1.043    0.042
        61  -8.0664     79.8586     22.8973   8.5425747070e+01   5.9416436619e+01    0.1971743    0.1492465   6.78 0.0005785423    1.221    0.181
        62  -9.0416     84.7327     21.2842   8.3290235284e+01   5.8796944875e+01    0.2449288    0.2046933 -15.08 0.0005170682    1.148    0.129
        63  -9.2772     75.2286     17.9872   8.4972760720e+01   6.0803128138e+01    0.2544854    0.1983666 -19.44 0.0007269876    1.198    0.165
