#   1 NUMBER                 Running object number                                     
#   2 MAG_AUTO               Kron-like elliptical aperture magnitude                    [mag]
#   3 X_IMAGE                Object position along x                                    [pixel]
#   4 Y_IMAGE                Object position along y                                    [pixel]
#   5 X_WORLD                Barycenter position along world x axis                     [deg]
#   6 Y_WORLD                Barycenter position along world y axis                     [deg]
#   7 A_WORLD                Profile RMS along major axis (world units)                 [deg]
#   8 B_WORLD                Profile RMS along minor axis (world units)                 [deg]
#   9 THETA_WORLD            Position angle (CCW/world-x)                               [deg]
#  10 FWHM_WORLD             FWHM assuming a gaussian core                              [deg]
#  11 ELONGATION             A_IMAGE/B_IMAGE                                           
#  12 ELLIPTICITY            1 - B_IMAGE/A_IMAGE                                       
         1 -15.0385      8.3749    139.9355   1.4258039058e+02   4.4987255787e+01     11.60175     5.051184  87.18   0.05172111    2.932    0.659
         2 -13.3108    198.0467     28.2741   6.8087487218e+01   3.2485153241e+01     1.485357     1.320193  27.86   0.00717891    1.406    0.289
         3 -13.2963    213.4887      9.1142   6.1674291959e+01   3.0979750585e+01    0.9371164    0.8099931  61.14  0.005233419    1.279    0.218
         4 -11.6873      5.1162      3.3200   1.1175535502e+02   7.1589018605e+01      0.45984    0.2244848  18.30  0.003041591    2.054    0.513
         5 -12.5599      3.3497     18.6266   1.1876629369e+02   6.9557135748e+01    0.6113393    0.3342348 -51.45  0.003958564    1.911    0.477
         6 -10.3008    189.7852    245.3997   1.1852610203e+02  -4.1149493860e+00    0.1831354    0.1017575  33.67 0.0006363409    1.621    0.383
         7 -11.4105    139.6879    248.9588   1.2844062461e+02   3.8571355124e+00    0.3739934    0.2890563 -60.55  0.002386475    1.529    0.346
         8 -11.7205    146.6387    248.7901   1.2711922849e+02   2.7101747767e+00    0.4562639    0.2303101  42.85   0.00234039    1.649    0.393
         9 -12.1643    124.6526    249.0117   1.3124170786e+02   6.3552300877e+00    0.6698015    0.3062301  35.76  0.003098151    2.369    0.578
        10 -11.7229     99.5548    247.5909   1.3567971983e+02   1.0635204668e+01    0.3975425    0.3395148  22.94  0.002322623    1.698    0.411
        11  -9.2751     66.8008    250.3924   1.4171230128e+02   1.4946329659e+01    0.1467206   0.09839349  41.84 0.0003866632    1.596    0.374
        12 -10.7358     45.9301    248.7026   1.4507629250e+02   1.8019098901e+01    0.3539442    0.1752852  73.11  0.001746154    1.866    0.464
        13 -11.5445     29.1916    248.5366   1.4776817954e+02   2.0079782642e+01    0.4934647    0.2867532 -74.97  0.003251147    1.605    0.377
        14 -12.4259     35.5146    244.2788   1.4646898355e+02   2.0123879746e+01    0.7053381    0.4252318  89.26  0.004764018    1.372    0.271
        15 -11.9877     12.0997    233.0732   1.4953893666e+02   2.4871144846e+01    0.3914001    0.3044908 -43.96  0.002797701    2.356    0.576
        16 -11.9387     19.4977    243.6443   1.4899673563e+02   2.2082767475e+01    0.5332466    0.2742136  75.05  0.002779111    1.563    0.360
        17 -11.1467     21.7153    237.7576   1.4827896918e+02   2.2945611225e+01    0.2906592    0.1878945 -61.74  0.001992366    1.905    0.475
        18 -12.5517      4.6453    248.2078   1.5152510936e+02   2.2818834211e+01     1.044645    0.5905429  58.37  0.007671713    1.383    0.277
        19 -12.3110     11.6526    241.3460   1.5009062447e+02   2.3354634676e+01    0.5488873    0.3294912  70.29  0.003966196    1.218    0.179
        20 -11.9965     22.7299    127.0283   1.3737233567e+02   4.6777528802e+01    0.8003423    0.2625518  49.16  0.003054846    4.477    0.777
        21 -11.7460    241.3164    248.1505   1.0958985891e+02  -1.2690573248e+01    0.3638711    0.2763076  26.17  0.002488857    1.137    0.120
        22 -13.8221     36.7666    226.3592   1.4494269575e+02   2.3439317192e+01    0.7480558    0.5440786  72.39  0.002411958    1.066    0.062
        23 -10.8451     51.2486    244.5651   1.4387727818e+02   1.8109870130e+01    0.2600719    0.2064902 -47.06  0.001770825    2.086    0.521
        24 -11.3951    133.0566    232.0104   1.2747126656e+02   7.9582433153e+00    0.4811361    0.1580013  38.07  0.001764637    3.165    0.684
        25  -9.9904     55.0544    230.1175   1.4201682761e+02   2.0400559798e+01    0.1886384    0.1407786  72.02 0.0008838024    1.041    0.039
        26 -10.6543      4.2052    229.4328   1.5058921193e+02   2.6367595459e+01    0.1897152    0.1384737 -73.99  0.001023516    1.474    0.322
        27 -11.2232    198.2894    246.9818   1.1718581127e+02  -5.7681469335e+00    0.2589058    0.1659974  34.10  0.001501251    1.324    0.244
        28 -10.5536      9.4396    226.4887   1.4957267130e+02   2.6415384743e+01    0.1967563   0.09339149  40.84  0.001211689    2.168    0.539
        29  -9.5283    173.5537    222.7295   1.1805855894e+02   2.3757689673e+00    0.2833439    0.1942583  62.01  0.001457955    1.741    0.426
        30  -8.3835    152.5084    213.0528   1.2073186155e+02   8.0165857927e+00    0.1784803    0.1374722 -53.70 0.0003114216    1.434    0.302
        31 -12.3137      9.9212    207.0090   1.4822591367e+02   3.0266801580e+01    0.5994321    0.4089123  35.62  0.002934775    1.876    0.467
        32 -11.3557     11.9274    195.2944   1.4700776632e+02   3.2516392710e+01    0.2267577    0.1655914  75.02 0.0003265199    1.135    0.119
        33 -11.7787     65.5272    190.6908   1.3585633157e+02   2.7326702961e+01    0.2699971    0.2310481 -71.72 0.0005220114    1.211    0.174
        34  -9.3032    191.8141    193.0316   1.0904961707e+02   4.2641359459e+00    0.3831128    0.1781948 -62.31 0.0009539623    7.151    0.860
        35 -11.5558     59.0193    199.2458   1.3820618003e+02   2.6315081724e+01    0.3051354    0.2206201 -75.96  0.000522854    1.233    0.189
        36 -10.6176     76.1082    177.7068   1.3181044613e+02   2.8772749364e+01    0.2431035     0.205893 -78.16 0.0003702789    1.077    0.071
        37 -13.0150     62.6880    175.6854   1.3454649398e+02   3.1121329485e+01     0.512946    0.2785889 -47.26  0.001637218    2.224    0.550
        38  -9.5162     96.4796    173.5871   1.2650534620e+02   2.6542277516e+01    0.2373218    0.2041102  86.23 0.0004030661    1.076    0.071
        39 -11.6226     83.5596    168.8510   1.2875247664e+02   2.9708768201e+01    0.5863242    0.5523678  13.64  0.003555596    1.367    0.269
        40  -9.2155     94.1153    168.0588   1.2613580492e+02   2.8215930566e+01    0.2789947    0.1931097  53.77 0.0006323509    1.448    0.309
        41 -12.7646     46.9063    215.2405   1.4217382349e+02   2.4466004185e+01    0.8993385    0.8653822  85.31  0.005472276    1.461    0.316
        42  -9.9766     96.7268    152.7245   1.2275633263e+02   3.1386639084e+01    0.3408214    0.2860835 -41.53  0.000950273    1.323    0.244
        43  -9.0748     99.8744    148.3515   1.2112322961e+02   3.1884446410e+01    0.1904374    0.1837709  59.24 0.0004515822    1.119    0.106
        44 -11.8380     85.2038    151.6891   1.2543625034e+02   3.3499391370e+01    0.3029875     0.242754 -48.15 0.0004492184    1.301    0.231
        45 -12.0220     67.4743    143.6466   1.2848465204e+02   3.7997453044e+01    0.6620043    0.4343948  68.70   0.00244229    1.842    0.457
        46  -9.7192    108.9808    137.3884   1.1652408056e+02   3.2846083785e+01    0.4453127    0.2918117 -20.51  0.001688292    2.613    0.617
        47 -10.3172     95.9772    134.7281   1.1933512295e+02   3.5763349169e+01    0.2496966    0.2175805 -36.64 0.0004004875    1.244    0.196
        48  -8.8763     76.9885    129.8281   1.2337568802e+02   3.9920628078e+01    0.2347205    0.1509521  67.50  0.001066213    2.101    0.524
        49  -9.8642     83.8156    126.3138   1.2079079552e+02   3.9713431924e+01    0.3083739    0.2147009  68.70  0.001472388    1.849    0.459
        50  -8.6196    106.2740    124.0104   1.1420449905e+02   3.6448100295e+01    0.1962059    0.1764397 -58.62 0.0002965374    1.055    0.052
        51  -9.8857    168.0505    113.2697   9.6181183186e+01   2.5668032431e+01     0.292628    0.2511578 -78.28 0.0006885112    1.295    0.228
        52 -10.1246     42.4430     97.0864   1.2640668705e+02   5.1703779582e+01    0.4652115    0.2235154  51.29  0.002002622    3.277    0.695
        53 -11.0893    243.2015     93.3985   7.7485471816e+01   1.1984121068e+01    0.4501142    0.2610588  78.66  0.001905785    2.479    0.597
        54  -9.4263    158.4783     76.9255   8.8395654201e+01   3.4983636619e+01    0.2275966    0.1490615 -38.88 0.0006042316    1.547    0.354
        55 -12.7295     31.7338    233.0973   1.4631024504e+02   2.2704948854e+01      0.28627    0.2287746 -77.52 0.0007459541    1.389    0.280
        56  -9.3591     47.7184     70.0739   1.1795795150e+02   5.6776123438e+01    0.2439908    0.1663509  47.57  0.001032399    1.990    0.497
        57  -8.4389     31.6877     62.3183   1.2138418952e+02   5.9895875413e+01    0.1071808   0.09300482 -87.37 0.0006995096    1.645    0.392
        58 -11.4496      3.2752     42.2791   1.2646630203e+02   6.5660589666e+01    0.2784459    0.2058914   2.38  0.002101838    1.491    0.329
        59 -10.5768    156.7074    249.5848   1.2534020800e+02   8.7077142056e-01    0.2512639    0.1041132  39.35 0.0008876474    2.111    0.526
        60 -10.2876     81.8785    249.1613   1.3899172287e+02   1.3022905071e+01    0.1960603    0.1309235  68.05  0.001245519    1.252    0.201
        61 -11.7306    173.5036    249.1174   1.2212926381e+02  -1.9140033556e+00    0.5592765    0.1802387  46.33  0.002246222    2.743    0.635
