#   1 NUMBER                 Running object number                                     
#   2 MAG_AUTO               Kron-like elliptical aperture magnitude                    [mag]
#   3 X_IMAGE                Object position along x                                    [pixel]
#   4 Y_IMAGE                Object position along y                                    [pixel]
#   5 X_WORLD                Barycenter position along world x axis                     [deg]
#   6 Y_WORLD                Barycenter position along world y axis                     [deg]
#   7 A_WORLD                Profile RMS along major axis (world units)                 [deg]
#   8 B_WORLD                Profile RMS along minor axis (world units)                 [deg]
#   9 THETA_WORLD            Position angle (CCW/world-x)                               [deg]
#  10 FWHM_WORLD             FWHM assuming a gaussian core                              [deg]
#  11 ELONGATION             A_IMAGE/B_IMAGE                                           
#  12 ELLIPTICITY            1 - B_IMAGE/A_IMAGE                                       
         1 -13.4046    166.4806     56.7127   6.6357656508e+01   3.5783488721e+01     2.591689     1.532736  22.03  0.007590292    2.632    0.620
         2 -13.8283    200.9808     10.0565   4.6522133455e+01   3.2500742529e+01     1.176488     1.036337 -11.23  0.003713411    1.201    0.168
         3 -11.3377    189.6122     14.7877   4.9154685124e+01   3.5019822635e+01    0.3886052    0.3192441  89.16  0.001101734    1.229    0.186
         4 -12.6060    229.9315      3.7036   4.2421655502e+01   2.5911471787e+01     1.253772    0.4326769  78.16  0.004869616    3.127    0.680
         5  -9.8488     59.0831    204.1533   1.2060311320e+02   2.7108019504e+01    0.1560574    0.1120019  49.63 0.0003766857    1.069    0.065
         6 -13.5231    247.0537    244.4197   9.1323996390e+01  -3.2411469066e+00     1.410396    0.6376272 -21.67  0.009648585    2.421    0.587
         7 -18.0615     47.7104    238.6933   1.2467077910e+02   2.2799356854e+01     6.112923     4.811991  52.05   0.04378874    1.188    0.158
         8 -19.0986     35.0870    104.9146   1.1772502450e+02   5.0673891882e+01     16.57652    0.8470058 -71.67   0.02699477   16.399    0.939
         9 -11.8109    151.3406    195.9984   1.0094936212e+02   1.5446872988e+01     0.464506    0.2944468  32.54  0.002772493    1.334    0.250
        10 -10.4382     82.1156    195.1539   1.1510586875e+02   2.5817155076e+01    0.3203309    0.2525107  27.45  0.002084756    1.424    0.298
        11 -11.6736     66.0374    194.8333   1.1848330149e+02   2.7924156966e+01    0.5125849    0.2255775  64.54  0.002512261    2.564    0.610
        12 -12.0032     70.5074    194.5217   1.1751109330e+02   2.7425944814e+01    0.3628447    0.3309231 -51.64  0.001788056    1.498    0.332
        13 -12.2122    143.2120    173.1685   9.9261379659e+01   2.0327058335e+01    0.4893602    0.4152689 -49.71  0.002914053    1.405    0.288
        14  -8.9301    164.4655    187.2477   9.7110121765e+01   1.4602049691e+01    0.1392247    0.1227629 -64.14 0.0007655507    1.559    0.359
        15 -12.5630    146.2744    183.2855   1.0015555022e+02   1.8185576277e+01    0.5354167    0.3991278  81.22   0.00301753    2.056    0.514
        16 -11.1089    153.4568    184.2778   9.8843480736e+01   1.6850535245e+01    0.2533092    0.2049278 -81.06  0.001207115    1.823    0.452
        17 -11.4629    140.9691    189.2270   1.0208854196e+02   1.8115782235e+01    0.2504116    0.2282944  17.13  0.001698619    1.191    0.160
        18 -10.1002    189.1277    178.3992   9.0986708475e+01   1.1740326088e+01    0.3206183    0.2600404  67.48  0.001315401    1.882    0.469
        19 -10.2262    188.1794    173.9722   9.0405642841e+01   1.2498158827e+01    0.2628323     0.218361 -65.15  0.001260785    1.903    0.474
        20 -10.3414      1.6218    177.1240   1.3130975184e+02   3.7741494335e+01    0.1267194     0.094418  72.12 0.0001272029    1.096    0.088
        21  -9.2139    195.5376    172.9163   8.8860146093e+01   1.1392066594e+01    0.1768572    0.1193302 -27.71  0.001036031    1.614    0.380
        22  -9.6444     67.3929    171.9570   1.1619758906e+02   3.2074848619e+01    0.2915878    0.1186925  47.49   0.00106491    2.028    0.507
        23  -9.3374    240.3256    169.3143   8.0625320440e+01   4.5477471737e+00    0.1254235   0.07420724  12.48 0.0003052321    1.666    0.400
        24 -11.4616     15.8352    206.3775   1.2929922712e+02   3.1196903077e+01    0.1685653    0.1207705  40.65 0.0009596383    1.312    0.238
        25  -9.4191    186.6335    165.4131   8.9180325864e+01   1.3956876245e+01    0.2792242    0.1189694 -42.10  0.001241281    2.766    0.638
        26  -9.3168     17.0926    167.5402   1.2755849385e+02   3.8358892512e+01    0.1461511   0.09456617  38.84 0.0003923005    1.424    0.298
        27 -11.1605     97.0826    156.8863   1.0732596865e+02   3.0901593009e+01    0.2599958    0.2387114  57.88 0.0004069589    1.077    0.072
        28 -12.2508    101.5691    150.6643   1.0531439821e+02   3.1448947266e+01    0.6116555    0.4743817 -39.09  0.001690952    1.615    0.381
        29 -11.0627    133.8583    145.5917   9.6669923737e+01   2.6858143304e+01     1.010859     0.289395 -55.06  0.002929541    5.477    0.817
        30 -10.1649    113.5255    151.5930   1.0254023929e+02   2.9291023253e+01    0.3705357    0.2126638  74.59  0.001457516    3.226    0.690
        31 -10.2165    174.7247    149.1122   8.8438728579e+01   1.8569899819e+01    0.2392347    0.1742671  49.43 0.0007936718    1.392    0.282
        32 -10.1803    143.7518    147.2963   9.4716451748e+01   2.4713590532e+01    0.3514751    0.2080882 -56.14  0.001658718    2.102    0.524
        33  -9.5724    159.0987    146.2267   9.1130816701e+01   2.2008064331e+01    0.2394436    0.1820981 -80.98 0.0009919907    2.073    0.518
        34 -11.4930     11.6606    205.1781   1.3006539459e+02   3.1776879237e+01    0.2608582    0.2191892  72.66  0.002233934    1.274    0.215
        35 -11.3235    111.6180    137.3438   1.0058131023e+02   3.2487583394e+01    0.5023485    0.4068173  -5.77  0.002687439    1.704    0.413
        36 -11.7665    100.3867    136.4199   1.0331299456e+02   3.4600300975e+01    0.2665479    0.2284346  40.25 0.0004554055    1.146    0.127
        37 -11.1271    105.9839    130.8347   1.0084879436e+02   3.4832700691e+01    0.3615489    0.3097368 -83.31   0.00114754    1.236    0.191
        38  -9.3015    190.3344    206.3184   9.5144011838e+01   8.0352910414e+00    0.1205506   0.07440746  15.42 0.0007048663    1.697    0.411
        39 -10.1380    160.7603    128.2343   8.7037832167e+01   2.4801761098e+01    0.3024066    0.2098686 -46.03  0.001509254    1.589    0.370
        40 -10.0037    117.3063    128.4327   9.7440445766e+01   3.3304301005e+01    0.2719197    0.2320742 -12.01 0.0007595412    1.476    0.322
        41 -10.4257    105.3898    124.1636   9.9736038280e+01   3.6363675122e+01    0.2633075    0.2383728 -25.38  0.001059241    1.312    0.238
        42  -9.5255    112.0140    118.0326   9.6696239226e+01   3.6474779030e+01    0.2150193    0.2014048  50.16 0.0003289377    1.037    0.036
        43  -9.8458    231.2294    113.7774   7.0662455404e+01   1.2726823555e+01    0.2292013    0.1949721  16.18 0.0007464504    1.093    0.085
        44 -10.1869    168.1576    112.9139   8.1895114256e+01   2.5928476765e+01    0.3171261    0.2637596 -80.75  0.001138915    1.613    0.380
        45 -10.1851    134.5858    105.8241   8.7952242569e+01   3.4498083738e+01     0.442094    0.1422402 -47.38  0.001402288    3.339    0.701
        46  -9.7600    205.6065    110.1483   7.3988581125e+01   1.8353511091e+01    0.2654635    0.1905675  37.75 0.0007275204    1.358    0.264
        47 -10.7073    117.2818    109.3887   9.3346710617e+01   3.7306474009e+01    0.3943568    0.2202553  55.39  0.001635238    1.995    0.499
        48  99.0000     22.1138    213.8161   1.2835046494e+02   2.9345241482e+01    0.1711583    0.1289828 -31.98  0.001219652    2.524    0.604
        49  -9.5405     78.5113    104.9951   1.0371267773e+02   4.5185944873e+01    0.2094626    0.1340206 -61.10 0.0005312849    1.531    0.347
        50  -9.0625    127.3751     95.1549   8.7073900115e+01   3.8199363299e+01    0.2138181    0.1411061 -55.86 0.0007078151    1.686    0.407
        51 -10.1155     15.7050    213.5563   1.2954560571e+02   2.9981899817e+01   0.08788127   0.07172799 -50.71 0.0006902816    1.945    0.486
        52 -12.5313     73.3294    209.9063   1.1814042370e+02   2.4412795446e+01    0.4408192    0.3407028 -19.45  0.001402535    2.311    0.567
        53  -9.4611    150.9253     81.8529   7.7452540252e+01   3.5416126339e+01    0.2402057    0.2063567  19.01 0.0005796823    1.269    0.212
        54 -11.1211    192.9882    195.1645   9.2999422852e+01   8.9692143467e+00    0.7013956    0.4115545 -60.55  0.002920582    5.249    0.809
        55 -12.9688    180.2041     41.6384   5.9092620222e+01   3.4360266437e+01     0.843206    0.7753386 -89.75  0.002548056    1.129    0.114
        56 -12.5901    185.2482     34.4846   5.6039943067e+01   3.3949045205e+01     0.657479    0.4989474  41.99  0.001651004    1.404    0.288
        57  -9.5594     13.5400     59.9511   1.1965124011e+02   6.3303611745e+01    0.1998005    0.1569518  58.35 0.0004443775    1.366    0.268
        58  -9.4936    167.5238    228.6105   1.0212367158e+02   8.7506321198e+00    0.1593358    0.1112041 -40.48 0.0007117432    1.923    0.480
        59 -10.7885      8.2528    223.7571   1.3117241714e+02   2.8964513207e+01   0.08767919   0.08389008  63.06 0.0008110453    1.552    0.355
