#   1 NUMBER                 Running object number                                     
#   2 MAG_AUTO               Kron-like elliptical aperture magnitude                    [mag]
#   3 X_IMAGE                Object position along x                                    [pixel]
#   4 Y_IMAGE                Object position along y                                    [pixel]
#   5 X_WORLD                Barycenter position along world x axis                     [deg]
#   6 Y_WORLD                Barycenter position along world y axis                     [deg]
#   7 A_WORLD                Profile RMS along major axis (world units)                 [deg]
#   8 B_WORLD                Profile RMS along minor axis (world units)                 [deg]
#   9 THETA_WORLD            Position angle (CCW/world-x)                               [deg]
#  10 FWHM_WORLD             FWHM assuming a gaussian core                              [deg]
#  11 ELONGATION             A_IMAGE/B_IMAGE                                           
#  12 ELLIPTICITY            1 - B_IMAGE/A_IMAGE                                       
         1 -14.5023    191.5656     68.1765   3.5896889894e+01   2.8522626721e+01     3.799538     1.004436 -34.20   0.01296235    3.231    0.690
         2 -13.2126    186.3093     35.6866   2.7733965693e+01   3.3967734292e+01    0.8278966    0.6450663 -69.50  0.002040698    1.291    0.225
         3 -13.5207    173.0200     43.4011   3.1662538331e+01   3.6135181047e+01     1.717668      1.02481 -11.80  0.007603485    2.221    0.550
         4 -13.4105    153.8437     60.6357   4.0059274885e+01   3.8280562733e+01     1.302393     1.109285 -14.34  0.006966235    1.286    0.222
         5 -13.6164    116.5891     62.5207   4.9309620059e+01   4.6946896275e+01      1.46359     1.311522  12.25  0.006254952    1.231    0.188
         6 -13.1583    197.4250     40.6470   2.7837860350e+01   3.0852295031e+01     1.656982    0.4533213 -28.47  0.005829754    3.338    0.700
         7 -14.3149    209.7605     60.6283   3.1573543482e+01   2.5721939733e+01     2.737729     1.197586  71.39   0.01147569    3.112    0.679
         8 -12.4447    129.1995     47.4049   4.0858712357e+01   4.6423347685e+01      2.27101     1.715927 -64.74   0.01100096    1.520    0.342
         9 -12.7302     27.0154     35.3904   7.8227498139e+01   6.9605939465e+01     1.142102    0.3545003 -47.50 0.0007034468    2.885    0.653
        10 -11.2513     71.8140      6.6012   3.8623320952e+01   6.6413863763e+01    0.9755301    0.6837214 -69.31  0.004701109    2.010    0.502
        11 -13.2367     63.0466     13.4422   4.6061365783e+01   6.7586377698e+01     1.111907    0.8836548  25.87  0.001981806    1.259    0.206
        12  99.0000     45.3225     20.0578   5.9004862063e+01   7.0119320719e+01     1.814902     1.224734  35.87  0.009367886    1.434    0.303
        13 -13.6696      7.5938     67.4384   9.7812972920e+01   6.3063303871e+01     1.750946    0.6830713 -33.14  0.006792542    2.973    0.664
        14 -14.3475      4.2790     54.7620   9.7852905449e+01   6.6460675498e+01     3.319352     1.890195  60.03   0.01605426    2.058    0.514
        15 -11.3655     78.0661     17.1922   4.2272778512e+01   6.3595056069e+01    0.2992529    0.2449317  82.50  0.000776276    1.434    0.303
        16 -14.3730     12.1495     36.3034   8.8852991167e+01   7.0672275718e+01     1.708781     1.332676 -43.97  0.005112544    1.146    0.128
        17 -13.0598     58.7333     62.2921   7.0373424839e+01   5.9009171073e+01     1.711531    0.7606952 -66.27   0.00541339    3.737    0.732
        18 -12.2530     77.7522     23.0568   4.5399298327e+01   6.2841450315e+01     1.016055    0.6712903  57.79  0.004043748    1.503    0.335
        19 -13.6889     79.1466     59.0901   6.0502359933e+01   5.5970967929e+01     2.041514     1.299044 -52.66  0.009053621    1.691    0.409
        20 -13.6482     63.2869     33.5917   5.6655505160e+01   6.4247883077e+01      2.51904     1.657215  -9.97   0.01086275    2.231    0.552
        21 -12.8377     54.1049     31.6756   6.0258820974e+01   6.6376980414e+01     1.111854    0.6274295  43.64  0.005031301    1.772    0.436
        22 -12.9608     82.0400     40.1803   5.1818912949e+01   5.9052806298e+01    0.8579069    0.6622701 -70.37  0.004123106    1.707    0.414
        23  99.0000    147.3516     39.6926   3.4554628491e+01   4.2958608349e+01     1.292478    0.8020633  89.65   0.00559219    2.068    0.516
        24 -12.7189    161.1113     39.0415   3.2083710173e+01   3.9600714921e+01    0.9170464    0.5730754  -5.35  0.001491473    2.280    0.561
        25 -10.5205    112.7751     19.2787   3.3663186710e+01   5.4539268032e+01    0.4365138    0.3271243 -26.56  0.002071306    1.425    0.298
        26 -11.9403    216.7834     32.2064   2.3789016243e+01   2.7671865668e+01    0.5717629    0.3486092 -10.07  0.002359626    2.073    0.518
        27 -11.5420    140.4918     29.2562   3.2166505032e+01   4.6078285182e+01    0.5570725    0.3239899 -47.59 0.0006396729    1.773    0.436
        28 -11.4498    147.3366     25.7015   2.9815113309e+01   4.4743163912e+01    0.5694763    0.4622334  -0.02  0.003045338    1.480    0.324
        29 -10.4976    126.0180     20.3311   3.1439293512e+01   5.0934329677e+01     0.459002    0.2041689 -27.62  0.001831875    2.320    0.569
        30 -12.3736    163.0604     21.7306   2.6340830647e+01   4.1195105269e+01    0.3706122    0.2835645  33.12  0.001085614    1.580    0.367
        31 -10.3276    154.6033     15.7228   2.5431919435e+01   4.3980986446e+01    0.2946819    0.2594359 -57.97  0.001137656    1.085    0.079
        32 -11.2014    148.2993     11.3826   2.4742657110e+01   4.6045060295e+01    0.4244342    0.2185019 -68.84  0.001154504    2.346    0.574
        33 -10.9113     84.7352      7.6663   3.5137842679e+01   6.3100590478e+01     0.289892    0.2082899 -15.84  0.000851009    1.541    0.351
        34  -9.4879     84.8311     13.1278   3.7952360328e+01   6.2455301724e+01    0.3206109    0.2529823  26.03 0.0008120647    1.350    0.259
        35 -10.5478     88.7010     11.8505   3.6172417801e+01   6.1631564019e+01    0.2263459    0.2107569 -27.12 0.0009555224    1.154    0.134
        36 -10.0871    162.7674     10.9326   2.2935666147e+01   4.2387604475e+01    0.3721163    0.1028478 -34.84  0.001163489    2.951    0.661
        37  -9.5516    129.5688     11.9589   2.7581739756e+01   5.0905087959e+01    0.2055325    0.1417127 -20.59  0.001019057    1.593    0.372
        38 -10.1696     95.0195     12.4248   3.4758064241e+01   5.9951496460e+01    0.2228014     0.167033  83.40 0.0006250017    1.450    0.311
        39 -10.5509    141.4295     10.3112   2.5248626989e+01   4.7941718542e+01    0.2819878     0.214791  57.50  0.001043602    1.295    0.228
        40 -11.5381    116.1514      8.8828   2.8599599114e+01   5.4774646282e+01    0.4523143    0.3876255 -51.88  0.002157533    1.214    0.176
        41 -10.0167     26.9537      9.2362   6.4907604794e+01   7.5039331154e+01    0.2573371    0.1529072 -16.86  0.001188054    2.202    0.546
        42  -8.9036    216.5517      9.5185   1.8209433170e+01   3.0039684602e+01    0.1234787    0.0994767 -52.29 -0.0001069168    1.031    0.030
        43  -9.8934    193.5503      8.5799   1.9517659150e+01   3.5185263043e+01    0.2117874    0.1389743  72.71 0.0007240922    1.541    0.351
        44 -10.6144     47.8969      8.5672   5.0444718338e+01   7.1494350290e+01    0.2799101    0.2246553  10.60 0.0009577119    1.266    0.210
        45 -10.9143     95.4069      7.1538   3.2103100775e+01   6.0414641351e+01    0.4560981    0.1780775  61.03    0.0013916    2.200    0.545
        46 -10.0576    100.0777      6.7924   3.0861390904e+01   5.9230593757e+01    0.2654635    0.1979903  85.63 0.0005927777    1.399    0.285
        47 -10.0672      2.7393      6.7944   8.6252747472e+01   7.8001168764e+01    0.2502913    0.1513042   1.10  0.001378113    1.671    0.402
        48 -10.3746    145.4831      4.9973   2.2853529933e+01   4.7379303542e+01    0.2861809    0.2291853 -56.05  0.001613026    1.210    0.174
        49 -11.1806     55.8108      2.9544   4.2722051595e+01   7.0557042522e+01    0.3651895    0.2475718  15.15   0.00184074    1.711    0.415
        50  -9.0636     41.2770      4.6256   5.1586358976e+01   7.3365164488e+01    0.1265851     0.106675 -67.60 0.0007006616    1.695    0.410
        51  -9.9221    132.2156      2.4981   2.3563819884e+01   5.1090232653e+01    0.2235831    0.1817523  40.29  0.001022411    1.342    0.255
        52 -10.4213    155.6349      1.8517   2.0704274787e+01   4.5032197016e+01    0.2082657    0.1738605  64.42 0.0005623912    1.209    0.173
        53 -10.1410    125.8139      1.3453   2.3973080243e+01   5.2889571635e+01    0.3067569     0.124516  75.99 0.0005618085    2.349    0.574
        54 -10.2201     86.5033      1.4135   3.1355766313e+01   6.3273127456e+01    0.4758489    0.1189697  65.11  0.001503256    3.447    0.710
        55 -13.0110    172.2369     55.9384   3.5448634399e+01   3.4609409288e+01     1.301603    0.6922522  82.85  0.001662306    2.973    0.664
        56 -10.9076    228.9967    249.4307   6.4588480073e+01  -1.1890317387e+00    0.1747112    0.1142006 -10.40 0.0003426032    1.282    0.220
        57 -10.7389    186.5105    249.7677   7.1714147251e+01   3.1564263237e+00    0.2398282   0.09760237  20.46   0.00129833    2.184    0.542
        58 -12.8989    177.7446    243.5862   7.2522549088e+01   4.8398484346e+00    0.7377301    0.2654059  21.89  0.003500739    2.755    0.637
        59 -12.8173    162.9108    248.4881   7.5854242219e+01   5.9298742585e+00     0.715335    0.2572831  25.59   0.00363326    2.271    0.560
        60 -12.2225      3.4808    248.2835   1.0801498270e+02   2.2527255044e+01    0.6691779     0.293391  79.36  0.004206965    2.360    0.576
        61 -11.3446    135.4823    248.9335   8.1174469566e+01   9.0163516177e+00    0.2497912    0.1390947  48.26  0.001459054    2.266    0.559
        62 -10.4770    104.5169    249.5163   8.7447524938e+01   1.2474687368e+01    0.1143775   0.08364118  29.00 6.581542e-05    1.005    0.005
        63 -12.9712    143.7059     60.0791   4.1929090856e+01   4.0820063364e+01     1.002579    0.6059735  42.54  0.001336448    1.789    0.441
        64 -12.5597    153.8567     43.9635   3.4821024744e+01   4.0739566959e+01    0.6749938    0.4358122  15.56  0.001837112    2.434    0.589
        65 -12.4971    122.0838     67.6413   4.9528872667e+01   4.4704663529e+01    0.6988918    0.4844638  54.59  0.002019508    1.443    0.307
        66 -11.0378    214.8783    246.7782   6.6501765356e+01   4.7983504037e-01    0.1709401    0.1188053  -9.15 0.0009643296    1.261    0.207
        67 -12.2640     15.7873    238.4273   1.0532082377e+02   2.3189849403e+01     0.511627    0.3208665 -18.96  0.002641965    2.840    0.648
        68 -10.8669     68.8202     94.9175   7.5371007415e+01   4.9485392035e+01    0.3032686    0.2027332  37.27 0.0004750452    1.467    0.319
        69 -11.1769    217.6308     89.8199   3.7576596842e+01   2.0290916731e+01    0.2093989     0.150938 -60.18 0.0004232759    1.734    0.423
        70 -12.0649    209.9775     93.9594   3.9605233303e+01   2.1136261929e+01    0.4279455    0.2180624  47.34  0.002080589    2.148    0.535
        71 -11.6627    224.9177     91.3155   3.6958936287e+01   1.8770958186e+01    0.3304447    0.2193547 -55.10 0.0007079729    1.822    0.451
        72 -10.3541    224.3253     87.3178   3.6130806101e+01   1.9408757511e+01    0.2314074    0.1815239  35.11  0.001119061    1.454    0.312
        73 -11.2852      9.9839     92.8203   9.9583537970e+01   5.6317180580e+01    0.2811943    0.1800682  -2.48  0.001431051    1.824    0.452
        74 -11.8197     95.2680     89.5619   6.4427975424e+01   4.6030211658e+01    0.4676528    0.4121423  78.56 0.0008264597    1.286    0.222
        75 -11.7914     56.5989     86.7872   7.8300114355e+01   5.3356328726e+01    0.3960911    0.2040637 -69.00  0.001553424    2.233    0.552
        76 -11.5235     48.4076     85.2471   8.1437955031e+01   5.4852190229e+01    0.3297875    0.2586828  87.20  0.000840617    1.440    0.305
        77 -12.6042     52.6576     89.8918   8.0675060000e+01   5.3111060870e+01    0.5475157     0.341302  50.49  0.001371808    1.756    0.431
        78 -10.9506     52.8079     86.3520   7.9798006237e+01   5.3992290916e+01    0.2574485     0.225511  23.52 0.0003795318    1.173    0.148
        79 -10.5283      2.1736     91.8565   1.0284511700e+02   5.6937832322e+01    0.2031037     0.162011  64.47 0.0005376019    1.222    0.182
        80  -9.7959    241.2293     91.1261   3.4933110163e+01   1.6000207049e+01    0.1566099    0.1154244 -44.03   0.00100038    1.326    0.246
        81 -10.9885    213.9258     89.6865   3.8050129489e+01   2.0996662245e+01    0.2046742    0.1676144  -0.46  0.001245647    1.301    0.232
        82 -10.1727    166.3376     89.5912   4.5886868943e+01   3.0681490608e+01    0.2725721     0.204234  79.67 0.0008054313    1.800    0.444
        83 -12.1802    174.4590     69.0541   3.8807177514e+01   3.2171078933e+01     1.011654    0.5757113  81.79  0.003960849    2.938    0.660
        84 -12.0886    169.3415     79.6652   4.2637458873e+01   3.1659907211e+01     0.676704    0.5272568 -43.68  0.002462702    1.256    0.204
        85 -11.3902    164.4242     73.2972   4.1780336017e+01   3.3791898733e+01    0.4374415    0.2617923 -39.73  0.001361549    1.604    0.377
        86 -10.2856    168.5123     63.4591   3.8234013130e+01   3.4378015625e+01    0.2444569    0.2298491  34.58 0.0005770748    1.131    0.116
        87 -11.6047    161.5326     66.8193   4.0455288325e+01   3.5488575853e+01    0.4848271    0.3274208 -33.85  0.001346263    1.445    0.308
        88 -10.8034    165.0172     64.3247   3.9094539575e+01   3.5061100443e+01    0.2108305    0.2051646 -42.95 0.0002781062    1.014    0.013
        89 -10.9883     40.2864     90.2971   8.6030753045e+01   5.4511961125e+01    0.2935721    0.1944204 -42.16 0.0002085325    1.593    0.372
        90 -12.1799     38.5907     86.2962   8.5989202030e+01   5.5737175527e+01    0.4758066    0.3770315   7.65   0.00155725    1.391    0.281
        91 -11.7991    138.7955     87.8666   5.1434134805e+01   3.7071591524e+01     0.297904    0.2797278 -78.76  0.001616664    1.162    0.139
        92 -11.9905    139.6802     80.6447   4.9138323629e+01   3.8214359726e+01    0.6266601    0.3094438 -42.16  0.001467846    2.022    0.505
        93 -11.5287     24.3376     87.9900   9.2668407674e+01   5.6630452389e+01    0.4165021    0.2164966 -75.35  0.001849393    1.854    0.461
        94 -11.8291    149.1362     85.8171   4.8453203637e+01   3.5134701966e+01    0.5611458    0.3981776  77.47  0.001847265    1.957    0.489
        95 -11.8019    148.5169     81.0384   4.7233028394e+01   3.6125258788e+01    0.4277502    0.3352847 -59.49 0.0003869395    1.440    0.305
        96 -10.4478     70.5263     88.0229   7.2975867194e+01   5.0905793683e+01    0.2945329    0.1860041  48.13  0.001289482    1.670    0.401
        97 -12.7397     66.4398     82.2412   7.3054786691e+01   5.2985589626e+01    0.7796565    0.5841998  76.60  0.001448307    1.728    0.421
        98 -10.9910      4.3294     78.9102   1.0076657540e+02   6.0220598838e+01    0.2480925    0.2058312  58.73 0.0003178402    1.237    0.192
        99  -9.9864      7.7702     88.0317   1.0008302028e+02   5.7684134432e+01    0.1947722     0.159511 -84.28 0.0004829999    1.117    0.105
       100 -12.1807      5.8892     83.3737   1.0047748035e+02   5.8989639165e+01    0.4469105    0.2116994 -72.11  0.000516888    1.846    0.458
       101 -11.1034    236.8032     86.4485   3.4428965804e+01   1.7332447269e+01     0.341925    0.2317293  64.64  0.001670803    1.908    0.476
       102 -11.4527    227.3562    242.5145   6.3925302847e+01  -3.5281945661e-01    0.1811497    0.1444752  31.02  0.001219797    1.928    0.481
       103 -12.0721    213.3875     82.7627   3.6495717456e+01   2.2052898903e+01    0.3320909    0.2107629  17.45   0.00096994    2.342    0.573
       104 -11.5464    219.2303    240.3522   6.4935990504e+01   6.9199117714e-01    0.2899409    0.1907764   9.05  0.002230878    1.065    0.061
       105 -11.1975     91.0374     67.7763   5.9137268304e+01   5.1674517958e+01     0.408204    0.3373469 -53.91   0.00110775    1.273    0.214
       106 -11.8946     99.5639     64.8686   5.5244498367e+01   5.0421847332e+01    0.6972675    0.2981687  59.74  0.002054798    3.830    0.739
       107 -12.1029    103.7486     75.5101   5.7431855037e+01   4.7325095548e+01     1.005301    0.6122445  14.70  0.002602871    3.225    0.690
       108 -10.4051    100.1470     74.1784   5.8163844508e+01   4.8383020282e+01    0.2314773    0.2085255   8.56            0    1.208    0.172
       109 -12.2694     96.4319     70.1470   5.8075750269e+01   5.0027043246e+01    0.8441092    0.3994597 -45.39  0.002211969    2.159    0.537
       110 -11.3017    100.5032     69.0100   5.6349668430e+01   4.9375938955e+01     0.351561    0.2985695 -32.16 0.0009447486    1.231    0.188
       111 -12.0206    113.3873    245.2041   8.5243999889e+01   1.2088981002e+01    0.2164651    0.1898713  79.13  0.001662359    1.608    0.378
       112 -14.8108     42.7582     75.0561   8.1584709298e+01   5.8152984835e+01     2.301798     1.359575  47.16   0.01030045    1.864    0.463
       113 -11.8656     52.3141    250.4611   9.8255924834e+01   1.7875625532e+01    0.2430093    0.1333787  34.87 0.0006054002    1.289    0.224
       114 -13.6575     38.5361    247.3342   1.0093943204e+02   1.9694613402e+01     0.849741    0.5667526  26.56  0.006068488    1.286    0.222
       115 -12.1896     11.5905    248.8380   1.0642954789e+02   2.1794370374e+01    0.4034147    0.3609258  75.37  0.003520569    1.359    0.264
       116 -11.1852    159.9564    219.6385   7.2813459907e+01   1.0077784731e+01    0.1843051    0.1572261  -8.86 0.0002792986    1.235    0.190
       117 -10.1019    248.9562    117.7236   3.9524763678e+01   1.1471121186e+01     0.170322     0.162529  82.58  0.001288316    1.514    0.340
       118 -11.9424     53.7426     55.3438   7.0359004192e+01   6.1419516485e+01    0.8210558    0.4802783  11.65   0.00323458    2.544    0.607
       119  -9.2744    163.7127    118.3291   5.3629301241e+01   2.6213484713e+01    0.1359489    0.1141559 -75.20 0.0003299718    1.616    0.381
       120 -12.9044     27.4047     50.2784   8.3024807273e+01   6.6033892921e+01    0.8660849    0.6198761  -8.66 0.0006866364    1.556    0.357
       121 -10.4266     90.3581    114.1603   7.2246896912e+01   4.1221615238e+01    0.4226316     0.234831 -65.17  0.001159771    2.194    0.544
       122 -13.1546     54.6828     71.8749   7.5203177968e+01   5.7345437228e+01     1.073328    0.5523782 -63.73  0.003152305    2.131    0.531
       123 -10.2489    170.4023    112.3201   5.0815868824e+01   2.5949345042e+01    0.3461936    0.2328787  71.48  0.001151881    2.421    0.587
       124 -13.5376     40.8971     56.9858   7.7492795139e+01   6.2873806208e+01     1.643906    0.8269291  27.69  0.007022063    2.030    0.508
       125 -11.8797    132.5059    111.2999   5.9248712847e+01   3.3805308678e+01    0.3596128    0.3451272 -77.78 0.0007954196    1.157    0.136
       126 -11.0747     96.8989    110.3348   6.9265197048e+01   4.0952404664e+01    0.3349128    0.2163895 -40.99 0.0006911085    1.670    0.401
       127 -13.2359     51.8638     44.7194   6.7265563755e+01   6.4096318895e+01     1.057039    0.6762788   8.28  0.003544285    2.207    0.547
       128 -10.3807    118.4914    110.5020   6.2832580118e+01   3.6785430403e+01    0.1504779    0.1451289  23.09  0.000810629    1.004    0.004
       129  -9.9046    216.8945    108.5133   4.1903644929e+01   1.7826627870e+01    0.2027448    0.1502552 -27.30   0.00110754    1.173    0.148
       130 -12.8195     76.1476     41.9815   5.4891856167e+01   6.0015175295e+01    0.5830978    0.4304545  40.87 0.0005372213    1.317    0.241
       131  -9.6600    235.4528    108.0645   3.9249094053e+01   1.4775608507e+01    0.1921175    0.1011703 -29.47  0.001028451    1.596    0.373
       132 -10.7217     19.0954     80.8647   9.4004386890e+01   5.8893707325e+01     0.210894    0.1966973 -71.04 0.0003430997    1.005    0.005
       133 -11.9125     23.7285     78.3367   9.1384708281e+01   5.9209858631e+01    0.3129918     0.249301 -17.06  0.001717265    1.381    0.276
       134 -10.5187    232.7120     78.8293   3.3208171642e+01   1.9008622235e+01    0.2086643    0.1983209   7.74 0.0006378213    1.183    0.155
       135 -11.7679    223.5551     78.5392   3.4214419515e+01   2.0705219356e+01    0.7175035    0.4034939  82.22   0.00270557    3.289    0.696
       136  -9.8313     66.8155     67.8541   6.8610789095e+01   5.6351570189e+01    0.2263444    0.2030052 -87.85 0.0003154674    1.263    0.208
       137 -10.9983     83.3983     78.5427   6.5374387755e+01   5.0846994731e+01    0.5167863    0.2616343  33.39  0.001978515    2.129    0.530
       138 -11.8478     88.0258     73.1814   6.2001383793e+01   5.1133806169e+01    0.3978359     0.314511  19.40 0.0003673891    1.444    0.307
       139 -12.1952     72.2627     74.7251   6.8511266896e+01   5.3791019312e+01    0.9980826    0.5320336  50.00  0.003941731    2.130    0.530
       140 -11.3760     79.1562     72.9480   6.5234711107e+01   5.2930065287e+01    0.4245082    0.4060411 -31.12  0.001444494    1.057    0.054
       141 -10.6506    156.3010     76.2585   4.4210424520e+01   3.5167315518e+01     0.407617    0.3223483  36.69  0.002092499    1.351    0.260
       142  -9.5862    151.3916     72.7322   4.4194221177e+01   3.6896163041e+01    0.1984784     0.140584 -22.92 0.0004332574    1.563    0.360
       143  -9.8106    184.0051    105.6522   4.6608051709e+01   2.4372158332e+01    0.1876924    0.1751969  36.74 0.0006958819    1.142    0.125
       144 -12.0985    162.3373     84.1695   4.5215718387e+01   3.2473063483e+01    0.4964978    0.4586546  68.15  0.001646242    1.161    0.139
       145 -10.3317     73.9814    105.9887   7.6017008313e+01   4.5927355521e+01    0.1800963    0.1721309  41.28 0.0003279423    1.026    0.026
       146 -11.4682    230.9751     69.5067   3.1289950239e+01   2.0490521336e+01    0.2683193    0.1643225 -30.74  0.001529772    1.377    0.274
       147 -11.7074     93.5171     60.0796   5.5574611138e+01   5.2720401693e+01    0.3988968    0.3094419  78.24 0.0007121713    1.668    0.400
       148  -9.7103    249.7640     69.0018   2.9287114619e+01   1.7262179749e+01    0.1694251     0.122072 -31.48 0.0003344649    1.113    0.101
       149 -11.2370    221.4023     41.3699   2.5622725889e+01   2.5702635023e+01    0.4196519      0.28781 -52.36  0.002508001    1.344    0.256
       150  -9.5179    229.1980     40.4189   2.4713423064e+01   2.4271544587e+01    0.3972496    0.1946063 -18.25  0.001895375    2.336    0.572
       151 -12.2444    226.2888     48.3657   2.6845170180e+01   2.3928645246e+01    0.9197567     0.103733 -36.76  0.002948843    4.345    0.770
       152 -11.8926    230.5925     47.4466   2.6234665271e+01   2.3206011695e+01    0.6291921    0.3130279 -26.83  0.002062139    1.805    0.446
       153 -11.5669    101.1519     53.5076   5.0635695745e+01   5.2244732693e+01    0.6143669    0.2823824  44.50  0.001026366    2.168    0.539
       154 -10.1112     89.7899     55.2131   5.5076807900e+01   5.4505544065e+01     0.299956    0.1954991  37.75 0.0006221595    1.576    0.365
       155 -13.9881    137.8623     71.3720   4.6774192145e+01   4.0306540859e+01     2.633793     1.053356  39.84  0.008522092    3.233    0.691
       156 -12.1761    207.5583     46.0018   2.8136148446e+01   2.8011133657e+01    0.7585254    0.3223841 -29.93  0.003405969    2.092    0.522
       157 -10.6142    212.3841     47.1707   2.7924203698e+01   2.6860557706e+01    0.1947849    0.1124885 -31.29 0.0003003764    1.526    0.345
       158 -10.3364    238.5200     51.9422   2.6559113035e+01   2.1209087181e+01    0.2052113    0.1762557  71.90  0.001438711    1.376    0.273
       159 -12.1826    155.9802     36.1771   3.1963856415e+01   4.1250039245e+01    0.7068454    0.4064282 -64.03  0.002509076    2.166    0.538
       160  -9.6321    114.9762     47.9503   4.4550536354e+01   4.9884021324e+01    0.1730879    0.1629254  56.48 0.0003519364    1.030    0.029
       161  -9.4091    240.7478     47.6702   2.5407234959e+01   2.1287473740e+01    0.1100617   0.08547958  -1.32 0.0003510558    1.553    0.356
       162  -9.5120    142.8856     46.0998   3.7528472958e+01   4.3179229934e+01    0.4772232     0.231207  36.31  0.001363461    3.056    0.673
       163 -10.8795    100.4587     46.2150   4.8046104735e+01   5.3711952225e+01    0.4804941    0.3045551  62.27   0.00209346    1.715    0.417
       164 -10.5028    214.4505     42.2730   2.6496505834e+01   2.7013907557e+01    0.3893948    0.2203403 -39.82  0.001657589    1.499    0.333
       165 -10.2095    211.2569     38.3887   2.5831400736e+01   2.8130042885e+01    0.2080676    0.1885636 -89.07 0.0005617625    1.174    0.148
       166 -11.3682    165.6593    102.4601   4.9355869830e+01   2.8619182137e+01    0.3567295    0.2254585 -43.77  0.001685567    1.594    0.373
       167 -11.8980    113.3454     28.1701   3.7229041831e+01   5.3267463018e+01    0.4327821    0.3276833 -88.10 0.0008991153    1.516    0.341
       168 -10.9670    112.7311     38.9182   4.1688694820e+01   5.1881545650e+01    0.5323457    0.2812333  48.83  0.001657352    1.831    0.454
       169 -10.8055    112.0906     33.3278   3.9628387535e+01   5.2872860251e+01    0.3648242    0.3216007 -25.57  0.001232192    1.204    0.170
       170 -10.7734     40.4940     39.5995   7.1448659245e+01   6.6963156305e+01    0.3624423    0.2362639  28.37  0.001392334    1.549    0.354
       171  -9.9141    237.1965     38.8745   2.3706937701e+01   2.2916820571e+01    0.1881001    0.1306821 -45.67  0.001064149    1.207    0.171
       172  -9.8457    143.7889    103.1937   5.4384382025e+01   3.3070098357e+01    0.2185109    0.2083975  84.62 0.0005940627    1.172    0.147
       173  -9.5991    212.4520     33.5775   2.4508946818e+01   2.8424004361e+01    0.1253543    0.1082826 -48.98 0.0001596551    1.008    0.008
       174 -11.2381     91.9707     33.3036   4.5338036485e+01   5.7890558947e+01    0.4609412     0.379786 -18.54    0.0023914    1.324    0.245
       175 -11.3767     86.6756     28.8795   4.5076928738e+01   5.9850562040e+01    0.4085113    0.3078773  65.50  0.001246028    1.401    0.286
       176 -10.6071    206.2378     31.8483   2.4634483119e+01   2.9942978325e+01    0.2869696     0.194434 -40.75 0.0009812379    1.280    0.219
       177 -11.4211     20.1548     75.8125   9.2693992287e+01   6.0140592513e+01    0.2432395    0.2229173 -31.56 0.0005909731    1.124    0.110
       178 -11.2500     99.9998    102.0360   6.6235685427e+01   4.2277576368e+01    0.2488075    0.1916277  -5.91   0.00113862    1.697    0.411
       179 -10.9088    132.9797     24.1355   3.1624921661e+01   4.8659172072e+01    0.4095944    0.2991631 -71.12  0.001468167    1.505    0.336
       180 -11.4985    105.9994     28.4612   3.9168064491e+01   5.5113961864e+01    0.4676042    0.3400593  70.86  0.001211879    1.416    0.294
       181  -9.8252    102.5701     23.9337   3.8103796200e+01   5.6602721083e+01    0.2151274    0.1480929 -20.79 0.0008993538    1.624    0.384
       182 -11.9542     52.6886    100.2478   8.2847787297e+01   5.0452301372e+01    0.4695536    0.2917435 -24.81  0.001294479    2.234    0.552
       183 -10.5540    153.0928     26.5345   2.9237365151e+01   4.3169937573e+01    0.2855245     0.214289  70.39 0.0008049707    1.293    0.227
       184 -10.2459    121.6735     17.9691   3.1319178588e+01   5.2349611759e+01    0.2747684    0.1918294  77.36 0.0006973012    1.423    0.297
       185  -9.9672    123.5475     25.6620   3.3995900954e+01   5.0939701035e+01    0.2999301    0.1918294  43.19 0.0006968954    1.658    0.397
       186 -10.2713    234.0466    101.1191   3.7949062331e+01   1.5910617800e+01     0.180433    0.1520334 -27.53 0.0004593209    1.061    0.057
       187 -10.9229    191.5643     25.2531   2.4266658746e+01   3.3946062835e+01      0.23965    0.1531988 -88.55 0.0008029666    1.683    0.406
       188 -10.4509    176.3698     23.3915   2.5303915093e+01   3.7734029882e+01     0.363975    0.2571719  -0.68   0.00187253    1.841    0.457
       189 -10.1630    215.4832     23.3738   2.1706475713e+01   2.8888018492e+01    0.2565134    0.1098717 -26.68 0.0007723973    2.133    0.531
       190 -10.6527    226.0928     99.4684   3.8621602969e+01   1.7474027117e+01    0.3632877    0.1367197 -34.17   0.00154032    2.222    0.550
       191  -9.8396     87.2916     23.7004   4.2430124240e+01   6.0463550260e+01    0.2068092    0.1688592  55.98 0.0001584368    1.164    0.141
       192 -10.5584     90.2682     21.7346   4.0559955765e+01   6.0001814739e+01    0.2684934    0.2257354  22.31   0.00143012    1.275    0.216
       193 -10.7185     98.2833     22.2127   3.8476670525e+01   5.7922384001e+01    0.3647556     0.262148  33.48 0.0007238931    1.515    0.340
       194 -10.1974    102.8569     19.1623   3.5910990339e+01   5.7136378181e+01    0.2396057    0.2108559  20.65 0.0006658898    1.230    0.187
       195  -9.9044    225.8912     22.4608   2.0724512563e+01   2.6848065224e+01    0.2587965    0.1086781  69.20  0.001271855    2.557    0.609
       196  -9.5143    181.3785     22.2083   2.4424540894e+01   3.6660678796e+01    0.1847581    0.1089086 -39.54 0.0003049591    1.535    0.348
       197 -10.7542     31.6896     20.1130   6.7890812721e+01   7.2299618300e+01    0.3681413    0.2813419 -17.51   0.00181835    1.333    0.250
       198  99.0000     28.1505     18.5146   6.9588527738e+01   7.3103020160e+01    0.3847453    0.2672354  12.98   0.00205905    1.505    0.336
       199  -9.6826    202.3382     18.1412   2.1399185383e+01   3.2262760846e+01    0.3172821    0.2092946 -23.26  0.001446203    1.530    0.346
       200 -10.1748    171.2433     18.1791   2.4293264346e+01   3.9543869548e+01    0.2180365    0.1694738  65.57 0.0006304361    1.299    0.230
       201 -10.6412    119.3762     22.6176   3.3642895720e+01   5.2407786038e+01    0.3136793    0.2353868  38.61  0.001575678    1.430    0.301
       202 -10.1570    139.5828     17.3711   2.8059725778e+01   4.7700105317e+01    0.2238528     0.208634  36.66 0.0005784557    1.177    0.150
       203 -11.2148    150.9155     96.9689   5.1098512416e+01   3.2719066240e+01    0.5051686    0.3385338 -53.18  0.002329553    1.697    0.411
       204 -10.7382    156.0450     95.9784   4.9704816362e+01   3.1794811914e+01    0.5425435    0.2946476  30.41  0.002108361    2.510    0.602
       205  -9.9822    102.8857     15.0217   3.4036319656e+01   5.7619389176e+01    0.1991796    0.1930691  80.98 0.0003578572    1.052    0.050
       206  -9.1566    223.2830     14.3534   1.8963472438e+01   2.8183853711e+01    0.1114014   0.09011675  18.98 0.0007017535    1.660    0.398
       207 -11.8628     87.0776     97.7462   6.9422440500e+01   4.5690221764e+01    0.5447782    0.4142983  12.06  0.002549154    1.594    0.373
       208 -10.6806     81.5145     98.4928   7.1561711821e+01   4.6501456151e+01    0.2485623    0.2090012 -70.94 -9.274342e-06    1.284    0.221
       209 -11.8228    200.2326     96.9277   4.1775043099e+01   2.2558265477e+01    0.3674042    0.2561496 -46.90 0.0008464067    1.489    0.328
       210  -9.4378    134.3051     13.6766   2.7500168603e+01   4.9477584674e+01    0.1505588   0.09892376 -61.90 0.0004672488    1.641    0.391
       211 -11.3376    191.8967     99.2150   4.3678265002e+01   2.3834909776e+01    0.3948326    0.1919637  55.07 0.0008062373    2.366    0.577
       212 -11.5311    170.0051     97.9632   4.7344900264e+01   2.8485938284e+01    0.3490385    0.3148176 -12.55  0.001018482    1.090    0.083
       213 -13.1432    130.4661     96.9099   5.6044096412e+01   3.7135024135e+01    0.5517588    0.5078412 -15.86  0.002967661    1.121    0.108
       214 -10.0991    180.1450     11.5134   2.1433184257e+01   3.8053202000e+01    0.1920231    0.1214111  72.64  0.001008458    1.556    0.357
       215 -13.5152    107.1326     92.0779   6.1327511364e+01   4.3074252874e+01     1.063264    0.5536128 -54.30  0.003213043    2.176    0.540
       216 -11.1625    139.3196     97.5687   5.3982632634e+01   3.5103702055e+01    0.2797146    0.1451467  51.34 0.0007865698    2.020    0.505
       217 -10.7770    100.4209     96.7587   6.4719446048e+01   4.3390675406e+01    0.2112126    0.1450586 -38.20 0.0005744171    1.565    0.361
       218 -10.0017     32.6650     97.3322   9.0505396123e+01   5.3450143190e+01    0.1539364   0.09761214  59.58 0.0007052202    1.733    0.423
       219 -10.6881     11.8691     97.2421   9.9216767356e+01   5.5054544964e+01    0.2080757     0.169925  61.57  0.000565291    1.205    0.170
       220 -12.5447     62.3365     93.8937   7.7652367278e+01   5.0733817527e+01    0.6184187    0.3468738 -64.93  0.001309046    1.886    0.470
       221 -14.3563    206.1266     70.5076   3.4484221344e+01   2.5155011734e+01     1.166335    0.8930722  84.18  0.006708117    1.610    0.379
       222  -9.4015    246.6164     94.8431   3.5107631317e+01   1.4664234495e+01     0.167926   0.08763663 -37.58 0.0002985327    1.606    0.377
       223 -11.5881    188.9340     92.8250   4.2612568323e+01   2.5413667323e+01     0.306904    0.2299252 -52.11 0.0002909569    1.460    0.315
       224 -12.7290    186.6572     87.3790   4.1627236567e+01   2.6720545339e+01    0.4596447    0.3197276 -25.44  0.001873127    1.416    0.294
       225 -10.8879    177.6234     94.7218   4.5074424304e+01   2.7435459348e+01     0.228397    0.2223255 -34.83  0.000332183    1.075    0.070
       226 -13.6544    177.6979     85.5306   4.2692395769e+01   2.8898323135e+01      1.43093    0.8771259   2.50  0.005636337    2.951    0.661
       227 -12.8484    127.7911     90.4667   5.4961541044e+01   3.9001170794e+01    0.6285089    0.3873173  27.77  0.002561292    2.084    0.520
       228 -10.4162    248.9833    250.0000   6.1631820141e+01  -3.1131028114e+00    0.1489449   0.04151744  29.37 0.0008070459    2.974    0.664
       229 -14.3868    122.3300     86.4333   5.5276636297e+01   4.1007840636e+01     1.337329     1.193897  46.43  0.007019766    1.106    0.096
       230 -10.7663    211.0051    250.0000   6.7556830433e+01   5.4690032277e-01    0.1660506   0.04425705  30.16 0.0008037231    2.951    0.661
