#   1 NUMBER                 Running object number                                     
#   2 MAG_AUTO               Kron-like elliptical aperture magnitude                    [mag]
#   3 X_IMAGE                Object position along x                                    [pixel]
#   4 Y_IMAGE                Object position along y                                    [pixel]
#   5 X_WORLD                Barycenter position along world x axis                     [deg]
#   6 Y_WORLD                Barycenter position along world y axis                     [deg]
#   7 A_WORLD                Profile RMS along major axis (world units)                 [deg]
#   8 B_WORLD                Profile RMS along minor axis (world units)                 [deg]
#   9 THETA_WORLD            Position angle (CCW/world-x)                               [deg]
#  10 FWHM_WORLD             FWHM assuming a gaussian core                              [deg]
#  11 ELONGATION             A_IMAGE/B_IMAGE                                           
#  12 ELLIPTICITY            1 - B_IMAGE/A_IMAGE                                       
         1 -10.0472     49.7007     37.1217   1.0214665773e+02   6.2425502986e+01    0.3417236    0.1444865 -34.89  0.001662084    2.216    0.549
         2 -11.5326    214.6981      3.5006   5.7048946737e+01   3.1466092142e+01    0.7783179    0.4321414  72.71  0.003195385    1.526    0.345
         3 -12.5253    198.3714     22.2229   6.2919372915e+01   3.3159526697e+01     1.185007    0.8817304 -86.52  0.006359997    1.213    0.176
         4 -11.5849    205.3702     14.7178   6.0406053333e+01   3.2384319217e+01    0.5795816    0.5527222  73.29  0.001538614    1.285    0.222
         5 -12.0896    190.9312     28.5683   6.5375100625e+01   3.4164277091e+01     1.063812    0.5551292 -46.20    0.0048695    1.946    0.486
         6 -10.6410     49.3416      9.8420   9.1436825371e+01   6.5931242918e+01    0.4579037      0.16176 -27.83  0.002205571    2.846    0.649
         7  -9.3242     11.8578      3.7428   1.0466523087e+02   7.1081694358e+01    0.1843736     0.110382 -38.82    0.0012665    1.839    0.456
         8  -8.0611     33.0000      2.9819   9.4852737437e+01   6.8858670654e+01    0.1677218   0.05370956 -30.78  0.000809468    2.991    0.666
         9  -9.4689     94.3542    229.8243   1.3095786339e+02   1.3920122181e+01    0.2342348    0.1774116  76.80 0.0004986481    1.246    0.197
        10 -12.5675     53.5367    230.4096   1.3910695904e+02   1.9761770709e+01     3.387189     2.216714 -27.36   0.01488173    4.341    0.770
        11  -8.3411    208.0000    183.4963   9.8915822195e+01   2.5282331506e+00    0.3125212   0.07912204 -42.79 0.0009292245    3.890    0.743
        12 -10.7888     96.9097    226.9805   1.3008549906e+02   1.4101490140e+01    0.6026626    0.2971929  50.74  0.002841671    1.829    0.453
        13 -13.9416      2.0716    111.5884   1.3750379864e+02   5.1992509628e+01     13.83123    0.8627581 -68.85   0.02315748   17.283    0.942
        14  -9.6759     83.1219    171.7267   1.2531715169e+02   2.8882639262e+01    0.2885705    0.2136995 -66.11 0.0004259901    1.261    0.207
        15 -11.5531     70.7279    168.5747   1.2787128148e+02   3.1506303943e+01    0.5705916    0.2929115 -45.95  0.001339691    2.246    0.555
        16 -11.0882     87.5735    163.4624   1.2280072925e+02   3.0183666882e+01     1.188877    0.6190799  49.61  0.003335649    2.030    0.507
        17  -9.8232     72.4440    153.9715   1.2502666623e+02   3.4820218212e+01    0.6756524    0.3609453  88.73  0.002360403    3.464    0.711
        18 -11.2505     67.8006    144.1242   1.2450476663e+02   3.7884906260e+01    0.7528459    0.5258934  71.06  0.002711043    1.717    0.417
        19  -9.5156     23.3153    156.1944   1.3779396002e+02   4.0085183191e+01    0.2466594    0.1583372  46.73  0.001433809    1.700    0.412
        20  -7.8208    134.5858    149.2200   1.0799705206e+02   2.4939810864e+01    0.2226234    0.1464577 -41.34 0.0007894445    1.601    0.375
        21  -9.4089    102.6155    146.5950   1.1565255035e+02   3.1734746185e+01    0.5802469    0.2819889 -33.77  0.001844231    3.641    0.725
        22 -10.3412     90.5604    146.9755   1.1893165591e+02   3.3717652014e+01    0.2976873    0.2572203 -36.65 0.0005619728    1.277    0.217
        23  -8.1521     33.0000    145.9410   1.3403007685e+02   4.1589194671e+01    0.2200789   0.06270293 -66.41 0.0007991327    2.920    0.657
        24  -9.1551     44.9789    144.1973   1.3063427007e+02   4.0737305731e+01      0.20115    0.1364993  88.47  0.001049418    1.602    0.376
        25  -9.1450     31.2002    139.9626   1.3363698372e+02   4.3189762191e+01    0.2759967    0.2515022 -17.67  0.001831216    1.369    0.269
        26 -10.2951     49.2670    153.3410   1.3093037747e+02   3.8030791532e+01    0.6666445   0.09256768 -63.43  0.001690163    5.854    0.829
        27 -10.7002     49.2610    130.1075   1.2707822468e+02   4.3633818258e+01    0.3945639    0.1933131 -62.01  0.001555294    1.771    0.435
        28  -8.9460    112.3231    133.8734   1.1027600199e+02   3.2987454161e+01    0.3785056    0.2491316  12.88  0.001195222    2.520    0.603
        29  -9.0455     99.4600    131.1443   1.1314755401e+02   3.6008793334e+01    0.3314784    0.2355469 -32.34 0.0007856494    1.647    0.393
        30 -10.0565     57.9186    130.7160   1.2474194197e+02   4.2441483208e+01    0.4081617    0.1752645 -56.56  0.001721485    1.989    0.497
        31  -9.6291     33.0000    125.4865   1.3087310099e+02   4.6441320417e+01    0.5844294   0.06277666 -63.92  0.001324771    7.738    0.871
        32  -8.1890    108.3302    122.0250   1.0855597801e+02   3.6520840257e+01    0.2135697    0.1799734 -50.26 0.0003229339    1.143    0.125
        33 -10.8090     49.6808     92.4701   1.1899963228e+02   5.2208395862e+01    0.7120602    0.1921615 -52.42  0.002573086    3.018    0.669
        34 -11.7263     50.5214    115.9087   1.2397950283e+02   4.6839156851e+01    0.8266702    0.3670611 -62.68   0.00353179    2.124    0.529
        35 -11.2740     50.4820    104.6654   1.2159208922e+02   4.9422047139e+01    0.7726348    0.3881056 -67.59  0.003333728    2.330    0.571
        36  -9.4731    167.9014    112.8503   9.1275270200e+01   2.5693613084e+01    0.3873383    0.2967776 -78.21 0.0008380353    1.605    0.377
        37  -8.3459    207.4861    110.0000   8.2629668468e+01   1.7115267834e+01    0.3343238   0.08560721  52.89 0.0009530392    4.084    0.755
        38  -9.1714     32.8472     98.7630   1.2589938521e+02   5.2571755205e+01    0.6060341   0.08669794 -60.75  0.001522938    6.676    0.850
        39 -14.0898      3.3529    236.0487   1.4849554462e+02   2.4430255411e+01      6.18539     1.154818 -69.81   0.01088175    3.966    0.748
        40 -12.2154     45.6268    220.7481   1.3974530324e+02   2.2833797503e+01     1.441384     0.856353 -36.53  0.006467382    3.831    0.739
        41  -9.7518     49.2586     81.4732   1.1633313562e+02   5.4574109086e+01    0.3748394     0.113728 -53.00  0.001400303    2.969    0.663
        42  -8.2833    208.4742     61.4004   7.0846671379e+01   2.5410162900e+01     0.261503    0.1089604 -48.24 0.0008391442    2.367    0.578
        43  -9.7790     32.3127    206.5172   1.4107379199e+02   2.7543301799e+01    0.3720851    0.2273674  67.19  0.001197564    1.474    0.322
        44  -8.7729    208.5677     55.2180   6.9368303499e+01   2.6333945275e+01    0.2698774    0.1228725 -41.39  0.001155483    2.112    0.526
        45  -9.1179     49.8622     48.8951   1.0625601969e+02   6.0563399214e+01    0.1982829    0.1495652  -9.71  0.001243291    1.211    0.174
        46 -13.4483     53.8203    209.4214   1.3698297845e+02   2.4257905376e+01     3.198451     1.558418  60.13   0.01458129    2.077    0.518
        47  -9.7142    208.5017     37.9524   6.5338097799e+01   2.8802421000e+01    0.5524549    0.1554689 -29.24  0.001635921    5.589    0.821
        48  -9.8813     69.8075    189.2695   1.3109113089e+02   2.6684202480e+01    0.4129223      0.24174 -44.87  0.001773676    2.177    0.541
        49  -8.4892     27.0360    203.9807   1.4190057198e+02   2.8694063890e+01    0.1865734    0.1407485  78.83 0.0003738238    1.070    0.066
        50  -8.4355     90.8320    246.1995   1.3351777816e+02   1.1195974463e+01    0.1538879    0.1422102  52.96 0.0005184846    1.281    0.219
        51  -9.1789    106.2794    241.0775   1.2991073686e+02   9.7496324656e+00    0.1763993    0.1518649  76.89 0.0003458199    1.102    0.092
        52 -12.7525     10.0867    206.7749   1.4541389271e+02   2.9829756204e+01     1.513088    0.7475184 -55.31  0.008266774    2.369    0.578
        53  -8.1137     33.0000     29.9687   1.0606980596e+02   6.5483243434e+01    0.1784295   0.05661886 -41.51 0.0004590359    2.878    0.653
        54  -8.4775    208.4926    236.9893   1.0881819242e+02  -6.8460911954e+00    0.1880437      0.12293 -35.94  0.001046996    1.634    0.388
        55 -10.0111     74.3689    182.8877   1.2914251964e+02   2.7530528919e+01    0.2963545    0.2307433 -51.24 0.0008843581    1.409    0.290
        56  -9.9744     97.3240    234.4631   1.3091180656e+02   1.2500659316e+01     0.302601    0.2048963 -86.24  0.001327289    1.600    0.375
        57 -11.9731    113.8096    229.6328   1.2693027621e+02   1.0774573743e+01     1.494802    0.3313544  43.07  0.004820724    3.755    0.734
