#   1 NUMBER                 Running object number                                     
#   2 MAG_AUTO               Kron-like elliptical aperture magnitude                    [mag]
#   3 X_IMAGE                Object position along x                                    [pixel]
#   4 Y_IMAGE                Object position along y                                    [pixel]
#   5 X_WORLD                Barycenter position along world x axis                     [deg]
#   6 Y_WORLD                Barycenter position along world y axis                     [deg]
#   7 A_WORLD                Profile RMS along major axis (world units)                 [deg]
#   8 B_WORLD                Profile RMS along minor axis (world units)                 [deg]
#   9 THETA_WORLD            Position angle (CCW/world-x)                               [deg]
#  10 FWHM_WORLD             FWHM assuming a gaussian core                              [deg]
#  11 ELONGATION             A_IMAGE/B_IMAGE                                           
#  12 ELLIPTICITY            1 - B_IMAGE/A_IMAGE                                       
         1  -9.8951      6.3393     34.1204   2.9196414527e+02   7.3437296420e+00   0.08093076    0.0240373 -48.63  0.005361913    3.333    0.700
         2  -8.8798    144.3429     24.0761   2.9030369916e+02   6.6323470531e+00   0.01779186   0.01007933 -53.60  0.001718692    1.705    0.413
         3 -11.3587     80.3334     23.4334   2.9104065476e+02   7.0240657195e+00   0.02890183   0.01741513   3.61 0.0006423829    2.269    0.559
         4  -9.3256     28.6235     22.5454   2.9163432150e+02   7.3437563402e+00   0.04394238   0.02342648 -13.85  0.003184753    3.733    0.732
         5  -8.5074     46.1089     20.9201   2.9142161679e+02   7.2578972631e+00    0.0169129  0.008520165 -56.60  0.001218367    1.901    0.474
         6  -8.9958    108.4139     10.7340   2.9063682771e+02   7.0015418432e+00   0.01300903  0.009338948  27.66 0.0008382347    1.396    0.284
         7  -9.5548     64.1760     14.2922   2.9117125182e+02   7.2259341700e+00   0.02404462    0.0147415 -19.50  0.001929353    2.307    0.566
         8  -9.4112    128.1777     15.8159   2.9043954371e+02   6.8244346205e+00   0.02387739   0.01168588 -44.01  0.001459054    2.177    0.541
         9  -9.3764     79.3854     12.8525   2.9098613357e+02   7.1513502281e+00   0.02123364   0.01173004  33.17   0.00147244    1.768    0.434
        10  -9.0562     74.4931     13.5293   2.9104699792e+02   7.1728942873e+00   0.01863062   0.01209409 -37.15  0.001299551    1.694    0.410
        11  -9.8661    134.4803     13.0860   2.9034968729e+02   6.8179117476e+00   0.02196138   0.01336678 -27.48  0.002031319    2.135    0.532
        12  -8.9979    125.0087     10.4280   2.9044282636e+02   6.9053767695e+00   0.01224771  0.009558491 -59.64  0.000302987    1.269    0.212
        13  -8.6401     96.6997     12.7202   2.9078477582e+02   7.0490318100e+00   0.01764186   0.01090026 -34.40  0.001392837    1.882    0.469
        14  -9.0788     69.6337      9.1857   2.9107640656e+02   7.2519241206e+00   0.03198147   0.01195006  21.93  0.002332769    3.201    0.688
        15  -9.3381     76.2351      5.5702   2.9097753560e+02   7.2539086601e+00   0.02253862   0.01616982 -57.74  0.002307836    1.369    0.269
        16  -9.6295     32.7938      7.2763   2.9149156063e+02   7.4943317997e+00   0.02713303    0.0214136  40.90  0.003086483    1.283    0.220
        17  -9.0903     40.5940      6.6045   2.9139698072e+02   7.4554141221e+00   0.02380532   0.01272064 -36.55  0.001721442    2.261    0.558
        18  -8.2324    156.0101      7.9346   2.9006866503e+02   6.7475724759e+00   0.01484517  0.007160445 -61.27  0.001309892    2.054    0.513
        19 -10.4890      7.3338      5.4889   2.9177572173e+02   7.6669328536e+00   0.03119524   0.01676814  11.17 0.0009648274    2.479    0.597
        20  -8.6767     15.3185      2.2893   2.9166334217e+02   7.6560379516e+00   0.01343416  0.009827484  74.06   0.00138911    1.706    0.414
        21  -8.2757      3.4242      1.5017   2.9179641677e+02   7.7360780154e+00   0.01359416   0.00644669  28.17 0.0009510466    2.098    0.523
        22  -8.9269    119.2802      6.8189   2.9048676567e+02   6.9812554769e+00   0.01309367  0.009749602 -28.28 0.0003614664    1.507    0.337
        23  -8.2866    100.9244      6.5277   2.9069748969e+02   7.0948255729e+00    0.0127259  0.008605938 -42.51 0.0007965264    1.527    0.345
        24  -9.6321     46.7549      6.4570   2.9132465419e+02   7.4202552376e+00    0.0120306   0.01159971 -50.37 0.0002280872    1.028    0.027
        25  -8.1311    130.4678      5.7449   2.9035061329e+02   6.9263588430e+00  0.009068327   0.00600371 -48.81 0.0002757456    1.494    0.331
        26  -8.6302    105.2501      1.9312   2.9061891388e+02   7.1216612794e+00   0.01642647  0.009391157  15.97  0.001514051    2.042    0.510
        27  -8.8996    111.1611      4.6086   2.9056706314e+02   7.0554137437e+00   0.01445885  0.009800919 -21.61 0.0007461539    1.847    0.459
        28  -8.6770    110.5132      1.5363   2.9055552171e+02   7.0945950191e+00   0.01237617   0.01003453  27.03 0.0007628176    1.238    0.192
        29  -8.1737     91.1321      5.1835   2.9080257029e+02   7.1690256669e+00   0.01003446  0.008750249 -13.59  0.000349583    1.226    0.184
        30  -7.1765    150.6528      4.3274   2.9010826200e+02   6.8212388093e+00   0.00712977  0.004947861  62.20 0.0007049815    1.753    0.429
        31  -8.4078    143.0922      2.1962   2.9018251762e+02   6.8912005743e+00   0.01081603  0.009186326 -56.45 0.0003216834    1.163    0.140
        32  -7.1449    134.4300      3.4291   2.9029039921e+02   6.9291369464e+00  0.006551684  0.006312809  64.05 8.867867e-05    1.071    0.066
        33  -8.6921     84.7921      3.0735   2.9086293938e+02   7.2312920917e+00   0.01313344  0.008493992 -14.45  0.001231762    2.110    0.526
        34  -8.3225     58.2331      2.7010   2.9116837045e+02   7.3947143605e+00   0.01461905  0.009059057  14.65  0.001414423    1.852    0.460
        35  -8.3665    158.5880      1.8636   2.9000118941e+02   6.8017722086e+00   0.01554541  0.008154058   8.93  0.001254301    2.790    0.642
        36  -8.8302     12.1769     93.7943   2.9226460245e+02   6.6222995116e+00   0.01366708  0.009543334 -65.71  0.000611453    1.463    0.316
        37  -9.1043    247.6773    249.8840   2.9050688481e+02   3.4138543497e+00   0.01679428  0.007402251  41.87  0.001404878    2.338    0.572
        38  -8.3486    219.5087    250.4751   2.9083501012e+02   3.5762421598e+00  0.006568158  0.006431499 -28.16 0.0001053986    1.015    0.015
        39  -7.5456    150.6755     95.6906   2.9067384590e+02   5.7709055875e+00  0.006988003    0.0049597 -25.99 0.0007037868    1.653    0.395
        40  -7.8105     82.9544     93.8468   2.9144562143e+02   6.1984819899e+00   0.01118436  0.007425015 -14.46 0.0008455786    1.995    0.499
        41  -9.3977    239.9744     93.1089   2.8962676433e+02   5.2630720858e+00   0.02259803  0.006850269  28.93  0.001608309    3.195    0.687
        42  -8.4803     43.0636     92.4990   2.9189899788e+02   6.4527288331e+00   0.01631488   0.01121338   0.57    0.0016419    1.802    0.445
        43  -8.1088    109.7971     91.0608   2.9111787267e+02   6.0696190063e+00   0.01341636  0.008592314 -12.96  0.001243232    2.168    0.539
        44  -8.2348     96.5561     90.4357   2.9126718087e+02   6.1562205194e+00   0.01629676  0.009324004 -24.17  0.001385079    2.561    0.610
        45  -8.4452     33.6930     83.3466   2.9195103821e+02   6.6140757562e+00   0.01798823   0.01420726 -82.59  0.001688345    1.414    0.293
        46 -10.1282     38.7870     80.3238   2.9187340234e+02   6.6184212747e+00   0.03553842   0.02067868 -17.90  0.001200995    2.666    0.625
        47  -7.4945    127.5274     82.9909   2.9086292498e+02   6.0560505526e+00  0.009496801  0.004863401 -39.11 0.0008044324    2.280    0.561
        48  -8.4566     66.1398     84.6784   2.9158360715e+02   6.4046898473e+00   0.01694868  0.009776139 -12.27  0.001388641    2.843    0.648
        49  -8.9313      2.3101     83.1737   2.9231342772e+02   6.8034111479e+00   0.02497262  0.007814235 -45.85  0.001702251    3.532    0.717
        50  -9.8801      7.7976     77.5046   2.9221492243e+02   6.8359258909e+00   0.02189905    0.0150344 -32.45   0.00160508    1.645    0.392
        51  -8.0529    247.6718     80.3181   2.8945873704e+02   5.3636507341e+00  0.006994927  0.004989536  62.76 0.0001459061    1.681    0.405
        52  -8.7705     88.3789     78.9461   2.9129081144e+02   6.3374412582e+00   0.02737469   0.01361805   1.40  0.001846757    4.217    0.763
        53  -7.7839    184.4695     78.0105   2.9017395785e+02   5.7709925975e+00  0.009889104  0.006489815 -61.99 0.0005590043    1.521    0.343
        54  -8.6003     49.3389     77.0426   2.9173097019e+02   6.5930896102e+00   0.02217877   0.01241527   2.44  0.001840684    2.735    0.634
        55  -7.6837    105.3382     76.3260   2.9107838085e+02   6.2658938405e+00  0.007138254  0.004926051 -26.36 0.0004850391    1.726    0.421
        56  -9.7462     28.7924     69.0943   2.9191986059e+02   6.8073683900e+00    0.0235374   0.01379946  -7.06  0.001990163    2.687    0.628
        57  -9.2831     23.7690     73.8919   2.9200764525e+02   6.7821672648e+00    0.0218547   0.01069289 -44.13  0.001895268    2.170    0.539
        58  -7.9317     23.4877     69.4623   2.9198357630e+02   6.8348193703e+00   0.01212033   0.01018321  40.08 0.0006253722    1.202    0.168
        59  -8.3124     75.0100     74.1261   2.9141576244e+02   6.4729982726e+00  0.009808337  0.009397701  -6.24 0.0003605993    1.057    0.054
        60  -7.8884    129.0321     69.4501   2.9076177043e+02   6.2027647960e+00  0.009554283  0.005718371  -6.95 0.0008081409    2.553    0.608
        61  -7.2931    116.7138     68.3204   2.9089726999e+02   6.2897206980e+00   0.00676439   0.00504949  66.34 0.0005923315    1.595    0.373
        62  -7.8636    106.0744     67.1734   2.9101327185e+02   6.3667608802e+00   0.01206615   0.00821809  13.13  0.001231326    1.650    0.394
        63  -8.6403     83.5140     64.5872   2.9125837834e+02   6.5317879507e+00   0.02290007   0.01218013 -28.66  0.001865687    2.770    0.639
        64  -8.6631     15.8332     63.6685   2.9203650249e+02   6.9471874073e+00   0.01566047   0.01136257  -7.63  0.001498127    1.678    0.404
        65  -8.2559     19.4678     61.4664   2.9198080649e+02   6.9508241700e+00   0.01066234  0.009107023 -76.42 0.0007964799    1.233    0.189
        66  -9.7828     62.2142     61.3794   2.9148515473e+02   6.6962624450e+00   0.04061545    0.0157386  17.21  0.002406935    3.861    0.741
        67  -7.3732    122.3850     61.2982   2.9078822087e+02   6.3364331120e+00  0.007154614  0.004942955 -22.31 0.0003202422    1.776    0.437
        68 -10.0887     36.5474     58.8699   2.9176691883e+02   6.8786617298e+00   0.02280207   0.01688001  -0.98  0.002434481    1.592    0.372
        69  -7.9439    111.2249     58.2760   2.9089864150e+02   6.4381849591e+00    0.0124634  0.009451422 -20.88 0.0007524716    1.521    0.343
        70  -7.8046    195.0670     58.2572   2.8992918733e+02   5.9342483449e+00  0.009070176  0.008358533  22.25 0.0003205433    1.092    0.085
        71  -7.5824     49.5193     58.4928   2.9161433840e+02   6.8054350490e+00  0.006505291  0.006488501 -76.92  7.41872e-05    1.018    0.017
        72  -8.3356     98.8841     55.2435   2.9102269740e+02   6.5471042226e+00   0.01875522  0.005400018 -53.52   0.00133588    3.094    0.677
        73  -9.9911     74.9137     50.5354   2.9127107808e+02   6.7449414811e+00   0.02468473   0.01469548 -37.33 0.0004401657    1.902    0.474
        74  -9.6710     45.3365     49.2291   2.9160555963e+02   6.9370106415e+00   0.02200357   0.01428362 -29.21  0.001495472    1.858    0.462
        75  -8.2892    118.3395     51.0647   2.9077169637e+02   6.4783993765e+00   0.01153252  0.009237873  24.34 0.0006028503    1.263    0.208
        76  -7.8439    106.6064     48.7022   2.9089285250e+02   6.5759936658e+00   0.01286978  0.007924621 -20.41  0.001151341    2.268    0.559
        77  -9.5776     57.2782     41.7941   2.9142127964e+02   6.9510701592e+00   0.02183497   0.01277226 -27.74  0.001432102    2.293    0.564
        78  -8.8096     10.5058     47.0966   2.9199596445e+02   7.1696302990e+00   0.01560148   0.01049084 -58.18 0.0007691342    1.456    0.313
        79  -8.7523      6.9952     47.7751   2.9204083769e+02   7.1827736031e+00   0.02561607  0.009805705  39.41  0.001633605    2.579    0.612
        80  -9.3979     13.5230     45.5179   2.9195125219e+02   7.1697795646e+00   0.02871669    0.0152157 -37.98  0.002055232    2.220    0.549
        81  -9.2351    249.9973     43.8496   2.8920579549e+02   5.7685257606e+00    0.0143918   0.01008912 -58.69 0.0004389444    1.404    0.288
        82  -7.2992    142.6773     44.6501   2.9045043330e+02   6.4059211736e+00    0.0071991   0.00487883 -28.43 0.0007048672    1.748    0.428
        83  -8.0148    113.0724     42.4746   2.9077947679e+02   6.6087850234e+00   0.01465066  0.006732183 -32.57  0.001042234    3.498    0.714
        84  -7.2825    124.4289     39.5604   2.9063001845e+02   6.5740886960e+00  0.006651738  0.006233903 -28.79 0.0001046879    1.079    0.073
        85 -10.0367     90.9376     38.2894   2.9100979683e+02   6.7897127623e+00   0.02895672   0.01365727  30.64  0.002569261    2.065    0.516
        86  -7.0700    165.2942     38.2749   2.9014940722e+02   6.3431491745e+00  0.006645382  0.004978127 -25.02 0.0002753666    1.524    0.344
        87  -9.1293     67.1082     37.6830   2.9128199686e+02   6.9394908624e+00   0.01288036  0.009473317 -52.72 0.0007492644    1.332    0.249
        88 -10.5564    195.8437    248.4660   2.9109536784e+02   3.7414290266e+00   0.02741422   0.01473702  37.45  0.002584982    1.832    0.454
        89  -9.3870     56.3742     35.3112   2.9139166963e+02   7.0310265514e+00   0.01442113   0.01256421  13.42 0.0008213882    1.185    0.156
        90  -9.3145     38.4086     35.4283   2.9160054609e+02   7.1371501182e+00   0.02237439   0.01212676  10.14  0.001907674    2.503    0.600
        91  -7.6703     19.2837     35.6866   2.9182377727e+02   7.2484540969e+00   0.01037999  0.006623337  30.22 0.0004419918    1.553    0.356
        92  -8.6029     23.0095     35.9881   2.9178245823e+02   7.2227358199e+00   0.01281725  0.009995739  14.68 0.0006223344    1.359    0.264
        93  -9.1867     21.9790     32.0950   2.9177035156e+02   7.2736576165e+00   0.01456542   0.01344032  41.34 0.0003114223    1.098    0.089
        94  -8.6912     71.9889     35.1674   2.9120990804e+02   6.9391800154e+00   0.01638601  0.009494902  12.38  0.001495822    2.125    0.530
        95  -7.5821    244.3135     34.2946   2.8921208188e+02   5.9125475457e+00  0.006845165  0.004978336 -25.38 0.0002804117    1.598    0.374
        96  -7.5126    250.4514     32.4838   2.8913003690e+02   5.8962816242e+00  0.006541621  0.006424325 -36.40 0.0002975778    1.009    0.009
        97  -7.1543    190.8036     31.9802   2.8981555393e+02   6.2618552048e+00  0.008711795  0.005136361 -61.00 0.0002509466    1.681    0.405
        98  -9.2626      1.9184     28.3657   2.9197986048e+02   7.4362746746e+00   0.02916268  0.008928681 -56.20  0.002150721    2.927    0.658
        99  -9.4496     42.1445     27.2356   2.9150661173e+02   7.2090083163e+00   0.01794703   0.01264473 -64.58  0.001034091    1.439    0.305
       100  -9.0557    155.1809    249.1892   2.9156869113e+02   3.9770406596e+00  0.009670614  0.007956103  62.82  0.001094057    1.346    0.257
       101  -9.3103     66.8277    246.2030   2.9256990450e+02   4.5404131264e+00   0.01145575   0.01006297 -33.71  0.001359792    1.167    0.143
       102  -9.3312     69.1965     25.8378   2.9118453449e+02   7.0631619527e+00    0.0234146   0.01177157  29.59  0.002123841    1.958    0.489
       103  -9.3333    176.4953    241.9038   2.9127803331e+02   3.9330604582e+00   0.01099236  0.009168489  56.40 0.0005721574    1.287    0.223
       104  -7.1680    118.3109     24.3340   2.9060651583e+02   6.7858399338e+00   0.00706463  0.004907493 -28.44 0.0007043848    1.678    0.404
       105  -8.6587    235.1955    239.0448   2.9058381968e+02   3.6135097809e+00   0.01281441  0.009673712 -89.43  0.001371075    1.574    0.365
       106  -8.4314    140.3112     20.0447   2.9032535437e+02   6.7029099409e+00   0.01233121   0.01010228 -12.97 0.0004702639    1.360    0.265
       107  -8.5423     92.8305     20.9650   2.9088064180e+02   6.9774996988e+00    0.0136657  0.009497557   9.00  0.001245574    1.662    0.398
       108  -7.6337    155.8798     19.8127   2.9014382770e+02   6.6119253249e+00  0.009466598  0.007700731  57.93  0.001066618    1.341    0.254
       109  -8.0172     91.7073    241.7096   2.9225511674e+02   4.4433744055e+00  0.006740606  0.004959283 -27.00 0.0003262224    1.549    0.354
       110  -9.1523     62.3706     25.6957   2.9126273080e+02   7.1056758581e+00   0.02628542    0.0118975 -40.92  0.001063416    2.594    0.615
       111  -7.8275    111.9817     19.2913   2.9064853927e+02   6.8817964930e+00  0.008973347  0.008283984  18.92 0.0002651772    1.093    0.085
       112  -8.5704      4.7114     18.7559   2.9188812012e+02   7.5300945787e+00   0.01149299  0.009495477  32.01 0.0008895604    1.209    0.173
       113  -7.1590    151.3432     18.2836   2.9018681820e+02   6.6567872480e+00  0.006903681  0.004992343 -22.47 0.0007015466    1.638    0.390
       114  -9.1050    188.0847    234.1864   2.9109685974e+02   3.9523309158e+00   0.01172862   0.01017468 -85.87 0.0008743205    1.245    0.197
       115  -8.1010      1.6707    234.9970   2.9325357170e+02   5.0584387573e+00  0.008992393  0.008304298 -58.91 0.0002795533    1.075    0.070
       116  -7.3361    186.6604    229.7308   2.9108583286e+02   4.0121596453e+00  0.006807462  0.005005575 -21.14 0.0003317088    1.602    0.376
       117  -8.2071     44.9182    224.7844   2.9269145872e+02   4.9180664083e+00    0.0110499  0.009370398 -58.48 0.0005896501    1.167    0.143
       118  -7.8774    128.9729     22.3082   2.9047057242e+02   6.7450615287e+00   0.00930566  0.008472955   7.03 0.0008184935    1.131    0.116
       119  -7.5323    189.3165     15.6579   2.8973149930e+02   6.4582833708e+00  0.007025891  0.005008223  65.02 0.0007048558    1.712    0.416
       120  -8.7791    121.2100     15.2165   2.9051647151e+02   6.8731895277e+00   0.01186837  0.006369067 -27.70 0.0009528907    2.784    0.641
       121  -7.3411     63.4686    201.5633   2.9233454977e+02   5.0747191146e+00  0.006660224  0.006278149 -25.40 0.0001550818    1.075    0.069
       122  -8.6193      9.7167     19.4794   2.9183455541e+02   7.4919097383e+00   0.01651388   0.01197762 -15.82  0.001075324    1.669    0.401
       123  -7.6809    187.9277    177.5543   2.9074943713e+02   4.6050452935e+00  0.009691602  0.006542475  24.20 0.0004951229    1.516    0.340
       124  -7.4863    107.3462    151.3478   2.9151835280e+02   5.3903789497e+00  0.007290751  0.004874515 -27.18 0.0007042379    1.808    0.447
       125  -9.1521     67.2873    144.6931   2.9194045796e+02   5.7069136648e+00   0.02243818   0.01440185  51.99  0.002234247    1.763    0.433
       126  -7.7781    201.6545    140.6701   2.9036319701e+02   4.9469184434e+00  0.007189561  0.004920239 -26.17  0.000705025    1.755    0.430
       127  -7.2911    139.8007    138.3973   2.9106340541e+02   5.3447875433e+00   0.00867819  0.006413128  11.03   0.00033901    1.496    0.332
       128  -7.3212    193.4940    127.4859   2.9037587581e+02   5.1476783660e+00  0.006531633  0.006476472  69.33 0.0001063811    1.028    0.027
       129  -8.4793    129.0954    124.3542   2.9110040527e+02   5.5706788147e+00    0.0103885  0.008585576 -46.38 0.0004653497    1.204    0.169
       130  -9.9325    242.3436    119.9953   2.8976592143e+02   4.9397276407e+00   0.01435943   0.01304802 -37.52 0.0002761759    1.108    0.097
       131  -8.6108     12.2975    121.2026   2.9243200271e+02   6.3060100801e+00   0.01408021  0.004849493 -54.17  0.001076424    2.655    0.623
       132  -7.0460     85.6729    121.6530   2.9158578911e+02   5.8621339295e+00  0.007207796  0.004882128 -28.17 0.0007049866    1.752    0.429
       133  -7.5934     53.1621    112.3601   2.9190459234e+02   6.1637123599e+00  0.009487184  0.005759052  38.61 0.0003532446    1.642    0.391
       134  -9.1521      2.3131    109.3868   2.9247484631e+02   6.5016248192e+00   0.01521533   0.01026216 -26.83  0.001523375    1.784    0.439
       135  -7.9013     31.5060    108.5421   2.9213169598e+02   6.3371109057e+00  0.006543473  0.006434564 -25.40  9.48792e-05    1.010    0.010
       136  -7.6120    123.8783    107.3499   2.9105568283e+02   5.7976878977e+00   0.00954535  0.006275059  11.23 0.0007901927    1.772    0.436
       137  -7.8633    133.7849    106.2081   2.9093410068e+02   5.7513575505e+00  0.009556992  0.007614317 -28.84 0.0008186709    1.359    0.264
       138  -7.6911    109.2393    106.5442   2.9121997807e+02   5.8947893950e+00   0.00936597  0.006488565   8.38 0.0009486281    1.680    0.405
       139  -9.2519     14.7738    104.9705   2.9230338720e+02   6.4781371786e+00   0.01965651   0.01163131 -20.79  0.001714249    2.471    0.595
       140  -7.6129     66.3372    105.3085   2.9170864480e+02   6.1660649172e+00  0.007035018    0.0049557 -25.28  0.000308456    1.680    0.405
       141 -10.1776    246.4551    102.0597   2.8960746237e+02   5.1211266845e+00   0.02379164   0.01460813  66.85  0.002150716    2.324    0.570
       142  -7.8091     93.5071    103.4714   2.9138296153e+02   6.0244789197e+00   0.01165783  0.006603593  11.04  0.001026005    2.266    0.559
       143  -7.5221    129.8028     97.3857   2.9092561005e+02   5.8767797491e+00  0.009632183   0.00637459   9.82 0.0009477317    1.781    0.439
       144  -9.7509      7.5366     96.5181   2.9233511721e+02   6.6186288479e+00   0.02781464   0.01200509  14.03  0.001968345    3.591    0.722
       145  -9.6224     16.1781     95.1363   2.9222653891e+02   6.5829714243e+00   0.02031042   0.01472425  66.84  0.001426203    1.680    0.405
