#   1 NUMBER                 Running object number                                     
#   2 MAG_AUTO               Kron-like elliptical aperture magnitude                    [mag]
#   3 X_IMAGE                Object position along x                                    [pixel]
#   4 Y_IMAGE                Object position along y                                    [pixel]
#   5 X_WORLD                Barycenter position along world x axis                     [deg]
#   6 Y_WORLD                Barycenter position along world y axis                     [deg]
#   7 A_WORLD                Profile RMS along major axis (world units)                 [deg]
#   8 B_WORLD                Profile RMS along minor axis (world units)                 [deg]
#   9 THETA_WORLD            Position angle (CCW/world-x)                               [deg]
#  10 FWHM_WORLD             FWHM assuming a gaussian core                              [deg]
#  11 ELONGATION             A_IMAGE/B_IMAGE                                           
#  12 ELLIPTICITY            1 - B_IMAGE/A_IMAGE                                       
         1 -11.1111     80.3149     26.4495   4.2544455612e+01   5.9921026201e+01     0.878058    0.2408604 -41.41  0.002805962    4.738    0.789
         2 -10.0347     90.2642     24.2278   3.8453164825e+01   5.8291726568e+01    0.2331002    0.1687076 -42.54 0.0008942643    1.662    0.398
         3 -11.9667     35.5811     11.9759   5.3672428689e+01   6.8771233850e+01    0.3448496    0.2586082  48.27  0.001996495    2.154    0.536
         4 -11.2423     42.0362     10.0535   4.9858444519e+01   6.8198593330e+01    0.4584675    0.2088821  35.96  0.001692867    2.178    0.541
         5 -11.1499     16.7205     20.9218   6.6625815699e+01   6.9334084506e+01    0.3827992    0.2776087  18.49  0.002695013    1.521    0.343
         6  -9.9764     22.9481      8.9559   5.8295340776e+01   7.0606826590e+01    0.1748151    0.1320018  -9.61 0.0008989298    1.044    0.042
         7 -12.2321     24.3239     18.1082   6.1759883818e+01   6.9105143717e+01    0.2368959    0.1639598 -15.47 0.0003745534    1.206    0.171
         8 -10.9546     25.9852     13.0413   5.8704345859e+01   6.9704499616e+01     0.249584    0.1926016 -29.02  0.001004528    1.241    0.195
         9 -12.1261    125.2348     17.5058   2.6783723203e+01   5.1329902757e+01    0.3770346    0.2497716 -16.15 0.0002781739    1.684    0.406
        10 -10.7688    203.3590     11.8578   1.2971714818e+01   3.2299781510e+01    0.2290925    0.1891396  65.72 0.0001670284    1.190    0.160
        11 -11.7817    125.5767     10.0896   2.4029712371e+01   5.1988340765e+01    0.5209496    0.2534296 -40.67  0.002315701    2.421    0.587
        12  -9.3994     65.0000     11.4888   4.1345856875e+01   6.4510329466e+01    0.2682993   0.06531649 -29.76 0.0009490598    4.051    0.753
        13 -12.6244     55.1274      9.8943   4.4334145220e+01   6.6311803512e+01    0.4028614    0.2285962  20.48  0.001279523    1.805    0.446
        14  -9.6714     54.6372      4.7257   4.2038609531e+01   6.6978854603e+01    0.1927703    0.1391736  10.99 0.0007450937    1.176    0.150
        15  -9.7717      3.4824      9.5459   6.8733342003e+01   7.2151206508e+01     0.164881   0.09713655 -37.73 2.888346e-05    1.280    0.219
        16 -10.2157      2.8958      6.4383   6.7704615522e+01   7.2676017741e+01    0.2592044    0.1516206  10.94  0.001544584    1.743    0.426
        17 -10.5491     11.4948     11.0364   6.5116906327e+01   7.1335480918e+01     0.218869    0.1722741 -42.89  0.001616532    1.457    0.314
        18 -10.1408      8.0433      8.7847   6.5947455377e+01   7.1948778300e+01    0.2178538    0.1982819  52.19 0.0004868263    1.985    0.496
        19 -10.1553    164.8766     11.0370   1.7564807905e+01   4.2117862607e+01    0.2096169    0.1670517 -73.51 0.0005454824    1.327    0.246
        20  -9.9787     96.9076     10.3034   3.0826218735e+01   5.8478884867e+01    0.2138895     0.175282 -34.02  0.001292718    1.422    0.297
        21 -10.0349     85.2664     10.7699   3.4323174401e+01   6.0833127951e+01    0.3459392    0.1216491  34.76  0.001164108    3.370    0.703
        22 -10.0536     79.0369     10.9668   3.6334179397e+01   6.2027673049e+01    0.1979883    0.1537789  22.91 0.0005385357    1.105    0.095
        23 -10.2714    176.8377      9.8428   1.5569493951e+01   3.9189644615e+01    0.2207418    0.1824527 -56.81 0.0002504825    1.255    0.203
        24 -11.7045     28.8859      6.5627   5.4217012509e+01   7.0294005849e+01    0.3947268    0.2523929 -41.97  0.002481766    1.856    0.461
        25 -12.5387     20.1275      2.3113   5.6470972333e+01   7.1809621123e+01    0.2950004    0.2016478  -1.06  0.002073325    1.226    0.184
        26 -10.7176     13.6212      3.0430   6.0263138217e+01   7.2334935331e+01    0.1926405    0.1675055 -19.57 0.0008912871    1.417    0.294
        27 -10.1268    116.3761      8.0913   2.5234551830e+01   5.4343079042e+01    0.1875925     0.177464 -59.90 0.0008116361    1.264    0.209
        28  -9.8183    112.3832      5.8627   2.5267327191e+01   5.5464942153e+01    0.2366495    0.1372327  52.66  0.001207987    1.466    0.318
        29 -10.1891    247.1487      5.9248   7.6605165594e+00   2.2640256981e+01    0.1860054    0.1320659 -67.29  0.000311343    1.186    0.157
        30  -9.9981    222.3240      6.6623   9.8432015269e+00   2.8249111046e+01      0.14197   0.08084463 -64.42  0.000705111    1.719    0.418
        31  -9.3750    168.3467      6.2750   1.5659794347e+01   4.1693481229e+01    0.1418469   0.08951713  45.13 0.0005960846    1.628    0.386
        32 -10.0975    151.5861      6.1719   1.8055256999e+01   4.5943509366e+01    0.1830092      0.17197  44.91  0.001139012    1.112    0.100
        33 -11.1446    148.5032      2.3498   1.7309303640e+01   4.7051350732e+01    0.2494245    0.2184864  62.75 0.0004083883    1.011    0.011
        34 -11.3019    194.0734      4.6878   1.2118332226e+01   3.5348120710e+01    0.2337504    0.2012978  75.37  0.000225453    1.080    0.074
        35  -9.1522    108.6478      5.7345   2.6065625519e+01   5.6326304547e+01    0.1416778   0.08228213  35.96 0.0006985297    1.621    0.383
        36 -11.0736    104.5021      4.2105   2.6434166002e+01   5.7389205576e+01    0.2244447    0.1932886  52.79 0.0004048044    1.140    0.123
        37 -10.1137     48.2791      4.1382   4.4300835215e+01   6.8025761773e+01    0.1964613    0.1514232  24.14  0.001333325    1.206    0.171
        38  -9.8310     44.1683      4.1416   4.6031137308e+01   6.8626370604e+01    0.1955626    0.1282786  28.65 0.0004379193    1.397    0.284
        39  -9.9253    224.1818      3.6290   8.9777372235e+00   2.8129538322e+01    0.1711232    0.1031177  66.36 0.0001395136    1.568    0.362
        40  -9.6139     70.5691      5.2390   3.6511950470e+01   6.4201495109e+01    0.1637759     0.104394  -1.53 0.0003519611    1.583    0.368
        41  -9.6205     34.5826      3.2461   4.9854463522e+01   7.0028362662e+01    0.1716352   0.08918864 -19.77 0.0009595053    1.808    0.447
        42 -10.4201    138.0789      1.9819   1.8867613002e+01   4.9667644023e+01    0.1984683    0.1742902  57.53 0.0003778921    1.016    0.016
        43  -9.7160    245.2657      1.3688   6.8339499276e+00   2.3549911388e+01    0.1566666    0.0990306 -87.15 0.0003274195    1.416    0.294
        44  -9.5266     84.8255      1.3059   3.0325278617e+01   6.1823958236e+01     0.175127   0.09265764  45.32 0.0003520084    1.590    0.371
        45 -10.6702     30.0651      1.3333   5.1007596020e+01   7.0823470986e+01    0.1885124   0.09360384  32.42 0.0003883653    1.982    0.496
        46 -10.5722     13.0264    129.5582   9.1955506447e+01   4.6665608157e+01    0.4029273    0.1562663  37.02  0.001996726    2.757    0.637
        47  -9.3921    109.6934    250.7159   8.4186870163e+01   9.0224131951e+00    0.1054581   0.08736981  24.36 0.0003032516    1.563    0.360
        48 -12.2884      1.6289    233.6688   1.0168433274e+02   2.5750858797e+01    0.5864602    0.2558346 -88.83  0.002331156    1.888    0.470
        49 -12.2006      9.8904    245.4834   1.0090337473e+02   2.2822008294e+01    0.3284193    0.1997557 -77.71  0.001617353    1.600    0.375
        50 -11.3523      2.5477    248.0161   1.0214316519e+02   2.3113873232e+01    0.2906368    0.2606147  85.04  0.002074259    1.581    0.367
        51 -11.8243      4.7541    243.4057   1.0161265694e+02   2.3702768630e+01    0.3366891    0.1347276  53.57  0.001587978    1.803    0.445
        52 -11.7744      6.7333    240.0000   1.0115362008e+02   2.4111694739e+01    0.2776422    0.2173795 -79.96  0.001759927    1.485    0.327
        53  -9.2327     52.6630    129.7239   8.1320350268e+01   4.2838129491e+01    0.1300077   0.09687567 -35.21 0.0003983825    1.610    0.379
        54 -10.4750    247.4860    126.9901   3.5091030873e+01   4.9904414787e+00    0.2152043    0.1242016 -36.47 0.0005430595    1.558    0.358
        55  -9.9206     78.5091    126.7585   7.3548859806e+01   4.0073101500e+01    0.2103987    0.1781216  76.67   0.00033679    1.252    0.202
        56  -9.5340     65.1159    125.1652   7.7022721461e+01   4.2358614037e+01    0.1784014    0.1481271  85.20 0.0002392466    1.250    0.200
        57 -10.0801    208.6089    123.2165   4.0964204183e+01   1.3811227286e+01    0.2341983    0.2050822  65.31 0.0006220765    1.270    0.213
        58 -11.6782     11.4523    120.7345   9.1339644585e+01   4.8807770188e+01    0.3680477    0.2481536 -19.12 0.0003946096    2.120    0.528
        59  -9.9425     27.0480    121.4809   8.7160250851e+01   4.7412961112e+01    0.1590058      0.12623  28.66 0.0009662512    1.531    0.347
        60 -11.2917     69.2500    115.1624   7.3833375633e+01   4.4174220281e+01    0.3169984    0.2589327 -77.02 0.0003034021    1.238    0.192
        61 -10.9776     39.8288    113.6368   8.2258757204e+01   4.8060054266e+01    0.4660415    0.1807163 -49.71  0.001993768    2.345    0.574
        62 -12.9727     23.4119    113.3062   8.7000846824e+01   4.9624726982e+01     0.281752     0.240588 -57.36 0.0004594227    1.138    0.122
        63 -11.2768      2.6617    111.9452   9.2693395963e+01   5.1378999007e+01     0.238412    0.1590358 -70.99 0.0003347813    1.146    0.127
        64  -9.8979     62.9350    110.2155   7.4678635472e+01   4.6196540640e+01    0.1697538    0.1129121  34.63 0.0002993397    1.667    0.400
        65 -11.3037     13.8572    107.4457   8.8924175158e+01   5.1692801492e+01    0.3860631    0.1328279 -55.97   0.00163136    2.210    0.548
        66 -10.5967     17.5368    105.4987   8.7554216875e+01   5.1879793018e+01    0.1749161    0.1251713  16.33 0.0006567276    1.785    0.440
        67 -10.5722      6.1837    106.8680   9.1070724971e+01   5.2320802561e+01    0.1742764    0.1339823 -87.78 0.0003803846    1.206    0.170
        68 -10.9443    247.7513    101.8747   2.9320805646e+01   9.0418175653e+00    0.2426486    0.2122267 -32.43 0.0008387908    1.055    0.052
        69  -9.8255    112.5465    102.4459   5.8075467292e+01   3.9750052739e+01    0.1504778    0.1468041 -39.00 5.443802e-05    1.003    0.003
        70  -9.8920     24.2809     90.0484   8.2822939142e+01   5.4900177569e+01    0.1917661    0.1402334 -45.50 0.0003835672    1.233    0.189
        71 -11.8831     18.6375     97.9904   8.6035293693e+01   5.3519588956e+01    0.5692933    0.2912918 -75.99  0.002331504    1.866    0.464
        72 -10.2573     21.0026     92.4879   8.4340185705e+01   5.4597719123e+01    0.2423611    0.1431398 -57.87 0.0003532887    1.335    0.251
        73  -9.5622    217.7433     98.4133   3.3208988554e+01   1.6186743480e+01    0.1972323     0.139169  43.60  0.000637193    1.529    0.346
        74  -9.3978    139.7074     98.3015   4.9620035247e+01   3.4804647544e+01    0.1555494    0.1255622 -83.26 0.0002032249    1.570    0.363
        75 -11.6934     58.2155     92.5853   7.2189177173e+01   5.0885164427e+01    0.4954327    0.3621676 -47.49  0.002014506    1.211    0.174
        76  -9.9968     44.2725     93.9842   7.7067496421e+01   5.2175238378e+01    0.1906644    0.1524526 -56.18 0.0006612681    1.068    0.064
        77 -10.5295      8.6047     92.0386   8.8223871891e+01   5.5525726496e+01    0.3867567    0.2094179  74.67  0.001836939    2.672    0.626
        78 -11.2098    125.3248     93.0072   5.1898057773e+01   3.9114309083e+01    0.2656412    0.2221939  42.28  0.000229717    1.206    0.170
        79 -12.3856    159.7761     89.3945   4.2241079792e+01   3.1838764303e+01    0.5308519    0.3533571  31.59  9.86029e-05    1.804    0.446
        80 -11.1494    113.8619     91.9399   5.4778427106e+01   4.1760340513e+01    0.2913223    0.2328954  27.96   0.00143072    1.349    0.259
        81 -10.7154    105.7104     91.9103   5.7127281974e+01   4.3395523610e+01    0.2684503    0.2212892  49.70 0.0003498968    1.287    0.223
        82  -9.4478     66.5618     91.5324   6.9207814188e+01   5.0021883614e+01    0.1389459    0.1239892 -45.91 5.676545e-05    1.006    0.006
        83  -9.6653      1.4843     90.5124   9.0232184217e+01   5.6260174423e+01    0.2633007   0.08497997 -67.26   0.00121717    2.241    0.554
        84 -13.7589     65.4099     81.7978   6.7021358601e+01   5.2336454437e+01    0.4522234    0.4264948 -76.28  0.000814426    1.204    0.170
        85 -10.7363      5.4796     83.3976   8.7840485012e+01   5.7625543078e+01    0.3809434    0.1677793  31.50   0.00202937    2.730    0.634
        86 -10.8086      9.5998     79.8438   8.5840282533e+01   5.8175887922e+01    0.2942383    0.1885456  45.56  0.001790012    2.008    0.502
        87 -10.9836      5.3785     75.1309   8.6437250063e+01   5.9439677505e+01    0.2768331   0.09541076 -68.72   0.00124694    2.457    0.593
        88  -9.0086     27.4760     82.4667   8.0225708877e+01   5.6344723414e+01    0.1292791   0.09946833 -47.07 -1.001739e-06    1.110    0.099
        89  -9.5684     84.6301     79.7428   6.0075101729e+01   4.9822332681e+01    0.2114805    0.1550321  -8.01  0.001020786    1.712    0.416
        90  -8.1222     88.0597     76.3514   5.7947539193e+01   4.9936946554e+01    0.4379991    0.2119693 -33.51  0.001109178    2.386    0.581
        91 -11.0887     47.7842     79.3285   7.2426665380e+01   5.5079102621e+01    0.2995418    0.2386462 -70.63  0.001060822    1.375    0.273
        92 -10.2711     22.9531     77.5854   8.0759155190e+01   5.7778679707e+01     0.385832    0.2077055  86.31   0.00155789    3.875    0.742
        93 -10.4529    180.4994     76.4279   3.4162511454e+01   2.9064988540e+01    0.2416223    0.2009296 -48.99 8.112256e-05    1.212    0.175
        94 -10.2634    176.7849     76.6318   3.4953826567e+01   2.9962528923e+01    0.3688567    0.2551319  68.95  0.001637176    1.599    0.374
        95 -10.0500     75.0038     76.8011   6.2366187605e+01   5.1998296216e+01    0.1882405    0.1796446 -78.48 0.0002519367    1.223    0.182
        96 -10.0045     53.2726     75.9920   6.9618391796e+01   5.5165231036e+01    0.2320622    0.1710196  49.27  0.001285685    1.705    0.414
        97 -10.5718     11.9566     76.4319   8.4386155401e+01   5.8781978783e+01    0.1935995    0.1120084  -3.27  0.001088033    2.286    0.563
        98  -9.6428    116.9960     71.9741   4.7827839260e+01   4.5120032248e+01    0.3692233    0.1885209  23.37  0.000778668    4.175    0.761
        99  -9.7066    105.7247     71.9540   5.1088015751e+01   4.7480217985e+01    0.1904775    0.1861039 -11.68 0.0004589569    1.059    0.056
       100  -9.0354    142.2839     71.7073   4.1111206851e+01   3.9379072244e+01    0.1501488    0.1218126 -76.59 0.0003221884    1.537    0.349
       101  -9.7726     91.0310     69.9590   5.4987671579e+01   5.0691143481e+01    0.2097547    0.1762117 -89.71 0.0004301659    1.665    0.399
       102 -10.7021     76.7176     69.9577   5.9701435297e+01   5.3138282813e+01     0.273282    0.2120236  28.39 0.0008287257    1.356    0.263
       103 -12.6538     81.0294     66.9469   5.7289221832e+01   5.3031809505e+01    0.3250896    0.2620032 -33.73 0.0004615536    1.152    0.132
       104  -9.2707      1.4432     70.4796   8.6971992709e+01   6.0639756606e+01    0.1180713   0.08748952 -56.03 0.0002220165    1.027    0.026
       105 -10.5236    131.4737     68.8884   4.2935807595e+01   4.2441697242e+01    0.2688302    0.2174588  17.85 0.0002910692    1.390    0.281
       106 -10.0368     45.1717     68.2078   7.0382468727e+01   5.7750614165e+01    0.2605386    0.2139265 -87.40  0.001545941    1.657    0.396
       107  -9.3601     11.6882     69.6998   8.3126329888e+01   6.0254519557e+01    0.1246229   0.06881794 -40.30 0.0004602171    1.605    0.377
       108 -11.9498    211.9835     67.3448   2.6231889979e+01   2.2735912181e+01    0.2655093    0.2466868 -57.34 0.0003755527    1.029    0.028
       109 -11.8755     17.0746     64.5816   7.9988011424e+01   6.0997888713e+01    0.3187209    0.2792675 -37.19 0.0005413405    1.132    0.117
       110 -13.6242     21.0176     58.4362   7.6938472342e+01   6.1997425286e+01    0.4007864    0.2589378 -45.97 0.0008497109    1.218    0.179
       111 -11.3223      7.7347     63.0017   8.3168899193e+01   6.1904451545e+01    0.2879119    0.2063987 -60.28 0.0003402822    1.151    0.131
       112 -11.8228     11.6988     59.6938   8.0900204582e+01   6.2365874392e+01    0.2282413    0.2037551 -22.18 0.0002880455    1.222    0.182
       113  -9.8020     68.6925     65.5898   6.1089568587e+01   5.5252043754e+01    0.2391475    0.1585113 -61.93  0.001157268    1.939    0.484
       114  -9.6071     64.3673     64.1805   6.2175920394e+01   5.6161342892e+01    0.2785991    0.1057776 -41.24  0.001092149    2.455    0.593
       115  -9.4196    166.4678     64.5233   3.3515817732e+01   3.4626970170e+01    0.1517809    0.1473236  75.37 3.168396e-05    1.013    0.013
       116 -10.9005    128.3465     63.5499   4.2026706194e+01   4.4112915757e+01    0.2420232    0.2338703   3.01  0.000167241    1.023    0.022
       117 -10.7666     51.9205     63.6946   6.6564525954e+01   5.7900934839e+01    0.2393199    0.1685692 -46.38 0.0002001806    1.258    0.205
       118  -9.8045     49.5466     59.5689   6.6181703276e+01   5.9016488640e+01     0.216487    0.1576138 -76.89  0.001129366    2.147    0.534
       119  -9.7791    119.9230     62.6084   4.3965775315e+01   4.6189257690e+01    0.1969415    0.1790256  35.08  0.001059527    1.072    0.067
       120 -10.8775     97.9613     60.8402   4.9779898457e+01   5.1108638316e+01    0.2386834    0.2168807  25.92 0.0004147304    1.092    0.084
       121 -10.7569     39.2302     70.0392   7.3071035686e+01   5.7987083350e+01    0.2810256    0.1971708 -82.50  0.001246028    2.039    0.510
       122 -10.2460     38.0230     60.0284   7.0734634766e+01   6.0189029174e+01    0.2028142    0.1737228 -14.27   0.00127547    1.160    0.138
       123 -11.3543     58.5567     58.9311   6.2600896101e+01   5.7999471547e+01    0.2472625    0.1924454  24.80 0.0006155277    1.369    0.270
       124  -9.9215    107.0714     56.9829   4.5704873557e+01   4.9946960273e+01     0.394057    0.1607952 -32.92  0.001056818    2.636    0.621
       125  -9.3616    130.7470     57.0224   3.9264737993e+01   4.4659855569e+01    0.1799497    0.1282081 -33.87 0.0004390621    1.438    0.305
       126  -9.9076     71.0655     56.1880   5.7134159422e+01   5.6705282685e+01    0.2390998    0.1851973 -74.25  0.001228373    2.051    0.512
       127  -9.8757    229.1860     56.3615   2.1044363760e+01   2.0291274927e+01    0.1887508    0.1640508 -81.52 0.0005528762    1.108    0.098
       128  -9.7655     54.1421     55.6622   6.3181295407e+01   5.9213134204e+01    0.1700596     0.144182 -12.65 0.0003727957    1.102    0.093
       129 -10.0871     33.2245     55.6144   7.1312480007e+01   6.1544795498e+01    0.2808927    0.1422928  -3.76   0.00101211    3.255    0.693
       130 -12.7521    115.1560     53.3003   4.2124267024e+01   4.8828839921e+01    0.3078418    0.2858217  16.00 0.0006340455    1.018    0.018
       131 -11.0241     86.4524     54.1757   5.1148515451e+01   5.4471971469e+01    0.3727911    0.2419153  20.61 0.0009369568    1.805    0.446
       132 -11.0528     65.7482     52.7787   5.7867615643e+01   5.8147338576e+01    0.4176319    0.1792808  32.17  0.001643442    2.561    0.609
       133 -12.2600     62.0231     49.7789   5.8186495895e+01   5.9240849393e+01    0.3886242    0.2115554 -43.13 0.0003868177    1.707    0.414
       134 -10.2264     98.6223     52.1092   4.6532957646e+01   5.2506939088e+01    0.4282855    0.2656279 -62.80 0.0003414722    2.960    0.662
       135 -10.8715     13.9137     49.5040   7.7420875577e+01   6.4299235706e+01     0.393197    0.1116145 -56.66  0.001243022    2.655    0.623
       136 -10.1064      1.3959     53.9960   8.3639075506e+01   6.4093424819e+01    0.1692279   0.08552865 -60.10            0    1.514    0.339
       137 -10.6796      4.4607     51.5647   8.1839491378e+01   6.4436612730e+01    0.3393987    0.1002413 -48.66  0.001187745    2.270    0.559
       138 -10.0524    225.3330     52.9645   2.0706238094e+01   2.1695586277e+01    0.2026547     0.170489 -49.63 0.0004722947    1.113    0.102
       139  -9.4044    182.4762     53.5370   2.7281832745e+01   3.2272641962e+01    0.1479799    0.1412514  76.84 0.0001729441    1.018    0.018
       140 -10.7136    137.9085     50.3345   3.5304435579e+01   4.4010086487e+01    0.3037031    0.2270744  41.95 0.0007912297    1.299    0.230
       141 -10.0935     83.3578     50.2797   5.0783129254e+01   5.5708100553e+01    0.2544963    0.1584965 -23.16  0.001020461    1.727    0.421
       142  -9.7495    106.4527     50.4287   4.3589895289e+01   5.1176169523e+01    0.1431894    0.1322152  12.70 2.487136e-05    1.006    0.006
       143 -10.2570     78.2195     50.0179   5.2439335048e+01   5.6649499814e+01    0.2169542     0.186254  25.96  0.000410191    1.174    0.148
       144 -10.3259    159.0902     48.8144   3.0225552865e+01   3.8959030591e+01    0.2138521    0.1902645 -82.84 0.0002657733    1.204    0.169
       145  -8.1552    154.8522     47.1755   3.0568378746e+01   4.0273982119e+01    0.4064232    0.1504972  54.68  0.001438531    2.444    0.591
       146  -9.9502     65.4586     46.3162   5.5653146039e+01   5.9349585593e+01    0.2528266    0.2133884  75.43  0.001436672    1.913    0.477
       147  -9.7155     53.9101     46.6367   6.0161531993e+01   6.0929443720e+01     0.201298     0.144649  -2.45 0.0007283375    1.470    0.320
       148  -9.9323      9.6567     47.2291   7.8582691198e+01   6.5016150315e+01    0.2006878    0.1140918 -21.73   0.00118572    1.837    0.456
       149 -10.1039    129.5951     45.9450   3.5818079233e+01   4.6669188450e+01    0.2316829    0.1854016  38.69  0.001199059    1.200    0.167
       150 -10.5813    103.4999     45.6788   4.2745825225e+01   5.2554563343e+01     0.273894    0.2463677 -59.30  0.001550407    1.366    0.268
       151 -10.1283    230.1170     44.7880   1.8119301110e+01   2.1721974657e+01    0.2013872    0.1646098 -68.06 0.0003310567    1.131    0.116
       152  -9.5312     79.4063     45.4942   5.0364751918e+01   5.7215614689e+01    0.1361538    0.1196938  -8.22 0.0008030393    1.018    0.018
       153 -10.2635     27.2343     43.8154   7.0101003120e+01   6.4385011923e+01    0.4030101    0.2954775  22.75  0.002635568    1.553    0.356
       154 -10.3231     16.6701     43.6367   7.4569409745e+01   6.5260008092e+01    0.3355666    0.2240361 -86.72  0.001611689    2.825    0.646
       155 -10.0366      1.9052     45.5023   8.1401253992e+01   6.5776181362e+01    0.1458555    0.1059281  -0.53   0.00102491    1.567    0.362
       156 -10.4298    116.5688     40.8159   3.7330819996e+01   5.0440045267e+01    0.4898401    0.2053266 -45.17  0.001500241    2.997    0.666
       157  -9.7053     85.7445     42.9058   4.7255898617e+01   5.6497333752e+01    0.1856639    0.1600039 -12.35 0.0004028227    1.076    0.070
       158 -11.9215    183.2233     39.9835   2.3276327451e+01   3.4013631337e+01    0.5195682    0.3314054 -87.31 0.0007415646    1.940    0.485
       159 -11.3601     37.3522     41.3753   6.4987793821e+01   6.3854378470e+01    0.3235939    0.2486749  30.70  0.001931649    1.530    0.347
       160 -11.4362    141.5688     40.9978   3.1374006778e+01   4.4478581671e+01    0.2787508    0.2010245  58.11 0.0002960901    1.321    0.243
       161  -9.4651    110.4066     41.1151   3.9106336885e+01   5.1767833640e+01    0.1994874    0.1283833 -42.79 0.0009435566    1.726    0.421
       162 -11.6257     90.9511     39.8819   4.4421067332e+01   5.5980147744e+01     0.250258    0.2301976 -32.36            0    1.217    0.178
       163 -10.5097     65.2396     39.8650   5.3301431862e+01   6.0478195153e+01    0.4375187    0.2031838  50.31  0.001779311    3.278    0.695
       164 -10.0640     58.9415     40.3552   5.5881268546e+01   6.1335126605e+01    0.2786794     0.151057 -24.51  0.001326788    2.006    0.502
       165 -10.8921     81.7646     38.5879   4.6929141308e+01   5.7904232773e+01    0.2933058    0.2332721  24.12 0.0006529974    1.191    0.160
       166 -10.8339     51.6185     38.7000   5.8130012508e+01   6.2625575382e+01    0.2381941    0.2123938  15.50  0.000619142    1.238    0.192
       167  -9.5821    191.8323     38.3287   2.1495586569e+01   3.2032307318e+01    0.1926467    0.1199158  56.81 0.0001323568    1.538    0.350
       168 -11.6751    121.4747     36.4931   3.4517526585e+01   4.9922488144e+01    0.4371313    0.2912279 -33.08   0.00165354    1.571    0.364
       169 -10.0135    102.8659     36.1069   3.9375918415e+01   5.4112682207e+01    0.1872122    0.1846039 -50.63            0    1.217    0.178
       170 -10.5851      6.5124     34.9644   7.6431853780e+01   6.7560842827e+01    0.2162284   0.07613229 -31.60 0.0009803672    2.933    0.659
       171 -10.2107     45.5984     33.9234   5.8740403792e+01   6.4202148060e+01    0.3038466    0.1261652 -40.66  0.001295649    2.130    0.531
       172  -9.5908     27.9564     33.9186   6.6362721643e+01   6.6128664340e+01     0.187654    0.1029726 -30.30 0.0005758926    1.616    0.381
       173 -11.9686    212.9691     31.9273   1.6982951638e+01   2.7563119027e+01    0.2534248    0.2261209 -78.91 0.0003100863    1.005    0.005
       174 -10.0430    127.8529     32.8264   3.1672630983e+01   4.8907658990e+01    0.2096776    0.1753528  35.02 0.0003496024    1.134    0.118
       175  -9.9953     55.0951     32.9439   5.4478939519e+01   6.3099674644e+01    0.1843317    0.1498728  -9.54            0    1.039    0.037
       176 -11.3968    144.4243     31.0539   2.7465597163e+01   4.5079680572e+01    0.3551239    0.2508056 -41.02 0.0007032267    1.535    0.348
       177 -10.4592     31.6726    248.0437   9.7555002456e+01   2.0018053096e+01    0.1776638    0.1522627 -61.50  0.001406523    1.783    0.439
       178  -9.7459    227.1241     30.4534   1.5009125676e+01   2.4330342036e+01    0.2249947    0.1414981 -41.31 0.0005768653    1.497    0.332
       179  -9.4304     89.3517     31.2974   4.1582692396e+01   5.7539252021e+01    0.1438322   0.09479655  17.02 0.0007035023    1.689    0.408
       180 -12.3404     11.0990     29.8710   7.2652146053e+01   6.8207699355e+01    0.2400068    0.2057822  20.14  0.001812444    1.480    0.324
       181 -10.6872      1.3807     30.6762   7.7487043378e+01   6.8637763109e+01    0.1961378   0.08938771 -59.18  0.000654144    1.952    0.488
       182 -10.4966    129.9872     22.5279   2.7553165877e+01   4.9641025887e+01    0.3230272    0.2199675  22.83  0.001265162    1.677    0.404
       183 -11.2024    135.7486     29.0633   2.8595767148e+01   4.7471478757e+01    0.2501118    0.2042691  57.36 0.0003228562    1.144    0.126
       184 -10.8038    132.0793     26.6386   2.8546055700e+01   4.8658152966e+01    0.2367553    0.2237891 -43.89 0.0005431046    1.176    0.150
       185  -9.8660     39.0673     30.0085   5.9964971492e+01   6.5633142068e+01    0.1895965    0.1204834 -13.74 0.0004971897    1.580    0.367
       186 -10.2910    216.9507     25.7287   1.4970344560e+01   2.7363393504e+01     0.209895    0.1790709 -52.67 0.0003447131    1.141    0.123
       187 -10.1075     59.6905     24.7916   4.9274576737e+01   6.3653693669e+01    0.3074494    0.1344303 -39.07   0.00143046    2.298    0.565
       188 -11.3430     33.2990     23.9712   6.0053770669e+01   6.7256477063e+01    0.2655036    0.2243145 -36.68  0.000220455    1.356    0.262
       189 -11.0408     32.9140     20.3120   5.8672321320e+01   6.7869896892e+01    0.2476685    0.1642841  -9.15 0.0006437097    1.402    0.287
       190 -10.3879    106.5426     21.4414   3.2726908356e+01   5.5197003482e+01    0.2540072    0.1747648  35.67 0.0005230806    1.345    0.257
       191 -12.2551     18.4375    248.3043   9.9692669921e+01   2.1435711826e+01    0.3661187    0.2130449  29.73   0.00199052    2.510    0.602
       192 -10.7354    212.0843     23.0438   1.4844126405e+01   2.8877026205e+01    0.3650168    0.1786732 -65.54  0.001491062    2.540    0.606
       193 -10.1841     52.4731     23.7388   5.1688224245e+01   6.4875890881e+01    0.2128115    0.1602646  24.34 0.0008393853    1.293    0.227
       194 -11.3565     47.7949     23.3785   5.3465424657e+01   6.5577870248e+01    0.2160215    0.1756551 -16.23 0.0002775904    1.088    0.081
       195 -10.7644     41.2171     21.9967   5.5683093655e+01   6.6636823651e+01    0.2691661    0.2187578 -65.75 0.0009359691    2.267    0.559
       196 -10.0014     37.5591     18.2923   5.5673106827e+01   6.7634818509e+01     0.260235    0.1316894 -46.98  0.001276327    2.431    0.589
       197 -10.3535    131.4794    247.0771   7.9759128809e+01   6.1928468493e+00    0.1876694    0.1367881  45.93 0.0006092837    1.087    0.080
       198 -10.5350    115.9660    246.9379   8.2636291293e+01   8.6736610036e+00    0.1850515    0.1508279  54.57 0.0007473124    1.047    0.045
       199 -10.9287     38.5433    242.0578   9.6058894725e+01   2.0285180106e+01    0.4236819   0.09553406  57.63   0.00154385    4.808    0.792
       200 -10.3489     14.1530     15.8765   6.5832294595e+01   7.0362261367e+01    0.2065985    0.1465536 -19.21 0.0009218907    1.115    0.103
       201 -10.8477     52.2526    244.0798   9.3853025887e+01   1.8248385058e+01    0.1905249    0.1532769 -62.92  0.001405563    1.674    0.403
       202  -9.8099    147.4929    243.4801   7.6300386535e+01   4.1545585525e+00    0.1253655    0.1002893  43.13 0.0008102731    1.014    0.014
       203  -9.1705    194.6708    242.7206   6.7314239035e+01  -3.4918953382e+00    0.1238404   0.08120995  17.30 0.0003860452    1.600    0.375
       204  -9.7765    100.5979     22.2176   3.4634805631e+01   5.6397453282e+01    0.1873913     0.124316  -8.97 0.0007427062    1.652    0.395
       205  -9.6508     97.2454     21.9977   3.5489779473e+01   5.7133401349e+01    0.1766286    0.1576958  13.20            0    1.050    0.047
       206  -9.7144    200.4780     21.5651   1.5814942171e+01   3.1933077394e+01    0.1379968    0.1216627 -89.18  8.40905e-05    1.008    0.008
       207 -10.6529    163.4670     20.0661   2.0524355036e+01   4.1535944510e+01    0.2550649    0.2061718  60.10 0.0003765337    1.121    0.108
       208  -9.5384    230.2094    247.3984   6.1618627792e+01  -9.5593399333e+00    0.1512757   0.09246067  38.80 0.0004708198    1.494    0.331
       209  -9.9164    113.7046     20.5789   3.0580365921e+01   5.3687864098e+01    0.2556927    0.1660043 -26.52 0.0007116217    1.635    0.388
       210 -10.0092     83.8552     20.9896   3.9112910477e+01   5.9952772332e+01    0.2137104    0.1563848  14.88  0.001213123    1.318    0.241
       211 -10.6749      2.3679     20.3114   7.3542368300e+01   7.0436275639e+01    0.1870452    0.1707181  11.77  0.001018697    1.470    0.320
       212 -10.7205     70.6136     18.6787   4.2563862412e+01   6.2675271102e+01    0.2331648    0.1939198   7.68 0.0005830774    1.007    0.007
       213 -10.1032    225.5962     18.1429   1.2236238894e+01   2.6192222619e+01    0.1654785    0.1279127 -15.69 0.0004879113    1.666    0.400
       214  -9.5709    147.8145     16.7973   2.2115423720e+01   4.5858861170e+01    0.1808068    0.1539446 -68.97   0.00030545    1.310    0.237
       215 -10.3691     25.7280     24.4655   6.3743887356e+01   6.7951261036e+01    0.2966423    0.1143589 -45.53  0.001067248    2.249    0.555
       216 -10.9297    240.0068     15.2642   1.0258820823e+01   2.3182464194e+01    0.2006383    0.1636783 -54.78 0.0004439602    1.130    0.115
       217 -10.7456    159.6224     15.9670   1.9871755985e+01   4.2955953155e+01    0.2470018    0.1838052  65.05 0.0003268161    1.199    0.166
       218 -10.1146    153.2882     12.8026   1.9895936151e+01   4.4885360581e+01    0.2259811     0.171379  76.92 0.0003258101    1.274    0.215
       219  -9.7941     88.6750     13.6492   3.4538310955e+01   5.9844845396e+01    0.3432928    0.1562464  26.09   0.00135306    2.983    0.665
       220  -9.6335     90.8448     10.3968   3.2536320172e+01   5.9740703386e+01    0.1915926    0.1144887  48.64 7.916386e-05    1.500    0.334
       221 -10.4666     26.6959    237.3099   9.7767143145e+01   2.2503141321e+01    0.1151975   0.05721758  66.20 0.0002521422    1.610    0.379
       222  -9.5844    185.4716     12.4906   1.5212912056e+01   3.6725245262e+01    0.1380698    0.1202259 -89.91 3.319145e-05    1.044    0.042
       223  -9.2832     59.0267    235.9837   9.2059898219e+01   1.8849571344e+01    0.1368426    0.1031931  69.50 0.0003386336    1.028    0.027
       224 -10.7016     31.4540    232.9119   9.6697349162e+01   2.2781834308e+01    0.3162352    0.1059712  44.44  0.001472463    2.325    0.570
       225  -9.4286    242.4372    230.7612   5.6753486392e+01  -9.3896632905e+00    0.1598204   0.09891621 -13.28 0.0009433722    1.642    0.391
       226  -9.4793    245.5859    230.4922   5.6160552165e+01  -9.8183644579e+00    0.1192729   0.09231193  10.31 7.151567e-05    1.016    0.016
       227  -9.9099    139.9778    227.8254   7.5695902491e+01   7.9718869548e+00    0.2239192    0.1282928  59.64  0.001097124    1.986    0.497
       228  -9.9388    223.4658    226.0275   5.9330024211e+01  -5.8877807328e+00    0.1682514   0.09555484  -6.98 0.0007575898    2.418    0.587
       229 -11.8151      3.0650    221.1069   1.0087237686e+02   2.7949612619e+01    0.4878738    0.1604263  80.86  0.002282004    3.206    0.688
       230 -10.0822     19.1371    221.0892   9.8118907218e+01   2.6363406678e+01    0.3119198    0.1153573  68.31  0.001380957    2.680    0.627
       231 -10.5871      7.6563    220.9837   1.0009130704e+02   2.7535676802e+01    0.2241431   0.07919226 -78.80  0.001136408    2.396    0.583
       232  -9.4881    210.3629    215.8063   6.0001764955e+01  -2.3192173353e+00    0.1719886    0.1136002 -20.87 0.0007796767    1.678    0.404
       233  -9.0474     85.6642    215.2261   8.5043050942e+01   1.9105167722e+01    0.1285366   0.07738479  61.05 0.0001524258    1.528    0.345
       234 -10.0388    111.4660    214.5110   7.9698608518e+01   1.5191195870e+01    0.1314786    0.1110087  58.92 3.297162e-05    1.003    0.003
       235  -9.5126    230.0000    208.9191   5.5119547704e+01  -4.6141505748e+00    0.1934622   0.06917001 -35.95 0.0007986297    2.916    0.657
       236 -10.2214    133.4598     10.6600   2.2677780286e+01   5.0029144088e+01    0.2367166    0.1154697  62.76 0.0008437755    1.831    0.454
       237  -9.6273    102.4398     11.0000   2.9663519119e+01   5.7215007746e+01    0.2957613   0.06834757  57.50 0.0009372497    3.955    0.747
       238 -10.3555     39.1305    207.2236   9.3489851009e+01   2.6921507992e+01    0.1633758    0.1364781  76.56  0.000458855    1.141    0.124
       239 -11.1540      4.1354    206.2551   9.9926453604e+01   3.0735527858e+01    0.3375177    0.1441968  63.20  0.001948339    1.965    0.491
       240  -9.6022    237.4466    186.7377   4.9547177944e+01  -2.6521230739e+00    0.1814704    0.1148321 -19.05 0.0009390657    1.610    0.379
       241  -9.5496     21.6548    180.2877   9.4817500683e+01   3.4488631342e+01    0.1246633   0.06909407  67.07  0.000702239    1.651    0.394
       242  -8.9900     37.6824    172.2754   9.0636501552e+01   3.4604107063e+01    0.1270761   0.07760932  68.78 0.0002388821    1.569    0.363
       243  -9.4152      1.6640    170.6717   9.8226425394e+01   3.8331559301e+01    0.1088142   0.07276351 -55.44 0.0007051909    1.726    0.421
       244  -9.3471    229.5108    165.5273   4.6646731618e+01   2.0887695567e+00    0.1396081    0.1237954  -0.83  0.000809942    1.009    0.009
       245 -10.3869     13.5000    164.4915   9.5248782932e+01   3.8707355950e+01    0.1186211   0.09151264 -89.59 0.0003642349    1.016    0.015
       246  -9.4017     10.3355    161.3253   9.5677596195e+01   3.9676748797e+01     0.113957    0.0760021 -52.52 0.0004778906    1.717    0.418
       247 -10.2470     29.5856    155.1503   9.0694329034e+01   3.9339052138e+01    0.1865861    0.1472166  68.50 0.0004939058    1.203    0.168
       248  -9.2187     39.3214    151.6943   8.7949032904e+01   3.9142237755e+01     0.132306   0.08365808  71.72 0.0003985809    1.638    0.389
       249 -10.6019     22.5138    149.9971   9.1826214563e+01   4.1185844518e+01    0.1775708    0.1543614  62.44 0.0009502083    1.234    0.190
       250 -10.7406      6.4131    145.3077   9.5181502351e+01   4.3567212001e+01     0.237497    0.1560235  85.01 0.0001789523    1.298    0.229
       251 -10.0029     13.5189    145.0367   9.3471485611e+01   4.3082920272e+01    0.1655409    0.1398085  88.15 -3.40261e-05    1.103    0.093
       252 -11.6200     29.2257    138.9733   8.8906473680e+01   4.3123165649e+01    0.2613212    0.1763642  67.75 0.0003600607    1.532    0.347
       253  -9.8984      1.8856    140.1317   9.5785530545e+01   4.5052311222e+01    0.1775541    0.1234702  83.56  0.000398757    1.231    0.188
       254 -10.4292     21.4961    135.9467   9.0516015188e+01   4.4516233091e+01    0.1950876    0.1421082  79.66 0.0003871971    1.303    0.233
       255  -9.5183    235.5119    137.5058   3.9442673748e+01   5.6021652514e+00    0.1418793    0.1290568 -17.37 0.0008105469    1.004    0.004
       256  -9.9415     95.7669    134.1850   7.0304618328e+01   3.5530021921e+01    0.2654251    0.1742553 -59.60  0.001243368    1.482    0.325
       257  -9.9830      1.9886    131.2823   9.4937535771e+01   4.7039801833e+01    0.1547744     0.124836 -79.15 0.0002456872    1.070    0.065
       258 -10.4055     27.4877    129.1262   8.8094292834e+01   4.5584712450e+01    0.2993172    0.1744305  77.90 0.0005307617    1.978    0.494
