#   1 NUMBER                 Running object number                                     
#   2 MAG_AUTO               Kron-like elliptical aperture magnitude                    [mag]
#   3 X_IMAGE                Object position along x                                    [pixel]
#   4 Y_IMAGE                Object position along y                                    [pixel]
#   5 X_WORLD                Barycenter position along world x axis                     [deg]
#   6 Y_WORLD                Barycenter position along world y axis                     [deg]
#   7 A_WORLD                Profile RMS along major axis (world units)                 [deg]
#   8 B_WORLD                Profile RMS along minor axis (world units)                 [deg]
#   9 THETA_WORLD            Position angle (CCW/world-x)                               [deg]
#  10 FWHM_WORLD             FWHM assuming a gaussian core                              [deg]
#  11 ELONGATION             A_IMAGE/B_IMAGE                                           
#  12 ELLIPTICITY            1 - B_IMAGE/A_IMAGE                                       
         1 -15.8041    243.1302    101.4877   2.3877678166e+01   1.1769943898e+01     5.785969     2.364058 -33.73   0.02552119    2.077    0.518
         2 -14.8701    202.8335    109.1963   3.1949777434e+01   1.8569321156e+01     1.576835     1.105237 -33.05  0.008001692    1.340    0.254
         3 -14.2133    189.2748    106.9132   3.3875849613e+01   2.1847105631e+01     1.998008    0.6498069 -46.30  0.006032587    3.841    0.740
         4 -10.0220    100.1228     57.2888   4.0746934612e+01   5.1541276597e+01    0.6319762    0.2036249 -40.61  0.002032406    3.103    0.678
         5 -10.5338     73.3310     56.7527   5.0050386322e+01   5.6980886575e+01    0.9195167    0.2325442 -43.38  0.002738453    3.847    0.740
         6 -10.9881     40.9663     13.8267   4.5661187769e+01   7.0081148280e+01    0.2312945    0.1850506   1.52 0.0002346201    1.107    0.096
         7  -9.6058     97.6033     12.1897   2.2834802128e+01   5.8814465172e+01    0.1975974    0.1296983  -1.09 0.0009478242    1.772    0.436
         8  -9.9712    237.4624    229.8703   4.9709921986e+01  -4.1718363653e+00    0.1957622    0.1195467  10.88  0.001253634    1.340    0.254
         9 -10.8442     52.1131    250.0061   8.6938947511e+01   1.7702250960e+01    0.2957616    0.1647695  29.87 0.0009496105    1.732    0.422
        10 -10.3094     56.9518    246.8384   8.5844165252e+01   1.7674242086e+01     0.219949     0.159056  33.16 0.0009530786    1.340    0.254
        11  -9.3696     20.6832    250.3290   9.2655199921e+01   2.0933297082e+01    0.1128232     0.049985  56.79 0.0007046093    1.680    0.405
        12  -9.7277     13.2268    250.3852   9.3964604635e+01   2.1633300980e+01    0.1536538   0.05972248  43.39 0.0009558034    1.731    0.422
        13 -10.3807      3.6283    249.0852   9.5583983072e+01   2.2720192072e+01    0.2248388    0.1192138  63.11 0.0008229475    1.399    0.285
        14 -10.6293      5.1416    243.3927   9.5160998297e+01   2.3535261551e+01    0.1897729    0.1555155 -59.65 0.0007309054    1.775    0.436
        15 -11.1066     87.5991    227.3407   7.8268608119e+01   1.7212303082e+01    0.3078276    0.1413153  32.68  0.001350801    1.897    0.473
        16 -11.1130    162.3531    225.4361   6.2738431129e+01   6.7998022745e+00    0.3746018    0.2480782  16.33  0.002219255    1.496    0.332
        17 -11.2997     98.4164    225.2911   7.5819710121e+01   1.6109412855e+01    0.3585055    0.2017563  34.56  0.001281508    1.485    0.326
        18  -9.1034    116.6893    227.3114   7.2242682983e+01   1.3205678153e+01    0.1226938    0.0804182  56.43 0.0004312287    1.627    0.385
        19 -11.0352    126.2617    220.7671   6.9477086394e+01   1.2897364204e+01    0.2815556    0.2122527  57.29 0.0007099153    1.443    0.307
        20 -10.0048    115.0144    220.9589   7.1862148109e+01   1.4510622293e+01     0.184652    0.1429859  -0.52 0.0008623317    1.684    0.406
        21  -9.9179     99.7568    217.6485   7.4730481454e+01   1.7266662790e+01    0.3307368    0.2180422 -39.54  0.001890557    2.062    0.515
        22 -10.5696     95.6607    217.6311   7.5605776075e+01   1.7841511250e+01    0.2794154    0.1914102  73.78 0.0009905938    1.750    0.429
        23  -9.9086     74.5691    219.0617   8.0243894728e+01   2.0395030112e+01    0.2530105    0.1255934  47.78  0.001362073    1.666    0.400
        24  -9.3823    143.6742    216.5103   6.5287696637e+01   1.0976894281e+01    0.1932306    0.1187449 -47.67  0.001078026    1.966    0.491
        25 -10.2290    170.2913    215.2505   5.9686218795e+01   7.0995747553e+00    0.2455025    0.2057755   9.74 0.0008146445    1.109    0.098
        26  -9.4317    151.6461    216.6642   6.3663492549e+01   9.7354837588e+00    0.1306945   0.08858504   6.15 0.0007043996    1.795    0.443
        27  -9.4877    111.5915    215.8107   7.1984580154e+01   1.5898839435e+01    0.1586793    0.1192039 -84.43 0.0009516362    1.735    0.424
        28  -8.9777    131.3300    214.3205   6.7583363434e+01   1.3216111142e+01    0.1259292   0.09217504   4.85 0.0007048562    1.692    0.409
        29 -10.2314     76.9755    211.4194   7.9021749806e+01   2.1514691845e+01    0.2199337    0.1927527  49.98  0.001288375    1.084    0.077
        30  -9.7092    116.2251    210.2259   7.0300475593e+01   1.6204244240e+01    0.1771444    0.1061708 -73.22 0.0008437753    2.464    0.594
        31 -10.2878    185.6670    203.5520   5.4796090547e+01   6.4499156481e+00    0.2059812    0.1153667 -37.99  0.001087604    1.979    0.495
        32 -10.7639    162.8291    193.7535   5.7808399644e+01   1.1661557863e+01    0.3197019    0.2691828  72.88  0.001869689    1.718    0.418
        33 -10.4905    164.7056    202.1126   5.8780467210e+01   9.9941117943e+00     0.337912    0.1991525 -55.62   0.00167678    2.473    0.596
        34  -9.9184    212.3793    202.1789   4.9522640021e+01   2.5681998402e+00    0.1594252    0.1101233 -39.47 0.0009503359    1.776    0.437
        35 -11.2658    172.6605    195.5910   5.6072452163e+01   9.7468673778e+00    0.2777595    0.2633729  -3.60 0.0009532954    1.217    0.178
        36 -10.2112    174.5390    199.5472   5.6350201708e+01   8.8196347350e+00    0.2434214     0.180326  24.18 0.0005848783    1.156    0.135
        37 -10.8914    177.6471    197.1028   5.5312914307e+01   8.6990636830e+00    0.3040711    0.2218926  36.81  0.001225182    1.270    0.213
        38  -9.6645    143.9789    198.0063   6.2530432781e+01   1.4028177439e+01    0.2096728    0.1522819   0.34  0.001129033    1.710    0.415
        39 -10.3927    125.7432    197.0396   6.6415123060e+01   1.7130322648e+01    0.3567057    0.1974299  31.22  0.001285135    1.672    0.402
        40  -9.4786    113.0179    198.1620   6.9441843565e+01   1.8907370585e+01    0.2787523    0.1466337  55.49  0.001259418    2.257    0.557
        41  -9.4717    112.8592    194.1582   6.8932325732e+01   1.9695608849e+01    0.2121842    0.1752657 -38.24 0.0004177285    1.430    0.301
        42  -9.5128    105.0891    197.7235   7.1188388294e+01   2.0194565411e+01    0.2070757    0.1644714 -36.32 0.0008305815    1.554    0.357
        43  -9.6533     66.6467    194.5099   7.9697573248e+01   2.6198467443e+01    0.2987898    0.1453225  66.48  0.001323259    2.627    0.619
        44  -9.4619    179.5722    190.7761   5.3836853431e+01   9.3763462949e+00    0.1665355     0.127035 -48.64 0.0009494944    1.671    0.402
        45 -10.0405    172.8495    190.3078   5.5130742008e+01   1.0565226619e+01    0.2782612    0.1726212 -48.81  0.001428757    2.005    0.501
        46 -11.1062     97.9321    188.1595   7.1603989917e+01   2.3160031766e+01     0.384867    0.2215909  47.50   0.00109683    1.590    0.371
        47 -11.3922     94.8721    183.0431   7.1653343683e+01   2.4668567587e+01    0.4570325    0.3679805 -81.29  0.002062907    1.377    0.274
        48 -10.6934     11.6575    187.3282   9.1713033415e+01   3.3558681802e+01    0.1915145    0.1673858  72.24 0.0003295819    1.146    0.127
        49 -10.1144    109.5928    184.8783   6.8381889675e+01   2.2030047446e+01    0.3499489    0.2320331  37.77  0.001506374    1.337    0.252
        50  -9.4394    120.0000    183.9872   6.5791685327e+01   2.0538857085e+01    0.2074868   0.07897998 -53.96 0.0008049282    2.960    0.662
        51 -10.6880    173.8588    182.2319   5.3489941233e+01   1.1722442021e+01    0.3244186    0.1948397 -46.51  0.001618252    1.955    0.488
        52 -10.3885     20.4031    181.2755   8.9391458957e+01   3.4073762599e+01    0.3642929    0.1730666  82.31   0.00176136    2.075    0.518
        53 -10.0633    147.6658    179.7232   5.8719299868e+01   1.6687001725e+01    0.2456185     0.173298 -76.03  0.001014178    2.369    0.578
        54 -10.8178     13.9581    178.3606   9.0711902420e+01   3.5268233738e+01    0.2245445    0.1520301 -78.53  0.001442313    1.385    0.278
        55 -11.8701      3.2955    177.8049   9.3127820122e+01   3.6248804560e+01    0.3477608    0.2993184  80.89   0.00221168    1.141    0.124
        56  -9.6314     20.4271    189.2583   8.9864753078e+01   3.2377560446e+01    0.1613917   0.09313095  81.46 0.0009459166    1.577    0.366
        57 -10.4500     77.6035    175.6424   7.4937612086e+01   2.8743728467e+01    0.2774493     0.160845  64.25 0.0009345375    2.017    0.504
        58  -9.8600    183.4035    174.7776   5.0137073119e+01   1.1307411097e+01    0.2422184     0.128537 -43.33  0.001115887    2.092    0.522
        59 -10.3921    138.2796    178.5230   6.0648573149e+01   1.8531942832e+01    0.3333919    0.1283527 -55.42  0.001205841    3.471    0.712
        60  -9.4128    105.3294    174.6512   6.7892662354e+01   2.4805149073e+01    0.1459191   0.09989501  66.16 0.0007048981    1.763    0.433
        61  -9.5329     24.2305    174.2575   8.8024532477e+01   3.5250187712e+01    0.1781797    0.1141465  64.64  0.001059684    1.373    0.272
        62  -9.5083    134.8650    171.1429   6.0162988414e+01   2.0553948431e+01    0.2175342    0.1878818  63.53 0.0009167906    1.310    0.236
        63 -10.9324    206.6614    168.6052   4.4388684714e+01   8.2793784075e+00     0.385822      0.19496 -33.74  0.001837041    1.955    0.489
        64 -10.4897    205.7292    161.5615   4.3152636905e+01   9.5251719833e+00    0.3236147    0.2121279 -57.16  0.001504087    2.582    0.613
        65 -10.8443    121.7098    168.1808   6.2810478967e+01   2.3436203832e+01    0.5781266    0.3093293 -60.87  0.002493563    2.317    0.568
        66  -9.3973     54.8522    169.0224   7.9927200490e+01   3.3170496723e+01    0.2287145    0.1279138  71.64  0.001083082    2.060    0.515
        67 -10.2623    139.2278    164.8204   5.7981418051e+01   2.1025600124e+01     0.358615    0.2705952 -82.80  0.001530682    1.978    0.495
        68  -9.7109     30.3121    165.9610   8.5891553715e+01   3.6528170439e+01    0.1760505    0.1416807  84.84 0.0006227837    1.096    0.088
        69 -10.4605    177.1590    169.5501   5.0420591108e+01   1.3284655256e+01     0.381081    0.2235987 -38.64  0.001851992    1.789    0.441
        70 -13.2343    247.5941    149.2785   3.3516789480e+01   4.3344734648e+00      1.88516    0.4205696 -37.79  0.006427827    4.171    0.760
        71 -11.3485    165.8645    248.2300   6.5063746777e+01   3.1836666532e+00    0.2780607    0.1069433  37.13  0.001412845    1.992    0.498
        72 -10.1197    182.3240    141.5106   4.3501438587e+01   1.7211024375e+01    0.3310358    0.2357436 -58.30  0.001572941    1.922    0.480
        73 -11.0066    187.9908    156.0668   4.5475420903e+01   1.3608194631e+01    0.4771635     0.327998 -53.64  0.002120994    1.944    0.485
        74 -10.1950    168.0782    157.2017   4.9896463341e+01   1.7132214075e+01    0.2538829     0.193431 -73.16   0.00121955    2.084    0.520
        75 -10.0728    105.1954    157.2457   6.5093670657e+01   2.8573234460e+01    0.3023784    0.2292076 -79.04 0.0009933693    1.571    0.364
        76  -9.4126    157.7035    155.7583   5.1911750111e+01   1.9361243662e+01    0.2719999    0.1786955 -66.36  0.001160567    2.464    0.594
        77 -11.0612    204.8889    153.8484   4.1719101232e+01   1.0887202367e+01    0.3675849    0.1738031 -41.46  0.001473401    2.223    0.550
        78  -9.6970    119.3939    154.6328   6.0952847801e+01   2.6690658204e+01     0.266434    0.1378858 -68.22  0.000950709    3.192    0.687
        79 -10.2454     49.2172    154.3343   7.9766021467e+01   3.7219867350e+01    0.3499238    0.2015202  78.09  0.001667221    1.999    0.500
        80 -10.4655    133.6095    153.0720   5.7080502580e+01   2.4431840809e+01    0.4631221    0.3090021  74.27  0.001905716    2.570    0.611
        81 -10.0874     81.8446    154.1369   7.0813100956e+01   3.2967436800e+01    0.2267714    0.1776594  66.68 0.0007498565    1.319    0.242
        82 -10.7435     67.8794    152.9384   7.4461702928e+01   3.5221552337e+01    0.4257035    0.2648332  81.17  0.001666131    1.991    0.498
        83  -8.9706    100.3048    153.6734   6.5761788113e+01   3.0179239952e+01    0.1451198    0.1385491  45.80  0.000338792    1.029    0.028
        84  -9.2781     98.3392    150.6658   6.5761482986e+01   3.1180884096e+01    0.2188258    0.1322919 -87.37  0.000828765    2.761    0.638
        85 -11.9157    188.6659    147.9288   4.3613434544e+01   1.4866845713e+01    0.6992359    0.3899798 -53.59  0.002890493    2.629    0.620
        86  -9.2644    162.6562    150.3307   4.9664637333e+01   1.9440286488e+01     0.216243    0.1789928  86.32 0.0008860859    1.752    0.429
        87 -11.5933    200.1572    147.8336   4.1338813407e+01   1.2721386801e+01    0.3806392    0.2300811 -43.08  0.001697711    1.786    0.440
        88  -9.5217    142.5677    148.2576   5.3911217340e+01   2.3725189749e+01    0.2718388    0.1455937 -51.21  0.001128351    2.083    0.520
        89  -9.7089     28.2094    148.6361   8.4920436272e+01   4.0740658873e+01     0.290281    0.1084048  71.80 0.0009550226    4.402    0.773
        90 -10.1072    219.8417    165.4221   4.1357220583e+01   6.5467030007e+00    0.2314833     0.151636  28.41 0.0007824103    1.456    0.313
        91 -11.1153    149.0906    144.6079   5.1573699288e+01   2.3193744664e+01    0.5997344     0.411795 -72.96  0.002199542    2.397    0.583
        92 -10.1881    149.3734    136.8359   4.9794780300e+01   2.4694239368e+01    0.3695837    0.2059104 -28.32  0.001450075    2.321    0.569
        93  -9.2814    133.6458    147.7015   5.5987965287e+01   2.5540814716e+01    0.1519395    0.1145384   2.38 0.0007035917    1.697    0.411
        94 -10.7044     56.1571    145.3533   7.6698173662e+01   3.8528251400e+01    0.5828263    0.2761468  65.62  0.002195058    3.124    0.680
        95  -9.9057     39.2557    147.1479   8.1704269537e+01   4.0011815854e+01     0.267804    0.1324197  54.76  0.001234645    2.090    0.522
        96 -10.6773    106.8993    144.0217   6.2216965818e+01   3.1230939870e+01    0.5326581    0.3431507  89.04  0.002136113    2.627    0.619
        97  -9.7740    165.9004    143.1913   4.7398339831e+01   2.0150041078e+01    0.4039137    0.1909116 -46.24  0.001601001    2.297    0.565
        98  -9.9100    138.3605    144.1878   5.4084036065e+01   2.5369215543e+01    0.2089719    0.1406338 -57.92 0.0009469945    1.757    0.431
        99 -10.6411    124.6984    141.7630   5.7034871005e+01   2.8492936336e+01    0.5751737    0.3243703 -67.64  0.002159834    2.800    0.643
       100 -10.1903     87.8937    143.3220   6.7343479671e+01   3.4555331277e+01    0.3191864    0.2072471 -81.68  0.001304466    1.971    0.493
       101 -10.9834    207.0237    142.0117   3.8788392559e+01   1.2387186700e+01    0.2960006    0.2212112 -60.52  0.001496271    1.997    0.499
       102 -10.4261     69.2887    139.5899   7.2050889386e+01   3.8198769388e+01    0.4526554    0.2159664  84.69  0.001178781    6.385    0.843
       103  -8.8189    108.3058    248.3167   7.6090172502e+01   1.1039341145e+01    0.1064371   0.08137174   9.44 0.0003533845    1.628    0.386
       104 -10.2784    179.7465    132.8357   4.2070346856e+01   1.9275967170e+01    0.3936301    0.2254884 -46.63  0.001713443    1.920    0.479
       105 -10.8661    131.8236    129.6267   5.2522158096e+01   2.9720555294e+01    0.7027177    0.3189017 -52.53  0.002572896    2.496    0.599
       106  -9.8304    112.8398    132.7876   5.8301459922e+01   3.2693319327e+01    0.3088401    0.2174072  76.95  0.001117653    2.076    0.518
       107 -10.0788    111.1523    128.4082   5.7815011016e+01   3.3995890109e+01    0.3570819    0.2816216  17.14  0.001747174    1.456    0.313
       108 -10.5905     83.4054    131.2463   6.6423438502e+01   3.8116280095e+01    0.4598158    0.2990907  89.46  0.001739805    2.160    0.537
       109  -9.8894     83.1446    124.1460   6.5105259862e+01   3.9857816106e+01    0.4710305     0.143353 -47.96  0.001484245    3.427    0.708
       110 -10.3208    143.0018    130.2681   4.9841506784e+01   2.7324342610e+01    0.5194912    0.2219386 -46.75  0.001896923    2.447    0.591
       111 -10.1176     22.9603    131.0383   8.4689113862e+01   4.5421119946e+01    0.3454301    0.1284716 -47.26  0.001359781    3.214    0.689
       112 -11.8766    197.8884    136.4403   3.9267083819e+01   1.5038579777e+01    0.4089359    0.2863224 -24.76  0.001509095    1.401    0.286
       113 -12.3284    184.5824    113.9241   3.6545845137e+01   2.1641382362e+01    0.5137337    0.4815101  70.56  0.002120096    1.236    0.191
       114 -10.7062    168.9159    128.5440   4.3384889709e+01   2.2295562466e+01    0.4516852    0.2882681 -50.47  0.002019007    1.792    0.442
       115 -10.6962    153.0092    128.2259   4.6939508653e+01   2.5673645948e+01    0.5992996    0.2593407 -48.72  0.002156017    2.589    0.614
       116 -10.2428     12.8455    129.1314   8.7513541776e+01   4.6662401177e+01    0.3319673    0.1235916  73.71  0.001203571    3.720    0.731
       117 -11.6338     98.5845    124.6375   6.0586786609e+01   3.7146929987e+01    0.9987876    0.4240642 -56.61    0.0036481    2.503    0.600
       118 -10.3710     72.7806    127.8945   6.8996723559e+01   4.0529951589e+01    0.4617893    0.2061699 -70.73   0.00167322    2.851    0.649
       119 -10.8231    116.4967    124.1389   5.5362070774e+01   3.3941551863e+01    0.5563027    0.3619397  64.97  0.002294319    2.142    0.533
       120 -10.5658    116.6358    119.3224   5.4189898579e+01   3.4990474396e+01    0.3628816    0.3121943  58.86  0.001481561    1.236    0.191
       121 -10.8709     59.0891    123.1733   7.2416316789e+01   4.3560490694e+01    0.6675501    0.3327726  86.21  0.002169004    4.084    0.755
       122 -11.1865     43.3672    121.6275   7.7177405780e+01   4.5797865977e+01    0.7773511    0.3592145  85.99  0.002685995    3.713    0.731
       123 -10.3453     29.3608    123.4337   8.1869725911e+01   4.6729501781e+01     0.357242    0.2025985  69.05   0.00171763    1.994    0.499
       124 -10.2763     27.7983    118.5656   8.1757823248e+01   4.8067781464e+01    0.3138344    0.1952934 -54.38  0.001404167    1.537    0.350
       125  -9.9483    172.5844    137.6850   4.4702071620e+01   1.9840978359e+01    0.3815264    0.2478657 -61.29  0.001620118    2.336    0.572
       126 -10.3173    158.6909    120.0056   4.3620436025e+01   2.6093640991e+01    0.4696347    0.2892894 -40.92  0.001830059    1.637    0.389
       127  -9.5006     81.3849    139.1877   6.8470234497e+01   3.6537248413e+01     0.206054    0.1345685 -75.48 0.0009523404    1.745    0.427
       128 -10.2167    172.6047    120.1731   4.0566405525e+01   2.3079891221e+01    0.3630104    0.2495059 -47.93  0.001542272    1.575    0.365
       129 -11.2065    141.6432    117.1398   4.7009968473e+01   3.0319246585e+01    0.8754697    0.3243892 -47.39  0.002892422    2.884    0.653
       130 -10.3567     70.9012    118.9379   6.7879487006e+01   4.2984410941e+01    0.4306492    0.1986031 -70.82  0.001565557    2.788    0.641
       131 -10.5017    130.5356    117.0450   4.9849780347e+01   3.2676661594e+01    0.5742244    0.3037868 -53.90  0.002218958    2.175    0.540
       132 -10.4772      3.0173    116.8421   8.9438545610e+01   5.0254867193e+01    0.4551329    0.1643048  81.81  0.001754722    3.302    0.697
       133 -11.3606    108.8289    112.1079   5.4664324212e+01   3.8137690155e+01    0.8431705    0.3461396 -54.06  0.002831029    2.696    0.629
       134 -10.8715     79.0065    112.1601   6.3866345069e+01   4.3401528246e+01    0.5768384    0.3300426 -81.15  0.002123445    2.912    0.657
       135 -12.8173    192.6895    131.7264   3.9199998175e+01   1.6861065911e+01     1.089758    0.3220924 -39.91   0.00359351    3.305    0.697
       136 -10.9384    121.9893    110.6670   5.0551813536e+01   3.5824329158e+01    0.5944676     0.280131 -42.15  0.002222539    2.190    0.543
       137 -11.0370     92.3766    109.5126   5.9008118285e+01   4.1790903200e+01     1.000077      0.31005 -54.11  0.003106857    3.314    0.698
       138 -10.7591    174.8327    109.9030   3.7523296239e+01   2.4482805673e+01    0.5138993    0.2570134 -39.70  0.002065546    1.966    0.491
       139 -10.7573    159.3259    110.2780   4.1012520570e+01   2.7841341620e+01    0.5068377    0.2507153 -40.67  0.001811463    2.020    0.505
       140 -12.4031     15.1998    107.5688   8.4566266453e+01   5.1759952126e+01    0.7926177    0.3487663 -56.89  0.003749063    1.975    0.494
       141 -11.3173     23.3751    102.1516   8.1035579492e+01   5.2499402909e+01    0.7779988    0.3298152  64.14  0.002784858    3.871    0.742
       142 -12.7945    182.8268    108.0419   3.5418279218e+01   2.3058942588e+01     1.133228    0.2975698 -38.44  0.003388541    3.621    0.724
       143 -10.8023     66.2158    108.8622   6.7358984690e+01   4.6122253844e+01     0.597852    0.2646872 -68.14  0.002185038    2.711    0.631
       144 -10.2384    133.2979    108.2999   4.6883532674e+01   3.3947456494e+01    0.4207636    0.2471999 -49.84  0.001515347    1.810    0.447
       145  -9.9662    167.7737    112.0961   3.9592118074e+01   2.5631666642e+01     0.345876    0.1765189 -42.29  0.001379141    1.970    0.492
       146 -10.8204     21.2777     92.5271   8.0358374880e+01   5.5041500346e+01     0.515937    0.1408879 -47.02  0.001787181    3.637    0.725
       147 -10.5589    139.6782    102.5443   4.3694038372e+01   3.3741946164e+01    0.5736029    0.2992361 -41.65  0.002257183    1.931    0.482
       148 -11.1245     45.3848    101.8633   7.3159336493e+01   5.0487209949e+01    0.7281169    0.3530781  65.78  0.002480368    3.935    0.746
       149 -11.9999    175.4488    100.9746   3.5078576064e+01   2.5956225537e+01    0.6011692    0.3471791 -48.55  0.002516183    1.912    0.477
       150 -11.0869    150.1467    100.2701   4.0493809660e+01   3.1842487404e+01    0.7525372    0.2941511 -43.38  0.002569919    2.593    0.614
       151 -11.2053    188.3535    135.1179   4.0834433554e+01   1.7140128676e+01    0.7216449    0.2491498 -43.06  0.002500622    3.049    0.672
       152  -9.7789    138.5602    137.3214   5.2546157253e+01   2.6755536696e+01    0.2781596    0.1480354 -51.03  0.001032906    2.058    0.514
       153 -11.0107    128.5378     99.8951   4.5886594933e+01   3.6741734736e+01    0.5989232    0.2992442 -39.28   0.00228074    2.071    0.517
       154 -10.4244    159.9175     99.4661   3.8009881294e+01   2.9768894084e+01    0.4578576    0.2190807 -42.39  0.001742917    2.097    0.523
       155 -10.9446    108.4725     97.9060   5.1059071325e+01   4.1394795589e+01    0.7782496    0.5004458  80.04  0.002719797    3.212    0.689
       156 -10.0449    107.4997     92.4846   4.9832597648e+01   4.2785335211e+01     0.375529    0.2704912   0.78  0.001598985    1.993    0.498
       157 -10.5323     81.8447     97.9516   5.9556913031e+01   4.6335302444e+01    0.6398767    0.1998995 -53.79  0.002036253    3.150    0.683
       158 -10.2833     95.0591     94.4336   5.4273545860e+01   4.4793911409e+01    0.7342784    0.2320836 -46.04  0.002304782    3.124    0.680
       159 -10.8710     63.4376     95.2152   6.5274224999e+01   4.9844291090e+01     0.595944    0.3221883 -79.56  0.002151901    3.116    0.679
       160 -11.1366    166.8083    102.0648   3.7188058518e+01   2.7714622645e+01    0.5590729    0.2865533 -31.70  0.002129434    2.082    0.520
       161 -12.7208    187.7204    125.8502   3.8809867362e+01   1.8885757000e+01     1.117552    0.3813166 -30.19  0.003387226    3.885    0.743
       162 -11.7375    177.0096     92.0974   3.2390094333e+01   2.7165038808e+01    0.4128917    0.2168195 -29.46   0.00164598    2.018    0.504
       163 -10.7283    165.0487     92.3196   3.4919885299e+01   2.9904290439e+01    0.4254794    0.2250367 -32.64  0.001690591    1.952    0.488
       164 -10.0987     22.8631    137.4244   8.5355673178e+01   4.3886240286e+01    0.3887594    0.1667116  70.67  0.001574048    2.947    0.661
       165 -10.5493    138.7346     89.8540   4.0362303649e+01   3.6496157099e+01     0.542289    0.2901269 -40.34  0.002153151    1.876    0.467
       166 -10.1753      6.7017    102.5951   8.6899869221e+01   5.3509700019e+01    0.2275924    0.1319144  78.78 0.0008472895    1.761    0.432
       167  -9.8103    157.9983     90.0006   3.5814921045e+01   3.1978190507e+01    0.3292432    0.2137201 -35.54  0.001450192    1.540    0.351
       168 -10.5921    124.4071     90.2233   4.4266180490e+01   3.9661021225e+01    0.3756465     0.272361 -63.36  0.001349741    1.720    0.419
       169 -10.5489    124.4967     85.9980   4.2989018687e+01   4.0505532690e+01    0.5870432    0.3700884   3.43  0.002003112    3.186    0.686
       170 -10.4606     34.4846     88.8212   7.4679608700e+01   5.4839289492e+01    0.5233085     0.245621 -82.81  0.001979854    3.031    0.670
       171 -10.2017     35.0262     82.7354   7.3224406243e+01   5.6279139319e+01    0.3504948    0.1751963 -32.10  0.001459555    2.571    0.611
       172 -10.9935      6.9742     85.1226   8.4724307582e+01   5.7764049934e+01     0.546574    0.1198726 -44.81  0.001757657    4.718    0.788
       173  -9.7781     98.7413    165.5889   6.8143960912e+01   2.7793986405e+01    0.2054273    0.1168839  45.97 0.0008727492    1.660    0.398
       174  -9.8588    151.1134     87.3619   3.6630098365e+01   3.4087679559e+01    0.2855699    0.2108996 -24.78  0.001313683    1.462    0.316
       175 -11.6075    180.3634    121.0018   3.9138127727e+01   2.1279856533e+01     0.915397    0.2963156 -37.93  0.003022053    3.049    0.672
       176 -10.5927     86.3413     86.0386   5.4797354506e+01   4.8310284894e+01    0.4120286    0.2747858 -73.19  0.001230265    2.159    0.537
       177 -10.1158     44.1904     92.1260   7.1655568281e+01   5.3026639768e+01    0.3048061    0.1970881 -21.55   0.00129361    2.021    0.505
       178 -10.1562     80.1364    164.0219   7.2734961913e+01   3.0962737999e+01    0.3241268    0.1739824  86.64  0.001234354    3.181    0.686
       179 -10.3557    162.7528    135.4711   4.6371428200e+01   2.2249384496e+01    0.3742695    0.1961511 -46.91  0.001460943    2.063    0.515
       180 -10.5131     48.2308     83.7259   6.8222101257e+01   5.4612050137e+01    0.4655797    0.2811498  87.11  0.001904718    2.726    0.633
       181 -10.3130     49.6265     76.8363   6.5936788953e+01   5.6092139801e+01    0.3997186    0.2178324 -22.38  0.001549945    2.908    0.656
       182  -9.4327    116.7545     83.5321   4.4432398558e+01   4.2726522894e+01    0.2763076    0.1856353 -30.49 0.0005364563    1.628    0.386
       183 -10.8543    104.3752     82.2492   4.7763939849e+01   4.5636865236e+01    0.5543873    0.2826964 -57.52  0.001977716    2.639    0.621
       184  -9.4996    170.8300     81.9808   3.0818141783e+01   3.0363702421e+01    0.2551259    0.1774389   0.29  0.001082067    2.017    0.504
       185 -10.0900    158.6450     81.1274   3.3117289539e+01   3.3431372617e+01    0.3651177     0.188576 -29.31  0.001317711    2.134    0.531
       186 -10.5729    140.8020     80.8963   3.7184527787e+01   3.7737847678e+01    0.4316958    0.2251906 -35.36  0.001670101    1.971    0.493
       187 -10.4876     24.3421     80.1224   7.7010204409e+01   5.7854430291e+01    0.3485597     0.196733  78.07  0.001533873    2.544    0.607
       188 -10.0270    150.3714     78.7498   3.4260765889e+01   3.5847436359e+01    0.4038179    0.1842448 -38.09  0.001492085    2.175    0.540
       189  -9.9656    119.2710     78.3023   4.2087857850e+01   4.3227357458e+01    0.4356633    0.2142687 -41.00   0.00166163    2.043    0.511
       190 -10.3167    174.8708     77.0926   2.8638578770e+01   3.0220129203e+01    0.2812873    0.2065196 -26.31  0.001233745    1.398    0.285
       191  -9.7019    167.4998     76.0346   2.9777847760e+01   3.2175560481e+01    0.2363829    0.1486959 -32.32  0.001031394    1.593    0.372
       192 -10.1119    127.6804     74.9975   3.8721307418e+01   4.1943937707e+01    0.3821408    0.2181241 -56.34  0.001441155    2.335    0.572
       193 -10.1496    128.0141     70.7216   3.7258560942e+01   4.2670683292e+01     0.425925    0.2975084   2.07  0.001649434    2.079    0.519
       194 -11.0115    213.6342    163.0768   4.2000291570e+01   7.9329654664e+00    0.2844501    0.1167973 -35.25  0.001125862    2.363    0.577
       195  -9.6138    157.5797     74.7027   3.1444882224e+01   3.4815589003e+01    0.2987339    0.1520855 -29.04  0.001131252    2.156    0.536
       196 -10.4159    140.5659     73.4018   3.4932907741e+01   3.9179331536e+01    0.4328403    0.1517966 -36.56  0.001389803    2.884    0.653
       197 -10.6581     10.3910     74.2727   8.1736169477e+01   6.0214288305e+01    0.2723835    0.2086638   0.65  0.001366082    1.530    0.347
       198 -10.7111     81.9518     71.6454   5.1937867726e+01   5.2298653427e+01    0.5269054    0.2709633 -57.48  0.002018903    2.404    0.584
       199 -10.2769     82.5027     65.9844   4.9858558050e+01   5.3400568115e+01    0.3697055    0.2197532 -19.61   0.00141482    2.575    0.612
       200  -9.9152     13.0200    243.7866   9.3780799987e+01   2.2752456119e+01    0.1322348   0.06456553  36.57 0.0004686201    1.668    0.401
       201  -9.3023    151.4874     71.9530   3.1942981914e+01   3.6780614761e+01    0.2410433    0.1517504 -33.78  0.001036925    1.606    0.377
       202 -10.4105     94.8726     68.4899   4.6404467393e+01   5.0461932074e+01    0.8158787    0.2109224 -46.22  0.002285437    4.046    0.753
       203 -10.2074     62.3871     71.7992   5.9395588593e+01   5.5519808475e+01    0.2904538    0.1153142 -43.25  0.001063595    2.506    0.601
       204 -10.9295    146.3705    162.8617   5.5931192626e+01   2.0110000156e+01    0.3170061    0.2527928  68.60 0.0006042141    1.629    0.386
       205  -9.6902     74.3504     79.8448   5.7234406046e+01   5.1799774834e+01    0.2992102    0.1380614 -59.50  0.001085167    2.597    0.615
       206 -10.4231    105.5502     69.6316   4.3348731904e+01   4.7986004226e+01    0.4709021    0.1486581 -42.05  0.001461049    3.167    0.684
       207 -11.2601     27.2908     71.4212   7.3965130704e+01   5.9718700360e+01    0.7424293    0.2840981 -26.41  0.002080552    6.282    0.841
       208  -9.6436    163.6644     69.3177   2.8564287529e+01   3.4233408288e+01    0.3082436    0.1899563  -7.27  0.001170956    2.527    0.604
       209 -10.6540     50.8450     67.3662   6.2786062984e+01   5.8146378909e+01    0.6673348    0.2116658 -60.51  0.002084751    3.859    0.741
       210  -9.8201     16.5654     69.5003   7.8224529648e+01   6.0987990369e+01    0.4324861    0.1664982 -81.51  0.001518767    3.759    0.734
       211 -10.4530     17.8390     62.4729   7.6176322331e+01   6.2574768303e+01    0.4254933   0.09257968 -53.93  0.001547464    3.037    0.671
       212  -9.2403    157.2865     68.3474   2.9581405347e+01   3.5968288466e+01    0.1565802    0.1188725  13.87 0.0004173208    1.654    0.395
       213  -9.9751    147.2645     65.0813   3.0738493349e+01   3.8997815403e+01    0.4920735    0.2404875 -21.42  0.001672063    2.922    0.658
       214 -10.4859    203.5563     65.7313   2.0687583114e+01   2.5194777587e+01    0.2745046    0.1370713 -26.32  0.001135863    2.079    0.519
       215 -10.4128    142.4432    158.7004   5.6049228476e+01   2.1651306833e+01    0.5918179    0.1872071  39.67  0.001985636    2.948    0.661
       216 -10.3549    138.6572     64.5265   3.2555920121e+01   4.1215509554e+01    0.5042474    0.1937567 -30.39  0.001626846    3.010    0.668
       217 -10.2294    177.7032    159.2119   4.8245689530e+01   1.4973615706e+01    0.5680463    0.1859224 -44.58  0.001964522    3.390    0.705
       218  -9.6365    109.6250     62.8047   3.9771120660e+01   4.8403895504e+01    0.3105457     0.180424 -57.05  0.001189524    2.380    0.580
       219 -10.1556    189.4267     75.2885   2.5504865630e+01   2.7048217853e+01    0.2855761    0.1428977 -27.41  0.001132713    2.113    0.527
       220 -10.8445    167.1841    241.8994   6.4013091645e+01   3.8245831341e+00     0.175267    0.1365314  36.15 0.0008013926    1.225    0.184
       221 -10.2654     92.5879    159.3670   6.8757835870e+01   3.0140585520e+01    0.3732138    0.2283916 -70.01  0.001692614    1.879    0.468
       222 -11.8110     45.3269     49.4338   5.9399750225e+01   6.2829523123e+01    0.4601959    0.2231104 -41.57 0.0006268298    1.916    0.478
       223  -9.5835     62.4620     54.2469   5.3531710353e+01   5.9334593565e+01    0.1988393    0.1342579 -57.26 0.0009507404    1.686    0.407
       224  -9.6666    121.4383     63.5440   3.6641819579e+01   4.5541018443e+01    0.5016613    0.1563525 -34.48  0.001480436    3.542    0.718
       225  -9.5133     30.8579     51.0609   6.6910902828e+01   6.4121266175e+01    0.2096519    0.1516656  85.97  0.001076606    2.066    0.516
       226  -9.1526    128.4898    158.9737   5.9484154729e+01   2.4146700268e+01    0.1933534    0.1302121 -82.14 0.0008096239    2.483    0.597
       227  -9.1073    130.3492     46.3069   2.8324339749e+01   4.6250998256e+01    0.1608381    0.1123678  26.04 0.0005704651    1.705    0.414
       228  -9.5580     82.2042     46.2502   4.2659413392e+01   5.7321270680e+01    0.2286048      0.10747 -47.54 0.0007957221    2.423    0.587
       229  -9.6030     23.2714     46.6029   6.9349809026e+01   6.5806355720e+01    0.1709441    0.1167854  -3.76 0.0009461357    1.622    0.383
       230 -10.7610    196.4172    156.4101   4.3874686925e+01   1.2005803417e+01    0.4288639    0.2926416 -65.62  0.001879418    2.885    0.653
       231  -9.8079     16.6701     44.3525   7.2129273400e+01   6.6821845059e+01    0.1362641    0.1096632 -41.03  0.000849616    1.045    0.043
       232  -9.5429    113.8597     41.4995   3.0729242399e+01   5.1051976556e+01    0.2411866    0.1974215  14.71 0.0005445839    1.328    0.247
       233 -10.2672     89.9873    235.7157   7.8547583868e+01   1.5468174925e+01    0.1727083    0.1233012  39.91  0.001147272    1.113    0.102
       234 -11.3196      4.7803     40.2431   7.7440730636e+01   6.8450466461e+01    0.4494827    0.1694639 -76.16  0.001774247    3.333    0.700
       235  -9.4234    123.4289     40.7189   2.7962142357e+01   4.8818721218e+01    0.2068579    0.1458967 -12.52 0.0009471008    1.657    0.397
       236 -11.2059      6.9416     56.3518   8.0000469577e+01   6.4659662184e+01    0.3052244    0.1537713 -79.94  0.001472866    2.096    0.523
       237  -9.3754     83.7941     40.1804   3.9597543658e+01   5.8060407530e+01    0.2106439    0.1633905  11.20 0.0008635433    1.399    0.285
       238 -10.0445     92.0317     48.5114   4.0096987830e+01   5.4882716608e+01    0.6485689    0.1698697 -42.41  0.001897208    3.970    0.748
       239  -9.8677     95.3961     35.9846   3.3925078567e+01   5.6223230893e+01     0.392954    0.1399214 -33.00  0.001370937    2.883    0.653
       240  -9.5268     26.3240     36.5270   6.4317980822e+01   6.7704564185e+01     0.231796    0.1063905 -54.33  0.001075836    1.963    0.491
       241  -9.1157    110.4279     24.7348   2.4946315396e+01   5.4228996148e+01    0.1946418     0.139248  -5.86 0.0009407378    1.602    0.376
       242  -9.2494     44.2688     25.5224   4.9959757928e+01   6.7647120783e+01    0.1749609    0.1182478  16.63 0.0005882219    1.544    0.352
       243  -8.8546    118.5140     24.5255   2.2900934801e+01   5.2236500420e+01    0.1459979    0.1346973  43.10 0.0001873024    1.012    0.012
       244 -10.1998     13.0211     21.1113   6.6148640277e+01   7.2006312700e+01    0.2199651    0.1779694  -8.36 0.0006554576    1.188    0.158
       245  -8.6768     84.6973     21.3198   3.0908067679e+01   6.0717795298e+01    0.1338584     0.111748 -67.89 0.0003658076    1.628    0.386
       246  -9.1694     50.3618     15.3358   4.1688029224e+01   6.8336030775e+01    0.1432883   0.09222559   6.21 0.0007036952    1.818    0.450
       247  -9.9988    231.0524    233.8695   5.1394640543e+01  -3.8003037831e+00     0.189372    0.1374875  -9.02  0.001314597    1.252    0.201
