#   1 NUMBER                 Running object number                                     
#   2 MAG_AUTO               Kron-like elliptical aperture magnitude                    [mag]
#   3 X_IMAGE                Object position along x                                    [pixel]
#   4 Y_IMAGE                Object position along y                                    [pixel]
#   5 X_WORLD                Barycenter position along world x axis                     [deg]
#   6 Y_WORLD                Barycenter position along world y axis                     [deg]
#   7 A_WORLD                Profile RMS along major axis (world units)                 [deg]
#   8 B_WORLD                Profile RMS along minor axis (world units)                 [deg]
#   9 THETA_WORLD            Position angle (CCW/world-x)                               [deg]
#  10 FWHM_WORLD             FWHM assuming a gaussian core                              [deg]
#  11 ELONGATION             A_IMAGE/B_IMAGE                                           
#  12 ELLIPTICITY            1 - B_IMAGE/A_IMAGE                                       
         1 -14.1651      2.9565     47.9579   1.2535918598e+02   6.4968689911e+01      3.48106    0.7047052 -60.57   0.01038445    7.136    0.860
         2 -14.7196      6.3878    145.2541   1.4130010438e+02   4.4043610664e+01     4.042977     1.413271 -83.28   0.01577086    3.365    0.703
         3 -14.5885      3.0205    110.9052   1.3785715118e+02   5.2060954747e+01      3.75527    0.4799895 -68.08   0.01094556    5.697    0.824
         4 -13.5319    200.5299     28.8695   6.4822160918e+01   3.1842605000e+01     1.387758     1.209737  53.76  0.007613284    1.306    0.234
         5 -13.4757    216.4939     11.0406   5.9019631205e+01   3.0212263168e+01    0.9092913    0.7539552  72.85  0.004578972    1.219    0.179
         6 -13.3577     56.9040    211.5632   1.3725170981e+02   2.3486326625e+01     3.717476     1.087615  60.26  0.007201363   13.269    0.925
         7 -12.6592    240.8069    248.5348   1.0557561929e+02  -1.3298693563e+01    0.6374081    0.3700974  38.07  0.003741489    1.671    0.402
         8 -12.0196     46.1334    247.3289   1.4252632157e+02   1.7474891148e+01    0.5179973    0.3894626  50.73  0.003607031    1.329    0.248
         9 -12.4970     35.0381    245.3703   1.4431208978e+02   1.9239730267e+01    0.5034561    0.4958662 -86.91  0.003972975    1.641    0.391
        10 -12.5802      6.2406    228.0410   1.4811007425e+02   2.5878202260e+01    0.6431015    0.4889284 -69.30  0.004782444    1.516    0.340
        11 -12.8778      5.0812    247.3010   1.4939194233e+02   2.2222813591e+01     1.160308    0.5861987  58.01  0.007677315    1.538    0.350
        12 -12.9800     12.0349    240.4692   1.4788148945e+02   2.2812246100e+01    0.9849268    0.4460188  70.49   0.00567609    1.898    0.473
        13 -10.8190     64.9771    248.4351   1.3924953821e+02   1.4738135354e+01    0.2883402    0.1878594  76.24 0.0007446856    1.358    0.264
        14 -11.4050     97.0859    246.3382   1.3302746123e+02   1.0378352448e+01    0.3848394    0.2109328 -56.96  0.001527786    2.077    0.519
        15 -10.0658     53.5611    238.6864   1.4048544234e+02   1.8215337109e+01    0.2023058    0.1013917 -67.83 0.0007811611    1.944    0.486
        16 -11.0601    198.9043    246.6425   1.1308021949e+02  -6.6535026685e+00    0.2231336    0.1940108 -42.50  0.001283093    1.400    0.286
        17 -11.2601    138.8501    250.1522   1.2535442011e+02   2.8456662818e+00    0.2888614    0.1970437  32.33  0.001627475    1.475    0.322
        18 -12.7701     43.9032    212.9416   1.4000798985e+02   2.4858574280e+01    0.9451638    0.6458598 -79.17  0.004145024    1.277    0.217
        19 -12.8774     28.5035    230.4894   1.4438124330e+02   2.2988452552e+01    0.2999136     0.238925 -85.76 0.0007410127    1.228    0.185
        20 -14.0371     33.7819    223.8267   1.4290318419e+02   2.3753430662e+01    0.8382329    0.5959668  69.55  0.002493874    1.132    0.116
        21 -12.4670    130.9397    231.8614   1.2445263343e+02   7.5579206326e+00    0.9911408    0.1904478  38.45  0.002624575    5.587    0.821
        22 -12.8167    102.2361    229.5562   1.3004065268e+02   1.2861709647e+01     1.212916    0.1805572  46.06  0.003281132    5.572    0.821
        23 -11.9080    123.9911    249.9032   1.2822912844e+02   5.3708007929e+00    0.5874538    0.1814149  43.56  0.002336471    2.649    0.623
        24 -11.1090    218.7524    249.1137   1.0971601774e+02  -1.0137329795e+01    0.2828958    0.1602088  47.53  0.001488409    2.041    0.510
        25 -12.9407     13.2046    122.0334   1.3661111041e+02   4.8882430467e+01    0.6752937    0.4646632  67.70  0.002173413    1.722    0.419
        26 -10.3987    176.4603    250.0000   1.1795556074e+02  -3.4714788279e+00    0.2938532   0.06261624  40.47 0.0009390588    3.970    0.748
        27 -10.5304     53.9342    204.1496   1.3707567300e+02   2.5527384560e+01    0.4243853    0.1987395  59.13  0.001967328    2.207    0.547
        28  -9.0999     34.8635    202.5121   1.4083721463e+02   2.8235675778e+01    0.1632052    0.1117314  46.37 0.0004076307    1.490    0.329
        29 -11.7335     56.7292    197.2712   1.3571294626e+02   2.6717830100e+01    0.3011734    0.2399137 -64.82 0.0005039796    1.298    0.229
        30  -8.9479    191.3569    192.0402   1.0486973126e+02   4.1156692017e+00     0.231917    0.1196124 -64.20 0.0007044859    4.470    0.776
        31 -11.9434     63.4927    188.9413   1.3320670387e+02   2.7729850616e+01    0.2703218    0.2476045 -81.09 0.0004878775    1.171    0.146
        32 -10.8328      3.2286    182.8288   1.4552803123e+02   3.5774354795e+01    0.2606384    0.1611484  73.57  0.001641607    1.432    0.301
        33 -10.8517     74.4099    176.2823   1.2891335560e+02   2.9170677800e+01    0.2438218    0.2238354 -80.87 0.0003315343    1.100    0.091
        34 -13.2897     60.8256    174.0482   1.3183138892e+02   3.1613833024e+01    0.5495729    0.2825881 -46.97  0.002005946    2.288    0.563
        35  -9.4865     93.4912    170.6645   1.2337133754e+02   2.7531399676e+01    0.2434474    0.1576681  61.24 0.0007204874    1.696    0.410
        36 -11.8889     82.4017    167.2193   1.2553197338e+02   3.0144150013e+01    0.6612999    0.6205502 -39.76  0.002323019    1.255    0.203
        37 -10.0746      6.8282    215.1546   1.4719181224e+02   2.8466919251e+01    0.1749408    0.1163173  77.01 0.0004212786    1.149    0.129
        38 -11.4397    162.6152    249.1976   1.2055006297e+02  -1.0120649084e+00    0.3890641     0.173398  34.58  0.001736834    2.151    0.535
        39 -10.2283     95.6319    151.7896   1.1936500391e+02   3.1738524857e+01    0.3428674    0.3061536 -17.05 0.0008479982    1.369    0.269
        40  -9.2541     98.9485    147.6754   1.1767459458e+02   3.2164404064e+01    0.1993981     0.188495  59.23 0.0004308945    1.093    0.085
        41 -12.0074     84.0586    150.6421   1.2217808034e+02   3.3914220274e+01    0.3115124    0.2498627 -48.88 0.0004164978    1.258    0.205
        42 -12.2530     67.3456    143.4343   1.2529690137e+02   3.8140390417e+01    0.6966891    0.4466605  63.94  0.003305233    1.918    0.479
        43  -9.7405    108.1457    136.9848   1.1294976275e+02   3.3077726750e+01    0.4222111    0.2858258 -10.55  0.001641986    2.663    0.624
        44  -9.8157      1.7921    215.3694   1.4810141882e+02   2.8902041847e+01    0.1632634    0.1074986  82.08  0.001128628    1.118    0.106
        45 -10.5447     95.1248    134.1581   1.1585521564e+02   3.6081851656e+01     0.252073    0.2231673 -35.53 0.0003395021    1.201    0.167
        46  -9.0537    105.8895    123.6820   1.1048805908e+02   3.6631984945e+01    0.1950624    0.1840753  54.91  0.000342769    1.099    0.090
        47  -9.5536    167.5376    112.5448   9.2103816685e+01   2.5868613423e+01    0.2963815    0.2381086 -82.07 0.0008690083    1.475    0.322
        48 -10.5153    240.2487     95.7236   7.4787945851e+01   1.2486742110e+01    0.2215097    0.1133024 -30.03 0.0008976188    2.393    0.582
        49  -8.7415    152.5151    213.0477   1.1700283423e+02   7.3728067113e+00    0.1859585    0.1410582 -52.09 7.317372e-05    1.438    0.304
        50 -10.2603     62.2266     79.2040   1.1218964869e+02   5.3419249828e+01     0.430209    0.2182043  45.32  0.001773134    2.497    0.600
        51  -9.7210    159.2148     77.5781   8.4597685516e+01   3.4614703561e+01    0.2152017    0.1362157  44.52 0.0005961261    1.615    0.381
        52  -9.1659     52.4342     72.8053   1.1371364453e+02   5.5943676513e+01    0.2476758    0.1597553  48.93  0.001286571    2.143    0.533
        53 -10.9730    156.7762    249.0233   1.2167424876e+02   6.5690579523e-03    0.2419859     0.167858  41.51 0.0008549036    1.215    0.177
        54 -12.4526      9.9148    206.9933   1.4606314518e+02   2.9893665671e+01    0.6335209    0.4357899  33.38  0.002741056    1.848    0.459
        55 -10.5365     81.7446    248.8801   1.3620093594e+02   1.2235947609e+01    0.2606032    0.1206456  60.46  0.001249232    2.148    0.534
