#   1 NUMBER                 Running object number                                     
#   2 MAG_AUTO               Kron-like elliptical aperture magnitude                    [mag]
#   3 X_IMAGE                Object position along x                                    [pixel]
#   4 Y_IMAGE                Object position along y                                    [pixel]
#   5 X_WORLD                Barycenter position along world x axis                     [deg]
#   6 Y_WORLD                Barycenter position along world y axis                     [deg]
#   7 A_WORLD                Profile RMS along major axis (world units)                 [deg]
#   8 B_WORLD                Profile RMS along minor axis (world units)                 [deg]
#   9 THETA_WORLD            Position angle (CCW/world-x)                               [deg]
#  10 FWHM_WORLD             FWHM assuming a gaussian core                              [deg]
#  11 ELONGATION             A_IMAGE/B_IMAGE                                           
#  12 ELLIPTICITY            1 - B_IMAGE/A_IMAGE                                       
         1 -12.2779    206.7273     18.4566   5.0188117844e+01   3.0474775663e+01     1.077628    0.7691467  22.99  0.005310621    1.730    0.422
         2 -12.1801    195.9067     31.8971   5.5563441828e+01   3.1756222514e+01     1.104139    0.9183962  26.98  0.004430466    1.328    0.247
         3 -10.7535     32.7453     34.4421   1.0176072450e+02   6.5883124117e+01    0.5296929    0.1214015 -53.98  0.001879226    3.659    0.727
         4  -9.2256     49.0253      2.4725   7.9804810970e+01   6.9291931528e+01    0.1750581   0.09206186  19.22  0.000623059    2.527    0.604
         5  -9.8337    195.4967    195.3546   9.5354525501e+01   7.0563672945e+00     0.374505     0.316951  19.12  0.002508331    1.097    0.088
         6 -13.1451    132.1913    245.9968   1.1313137567e+02   1.0442299224e+01     2.163609     0.417055  40.69  0.008154036    4.114    0.757
         7 -10.2696    112.9420    250.0620   1.1668794408e+02   1.2633687786e+01     0.574611    0.1698406  39.69  0.002756336    2.751    0.637
         8 -11.3620    119.8136    248.7154   1.1543993252e+02   1.1853834054e+01    0.5927895    0.2941191 -60.11  0.003763916    2.673    0.626
         9 -15.0666     52.9463    205.8673   1.2353305874e+02   2.7432700992e+01     4.581099     2.951726 -85.27   0.03217546    1.467    0.318
        10 -12.2592    115.1642    229.6831   1.1443108885e+02   1.5202716496e+01    0.8989059    0.2678422  47.43  0.004147376    2.605    0.616
        11 -10.2368     71.7371    182.0949   1.1782342933e+02   2.9482715037e+01    0.3307307    0.2434578 -38.95  0.001723372    2.121    0.529
        12 -10.1509     76.1169    176.1682   1.1627933798e+02   3.0044676137e+01     0.263462    0.2267711 -46.36 0.0005570892    1.555    0.357
        13  -8.0875    195.8138    171.3903   9.1082015177e+01   1.0363529223e+01     0.198764    0.1079908  35.40 0.0009526081    1.717    0.418
        14 -10.4471     90.3423    159.1777   1.1103894367e+02   3.1407547282e+01    0.4918472    0.3481002 -25.22  0.001601595    2.512    0.602
        15 -10.6091     84.2863    165.3126   1.1321667885e+02   3.1056236004e+01     0.548431    0.2923042 -76.00 0.0008561973    2.138    0.532
        16 -11.8063     72.6246    161.8610   1.1536333831e+02   3.3389872382e+01    0.5522679     0.393838 -50.25  0.001399666    1.694    0.410
        17 -11.7498     67.7121    143.9290   1.1418108267e+02   3.7823636641e+01     0.797208    0.4717013  72.06  0.004094846    1.924    0.480
        18 -11.3320    142.9348    228.9082   1.0947836650e+02   1.1139395204e+01     0.388115    0.2196763  33.97  0.002305623    1.673    0.402
        19  -9.3154    103.7638    142.7029   1.0533772188e+02   3.2689812991e+01    0.4574013    0.2711265 -30.02  0.001879227    3.132    0.681
        20 -10.5127     91.6340    143.0479   1.0829545841e+02   3.4573111428e+01    0.2506889    0.2298558 -60.94 0.0005104322    1.192    0.161
        21 -12.1574     99.8601    228.9423   1.1703736253e+02   1.7500899021e+01    0.8649946    0.3158155  52.73  0.004347067    2.380    0.580
        22 -10.5963     59.0480    133.2440   1.1482897587e+02   4.1261255996e+01    0.5758621    0.2154643 -73.87  0.002245655    3.144    0.682
        23  -8.3691    112.4047    131.7045   1.0121703690e+02   3.3507265093e+01    0.2306087    0.1722986  20.92 0.0008627651    1.760    0.432
        24  -8.2405    105.5896    130.7369   1.0270403435e+02   3.4909138093e+01    0.1986812     0.128647 -68.19 0.0009578355    1.703    0.413
        25  -9.2636     99.8537    128.5852   1.0372237464e+02   3.6346172516e+01     0.246167     0.203604 -31.03  0.000850242    1.501    0.334
        26 -16.4100      5.7739    238.7399   1.3301983084e+02   2.6879099686e+01     17.08819     1.039438 -79.04     0.021297   12.696    0.921
        27 -11.9547     32.0795    130.1614   1.2121652461e+02   4.4886844406e+01    0.6411183    0.2466479 -61.63  0.003137895    2.233    0.552
        28  -8.0190    108.7966    120.1989   9.9763977489e+01   3.6598539371e+01    0.1789043    0.1664056 -14.64 0.0003924217    1.267    0.210
        29  -8.2071    109.8857    115.4721   9.8458903730e+01   3.7414684128e+01    0.2038842    0.1372313  45.94 0.0004977729    1.487    0.327
        30 -13.3329     10.6498    206.4910   1.3104250177e+02   3.1740778190e+01    0.7275898    0.5563459  28.33  0.002976256    1.863    0.463
        31 -10.8403     32.8717    109.2928   1.1843032409e+02   4.9460506257e+01     0.477407    0.1077159 -66.67  0.001761171    3.425    0.708
        32  -7.9227    205.6617    110.2829   7.5912401720e+01   1.7829476991e+01    0.1415492     0.117073 -77.10 0.0003765853    1.626    0.385
        33 -10.1694    156.6305    227.7023   1.0693829698e+02   9.1702408172e+00    0.2725936    0.1230709  34.14  0.001387062    2.143    0.533
        34  -9.8659    158.5738     60.4181   7.1125219274e+01   3.7421885444e+01    0.7734929    0.4442457 -79.19  0.002239031    4.626    0.784
        35 -11.4042    127.0737    230.2042   1.1239943684e+02   1.3367345699e+01    0.3663933    0.3113195 -33.92  0.002748871    1.686    0.407
        36  -8.8335    160.3147     54.0451   6.8701721051e+01   3.7994989455e+01    0.2155119    0.1930471 -34.97 0.0003664912    1.122    0.109
        37  -9.8711     32.5002     52.1138   1.0736067832e+02   6.2263262204e+01    0.3331839    0.0883067 -55.42  0.001310068    2.800    0.643
        38 -11.5699     99.7088    249.1092   1.1877298148e+02   1.4571622861e+01    0.6949293    0.3418436  44.98  0.004529141    1.486    0.327
        39 -11.1431    186.8175     38.5821   5.8963859000e+01   3.3300624089e+01    0.4836949    0.3305005  48.37  0.001169039    1.470    0.320
        40 -10.3657    135.4927    229.0022   1.1079404024e+02   1.2267367385e+01    0.2388103    0.1698015  59.64  0.001232263    1.332    0.249
        41 -10.2662     93.0103    244.5084   1.1950954806e+02   1.6119978264e+01    0.2930725    0.1738054  70.40   0.00177921    1.706    0.414
