#   1 NUMBER                 Running object number                                     
#   2 MAG_AUTO               Kron-like elliptical aperture magnitude                    [mag]
#   3 X_IMAGE                Object position along x                                    [pixel]
#   4 Y_IMAGE                Object position along y                                    [pixel]
#   5 X_WORLD                Barycenter position along world x axis                     [deg]
#   6 Y_WORLD                Barycenter position along world y axis                     [deg]
#   7 A_WORLD                Profile RMS along major axis (world units)                 [deg]
#   8 B_WORLD                Profile RMS along minor axis (world units)                 [deg]
#   9 THETA_WORLD            Position angle (CCW/world-x)                               [deg]
#  10 FWHM_WORLD             FWHM assuming a gaussian core                              [deg]
#  11 ELONGATION             A_IMAGE/B_IMAGE                                           
#  12 ELLIPTICITY            1 - B_IMAGE/A_IMAGE                                       
         1 -11.6598    101.4735     39.0848   7.8580131190e+01   5.4004574808e+01     1.778183    0.9683596  24.40   0.00726528    2.660    0.624
         2 -11.6776    143.2064     38.7465   6.7703789348e+01   4.4962511554e+01     1.380158    0.9253708  24.25  0.004679868    1.774    0.436
         3 -12.6877     51.1152     93.2593   1.0944170611e+02   5.0596886450e+01     2.987165    0.8125163 -45.90  0.009999121    4.398    0.773
         4 -11.0877     68.7340     17.4675   8.0283780146e+01   6.2987826937e+01     1.418682    0.6910218 -28.36  0.002527447    1.890    0.471
         5 -10.8386     25.1569      4.4754   9.1883391350e+01   7.0318797555e+01    0.7891738    0.4718034  24.79  0.005214894    1.907    0.475
         6 -12.6073     18.3277     95.8202   1.1883814738e+02   5.2986021940e+01     1.671335    0.6923479 -73.12  0.008641037    1.983    0.496
         7 -12.0364     37.8712     41.5193   1.0081550106e+02   6.2715821079e+01      1.12916    0.6490153   1.07  0.005947764    2.640    0.621
         8 -13.0654     70.0530     30.7902   8.5357996211e+01   6.0721248678e+01     1.602068    0.8787925  31.30   0.00818152    2.059    0.514
         9 -11.6290     50.6036     24.9510   9.0092886140e+01   6.4321157270e+01    0.6983423    0.3862221 -16.95 0.0009411483    2.326    0.570
        10 -12.4165      8.6665     25.9390   1.0738113592e+02   6.7902884829e+01     1.024597    0.6703299   8.67  0.007279164    1.895    0.472
        11 -13.1054    101.8522     53.5016   8.3632914733e+01   5.1446011937e+01      1.87145    0.8149366  31.18  0.006502545    3.583    0.721
        12 -12.9553     84.1717     55.3711   8.9578433558e+01   5.4157356701e+01     5.562958     2.319803  55.66   0.01731095    5.456    0.817
        13 -11.5921     74.5609     46.5365   8.9662062430e+01   5.7296264798e+01     1.263607    0.4664241 -31.46  0.004127217    4.140    0.758
        14 -11.7989    111.3831     30.7091   7.2595422685e+01   5.3312777874e+01     1.004945    0.6663561 -80.34  0.003938148    3.481    0.713
        15 -11.7864    113.1930     20.6111   6.8129680012e+01   5.4313784475e+01     1.666079    0.7516241 -31.15  0.007126938    2.127    0.530
        16 -11.8946    112.6853      7.4543   6.2859746116e+01   5.5965297591e+01    0.8626935    0.4182818  65.51  0.003612589    2.620    0.618
        17 -12.2354     30.4014     21.0494   9.6606103769e+01   6.7142885604e+01      1.72006    0.4578738 -39.56  0.007010031    3.221    0.690
        18 -12.6493     20.2564     13.7350   9.8083349814e+01   6.9262452951e+01    0.9171236    0.6449344  44.04  0.006184769    2.232    0.552
        19 -12.5866      3.3050     17.5463   1.0700590217e+02   6.9736844400e+01    0.4149261    0.2068684 -41.19 0.0002698525    1.479    0.324
        20 -13.4721      3.4251      9.7723   1.0422761573e+02   7.1095235018e+01    0.9135578     0.410951 -40.80  0.003346389    1.593    0.372
        21 -11.6196     92.4508     24.2896   7.5452967409e+01   5.7973522068e+01       1.7897     0.862371 -22.77  0.006889431    2.239    0.553
        22 -12.2615     40.9946     19.4687   9.1636046220e+01   6.6339151444e+01     1.149256    0.5665323 -35.22  0.003732187    1.676    0.403
        23 -12.4219     54.4157      5.9555   8.0264381817e+01   6.6690099507e+01     1.249646     0.717884  17.48  0.003824462    2.010    0.502
        24 -13.1990    145.7582     53.5860   7.2208193658e+01   4.2035321641e+01     3.275821    0.8869853  53.30 0.0009309975    3.636    0.725
        25 -10.7448    215.5403     23.8009   5.0478859979e+01   2.8198870532e+01     1.314102     0.898648   3.81  0.006092065    1.935    0.483
        26  -9.9488    221.4728      9.8285   4.5876571798e+01   2.8242778220e+01    0.6691123    0.4084376 -80.00  0.002206291    1.855    0.461
        27 -10.1979    226.2199      8.5730   4.5038203482e+01   2.7161622711e+01    0.8409203    0.4615775  15.22   0.00322261    3.294    0.696
        28 -10.5445    210.4604     17.9621   4.9439937393e+01   3.0206340097e+01    0.4966013    0.2694572  46.48  0.001401036    1.972    0.493
        29 -10.1821    212.6507     12.6498   4.7652281674e+01   3.0224292712e+01    0.4567965    0.2948152  52.35  0.001576789    1.556    0.357
        30  -9.7737    202.4735     27.1934   5.3209772447e+01   3.1215413663e+01    0.6178764    0.3689766 -52.61  0.002698759    1.847    0.459
        31  -9.8342    156.6821      5.8483   5.3317866385e+01   4.5594287067e+01    0.8909288    0.3765441  51.65  0.003611386    2.086    0.521
        32 -12.3309    166.2337     24.1561   5.7995774660e+01   4.1131370955e+01     1.167344    0.5742181  62.30  0.001439748    1.969    0.492
        33 -10.7497    158.1443     19.7495   5.7945529002e+01   4.3739164182e+01    0.7044821    0.4688118 -34.32  0.002486713    1.545    0.353
        34 -11.4574    168.4311     13.0470   5.3866954304e+01   4.1827462039e+01     1.845329     0.885864  87.76  0.006058487    3.687    0.729
        35 -11.2615    164.0026      4.4831   5.1661319903e+01   4.3841124324e+01     1.020366    0.6375762  -2.35  0.003947311    1.900    0.474
        36 -11.5514    149.5900     16.6359   5.8447397549e+01   4.6262217785e+01     1.192725    0.5806506  35.14  0.004555293    2.405    0.584
        37 -11.6172    178.7616     26.6305   5.6661617475e+01   3.7552464652e+01     1.841967    0.9411902  19.17  0.005957561    3.737    0.732
        38 -12.4868     99.3945      7.6725   6.6376963318e+01   5.8742795498e+01    0.9492493    0.6174524  46.06  0.002627946    1.486    0.327
        39 -12.5423     54.3181     35.7417   9.2819270511e+01   6.2000439670e+01    0.8426384    0.7602962 -26.17  0.005867735    1.142    0.124
        40 -10.7976    243.2445     11.5487   4.4147819798e+01   2.2580701519e+01    0.8339147    0.3674828 -21.17  0.003417762    2.549    0.608
        41 -11.3168    236.5823     31.8400   5.0143076196e+01   2.1838566175e+01      0.90815    0.5555862  -9.89  0.004029554    2.100    0.524
        42 -10.4028    240.5775     20.3134   4.6667255167e+01   2.2241821146e+01    0.5537371    0.2222279 -33.44  0.001805279    2.229    0.551
        43  -9.7254    238.9805     15.4933   4.5576850947e+01   2.3191419526e+01    0.3733589    0.1926976 -63.63  0.001032556    2.293    0.564
        44 -10.0332    131.1990     13.3836   6.0988036690e+01   5.1109058413e+01     1.203622    0.3703032  44.00  0.004050669    3.227    0.690
        45 -11.5801    132.2175     19.5448   6.3130999574e+01   5.0155052520e+01     1.268825    0.4101986  41.19  0.004061175    3.552    0.718
        46  -9.7266    231.9038     18.6489   4.7146117589e+01   2.4602612923e+01    0.6181751       0.3713 -29.43  0.002964829    1.637    0.389
        47 -10.5360    233.1721     10.8674   4.4947145852e+01   2.5155537604e+01    0.3634956    0.2691232 -81.67 0.0009370474    1.356    0.263
        48 -10.0086    233.7764      7.2268   4.3931919175e+01   2.5395291868e+01    0.2673379    0.2072745  56.72 0.0003385774    1.342    0.255
        49 -10.4609    202.5574     18.3616   5.0567495506e+01   3.2238826796e+01    0.6682296    0.3415455  40.94  0.002662262    2.295    0.564
        50 -11.3523     39.4220     85.9332   1.1132983694e+02   5.3379851497e+01     2.781248     0.829365 -44.10   0.00998521    4.220    0.763
        51  -9.4853    141.9050     11.4434   5.8035845412e+01   4.8738147248e+01     0.237238    0.1951391  -0.14  0.000371608    1.243    0.195
        52  -8.8612    145.0239      8.4868   5.6338196675e+01   4.8273677007e+01    0.3478609    0.2522348  14.20  0.001776886    1.492    0.330
        53  -8.7274    138.9222      8.4733   5.7507595707e+01   4.9776594376e+01    0.2423761    0.2139206  57.07  0.001369599    1.129    0.114
        54 -10.9440    132.5569      4.4731   5.7242526874e+01   5.1709157712e+01    0.5489671    0.3147609  40.31  0.002067452    1.653    0.395
        55 -11.0177    138.9969      2.2229   5.5124066591e+01   5.0363350646e+01    0.4059248     0.306232  19.49 0.0008688277    1.348    0.258
        56  -9.9736    173.4946      8.8079   5.1662269289e+01   4.0943111314e+01     0.276911    0.2356342 -13.39 0.0008086525    1.254    0.203
        57  -9.6613    123.1746      9.8925   6.1393459270e+01   5.3356902462e+01    0.3135222    0.2254759  58.65  0.001661029    1.420    0.296
        58 -10.6385     77.4844      9.2275   7.3621413198e+01   6.2671879183e+01    0.2682694    0.2192512  -8.99 0.0006771111    1.053    0.050
        59  -8.0216     78.3900      4.0845   7.0943461017e+01   6.3130947419e+01     0.345871    0.1558423  33.49  0.001583381    2.370    0.578
        60  -8.4380     82.4548      2.5015   6.8930541943e+01   6.2578782232e+01    0.1823735    0.1099374  -8.17 0.0009587961    1.651    0.394
        61 -10.9026    180.9488      4.6940   4.9256471293e+01   3.9389543236e+01    0.7249084    0.3537717  74.09  0.002988867    2.093    0.522
        62 -10.9543    199.2690      5.4935   4.7154375480e+01   3.4479991958e+01     0.665988    0.4648875 -45.63  0.002683779    1.464    0.317
        63  -9.9369    189.6490      7.3233   4.8917580592e+01   3.6834895001e+01    0.5616457    0.3593111  48.49  0.001848347    1.539    0.350
        64  -8.6661     38.7394      9.3848   8.8194608831e+01   6.8176191623e+01    0.1945255     0.133022  -3.65  0.001075327    1.461    0.315
        65  -8.6089     37.8268      6.3873   8.7192104601e+01   6.8723234026e+01    0.2049421     0.133079 -31.48 0.0006484928    1.237    0.192
        66 -10.1543    248.9714      2.0201   4.1261210025e+01   2.2211626697e+01    0.3729166     0.200714 -36.61 0.0008050228    1.692    0.409
        67 -11.4401    216.5825      4.6547   4.4966223709e+01   3.0042463967e+01    0.9699248    0.2835355  65.05  0.001594168    2.925    0.658
        68  -9.3387    207.8083      3.1615   4.5490238763e+01   3.2471678749e+01    0.2907909    0.2469391 -54.17  0.000512277    1.173    0.148
        69  -9.1454    223.7110      1.6430   4.3422316344e+01   2.8515186434e+01    0.2609834    0.1839798  67.59 0.0008271662    1.351    0.260
        70  -8.6111     45.9644      5.0294   8.3158534060e+01   6.7940772681e+01    0.1561906    0.1335168 -10.32 0.0003809904    1.183    0.155
        71  -9.9979     42.1557      3.7756   8.4118642276e+01   6.8587267854e+01    0.3394162     0.187013 -31.19  0.001371435    1.487    0.328
        72 -10.7329     56.4082    125.1460   1.1357480451e+02   4.2967485288e+01    0.3569337    0.2588862  75.73  0.001686261    1.393    0.282
        73 -11.4365     67.3476    122.1601   1.1045087642e+02   4.2285575944e+01    0.8428047     0.442715 -43.27  0.003993929    2.369    0.578
        74  -9.9299     59.5234    121.0841   1.1218776848e+02   4.3493271681e+01    0.3100308    0.2457631 -55.51  0.001666705    1.267    0.211
        75  -8.9604     75.0767    124.6647   1.0899549612e+02   4.0708201554e+01    0.1972752     0.144561  64.82 0.0005904688    1.430    0.301
        76 -12.9745     16.0683     56.8169   1.1261204231e+02   6.1395613905e+01     1.328347    0.8957098  22.37 0.0008624757    1.928    0.481
        77  -8.9821    235.4928    248.9906   9.7637559846e+01  -7.2455422613e+00    0.1179927   0.09552339 -65.08 0.0008097212    2.470    0.595
        78  -9.0783    125.1523    249.2501   1.1510041028e+02   1.0068767461e+01    0.1579029    0.1154718  14.55 0.0009592496    2.867    0.651
        79  -8.6962      3.6107    246.1610   1.3259456900e+02   2.5602462133e+01    0.1158756   0.06296226 -77.16 0.0009462871    1.791    0.442
        80 -11.5431     77.7637     62.4187   9.3802772005e+01   5.3766331555e+01    0.9147799     0.360349 -36.46   0.00342155    2.966    0.663
        81  -9.0401    104.1999    245.4002   1.1801959946e+02   1.3698180416e+01    0.1612998   0.07155395  53.85 0.0005930888    1.716    0.417
        82  -8.6101    205.9894    245.0000   1.0172892098e+02  -2.2210296442e+00    0.1879437   0.04916787  44.75 0.0005231962    2.878    0.652
        83 -12.1982      9.5342    111.5420   1.2302517944e+02   5.0242094865e+01     0.955927    0.5892836 -40.11  0.006163509    2.122    0.529
        84  -9.6933    189.5995    243.3702   1.0414542771e+02   6.1274118046e-01    0.1766084    0.1117071 -36.87  0.001157795    2.101    0.524
        85 -13.1265     51.5505     68.9056   1.0387192874e+02   5.5800620139e+01     2.149984      0.79396  40.06  0.009476114    3.239    0.691
        86 -11.9609     42.7666     50.0811   1.0166120789e+02   6.0568358332e+01      0.65682    0.4645377   8.10  0.002431988    1.778    0.438
        87 -10.0397    142.4587    243.3801   1.1176337680e+02   8.2100280769e+00    0.2780303    0.1415092  37.39  0.001115609    1.991    0.498
        88  -9.4538    168.4089    241.7854   1.0738159376e+02   4.2585024505e+00    0.1304851    0.1089311 -23.03  0.000955947    1.682    0.405
        89  -8.7504    222.6487    241.3078   9.8564833374e+01  -4.4965215251e+00    0.1044199   0.07990532  59.41 0.0004875772    1.713    0.416
        90  -9.9915     14.8349    236.1395   1.3067968911e+02   2.6073401962e+01    0.3186452    0.1168198 -83.16  0.001322264    2.347    0.574
        91 -13.1664     24.6569     78.7436   1.1429035193e+02   5.6187264934e+01     1.263804    0.8081226 -44.43  0.006620144    1.512    0.339
        92 -11.9184     28.6069     64.4525   1.1016110625e+02   5.8905393962e+01     1.116421    0.4529543 -30.93  0.004269689    4.659    0.785
        93  -9.3717     12.8916    232.3456   1.3078640520e+02   2.6872381127e+01    0.2136906   0.09252027  66.26  0.001183466    1.672    0.402
        94  -8.9050    227.0755    231.5189   9.6423632786e+01  -4.1874794668e+00     0.174432   0.08966934  41.48 0.0004426368    1.519    0.342
        95  -8.9666    202.0871    228.9822   1.0014254285e+02   2.3893032944e-01    0.1764117    0.1364562  39.26  0.000379482    1.024    0.023
        96  -9.0609    136.3260    228.3139   1.1111262005e+02   1.1330928602e+01    0.1063488   0.08489875  26.14  0.000362488    1.667    0.400
        97  -9.1571     50.2198    227.5217   1.2502815633e+02   2.3627694188e+01    0.1773883    0.1144748  89.43  0.001064551    1.314    0.239
        98  -8.9534    110.7859    224.9898   1.1504642867e+02   1.5843464861e+01    0.1789097   0.09717985  61.02  0.001051366    1.631    0.387
        99  -8.8898     98.6585    223.6844   1.1694418427e+02   1.7857592950e+01   0.09648722   0.08722325  26.44 0.0007048156    1.708    0.414
       100  -8.7216     40.7096    221.6387   1.2611897962e+02   2.5711727894e+01   0.08652955   0.07254611 -69.30 0.0003603756    1.695    0.410
       101  -8.0368    234.3181    219.2748   9.3337160874e+01  -4.0563219572e+00    0.1202228   0.07403047  22.05 0.0001874272    1.569    0.363
       102  -8.7270      3.2888    213.3448   1.3133614016e+02   3.0929214158e+01   0.08344286   0.06180723 -72.86 0.0004196635    1.653    0.395
       103  -9.5989     92.4257    118.6824   1.0362293160e+02   3.9480845199e+01    0.6937793     0.135397 -53.53  0.002033361    4.464    0.776
       104  -9.1031     91.4764    112.4825   1.0259455124e+02   4.0993825954e+01    0.3059891    0.2140234   2.71  0.001395522    2.676    0.626
       105  -8.3581    131.7492    119.3527   9.4227246093e+01   3.2320024469e+01     0.146352    0.1107172 -80.43  0.000335646    1.596    0.373
       106  -8.8428     54.0342    118.0106   1.1304694030e+02   4.4811302044e+01    0.1877044    0.1552346 -80.11 0.0005222621    1.030    0.029
       107  -9.5587     50.5581    117.7439   1.1386354710e+02   4.5258124272e+01    0.2959473    0.1797715 -58.18  0.001481381    1.439    0.305
       108 -11.2910     42.8955    116.0679   1.1550066824e+02   4.6435813936e+01      0.49446    0.3632994 -49.23  0.003188953    1.463    0.317
       109  -9.4526    104.0922    116.6097   1.0030436683e+02   3.8024966572e+01     0.275433    0.2058857  64.73  0.001065749    1.464    0.317
       110 -10.1700     82.0973    114.8554   1.0545219624e+02   4.1885706003e+01     0.418973    0.2695208  19.82  0.001423578    2.451    0.592
       111  -8.1240     23.6182    116.2551   1.2021272771e+02   4.8166818454e+01    0.1142982   0.07165673  70.61 0.0004284351    1.665    0.399
       112 -10.0614     58.3716    113.5209   1.1122250052e+02   4.5301488065e+01    0.4525074    0.1992952 -41.05  0.001821996    3.426    0.708
       113 -10.2216     33.0220    109.0835   1.1694393965e+02   4.8910849914e+01    0.4643955    0.3829208 -52.57  0.002608956    1.309    0.236
       114  -8.6810    104.4797    109.0407   9.8541039494e+01   3.9606731381e+01    0.2257913    0.1717256 -73.56 0.0005939822    1.398    0.285
       115  -9.5920    108.3847    113.1704   9.8488571276e+01   3.8028686894e+01    0.3816667    0.1675866 -60.06   0.00133376    2.610    0.617
       116  -8.9279     97.7831    113.7156   1.0126079768e+02   3.9712418641e+01    0.2034344    0.1811029   2.04  0.001173223    1.456    0.313
       117  -9.1603     63.9631    113.9141   1.0987313936e+02   4.4537404940e+01    0.1961037    0.1689067 -76.87 0.0006245779    1.029    0.028
       118  -8.9407    132.8526    112.1772   9.2281372877e+01   3.3601593702e+01    0.2296246    0.1997695 -84.21  0.001105348    1.232    0.188
       119 -10.9023     67.9857    107.1032   1.0757747197e+02   4.5538124315e+01    0.5932426    0.2962845 -38.95  0.002565636    2.759    0.638
       120 -10.0687     74.4215    107.3715   1.0594548862e+02   4.4624511058e+01    0.3492005    0.2806227  32.41  0.001188526    1.495    0.331
       121 -10.8955     77.4980    101.9408   1.0400916484e+02   4.5398667335e+01    0.6778347    0.2971806  40.45  0.003007437    2.514    0.602
       122  -8.8446    149.3638    106.0540   8.6872311078e+01   3.1374222302e+01    0.2986748    0.1410234 -35.39  0.001088031    2.412    0.585
       123  -8.8134    113.5170    107.4918   9.5900210138e+01   3.8332103522e+01    0.1431439    0.1332673 -70.84 0.0002427077    1.019    0.018
       124  -9.5006     53.1139    104.4568   1.1099913112e+02   4.7909443709e+01    0.2848499    0.1561189 -67.59 0.0009691124    1.588    0.370
       125  -9.6066    141.6081    103.1429   8.7937671704e+01   3.3644835144e+01     0.355278    0.2578469 -41.52  0.001102068    1.369    0.269
       126  -9.4217    171.4227    102.5795   8.1040554457e+01   2.7034576901e+01    0.3387911    0.2405625  22.85  0.001476479    1.812    0.448
       127  -8.3641    105.4022    102.8295   9.6859007659e+01   4.0793232552e+01      0.19374    0.1251306 -42.19 0.0003874715    1.565    0.361
       128  -8.7932    133.5386    102.4987   8.9709542930e+01   3.5475654941e+01    0.1474975    0.1421252 -63.93 0.0001672778    1.007    0.007
       129  -9.0342     26.2390    212.0170   1.2778682402e+02   2.8930899749e+01    0.1294294   0.06631429 -81.87 0.0008871033    1.632    0.387
       130 -10.7714      4.3609     99.5614   1.2293439314e+02   5.3119426075e+01    0.3868993    0.2187333 -63.35  0.002264296    1.366    0.268
       131  -9.5621    123.9975    205.9966   1.1061865209e+02   1.6881242881e+01    0.1728136    0.1405862  62.43  0.001165823    1.006    0.006
       132 -10.5080    116.9866     99.5550   9.3079094422e+01   3.9379250464e+01    0.4793724    0.3150555  -2.26   0.00178769    3.335    0.700
       133  -9.3020     87.4757    100.5606   1.0103947942e+02   4.4234999228e+01    0.2698551    0.2269354 -61.68 0.0005646022    1.068    0.064
       134 -11.3752     88.4914     90.5861   9.8397245861e+01   4.6249085825e+01     1.004876    0.3920876 -54.81  0.003444968    2.433    0.589
       135  -9.6982     93.0212     89.0481   9.6759567343e+01   4.5857071811e+01    0.3605219    0.2590194 -86.11  0.001768534    1.912    0.477
       136  -9.3311     35.0956     98.8293   1.1482861104e+02   5.0964885233e+01    0.2502367    0.2028923 -84.21 0.0008778264    1.139    0.122
       137  -9.5416     38.5687     97.2227   1.1362460721e+02   5.0995755608e+01    0.2479972    0.1693166 -47.66  0.001313266    1.452    0.311
       138  -9.2103    244.6229    204.0845   8.9090381537e+01  -4.0909102995e+00    0.1682517    0.1330294   5.14  0.001122067    1.175    0.149
       139  -9.6662     64.1250     98.5412   1.0691052645e+02   4.7920984216e+01    0.3297076    0.2385945  57.35  0.001919096    1.589    0.371
       140  -9.3108    159.8679     97.1474   8.2122768852e+01   3.0766975017e+01    0.3036726    0.2239935  40.71 0.0007847385    1.403    0.287
       141  -9.0655    156.0297     94.6520   8.2309877102e+01   3.2134869472e+01    0.3045982    0.2519011  55.77  0.001518057    1.239    0.193
       142  -8.6108     81.2218     97.1827   1.0195735460e+02   4.5911690243e+01    0.1756926     0.147189  89.42 0.0004083052    1.288    0.224
       143  -9.6629    114.4517     95.4057   9.2667623617e+01   4.0736730299e+01    0.3481874    0.1360922  49.44  0.001250222    2.870    0.652
       144 -10.4252    124.3795     92.7285   8.9414067954e+01   3.9365435320e+01    0.4941427    0.4077935 -73.35  0.002099244    1.367    0.269
       145 -10.3048    120.1766     86.5743   8.8805964841e+01   4.1470937265e+01    0.6747397    0.2546048  48.63  0.002388689    2.873    0.652
       146 -10.0773    124.8699     83.2010   8.6638487565e+01   4.1210948116e+01     0.764237    0.3277614 -53.25  0.002652982    2.828    0.646
       147  -9.2463     77.9971     92.9957   1.0188276741e+02   4.7292665217e+01    0.4017558    0.2281616 -36.11   0.00123927    2.155    0.536
       148  -9.7805     75.4822     89.4971   1.0176744818e+02   4.8409409520e+01    0.6045935    0.1539342  38.14  0.002054901    4.343    0.770
       149 -10.2234     82.3537     81.9963   9.7945346579e+01   4.9031717762e+01    0.5665892    0.2407906 -58.10  0.002063366    2.490    0.598
       150  -9.4138    112.5462     85.4879   9.0509952109e+01   4.3171881182e+01    0.2733048     0.227756 -11.63 0.0007270211    1.429    0.300
       151 -10.6648    103.6567     92.2828   9.4701230299e+01   4.3365039540e+01    0.3215888    0.2684552  44.96 0.0005218787    1.292    0.226
       152 -10.9701    107.5447     86.4108   9.2102098435e+01   4.3908860437e+01    0.7599296    0.4369001 -24.37  0.002921184    2.854    0.650
       153  -7.8950      3.3395     93.3137   1.2244697167e+02   5.4502488904e+01    0.1118949   0.06275941 -50.70 0.0007046972    1.698    0.411
       154 -11.0136      6.4154     85.8164   1.2064258420e+02   5.5909058516e+01    0.5781255     0.319061 -47.82   0.00313025    1.747    0.428
       155  -9.7085      1.9385     83.7786   1.2159511689e+02   5.6593865552e+01    0.2347389     0.152557 -70.53  0.001242674    1.110    0.099
       156 -10.2427      4.5715     76.5679   1.1982293870e+02   5.7966269822e+01    0.4515912    0.2464895 -88.99  0.002005613    1.923    0.480
       157  -9.7574      6.5235     71.0616   1.1837554789e+02   5.9012585550e+01    0.2563688    0.1959013  11.64  0.001562904    1.798    0.444
       158 -10.0730    164.3476     85.9110   7.7992033008e+01   3.1849623576e+01    0.2794037    0.2498335  -0.91 0.0005407158    1.217    0.179
       159  -9.5910    145.0816     85.8045   8.2378954932e+01   3.6346258013e+01    0.4250453    0.3005658 -71.73  0.001835633    1.968    0.492
       160  -9.0853    141.3191     84.6900   8.2962057230e+01   3.7403522161e+01    0.2819895    0.2263201 -75.18  0.001224574    1.530    0.347
       161  -9.8852     82.1681     89.1058   9.9792892520e+01   4.7532575697e+01    0.4577004    0.2556644 -59.77  0.001653726    1.734    0.423
       162  -8.8179    186.1980     84.8103   7.3098009638e+01   2.6712556705e+01    0.2194667     0.184473   5.00  0.001061604    1.352    0.261
       163 -10.0562    216.7937     81.1749   6.6452304186e+01   1.9710432005e+01    0.4918898    0.2600575 -30.83  0.001989393    1.860    0.462
       164  -9.7040    160.0627     81.7849   7.7750628493e+01   3.3639311142e+01    0.3776136    0.3069122  75.36  0.001820546    1.435    0.303
       165 -10.3239     93.0528     77.0795   9.3538628769e+01   4.8377969700e+01    0.5840987    0.3494038  30.20  0.002732649    2.074    0.518
       166 -11.0258    104.6986     78.9207   9.0788178789e+01   4.5978352654e+01    0.7487491     0.423163 -32.18   0.00245829    2.061    0.515
       167 -10.5672     99.0312     77.5548   9.1977354211e+01   4.7264717773e+01    0.4814215    0.3421688  46.43  0.001368297    1.548    0.354
       168 -10.3287    101.5617     70.0571   8.9055054262e+01   4.8337520257e+01    0.5299815    0.3523839 -62.33  0.002495771    1.849    0.459
       169  -9.4454     97.6248     71.8284   9.0709726489e+01   4.8677521055e+01    0.3735858    0.2049991  37.01  0.001685002    2.065    0.516
       170 -10.4040    133.8103     79.2398   8.3215781248e+01   4.0112934928e+01    0.6013287    0.3249951 -50.39  0.002436926    1.980    0.495
       171  -8.9222    179.3422     80.5483   7.3264532870e+01   2.9163385491e+01    0.2874577    0.1562693  59.13  0.001115567    1.976    0.494
       172 -10.6271    138.3765     68.4693   7.8796659201e+01   4.1146597814e+01    0.6744795    0.3809747  42.69 0.0008096445    1.853    0.460
       173  -9.3022    132.0489     67.4577   8.0051447604e+01   4.2739821910e+01     0.288263    0.2600729  10.61 0.0009940878    1.169    0.144
       174  -9.2726    144.4543     71.5147   7.8274676702e+01   3.9201534400e+01    0.2377041    0.1914698 -71.94 0.0008168397    1.532    0.347
       175 -11.0545    145.2841     75.7513   7.9370411892e+01   3.8223320524e+01    0.5368109    0.3903081 -10.86  0.002410179    1.756    0.430
       176 -10.3545    139.9786     75.6607   8.0621582041e+01   3.9442805556e+01    0.5141423    0.3746967   0.29  0.002114892    1.903    0.474
       177  -9.5569     13.4226     76.3572   1.1719699655e+02   5.7483292617e+01    0.2899753    0.1645756 -89.85   0.00166518    2.014    0.503
       178 -10.1928    247.3720     75.5743   6.0223187826e+01   1.3209406786e+01    0.3545448    0.2670826 -57.53  0.001599159    1.475    0.322
       179  -8.7732    219.4758     74.9223   6.4301143238e+01   2.0034999234e+01    0.2364614     0.144525 -32.81  0.001024698    1.575    0.365
       180  -8.9765    214.7207     72.5284   6.4427650826e+01   2.1597497142e+01    0.3886088    0.2391252   0.89  0.001458345    2.596    0.615
       181  -8.6451     84.9802     74.2385   9.5080075966e+01   5.0262969136e+01    0.2122471    0.1531795  -1.99  0.001054188    2.003    0.501
       182  -9.0855    101.0600     88.2743   9.4356567530e+01   4.4670508141e+01     0.235955    0.1821388 -50.95 0.0002658513    1.194    0.163
       183 -10.4801    150.9515     67.5439   7.5515978407e+01   3.8401896089e+01    0.5314224    0.3857979  -9.40  0.001808271    1.711    0.416
       184  -9.3095    163.5446     67.4776   7.2683976219e+01   3.5364395565e+01    0.4296896    0.3040807 -63.75  0.001870194    1.814    0.449
       185  -9.8940    165.4733     62.4821   7.0719176772e+01   3.5736958840e+01    0.3967301    0.3464684 -41.19  0.001420306    1.152    0.132
       186  -8.9059    159.2037     58.1662   7.0694422950e+01   3.8012719686e+01    0.2881432    0.2170413  -7.52   0.00128509    1.557    0.358
       187  -9.9669    165.7208     54.1804   6.8036467351e+01   3.7030950277e+01    0.6457788    0.3327038 -36.76  0.002573667    1.904    0.475
       188 -10.3840    159.7932     51.2928   6.8340243790e+01   3.8976827941e+01    0.6010191    0.5590569  58.90  0.003168781    1.099    0.090
       189  -9.8367     84.4422     68.2349   9.3508791404e+01   5.1579132961e+01    0.2694137    0.2243333 -28.31 0.0008186476    1.191    0.161
       190 -10.2676    250.5081     65.5430   5.7222646720e+01   1.3921937882e+01    0.6021821    0.1345051 -29.57  0.001699762    4.214    0.763
       191 -10.6593     67.1978     62.5600   9.7168333727e+01   5.5220760705e+01    0.2374878    0.1970835 -45.72 0.0003891364    1.036    0.035
       192  -9.4392    201.1318     59.1531   6.2909246723e+01   2.7140316517e+01     0.330003    0.2774494  -4.56  0.001178318    1.312    0.238
       193  -9.0306    202.7882     55.2323   6.1481769858e+01   2.7303298544e+01     0.253964    0.1964678 -40.94 0.0003246357    1.280    0.219
       194  -8.8034    179.2210     58.5584   6.6715228770e+01   3.2894060020e+01    0.4737822    0.2510809  -9.26  0.001518118    3.392    0.705
       195  -9.8482    185.9547     54.2372   6.4119156985e+01   3.1829213252e+01    0.4723963    0.2982346  -3.05  0.001861776    2.270    0.559
       196 -10.9374    181.9353     51.1909   6.3918305380e+01   3.3335830471e+01    0.5654705    0.3173358 -33.39 0.0007750912    1.756    0.430
       197 -10.0402    174.4167     56.6305   6.7056110717e+01   3.4431470950e+01    0.5531296    0.3039414 -13.10  0.001980338    2.660    0.624
       198  -8.9101    137.7179     59.2313   7.5989697148e+01   4.2952892367e+01    0.2894996    0.1909874  39.39 0.0007336477    1.594    0.372
       199  -9.9570    222.8070     56.8391   5.8793088841e+01   2.1927844479e+01    0.4267898    0.3667514  83.59  0.002243579    1.246    0.197
       200  -9.2399    243.2676     55.2018   5.5496926470e+01   1.7094272305e+01    0.2866789     0.223643 -57.43  0.001490176    1.324    0.244
       201  -8.6311     54.7763     49.7878   9.7403106085e+01   5.9315569927e+01    0.2556508    0.1955081 -45.79 0.0009202289    1.105    0.095
       202 -10.0109     54.7828     45.5909   9.6052682690e+01   6.0122714771e+01    0.3024844    0.2439437  62.11  0.001471662    1.803    0.445
       203 -10.7216     60.9445     52.5814   9.6187564730e+01   5.8017939269e+01    0.6510397    0.2834756 -52.00  0.002969777    2.081    0.519
       204 -10.1299     58.8281     45.8315   9.4725985954e+01   5.9582680995e+01    0.3112128    0.2042454 -43.38 0.0009491932    1.274    0.215
       205 -10.3056    195.2982     54.1465   6.2429568799e+01   2.9412950669e+01    0.5458094    0.2912229  65.26  0.002156196    2.017    0.504
       206  -9.3517     51.5262     53.1249   9.9538121539e+01   5.9033409560e+01    0.1863642    0.1739439 -16.23 0.0005155399    1.183    0.155
       207  -8.8344    126.9788     51.0204   7.5909673704e+01   4.6770070427e+01    0.2099571    0.2026105 -19.35  0.000349781    1.052    0.049
       208  -9.7937    172.0614     48.3147   6.4882900693e+01   3.6322655688e+01    0.4808971    0.3681075  51.89  0.001602786    1.283    0.220
       209  -9.2380     27.5972    194.1848   1.2646245989e+02   3.1989523408e+01    0.1424876   0.07721446 -70.93 0.0007115314    1.694    0.410
       210  -9.7659    225.8911     49.0054   5.6179042041e+01   2.2260282015e+01    0.2379924    0.2102806  70.53 0.0003351781    1.158    0.136
       211  -9.4406    197.9190     49.2691   6.0525042056e+01   2.9449855768e+01    0.3389374    0.1835528  52.71 0.0007345558    1.804    0.446
       212  -9.9615    230.4767     45.5417   5.4602373673e+01   2.1579025051e+01    0.4618964    0.2908826  77.65  0.001333713    1.812    0.448
       213  -8.6759    225.1601     41.6195   5.4235172529e+01   2.3454432006e+01    0.2103237    0.1752559  29.03 0.0007968897    1.364    0.267
       214  -9.2913    125.5100     47.4787   7.5053483230e+01   4.7683016469e+01    0.5702689    0.1666756 -35.14  0.001810219    3.284    0.695
       215  -9.5896    129.7233     46.3214   7.3579532018e+01   4.6936601858e+01    0.3986339    0.2784336 -75.17  0.001704751    2.368    0.578
       216 -10.0102    130.5450     41.6420   7.1716761373e+01   4.7491327377e+01    0.4936717    0.2188009 -36.69  0.001133364    2.183    0.542
       217  -9.3511    219.7429     42.8807   5.5330593494e+01   2.4671725773e+01    0.2751376    0.2345582 -61.43 0.0005754606    1.195    0.163
       218  -9.6501    206.9318     46.0177   5.8117334182e+01   2.7559693758e+01    0.3608186    0.2177363  66.07 0.0009983055    1.706    0.414
       219  -8.9159    221.3233     46.3181   5.6074158396e+01   2.3795819854e+01    0.2338049    0.1693061  26.40  0.001058755    1.700    0.412
       220  -9.8979    106.4639     44.7965   7.9245273069e+01   5.2091158771e+01    0.3811443    0.2851844  50.02  0.002014133    1.472    0.321
       221  -9.0653      5.8768     40.5710   1.1247998180e+02   6.5260644956e+01    0.1438655    0.1243402  10.10 0.0003963246    1.509    0.338
       222  -8.7902     12.0088     34.0000   1.0840991793e+02   6.6183528161e+01      0.18714    0.1493283  28.94  0.001023261    1.664    0.399
       223  -9.6083     12.6048     41.8857   1.1030555253e+02   6.4616942493e+01    0.5746296    0.3972699  20.74  0.003279551    1.864    0.463
       224 -10.4569     16.2868     31.5617   1.0600201324e+02   6.6369043592e+01    0.2683591    0.2340364 -84.91   0.00102766    1.539    0.350
       225  -9.7203     21.5767     40.2604   1.0651185637e+02   6.4331963190e+01    0.1675536    0.1395904  62.90 0.0007695546    1.715    0.417
       226  -9.7291     17.9462     37.3087   1.0704933643e+02   6.5160935594e+01    0.3506851    0.2872711  82.22  0.001669299    1.736    0.424
       227 -10.1734    214.5784     41.5180   5.5675285454e+01   2.6190426880e+01     0.518995     0.311353   3.07 6.769461e-05    2.632    0.620
       228 -10.2226     14.3233    189.6900   1.2839379635e+02   3.4117188648e+01    0.1843736    0.1095007  72.56 0.0007037359    1.266    0.210
       229 -10.4687    217.4756     36.0202   5.3702062055e+01   2.6169470466e+01    0.8234026     0.344933  63.27  0.003130711    2.328    0.570
       230 -10.4942    211.5514     32.0450   5.3371693467e+01   2.8223157245e+01    0.5887313    0.3857778  40.70  0.001683252    1.703    0.413
       231 -10.0517    245.2115    187.2132   8.5928214448e+01  -2.2077750339e+00    0.2395647    0.1847914  30.87 0.0004790182    1.121    0.108
       232  -9.2751      1.5274    187.6103   1.3038001075e+02   3.5636951680e+01    0.2058746    0.0732193 -80.49  0.001211281    2.173    0.540
       233  -9.2120      7.6896    185.7090   1.2926425574e+02   3.5455640761e+01    0.1332686   0.07164153  55.46 0.0001957663    1.584    0.368
       234  -9.9143      6.1064    182.2651   1.2933290126e+02   3.6235489418e+01     0.209549    0.1019945 -73.47 0.0005127612    1.705    0.414
       235  -9.4542    152.6624     44.1680   6.7491690565e+01   4.1848610624e+01    0.3715356    0.2263019 -24.80  0.001391474    1.713    0.416
       236  -9.5206    156.4993     43.5678   6.6470436673e+01   4.0985500402e+01    0.5412449    0.2282168  61.94  0.001893865    2.654    0.623
       237 -10.2916    161.1275     41.3898   6.4783364261e+01   4.0141158432e+01    0.6309017    0.3328823  67.22  0.002451311    2.224    0.550
       238  -9.2172    161.7109     37.3706   6.3316464881e+01   4.0565960791e+01    0.3108234    0.2380371 -57.02  0.001087553    1.509    0.337
       239  -8.6805     24.8272     46.0000   1.0690476772e+02   6.2962491344e+01    0.1434277   0.06676447  23.27 0.0005695727    2.725    0.633
       240  -8.2490    211.7140     59.6647   6.1303522547e+01   2.4337229842e+01     0.155192    0.1167834  18.98 0.0007015017    1.626    0.385
       241 -11.0377    202.6130     38.7044   5.6621691820e+01   2.9696373357e+01    0.5856784    0.3592544 -31.57  0.001726535    1.609    0.378
       242 -10.0583    194.0015     31.4591   5.5750043669e+01   3.2919001933e+01    0.4822911    0.3144252   8.52  0.001498364    2.113    0.527
       243  -9.1176    190.8226     40.3922   5.9008070068e+01   3.2570171893e+01    0.3711576     0.256684 -11.91  0.001272227    1.675    0.403
       244  -9.2304    192.4828     36.5160   5.7543048572e+01   3.2658801906e+01    0.2780338    0.2163876  62.83 0.0009658493    1.262    0.208
       245  -9.9434    199.2870     32.4397   5.5246544591e+01   3.1396665269e+01    0.4852263    0.3327031  40.27  0.002263877    1.579    0.367
       246 -10.9705     19.5307    183.7852   1.2714375333e+02   3.4731056279e+01    0.3758626    0.1738342  36.29  0.002332051    2.496    0.599
       247  -7.9804    249.3433     40.2928   5.0877733615e+01   1.7634596622e+01    0.1411351     0.105626  29.62 0.0003923415    1.658    0.397
       248 -10.3358    180.7039     37.8261   5.9928061133e+01   3.5582879408e+01    0.8383188    0.3923486 -51.05  0.002957623    2.764    0.638
       249  -9.9096    173.8830     38.5835   6.1394896361e+01   3.7260645512e+01    0.3568966    0.2710151  65.76   0.00109411    1.341    0.254
       250 -10.0536      1.6579    178.8833   1.2989132219e+02   3.7244962496e+01    0.3285047    0.1011548 -79.14  0.001776476    2.503    0.601
       251  -8.8595     25.1943    176.5894   1.2564535118e+02   3.5561962851e+01    0.1165963    0.1001637  44.27 0.0005865233    1.575    0.365
       252  -9.1873      7.4720    175.2781   1.2868673881e+02   3.7438078120e+01    0.1618437    0.1180403  64.84 0.0006906693    1.254    0.202
       253  -8.7341     45.8720    170.8600   1.2132844688e+02   3.4519947443e+01    0.1607452    0.1047171  78.09 0.0005313967    1.296    0.228
       254 -10.6425     16.9090    159.3989   1.2587374934e+02   3.9725121051e+01     0.274717    0.2268814   4.92  0.002074306    2.138    0.532
       255 -10.6002    148.9255     23.7930   6.1154345561e+01   4.5581757293e+01    0.7307925    0.2727947  57.36  0.001893721    2.481    0.597
       256 -10.0224     18.4874    165.2224   1.2602211539e+02   3.8423586452e+01    0.3044192    0.1589238  64.69  0.001326921    1.698    0.411
       257 -10.9632     11.4724    163.8809   1.2722321485e+02   3.9306347084e+01    0.4747488    0.2267002  65.13  0.002781163    1.876    0.467
       258 -10.8302    183.0197     27.2682   5.6170089126e+01   3.6350828402e+01    0.5585758    0.2841199  45.17  0.001508758    2.029    0.507
       259  -8.3514    123.6460     35.6939   7.1273327093e+01   4.9942007324e+01    0.2925118    0.2357105  16.29  0.001293165    1.285    0.222
       260  -9.2455    126.4413     31.9275   6.9172945823e+01   4.9863562238e+01    0.4271648    0.1895214  41.73  0.001559585    2.346    0.574
       261 -10.1398      9.2538    158.7363   1.2727111010e+02   4.0510599685e+01    0.2844302    0.1236722 -59.96  0.001244524    2.302    0.566
       262 -10.5689      2.6016    160.0731   1.2859651203e+02   4.0781482466e+01    0.4299567    0.1739677 -80.32   0.00246417    1.864    0.464
       263 -10.7293    134.7981     33.8859   6.7892212920e+01   4.7661758561e+01     0.306247    0.2573617   0.23 0.0002834419    1.210    0.173
       264  -8.6983    138.3205     31.3358   6.6152925778e+01   4.7185618629e+01    0.2347557     0.232544  21.71 0.0007783836    1.090    0.082
       265  -8.6455     33.2758    156.3258   1.2241702755e+02   3.8809518693e+01      0.10434   0.07463155 -58.14 0.0002592388    1.586    0.370
       266  -9.5216    242.7444     34.0129   5.0005296801e+01   2.0040287436e+01    0.2773575    0.2252445 -85.77 0.0004669953    1.276    0.217
       267 -10.0801    247.5101     32.7510   4.9144675415e+01   1.9037847404e+01    0.4989206    0.2852235  36.56  0.001986925    2.384    0.581
       268 -12.1824     20.8409    147.8732   1.2414104091e+02   4.1720942097e+01    0.5442193    0.4874308 -77.82  0.004408492    1.348    0.258
       269 -10.5863    245.9354     19.3195   4.5867887800e+01   2.1042737136e+01    0.5779898    0.2580738  66.36  0.002481915    2.200    0.545
       270 -10.4764     14.7857    143.3368   1.2497346163e+02   4.3172895875e+01    0.3288825     0.166086 -60.18  0.002026947    1.864    0.463
       271 -10.0453     45.9862    149.5500   1.1910998394e+02   3.8886080138e+01    0.2894331    0.1586944 -72.02 0.0005481337    1.524    0.344
       272  -9.1216    154.9272     33.6077   6.3394415710e+01   4.2802799227e+01    0.2971478    0.2016377  -6.86   0.00117501    1.733    0.423
       273  -9.4146     32.6059     32.9239   1.0000635482e+02   6.4822818379e+01    0.2274216    0.1262521 -40.42 0.0008098507    1.426    0.299
       274  -9.2863    183.6577     33.2450   5.7966358682e+01   3.5419797595e+01    0.3093645    0.1839691  51.23 0.0007989763    1.624    0.384
       275  -9.7311    228.1999     30.9931   5.0916012846e+01   2.4057173461e+01    0.3410367     0.250613 -64.42  0.001350603    1.435    0.303
       276  -9.6978    225.9729     26.9939   5.0088625714e+01   2.5119973012e+01    0.3417763     0.277612 -75.09  0.001812921    1.259    0.205
       277  -9.2779    235.8645     38.6164   5.2039711715e+01   2.1151110266e+01     0.234536    0.1938571 -14.26  0.000426624    1.311    0.237
       278  -9.2401    146.2336     29.1034   6.3614571878e+01   4.5569302970e+01    0.3470143    0.1823083  42.13  0.001438277    1.933    0.483
       279  -9.7785    136.2037     25.3981   6.4444197145e+01   4.8480320862e+01    0.4475321    0.2563973 -10.40  0.001327505    2.118    0.528
       280  -9.3731    125.5200     15.5148   6.3088986857e+01   5.2191690264e+01    0.2778976    0.2332447  42.19 0.0009973207    1.133    0.118
       281 -10.4046     46.0529    144.7868   1.1854930594e+02   3.9885799152e+01    0.3083024     0.265994 -27.55  0.001947403    1.771    0.435
       282 -11.8965     39.2479    147.2149   1.2027141955e+02   4.0095595295e+01    0.6724695    0.4832734 -24.72  0.004020156    2.641    0.621
       283 -10.8046    126.9512     19.7817   6.4422738944e+01   5.1353726212e+01    0.7393718    0.2330378  44.35  0.001780892    3.148    0.682
       284  -9.6504    248.6757     25.9505   4.7280089811e+01   1.9592349012e+01     0.348872    0.2634848  39.74  0.001865436    1.570    0.363
       285  -8.9287     87.3294    149.0847   1.1012402284e+02   3.3660163239e+01    0.1833828    0.1460438 -77.39 0.0004748057    1.130    0.115
       286  -9.3846     66.2734    148.1467   1.1459364691e+02   3.6771821614e+01    0.1906374    0.1748104  42.37  0.001318197    1.388    0.280
       287 -10.9410     25.8963    124.9932   1.2072106801e+02   4.6095271814e+01     1.000606    0.3763213 -46.78  0.004352781    3.761    0.734
       288 -10.8609      7.4765    134.2028   1.2569652311e+02   4.5632245471e+01     0.500849     0.355528  15.37  0.003101466    2.230    0.552
       289  -9.4598    197.7352     17.3853   5.0917978893e+01   3.3623241020e+01    0.3402278    0.2814244  19.15  0.001061484    1.376    0.273
       290 -10.2340     13.6613    118.1509   1.2277643939e+02   4.8542359304e+01      0.34626    0.2234304 -74.66  0.001473482    1.162    0.140
       291 -10.3354      5.1752    146.8843   1.2718605480e+02   4.3210635669e+01    0.2754318    0.1920274  33.99  0.002076745    1.869    0.465
       292 -11.0454      5.8167    142.4467   1.2671755479e+02   4.4062847617e+01    0.3756751    0.2888027  55.08  0.001313708    1.425    0.298
       293 -11.3628     13.9974    130.7567   1.2398827795e+02   4.5853660760e+01    0.5877393    0.3221547  66.23  0.003665102    1.831    0.454
       294 -10.9397     12.4272    125.8838   1.2385686351e+02   4.6998752116e+01    0.3641976    0.2537484  66.10  0.001265463    1.411    0.291
       295 -10.6105     18.1928    123.0067   1.2226066093e+02   4.7160718811e+01     0.343385    0.1731627 -80.70 0.0007477402    1.620    0.383
       296  -9.5663     19.8993    118.5011   1.2136101133e+02   4.7986606931e+01    0.3427762    0.2033202  83.08  0.001811855    1.622    0.383
       297 -10.9454     29.5612    142.1350   1.2178258442e+02   4.2120761710e+01    0.4457302    0.2368215 -60.03  0.002680088    1.745    0.427
       298  -9.4021     27.5240    137.4431   1.2173107169e+02   4.3298741515e+01    0.1970924     0.149167 -86.83 0.0007181479    1.011    0.011
       299 -10.4846     22.6553    137.2160   1.2275527756e+02   4.3780836203e+01    0.2541101    0.2252742 -55.53  0.001982708    1.456    0.313
       300  -8.8957     23.2940    133.3232   1.2221937727e+02   4.4546472677e+01    0.1743111    0.1262355 -72.32 0.0008987921    1.169    0.144
       301  -8.9049     80.6250    140.5156   1.1029880088e+02   3.6470358769e+01    0.2053246    0.1104124 -62.54 0.0005918612    1.694    0.410
       302  -8.2023     98.2610    140.6788   1.0631808818e+02   3.3769191487e+01      0.13375     0.094946  85.77 0.0004010012    1.551    0.355
       303 -10.5392     38.1469    143.1307   1.2005878332e+02   4.1070235140e+01    0.3760576     0.257315 -25.76  0.002137041    2.854    0.650
       304 -10.3087     55.2987    137.6949   1.1562190543e+02   4.0361668553e+01    0.2831459     0.173125 -44.07  0.001545949    2.142    0.533
       305  -9.3740     86.6832    134.3596   1.0789958698e+02   3.6923751039e+01    0.3267313    0.1728166  40.78  0.001592509    2.019    0.505
       306  -8.6598     94.4962    133.2973   1.0588883251e+02   3.5958963004e+01     0.184209    0.1168863 -48.87 0.0009359592    1.637    0.389
       307 -10.8453     47.1793    129.2530   1.1633995523e+02   4.3105275310e+01    0.6933746     0.229614 -57.54  0.002811669    2.543    0.607
       308 -11.1861     41.0241    125.2729   1.1724260108e+02   4.4614212012e+01     0.522292    0.3247359 -70.62   0.00262544    1.300    0.231
       309 -10.5161     34.3426    123.4354   1.1857171633e+02   4.5666028387e+01    0.3133581    0.2463391  -1.74  0.002078862    2.046    0.511
       310  -9.9613     72.7200    129.4357   1.1036186117e+02   3.9978139989e+01    0.2540496     0.186755 -60.30 0.0009276855    1.256    0.204
