#   1 NUMBER                 Running object number                                     
#   2 MAG_AUTO               Kron-like elliptical aperture magnitude                    [mag]
#   3 X_IMAGE                Object position along x                                    [pixel]
#   4 Y_IMAGE                Object position along y                                    [pixel]
#   5 X_WORLD                Barycenter position along world x axis                     [deg]
#   6 Y_WORLD                Barycenter position along world y axis                     [deg]
#   7 A_WORLD                Profile RMS along major axis (world units)                 [deg]
#   8 B_WORLD                Profile RMS along minor axis (world units)                 [deg]
#   9 THETA_WORLD            Position angle (CCW/world-x)                               [deg]
#  10 FWHM_WORLD             FWHM assuming a gaussian core                              [deg]
#  11 ELONGATION             A_IMAGE/B_IMAGE                                           
#  12 ELLIPTICITY            1 - B_IMAGE/A_IMAGE                                       
         1 -12.4421     74.9038     51.3318   9.1449423563e+01   5.6728915894e+01     1.348119    0.8285424 -53.82  0.006654382    1.789    0.441
         2 -11.9172     52.9518     30.4809   9.1619904701e+01   6.3624715093e+01      1.14152    0.5724054  25.76  0.002357246    2.405    0.584
         3 -11.9680     60.5678     45.5948   9.4448479210e+01   5.9890612404e+01     1.001027     0.629264 -38.26   0.00547749    1.369    0.269
         4 -12.0889    119.1537     58.2419   8.0381527590e+01   4.7201541174e+01     1.524053     1.044283  37.82  0.007246641    1.527    0.345
         5 -10.6352    138.4424     32.9603   6.6553691935e+01   4.6749014928e+01    0.8296489    0.6141216 -21.57  0.004142515    1.379    0.275
         6 -12.2736    131.3977     14.6817   6.1237219432e+01   5.0716213979e+01     1.665776    0.6000662  58.60  0.006222257    2.546    0.607
         7 -11.3638    141.4008     19.9571   6.1152862752e+01   4.7658105093e+01     2.396778    0.6785597  41.60   0.00664563    4.593    0.782
         8 -11.7323    145.6697     48.1615   7.0297146467e+01   4.2744536477e+01     1.275554    0.4979842 -26.99  0.004262617    2.907    0.656
         9 -11.6564    155.1498     23.7525   5.9844457791e+01   4.3719528335e+01     1.409021    0.6428203  50.87  0.005620454    2.019    0.505
        10 -12.0680    124.7323     27.7731   6.7801469727e+01   5.0726548572e+01    0.8090695    0.6770895   3.94  0.002762388    1.197    0.165
        11 -12.8092    120.2549     38.5331   7.3015482279e+01   5.0227435970e+01    0.8492314    0.5800171 -60.01  0.002688184    2.077    0.518
        12  -9.8275      3.5307     45.5560   1.1629091737e+02   6.5069579084e+01     1.021239    0.1879018 -50.78  0.004376535    2.999    0.667
        13 -12.4431     18.8252     22.7331   1.0302300316e+02   6.8526032468e+01    0.9133739    0.7896208  44.74  0.006782346    1.697    0.411
        14 -10.5067     22.1982      5.2060   9.3929198691e+01   7.1167347965e+01    0.3105143    0.1515622 -48.43  0.001154094    2.166    0.538
        15 -11.5243     26.2436     27.6270   1.0155095315e+02   6.7027500623e+01    0.4816447    0.2601934 -49.34  0.001757115    1.523    0.343
        16 -10.7703      9.6026     21.7793   1.0690214052e+02   6.9351410310e+01    0.2786711    0.1553587 -51.09 0.0009499525    1.376    0.273
        17 -11.9396     22.5864     11.2881   9.6575143290e+01   7.0171881743e+01    0.5207074    0.3447846 -15.22  0.002946266    1.405    0.288
        18 -10.7923    189.3588     28.7457   5.5777078266e+01   3.4126414024e+01    0.6590714    0.3279322 -24.17  0.002666861    2.136    0.532
        19 -11.5398    183.1854     25.0268   5.5550792501e+01   3.6212893854e+01    0.7547259    0.3500388  49.79  0.002991747    2.111    0.526
        20 -11.4988    178.5840     21.1661   5.5027521803e+01   3.7883962471e+01    0.7334685    0.3384459  44.96  0.002550726    2.292    0.564
        21 -12.3303    104.6984     13.0129   6.6886431882e+01   5.7047624553e+01    0.6193464    0.3924969 -26.51  0.003188473    1.562    0.360
        22 -12.2772    105.9990     20.1255   6.9537062468e+01   5.5916088771e+01    0.3238574    0.2435124 -18.00 0.0003482737    1.289    0.224
        23 -12.6908    113.1947     25.2083   6.9696743805e+01   5.3690981741e+01    0.8955069    0.4769663  49.65  0.002252556    1.810    0.447
        24 -11.3150    198.7995     28.2487   5.4268750143e+01   3.1698294990e+01    0.6502585    0.4506401 -13.44  0.002374141    1.664    0.399
        25  -9.6744     87.6267      7.3931   6.9181521891e+01   6.1202762616e+01    0.5654628    0.3198362  48.62  0.002734455    1.730    0.422
        26 -10.8457     91.0683     21.4564   7.4404663715e+01   5.8801396984e+01    0.6111918    0.4612174  -5.57  0.003443025    1.278    0.217
        27 -11.0944     85.8019     14.2539   7.2866111657e+01   6.0750420607e+01    0.5749267    0.3587508 -18.82  0.003033852    1.535    0.348
        28 -12.3547     16.8970     13.3440   1.0020001501e+02   7.0316710911e+01    0.5306349    0.3767928 -48.75 0.0006187155    1.375    0.273
        29 -11.7627     36.1242     17.6669   9.3205348004e+01   6.7779601823e+01    0.6409636     0.266818 -31.49  0.002068347    2.313    0.568
        30 -12.0308     48.3784     12.9260   8.5804230149e+01   6.7024792464e+01    0.6495119    0.3385966  33.45  0.003547299    2.056    0.514
        31 -10.5368     32.7523     12.7774   9.2517128311e+01   6.8927512410e+01    0.2121538    0.1937972  46.17 0.0005713815    1.702    0.412
        32 -12.0079     69.1339     18.6960   8.0468880443e+01   6.3112205690e+01     0.672787    0.4890307  41.02  0.003662746    1.518    0.341
        33  -9.3248     61.8073     11.9767   8.0046781279e+01   6.5213617462e+01    0.2552703    0.1212731 -30.41 0.0007970144    1.887    0.470
        34 -10.3789     67.1082     10.2108   7.7252957999e+01   6.4593355464e+01    0.5117514    0.1823757  46.58  0.002171673    3.000    0.667
        35  -9.7786     62.9911      6.4830   7.6939534941e+01   6.5735739082e+01    0.3403295     0.237287   9.26  0.002042966    1.365    0.267
        36 -12.1009    238.6038     15.9384   4.6302321355e+01   2.3023305228e+01    0.9066206    0.5449955  51.22  0.004477658    1.849    0.459
        37 -10.6978    242.5295      3.5325   4.2873371662e+01   2.3425768599e+01    0.3805037    0.1949453  75.70  0.001826218    1.906    0.475
        38 -11.2516    165.1460     17.7339   5.6028904935e+01   4.1812422141e+01    0.4862402    0.3033124  33.50  0.001321744    1.806    0.446
        39 -10.0421    225.9310     15.7351   4.7497276044e+01   2.6173447079e+01    0.3861179    0.1732866 -33.99  0.001147379    2.053    0.513
        40 -10.6547    186.4958     15.1482   5.1996531460e+01   3.6461690588e+01    0.3420743    0.2675692  57.73 0.0006128591    1.219    0.180
        41  -9.9132    191.5670     16.6246   5.1766192620e+01   3.4961040135e+01    0.3283841    0.2948573  30.45  0.001620248    1.210    0.173
        42 -11.6411    192.6402      7.1655   4.8784362278e+01   3.5670092710e+01    0.7654251    0.4889065  14.72  0.003300611    2.137    0.532
        43 -12.1210    162.9595     28.6485   6.0090334887e+01   4.1094366121e+01    0.6717172    0.4878021  22.76 0.0007998233    1.590    0.371
        44 -11.4436    245.7487      7.6419   4.3611569150e+01   2.2225669020e+01    0.5069457     0.347288 -12.06  0.001959435    1.804    0.446
        45 -11.4603    211.6507      9.8292   4.7393042898e+01   3.0446489129e+01    0.5258082    0.3605685  13.21  0.001750548    1.997    0.499
        46  -9.9052      1.2977      7.2784   1.0550159015e+02   7.2419429574e+01    0.1797666   0.07048409 -49.99 0.0002372444    1.849    0.459
        47 -10.5083      4.9765      9.9870   1.0470993269e+02   7.1735123260e+01    0.3700182    0.1793302 -34.75  0.001914548    1.629    0.386
        48  -9.4071      5.2723      5.3532   1.0261648683e+02   7.2498664112e+01    0.1996584    0.1081294 -40.55  0.001309295    1.327    0.246
        49 -11.4834      3.3502      1.8065   1.0206200499e+02   7.3205515191e+01    0.3498209    0.1808997   7.07  0.002207151    2.265    0.558
        50  -9.9089    168.8482      9.9745   5.2858545788e+01   4.1658714789e+01    0.3284581    0.1899884  47.62  0.001401416    1.668    0.401
        51  -9.2377    163.2283     10.0142   5.3729996896e+01   4.3127526785e+01    0.2289487    0.1823274  34.30  0.000771315    1.286    0.223
        52  -9.3746    162.6996      6.0207   5.2459170664e+01   4.3654049970e+01    0.2770899    0.2283452 -22.92  0.000810687    1.296    0.229
        53 -10.0055    185.1314      7.3255   4.9763457800e+01   3.7630669968e+01    0.3136973    0.2037912 -43.95 0.0006302317    1.591    0.372
        54 -10.7469    232.6062      7.3471   4.4671990263e+01   2.5429102222e+01    0.4306067    0.2499459 -84.65  0.001663299    1.845    0.458
        55 -10.9391    218.7274      3.1177   4.4850512712e+01   2.9327941317e+01    0.3319127    0.3219763 -49.94  0.001166211    1.126    0.112
        56 -10.3732    228.1483      3.1610   4.3997533708e+01   2.6963627068e+01     0.313114    0.2619636 -20.84  0.001310296    1.333    0.250
        57 -10.4938    223.7132      1.8881   4.4064334297e+01   2.8196259125e+01     0.371526    0.2325488  70.21  0.001125435    1.510    0.338
        58 -10.7098     82.1132      1.3329   6.7987980057e+01   6.2918411757e+01    0.2082776    0.1105774  50.00 0.0003829245    1.847    0.459
        59 -10.6712     41.4555      4.5007   8.4611368337e+01   6.9120180860e+01    0.4263265     0.211082 -14.94  0.002044979    2.480    0.597
        60  -9.1599    169.7687      3.0068   5.0433270918e+01   4.2084228174e+01    0.2299496    0.1780242 -64.95  0.001214215    1.418    0.295
        61  -8.4456    115.5106      6.0121   6.1267357294e+01   5.5371050622e+01    0.3209687    0.1601627   4.44  0.001096157    2.832    0.647
        62  -9.5900    122.3122      1.3825   5.7885430690e+01   5.4210709844e+01    0.4848752    0.1080123  60.69  0.001538759    3.758    0.734
        63  -9.5526    116.8433      2.3941   5.9465789867e+01   5.5403964628e+01    0.2684029      0.18333  43.09  0.001223649    1.311    0.237
        64  -9.8407    112.7993      1.5942   6.0032831117e+01   5.6407725493e+01    0.3897787    0.1625151  59.97  0.001634624    2.288    0.563
        65 -10.6001    105.3755      1.5069   6.1737534274e+01   5.8083176357e+01    0.5462722    0.2602191  66.56  0.001871158    2.560    0.609
        66 -10.3190    175.5390      5.1417   5.0336337474e+01   4.0369595986e+01    0.4541252    0.2621674  83.69  0.001958168    1.896    0.473
        67 -11.0891     75.2912      4.3584   7.1606982319e+01   6.3872948919e+01    0.6035967    0.4383455  48.88  0.003605907    1.526    0.345
        68 -11.4236    205.0616      2.5869   4.6063815057e+01   3.2878929715e+01    0.4858332    0.3292275  76.56   0.00107184    1.385    0.278
        69 -10.3415    142.5421      3.4776   5.4842084870e+01   4.9067196367e+01    0.3822612    0.2470952  62.91  0.001493364    1.438    0.304
        70 -11.8547    133.5792      2.6122   5.6145836010e+01   5.1377283274e+01    0.4397089    0.2641594  57.32 0.0009466289    1.497    0.332
        71  -9.0580     55.1559      4.1377   7.8744837633e+01   6.7252119864e+01    0.1470105    0.1284669 -17.45 0.0002966712    1.270    0.212
        72 -10.3071    151.8929      7.4760   5.4685791069e+01   4.6315218946e+01    0.5484932    0.2148587  61.08  0.001265621    2.229    0.551
        73  -9.0141    157.4944      2.5166   5.2051417278e+01   4.5329281583e+01     0.304956    0.2142304  43.35  0.001568822    1.370    0.270
        74  -9.2155    161.5648      1.2463   5.1010477346e+01   4.4385225041e+01    0.2984011    0.1290293  67.47  0.001204805    2.113    0.527
        75 -10.4201     12.9198      2.0562   9.7100745652e+01   7.2468646492e+01    0.2315598    0.1625932  -1.97 0.0008619048    1.392    0.282
        76 -10.0463    133.2392    140.3519   9.8944814070e+01   2.7379516331e+01    0.3008789    0.2827175  23.11  0.001151249    1.194    0.163
        77 -12.0243     29.7971    132.8092   1.2254361409e+02   4.4181761846e+01    0.7271288    0.3918674 -76.07   0.00350623    1.519    0.342
        78 -11.3597     24.1706    136.8424   1.2429675946e+02   4.3805433740e+01    0.3525186    0.2361345 -60.44 0.0003298881    1.439    0.305
        79 -11.2747     21.0083    134.5004   1.2477879572e+02   4.4592469417e+01    0.2339976    0.2225401  56.89 0.0004125166    1.371    0.270
        80  -8.7441    186.4998    139.4920   8.7114838215e+01   1.6333488306e+01    0.1480148    0.1403588  23.70 0.0008106086    1.013    0.013
        81 -10.0948     79.0762    136.6185   1.1118458604e+02   3.7503114130e+01    0.3334486    0.2202324 -68.69 0.0008563062    1.401    0.286
        82  -9.8047     82.3401    135.2992   1.1016328649e+02   3.7322254438e+01    0.2367864    0.2014771  12.64 0.0007807733    1.614    0.380
        83 -10.3670     47.3655    135.3995   1.1868395366e+02   4.1817866458e+01    0.4121487      0.16241 -55.85  0.001711256    2.320    0.569
        84  -9.4958     43.8988    132.8497   1.1917868774e+02   4.2765608394e+01    0.2321897    0.1440149  62.87 0.0004018446    1.691    0.409
        85  -8.9514     40.6649    138.2935   1.2064101109e+02   4.1894042784e+01    0.1256675   0.07782032  72.64 0.0007026138    1.642    0.391
        86 -10.9834     72.2719    134.0823   1.1243120696e+02   3.9032171226e+01     0.544996     0.374957 -32.80  0.002808827    2.134    0.531
        87  -8.8903    216.6260    135.1917   8.0267832205e+01   1.0513196361e+01      0.20055    0.1334628 -20.87 0.0006236866    1.620    0.383
        88 -10.7294     92.8346    129.1248   1.0643791389e+02   3.7093145314e+01     0.425517    0.2630363 -76.19  0.001675372    1.893    0.472
        89  -9.7527     62.4579    131.6095   1.1445783816e+02   4.0883740360e+01    0.4115111    0.1587249 -49.74    0.0016958    2.775    0.640
        90  -8.6611    103.7441    130.9874   1.0408938162e+02   3.4863032256e+01    0.1776588     0.115398 -56.55 0.0004484259    1.476    0.322
        91 -10.4893     18.4923    125.0028   1.2435794163e+02   4.6885229830e+01    0.3502764    0.1447293 -65.38  0.001314204    1.863    0.463
        92  -9.7778     81.5656    125.5654   1.0861457635e+02   3.9636183792e+01     0.354505    0.2326093  61.07  0.001093219    1.701    0.412
        93  -9.6359     84.5023    122.9961   1.0737428306e+02   3.9778967243e+01    0.3151048    0.1902629  43.45  0.001564088    1.748    0.428
        94 -10.3070     45.8496    120.2832   1.1691082798e+02   4.5390647831e+01    0.3330217    0.2203408  75.97  0.001323472    1.642    0.391
        95 -10.8394     55.9567    123.3554   1.1479170980e+02   4.3552493267e+01    0.4654456    0.3672005  26.49  0.001369545    1.615    0.381
        96  -9.0041     50.1746    122.6223   1.1615715338e+02   4.4386053677e+01    0.1985241    0.1796835 -25.82 0.0008910623    1.449    0.310
        97  -9.6339      2.3192    125.6960   1.2823965130e+02   4.7921172499e+01    0.2334114    0.1322163 -87.54  0.001057022    1.394    0.282
        98 -11.5431    104.6791    121.7781   1.0195293767e+02   3.6753396973e+01    0.4669606    0.4117553 -73.22  0.001498446    1.081    0.075
        99 -10.9346     33.4511    119.5916   1.1998845406e+02   4.6790584640e+01    0.2914269     0.228727 -72.18  0.001232425    1.065    0.061
       100 -10.8064     25.5189     86.6757   1.1708511916e+02   5.4864186943e+01    0.5593308    0.3792533  41.65  0.003542186    1.781    0.439
       101 -10.5638     35.2136     92.4168   1.1521630939e+02   5.2755085096e+01     1.031257    0.5288762 -79.81  0.004972257    2.212    0.548
       102 -12.2619     41.1768     86.0538   1.1218223812e+02   5.3615560288e+01    0.9758856     0.560606  26.22  0.005334934    2.175    0.540
       103 -10.6451     17.8135    100.9212   1.2155106792e+02   5.2279105561e+01    0.2810368    0.2319683 -64.97   0.00132539    1.138    0.122
       104 -11.1557     18.8052    106.1045   1.2198900098e+02   5.1051440238e+01    0.1958402      0.17427 -73.29 0.0002825078    1.179    0.152
       105 -11.9601      9.9498     96.3260   1.2309709258e+02   5.3838495103e+01    0.5972131    0.3791528 -76.35  0.002238085    1.230    0.187
       106 -11.9320      7.4919     88.6913   1.2274903688e+02   5.5669101317e+01    0.5105919    0.4391541  78.51  0.002794737    1.275    0.216
       107 -13.1090     25.0984    110.1858   1.2086928536e+02   4.9640327360e+01     1.368477    0.9079802 -37.60   0.00834641    1.897    0.473
       108 -11.2228     23.8451    100.7815   1.1986392263e+02   5.1848456215e+01    0.4636809    0.1990169 -68.34  0.001659799    1.824    0.452
       109 -11.9137     21.0969     95.4432   1.1983060097e+02   5.3254258119e+01    0.5902313    0.3461108   6.58  0.003324606    2.669    0.625
       110 -12.0292     18.1331     90.3198   1.1989242427e+02   5.4611129383e+01    0.3465546    0.2615857 -46.92 0.0009195682    1.341    0.254
       111  -9.8739      4.1463    120.8736   1.2736688316e+02   4.8840801564e+01    0.2825941    0.1773522 -69.48  0.001255476    1.258    0.205
       112 -11.5077      2.5099    112.1449   1.2690254204e+02   5.0841706547e+01    0.5073648    0.2653288  62.65  0.002661071    2.094    0.522
       113 -11.9441      3.8082    105.4040   1.2585366824e+02   5.2231187085e+01     0.389146    0.2834107 -84.76 0.0007947627    1.104    0.094
       114  -9.1286    221.4749    120.5048   7.5891360698e+01   1.1871251809e+01    0.1468741    0.1382302  -5.24 3.630401e-05    1.014    0.014
       115  -9.1395    148.4040    119.7975   9.0781284758e+01   2.8544479358e+01    0.2158235    0.1438365 -33.06 0.0006067276    1.682    0.405
       116  -9.1585     72.4440    119.8208   1.0990626755e+02   4.2247073712e+01    0.1879385    0.1101345 -50.90 0.0005902275    1.635    0.388
       117  -9.2023     81.8600    117.4977   1.0698319037e+02   4.1425908388e+01    0.2091874    0.1712504 -80.30 0.0003285617    1.183    0.155
       118  -9.2645     82.1956    102.7901   1.0375844389e+02   4.4713399457e+01    0.2144668    0.1870035 -50.16 0.0005041024    1.103    0.093
       119 -11.3936     79.7862    108.7012   1.0572632061e+02   4.3734481235e+01    0.6044629    0.4816697 -71.89  0.002379898    1.196    0.164
       120 -10.5191     85.6539    104.7157   1.0323363706e+02   4.3747345249e+01     0.511308    0.3042593 -29.48  0.001851567    2.563    0.610
       121 -10.0320     90.5581    104.1652   1.0175305856e+02   4.3091674891e+01    0.3591014    0.3074062 -17.30  0.001227979    1.430    0.300
       122  -9.6314    113.5088    115.9902   9.8411610369e+01   3.6440569379e+01    0.2535946    0.2081371  22.37 0.0005374182    1.483    0.326
       123 -10.3235     67.0364    112.0126   1.0987543978e+02   4.4757494585e+01    0.4806291    0.2686132 -67.33  0.002349109    1.691    0.409
       124  -9.7467     36.1945    114.6561   1.1858237847e+02   4.7643213605e+01    0.2397053    0.1403264  87.63 0.0009754645    1.859    0.462
       125 -10.7437    107.5030    112.0820   9.9055078510e+01   3.8410047220e+01    0.6494038    0.3777155 -72.74  0.001881939    2.549    0.608
       126 -10.9123    102.0026    109.4892   9.9898875687e+01   3.9967277943e+01    0.4695458     0.382396  15.34  0.002198332    1.577    0.366
       127 -10.3476    103.0322    105.9905   9.8794177916e+01   4.0564429873e+01    0.2838762    0.2129557  35.77 0.0003284726    1.477    0.323
       128  -9.2526     87.7844    114.4502   1.0478760644e+02   4.1211556026e+01    0.2511137    0.1300078  45.40  0.001120042    2.057    0.514
       129 -11.2523    170.9430    110.0360   8.3222174898e+01   2.5413847246e+01     0.661864    0.4419948  34.58  0.002383424    1.664    0.399
       130  -9.6324     94.0132    111.7402   1.0254045781e+02   4.0821816967e+01    0.2819367    0.1955492 -78.76  0.001360241    1.720    0.419
       131  -9.7265     49.2562    112.1459   1.1471213649e+02   4.6871137483e+01    0.2224676    0.1762994  57.23 0.0008780191    1.375    0.273
       132 -10.2925    130.4067    109.8715   9.2662350243e+01   3.4445215388e+01    0.3044268     0.204392  28.04  0.001329573    1.887    0.470
       133  -9.9874    120.1100    109.3111   9.5125362748e+01   3.6639842210e+01    0.2542723    0.1995839 -38.33 0.0006283261    1.320    0.243
       134  -9.0497    150.0000    108.9445   8.7677880715e+01   3.0421658012e+01    0.2598245   0.08700289 -42.48 0.0002393635    2.976    0.664
       135 -10.5943    157.6600    106.2788   8.5201625167e+01   2.9226331506e+01    0.4275635    0.3035262 -13.62   0.00150741    1.916    0.478
       136  -9.6381     57.9473    107.4092   1.1149150831e+02   4.6951863306e+01    0.3519403      0.18856 -78.46  0.001170372    2.243    0.554
       137  -9.8651     57.7926    102.8045   1.1064820281e+02   4.8019926437e+01    0.2716994    0.1626393 -70.97  0.001132753    1.611    0.379
       138 -10.7003    143.4754    106.0498   8.8474605795e+01   3.2460912412e+01    0.3572969    0.3462926  -8.19  0.001076661    1.077    0.071
       139 -11.7981    145.8691    100.3524   8.6378077039e+01   3.3097242707e+01    0.5425482    0.4683933  26.90   0.00153504    1.259    0.206
       140 -11.0247     48.1263    103.2693   1.1346808855e+02   4.9014908826e+01    0.4085546    0.2612225 -27.08 0.0002970001    2.317    0.568
       141 -10.5768     52.4607     96.2199   1.1087014566e+02   5.0136055806e+01     0.642582    0.3364421 -75.55  0.002589063    2.239    0.553
       142  -9.9033    120.9487    101.0487   9.2806757122e+01   3.8258407327e+01    0.2418876    0.1883939  -7.97  0.001137665    1.740    0.425
       143 -11.2977     67.3466     96.6488   1.0661561146e+02   4.8211720666e+01    0.5425872    0.3464652 -25.19  0.001863533    2.340    0.573
       144 -10.8110     56.9120     97.2057   1.0977254621e+02   4.9396807895e+01     1.064723    0.4695747  60.54  0.003408017    5.449    0.816
       145 -10.8021     46.8882     74.2188   1.0771093008e+02   5.5646353195e+01    0.3597324    0.1594798 -59.29  0.001672277    1.939    0.484
       146 -12.3164     52.8093     74.3918   1.0581749023e+02   5.4954296544e+01    0.6001467    0.2862308 -58.11  0.001194937    1.833    0.454
       147 -10.5502     58.4922     78.4418   1.0500889743e+02   5.3397211873e+01    0.3218892    0.2793603 -85.16  0.001477485    1.290    0.225
       148  -9.9691     60.5377     83.4272   1.0559652110e+02   5.2046905381e+01    0.2385123     0.202993 -45.98 0.0005753713    1.092    0.084
       149 -10.8902     89.3571     90.1594   9.8636974163e+01   4.6402071066e+01     0.513975    0.2943315 -44.43  0.002021991    1.643    0.391
       150  -9.8819     92.8967     85.7753   9.6437016167e+01   4.6766713402e+01    0.2403917      0.22458  42.83 0.0004504693    1.166    0.142
       151 -10.7693     66.9573     81.9111   1.0322684185e+02   5.1551980722e+01    0.6972481    0.4415072 -51.58  0.003669189    1.363    0.266
       152 -12.0150     77.8797     96.8903   1.0362211457e+02   4.6686433877e+01    0.3345473    0.2434854 -61.60  0.000271151    1.269    0.212
       153 -11.1562     82.0152     93.1401   1.0152394530e+02   4.6905738461e+01    0.7165963    0.3350874  47.98  0.003001706    2.519    0.603
       154 -10.8526     80.0093     83.4687   9.9635961040e+01   4.9343716937e+01    0.6210946    0.4514896 -55.82  0.003334879    1.270    0.213
       155 -11.5459     73.1584     78.3405   1.0035792073e+02   5.1470605685e+01    0.9977213    0.7685722 -36.56  0.005635435    1.263    0.208
       156  -9.7358    210.3221     97.7867   7.2137182307e+01   1.8246447919e+01    0.2913364    0.2597401  36.58  0.001102703    1.141    0.124
       157  -9.0169    190.5020     96.5070   7.5538257210e+01   2.3260450953e+01    0.1540276    0.1511553 -10.06 5.298247e-05    1.004    0.004
       158  -9.4858    140.7860     96.1930   8.6471045629e+01   3.5079122812e+01    0.2970976    0.2282191  32.90  0.001406993    1.429    0.300
       159  -9.6880    138.5679     92.9872   8.6122596773e+01   3.6223821779e+01    0.3754961    0.2521626  29.99  0.001381745    1.806    0.446
       160  -9.9757     42.5690     94.6664   1.1346640005e+02   5.1543171895e+01    0.2739492    0.2496385 -59.92  0.001205952    1.134    0.118
       161  -9.8384    159.9718     93.4809   8.1177960699e+01   3.1203536668e+01    0.4661843    0.2727883  73.61  0.001604663    2.964    0.663
       162 -10.6224    152.6993     91.8344   8.2388481101e+01   3.3235351971e+01    0.4524377    0.3916566  81.36   0.00193746    1.325    0.245
       163 -10.2750    117.5109     93.1181   9.1585285254e+01   4.0637799360e+01    0.4202558    0.2918505  24.50  0.001444175    1.855    0.461
       164 -10.8539    119.9249     85.3614   8.8747001122e+01   4.1773299749e+01    0.5534188    0.3452798  60.47  0.002359205    2.015    0.504
       165 -10.5091    121.3841     81.7791   8.7302849775e+01   4.2204775347e+01    0.4198442    0.3192839  85.69  0.001437642    1.857    0.462
       166 -10.9923    124.9780     93.5172   8.9726409289e+01   3.9033868730e+01    0.6103054    0.4253569  45.37  0.001883654    1.485    0.326
       167 -10.3684    120.6908     89.6821   8.9780535602e+01   4.0719391780e+01    0.3194493     0.256765   1.68 0.0008999018    1.585    0.369
       168 -11.9729    101.9907     90.1722   9.5033816240e+01   4.4221664899e+01     0.454434    0.3915804 -23.47 0.0006990468    1.263    0.208
       169  -9.0910    211.8281     88.1357   6.9299796537e+01   1.9497628440e+01    0.2130832    0.1792442  12.21 0.0005085296    1.323    0.244
       170  -8.9613    200.4544     88.4814   7.1437753047e+01   2.2225112161e+01    0.1531881    0.1488988 -35.84 0.0001486979    1.027    0.027
       171 -10.3732    183.8817     85.6378   7.3837103798e+01   2.6828406428e+01    0.7066993    0.2620049 -43.54    0.0022886    2.793    0.642
       172  -9.5172    102.6043     81.1626   9.2327414739e+01   4.6028176516e+01    0.3088619     0.131801 -42.88 0.0009306537    2.225    0.551
       173 -10.2005    105.1570     76.9933   9.0361489635e+01   4.6415837683e+01    0.3624159    0.3401541  86.18  0.001593879    1.199    0.166
       174 -11.1512    113.7253     83.5632   8.9905954413e+01   4.3396464644e+01    0.7381837    0.3684062 -35.95  0.002635157    2.164    0.538
       175 -10.9666    109.2963     80.5204   9.0241687205e+01   4.4895205319e+01    0.3814467    0.3244804 -24.92  0.000699945    1.216    0.178
       176 -11.3285    142.7726     84.1577   8.2535874760e+01   3.7037614794e+01    0.5890077    0.3899413  39.53  0.001354747    1.601    0.376
       177 -10.4473    165.8623     83.4732   7.6987654065e+01   3.1675174704e+01    0.4530967    0.3777978 -65.54  0.001526752    1.366    0.268
       178 -10.7953    127.2721     82.9264   8.6087518344e+01   4.0727309705e+01     0.415828    0.3114882 -42.52  0.001487255    1.292    0.226
       179 -10.2191    232.6147     77.3217   6.3059687248e+01   1.6214982168e+01    0.5511259    0.2403693 -42.10  0.002113636    2.208    0.547
       180 -10.9471     14.3130     66.8780   1.1695954934e+02   5.9993727062e+01    0.2925835    0.2139417 -67.13  0.000704869    1.121    0.108
       181 -11.7253     14.1149     74.7945   1.1851775591e+02   5.8295574997e+01    0.4643495     0.332197 -69.17  0.002407492    1.119    0.107
       182  -9.6298      9.3307     76.2245   1.2028465215e+02   5.8280654835e+01     0.158884    0.1284666 -58.65 0.0003260262    1.120    0.107
       183  -9.4868    170.6770     77.9298   7.4316679287e+01   3.1491123598e+01    0.2259933    0.2015408 -38.84 0.0006010237    1.115    0.103
       184 -10.2902     98.3649     62.5729   8.7798358727e+01   5.0571502705e+01    0.4452924    0.3143912  -1.66  0.002079025    1.939    0.484
       185  -9.9870    142.9735    249.5040   1.1342111930e+02   6.4863161933e+00    0.1815176   0.08528424  44.97  0.001036578    1.601    0.375
       186 -10.5637     93.6507     76.5508   9.3590857040e+01   4.8599411058e+01    0.5537161    0.3379221  31.02  0.001895314    1.944    0.486
       187 -11.7311     85.1747     73.4030   9.5226713996e+01   5.0683468703e+01    0.6787924    0.5405072  47.68  0.003313933    1.423    0.297
       188 -10.6219     78.9661     67.3224   9.5341427005e+01   5.2931664961e+01     0.518383    0.4534647  51.11  0.002848942    1.336    0.251
       189 -11.1067     91.3826     62.5036   8.9903654612e+01   5.1846870417e+01    0.3937968     0.352529  64.43 0.0009833782    1.350    0.259
       190 -11.5066     89.5636     57.6532   8.8851090247e+01   5.3105714985e+01     0.594882    0.5178846  47.54  0.002289176    1.308    0.236
       191  -9.7478     33.2082     77.4757   1.1290155408e+02   5.6258950535e+01    0.2207358     0.143668 -58.96  0.000702803    1.218    0.179
       192  -9.2705      1.3691     78.2510   1.2306994671e+02   5.8281899915e+01    0.1717026    0.1137971 -65.12 0.0004426119    1.111    0.100
       193 -11.6926      1.9558     71.4685   1.2184646763e+02   5.9712200042e+01    0.6613925    0.1877676 -71.44  0.002678162    2.855    0.650
       194 -12.1681      5.7770     62.9850   1.1910783315e+02   6.1325062294e+01    0.8073372    0.2689333 -49.54  0.003683704    2.269    0.559
       195 -10.9972     10.1008     62.5665   1.1754101210e+02   6.1172015875e+01    0.3286819    0.2395392 -25.98  0.001046682    1.566    0.361
       196 -10.0707    134.8981     77.4526   8.2473443410e+01   4.0132527188e+01    0.4259138    0.1945565  55.51  0.001450248    2.532    0.605
       197  -9.9353    126.9482     76.9432   8.4364721297e+01   4.1988327674e+01    0.2262316    0.2178247 -28.91 0.0003131198    1.003    0.003
       198 -12.0164    186.4959     70.5393   6.8952321105e+01   2.8765604779e+01    0.9465742    0.6711714 -34.86  0.003200788    1.389    0.280
       199  -9.7893    184.4818     61.5023   6.6633622999e+01   3.0753468865e+01    0.3463718    0.2919914 -18.33  0.001119159    1.243    0.195
       200  -9.4635    151.0765     73.7505   7.7399792042e+01   3.7058898531e+01    0.3021791    0.2069402  34.60   0.00132078    1.626    0.385
       201 -11.6129     40.6390     70.4054   1.0885397923e+02   5.7112763241e+01    0.5754337    0.2579857 -59.38  0.002582112    1.865    0.464
       202 -11.2570     32.4248     71.9270   1.1195235736e+02   5.7541096014e+01    0.4779338    0.2696527  27.57  0.002440664    2.175    0.540
       203  -9.3373     24.3395     73.6422   1.1498508502e+02   5.7827108255e+01    0.2425455     0.112788 -59.58 0.0006873579    1.622    0.383
       204  -9.7041    128.4329     64.2383   7.9930013738e+01   4.4075647814e+01    0.4661239    0.2497018 -36.54  0.001916091    1.823    0.452
       205 -10.1703    123.3202     72.9542   8.4084317666e+01   4.3550226637e+01    0.2709253    0.2562361  64.49 0.0003959544    1.146    0.127
       206 -11.7502    122.5134     68.4066   8.2851524298e+01   4.4597734859e+01    0.8814853    0.3838951  44.72  0.003303262    2.375    0.579
       207  -9.9530    161.9954     70.6346   7.3973582192e+01   3.4945925688e+01    0.3549708    0.2751788  82.97    0.0011754    1.614    0.380
       208 -10.5623    171.6897     67.0693   7.0826433123e+01   3.3122266418e+01    0.6289889    0.3375334 -44.79  0.002467317    1.944    0.486
       209  -8.9678    111.6172     67.2767   8.5482222083e+01   4.7089476013e+01    0.1462949    0.1178554 -88.88 0.0007002029    1.715    0.417
       210 -11.3422    219.6099     66.7656   6.2208410011e+01   2.0979180863e+01    0.6809409    0.3604883  64.22  0.002547018    2.058    0.514
       211  -9.6621     21.5626     65.3262   1.1416575012e+02   5.9832110749e+01    0.2784012    0.1887883  81.60  0.001339865    1.982    0.495
       212  -9.1376     25.6085     65.4226   1.1279450589e+02   5.9506753614e+01    0.1788267    0.1415812 -22.74 7.910543e-05    1.430    0.301
       213  -9.7719    192.5925     65.6697   6.6392367792e+01   2.7997841221e+01    0.2938204    0.2575882 -70.24 0.0007882036    1.238    0.192
       214 -10.4678     15.8122     44.0586   1.1111367463e+02   6.4658680488e+01    0.8514391    0.2347339 -37.40   0.00308854    4.580    0.782
       215 -10.4901     23.1665     37.1208   1.0610519153e+02   6.5496937872e+01    0.4273766    0.2772996  54.82  0.002440648    2.636    0.621
       216  -9.5092    175.0282    246.4973   1.0772715771e+02   1.8022857393e+00    0.1861227   0.08744927  43.62  0.001039082    1.609    0.378
       217 -11.5954     22.7540     47.2071   1.0926632061e+02   6.3528872051e+01    0.5871858     0.411194   1.58  0.002097407    1.752    0.429
       218 -11.1086     34.1120     42.7481   1.0349962885e+02   6.3456709386e+01    0.5679966    0.3825847 -32.55  0.001807848    1.332    0.249
       219 -12.5410     49.8277     60.3645   1.0303097468e+02   5.8278240975e+01     0.655398    0.5043604  74.83  0.001273917    1.917    0.478
       220 -11.6565     39.9653     55.5850   1.0517656367e+02   6.0312556374e+01    0.5111637    0.3980371 -86.11  0.003122695    1.728    0.421
       221 -11.2883     32.8616     58.7936   1.0862397070e+02   6.0311056808e+01    0.6730578    0.3483664   2.05  0.002570708    3.352    0.702
       222 -11.8891     25.0830     54.5633   1.1035492226e+02   6.1840456402e+01    0.9061553    0.5295808   5.55  0.005165185    2.348    0.574
       223  -9.0818    156.6621    246.3366   1.1078535049e+02   4.7559714609e+00    0.1153242   0.07494692  64.66 0.0007051441    1.753    0.429
       224 -11.5023     46.4300     49.0871   1.0082532225e+02   6.0948307759e+01    0.4794451    0.3421871  12.79  0.001681206    1.665    0.400
       225 -11.8262     42.2022     45.2016   1.0115995629e+02   6.2170490653e+01    0.4940306    0.3415655   3.88 0.0007579965    1.758    0.431
       226  -9.8796    100.8726     55.7987   8.4747741187e+01   5.1377580437e+01    0.4136543    0.2651603 -67.43  0.001676343    2.763    0.638
       227 -10.3286    106.3963     63.6380   8.5782412373e+01   4.8830555822e+01    0.2865677    0.2628031 -27.42  0.001223671    1.019    0.018
       228  -9.3935    198.1076     62.8167   6.4588491631e+01   2.7031028253e+01    0.2492456    0.2052305 -62.85 0.0007829989    1.320    0.243
       229 -10.7959    159.2886     61.8158   7.1794807975e+01   3.7139183689e+01    0.6967671    0.4681595  14.88  0.002842199    2.116    0.527
       230 -10.3873    162.7151     44.0484   6.5293759568e+01   3.9063074694e+01    0.4480048    0.3485106   7.00  0.001954126    1.504    0.335
       231 -11.5426    156.0686     41.7868   6.5877393858e+01   4.1095993238e+01    0.4772491    0.4006011 -33.74  0.001033597    1.207    0.172
       232 -10.8431    153.2545     36.2163   6.4546840039e+01   4.2600110866e+01    0.3271495    0.3044834 -73.54 0.0005984521    1.179    0.152
       233 -11.1274    157.5125     54.8681   6.9932903480e+01   3.8728678331e+01    0.5085418    0.4615247 -46.62  0.002265319    1.138    0.122
       234 -11.3415    155.1216     49.6353   6.8716325691e+01   4.0158606310e+01    0.4277433    0.2961238 -16.87 0.0004660334    1.615    0.381
       235  -9.4836    199.0431    244.5108   1.0345928263e+02  -1.8024932503e+00    0.1842329   0.08788779  42.41  0.001036367    1.602    0.376
       236 -10.7706    127.9310    243.0404   1.1524911179e+02   9.7221694746e+00    0.2692128    0.1596202 -70.26  0.001668444    2.227    0.551
       237 -10.1655    150.1986    237.8077   1.1088152885e+02   6.9525872617e+00    0.1563246    0.1237031  30.83  0.001081334    1.355    0.262
       238  -9.6233    143.3266    235.6653   1.1181364380e+02   8.3663926373e+00    0.1192055   0.07686409  66.54 0.0007051598    1.718    0.418
       239 -10.8919    136.5661     56.3258   7.5229675226e+01   4.3605253601e+01    0.7483183    0.4761959 -27.33  0.003117678    1.628    0.386
       240 -10.8440    197.8701    232.8030   1.0202030694e+02  -2.3117562261e-01    0.2937626    0.2200972 -87.78  0.001702891    2.656    0.624
       241 -11.2230    140.2205     43.7696   7.0018667526e+01   4.4754668371e+01    0.7537356    0.4205884  29.18    0.0002921    2.394    0.582
       242 -11.7586    147.5578     31.5922   6.4099041221e+01   4.4667923713e+01    0.2817726    0.2801363   4.08  0.000732598    1.060    0.056
       243  -9.6077     15.1088    233.7340   1.3265505027e+02   2.5833663745e+01     0.173827    0.1115844 -86.90  0.001314263    1.366    0.268
       244 -10.4161    242.4592    231.3587   9.4356067866e+01  -7.1948970547e+00    0.2455324    0.1614897  49.06  0.001549185    1.796    0.443
       245 -11.5873    112.9266     49.6671   7.9090232201e+01   5.0032938522e+01    0.6516612    0.5708662 -50.47  0.003382282    1.259    0.206
       246 -12.8074    116.3327     41.9852   7.5344137580e+01   5.0563651785e+01     0.972318    0.7412367 -85.09  0.004617132    2.031    0.508
       247  -9.5233     23.7383    231.7370   1.3126310737e+02   2.5282118583e+01    0.1447419   0.07710607  65.56  0.001044035    1.351    0.260
       248  -9.2040      1.8876     56.1622   1.1915695585e+02   6.2960503556e+01    0.1498196   0.09952691 -45.68 0.0005168284    1.304    0.233
       249  -9.6503    187.9668     55.0673   6.4055831335e+01   3.0850857095e+01    0.3140721    0.2108191  58.21  0.001413991    1.478    0.323
       250  -9.9805     67.0965     54.5216   9.5197824868e+01   5.7269186437e+01     0.257309    0.1775899 -51.81 0.0007987115    1.404    0.288
       251  -9.5428    249.3094     53.0292   5.4557833607e+01   1.5806720250e+01    0.2012028     0.173889 -39.53 0.0005230344    1.057    0.054
       252  -9.2864    210.7790     53.1844   5.9770948029e+01   2.5225430880e+01    0.2126701    0.1752508  30.52  0.001070207    1.365    0.267
       253 -11.2721    202.1979     47.2372   5.9369124585e+01   2.8291901976e+01    0.7821963    0.4974256 -53.17  0.003458468    1.715    0.417
       254 -10.9081    240.2848     50.2248   5.4933272252e+01   1.8314322117e+01    0.3704768    0.3364348 -39.06 0.0009800235    1.045    0.043
       255 -11.0566     60.7064     36.1851   9.0916120421e+01   6.1589254996e+01    0.3747073    0.2058418 -37.87  0.001090029    1.574    0.365
       256 -10.9808    174.0516     48.2111   6.4460120509e+01   3.5510184392e+01       0.5741    0.4310427  74.35  0.002492912    1.460    0.315
       257 -10.0841    176.2084     43.3897   6.2529509265e+01   3.5647508153e+01    0.3904725     0.278372  75.08  0.001446108    1.546    0.353
       258  -9.7474     91.1231     48.1521   8.5013512515e+01   5.4585306541e+01    0.3054066    0.1800548 -42.30  0.001370976    1.617    0.382
       259  -9.9546    247.4680    231.0562   9.3498838813e+01  -7.9247661494e+00    0.1518606    0.1023981 -17.92 0.0007617491    1.573    0.364
       260 -10.3567      4.8373     35.8709   1.1334548738e+02   6.6943592885e+01     0.250924    0.2118827  17.13  0.001123087    1.534    0.348
       261  -9.5638      6.8564     30.7547   1.1103605671e+02   6.7829762391e+01    0.4027071    0.2271328  -9.65  0.001831517    2.186    0.542
       262  -8.9155      9.7147    227.6427   1.3319166280e+02   2.7385362905e+01   0.08378732   0.06523613 -73.16 0.0003390778    1.674    0.403
       263  -9.7554    234.5040    222.5335   9.4243896215e+01  -5.0124086822e+00    0.1194851   0.09216308  23.91 4.010506e-05    1.009    0.009
       264 -11.4786     31.2392     28.3537   9.9673523744e+01   6.6439828234e+01    0.3600884    0.3091732 -51.50 0.0009682638    1.333    0.250
       265  -9.3477      9.8261    217.8558   1.3273459740e+02   2.9057384465e+01    0.1446207   0.07969978  71.50  0.000679465    1.300    0.231
       266 -10.3125    165.5382    212.5890   1.0482157574e+02   8.0545081144e+00    0.2433509    0.1596005  68.04   0.00129532    2.022    0.505
       267  -9.4813    152.8062    207.7868   1.0649118023e+02   1.1039645707e+01    0.1744263    0.1327538  62.43 0.0007739878    1.307    0.235
       268  -9.9683    244.5108     50.9897   5.4614641080e+01   1.7206344410e+01    0.2295235    0.2145551  86.84 0.0008188968    1.116    0.104
       269  -9.8228    194.7320     46.5646   6.0349651660e+01   3.0335306485e+01    0.5696885    0.2877997  88.63  0.001719843    4.043    0.753
       270 -10.2393    234.0779     45.1215   5.4365386494e+01   2.0508177271e+01    0.3213173    0.2702836 -65.09  0.000939889    1.185    0.156
       271  -9.3114    147.1833     60.5748   7.4111114977e+01   4.0339432407e+01     0.287439    0.1527704  57.50  0.001112488    1.997    0.499
       272  -9.3919    101.5084     44.5144   8.0490303521e+01   5.3244276523e+01    0.1959709    0.1734278 -74.60 0.0006272789    1.478    0.323
       273 -11.0587     94.7994     41.4845   8.1378052977e+01   5.5053566612e+01    0.6756801    0.3329802  48.79  0.002929247    2.229    0.551
       274 -10.9114    189.1933     41.5102   5.9718303519e+01   3.2497645453e+01    0.5698618    0.2607324 -21.27 0.0009493009    2.591    0.614
       275  -9.6395     86.8459     29.6138   7.9170213657e+01   5.8431437431e+01     0.545486     0.285508 -11.74  0.002121083    2.976    0.664
       276 -10.9501     80.7351     39.9444   8.5305690368e+01   5.7842301188e+01    0.6239781    0.3978248  47.54  0.003198698    1.829    0.453
       277 -10.8624     77.5953     34.3067   8.4148997082e+01   5.9316977088e+01    0.3897848    0.2770076  42.80 0.0009019586    1.567    0.362
       278 -10.0567     81.3315     30.8489   8.1483652304e+01   5.9231667104e+01    0.3863283     0.220677 -44.81  0.001861635    1.913    0.477
       279 -10.2723    231.6007     39.2512   5.3113566666e+01   2.1896251236e+01    0.3089222    0.2324361 -41.30 0.0008406162    1.244    0.196
       280  -8.9660     61.1495    207.1872   1.2345057095e+02   2.5299576167e+01    0.1601907    0.1010155  68.36 0.0005159103    1.305    0.234
       281  -9.9375    182.1818     32.1786   5.7957386454e+01   3.5591312426e+01    0.2838607    0.2159765   4.80 0.0007933709    1.579    0.367
       282 -11.6075    176.0366     36.1229   6.0236913503e+01   3.6695988345e+01    0.6923205    0.5045117 -75.12  0.002320642    1.681    0.405
       283 -10.7098    176.7239     30.0224   5.8161477860e+01   3.7307577605e+01     0.537023    0.2327382  48.33  0.001802934    2.288    0.563
       284 -10.8451      4.9978    202.8688   1.3279138850e+02   3.2186415214e+01    0.4848895    0.1134726 -65.81   0.00232454    3.887    0.743
       285  -9.9959    238.6266    204.0754   9.0410124797e+01  -3.5633150509e+00    0.2316937    0.1417283 -10.13  0.001287679    1.844    0.458
       286  -9.5980    133.3186     37.1698   6.9267123201e+01   4.7397071603e+01    0.4149448    0.2744296 -74.64  0.001677145    2.607    0.616
       287  -9.7693    206.8383     37.0567   5.5725479708e+01   2.8474467283e+01    0.2467868    0.2146374  75.87 0.0006684798    1.142    0.125
       288  -9.1806    217.5223     39.0079   5.4825273342e+01   2.5464548945e+01    0.2233761    0.1392116 -30.75 0.0007651942    1.568    0.362
       289 -10.5046    240.7625     32.1747   5.0222017382e+01   2.0565447283e+01    0.5486437    0.3466831 -33.44  0.002744364    1.479    0.324
       290 -10.1318     16.5905    204.2671   1.3095422926e+02   3.0841534570e+01    0.1399489    0.0765833 -74.14 0.0005485694    1.660    0.398
       291 -10.7405    245.7282    200.9732   8.8662649606e+01  -4.3754194634e+00    0.2186171    0.1528312  32.66 0.0006752109    1.229    0.187
       292 -12.0173    105.5874     33.1763   7.4945315419e+01   5.4211509092e+01    0.5267613     0.328038   7.97  0.001501905    2.221    0.550
       293  -8.5720    207.3369    201.3169   9.5384509474e+01   2.2236921743e+00    0.1331019   0.08819731  16.80 0.0007048363    1.699    0.412
       294  -9.6408    248.7082     33.3225   4.9675068248e+01   1.8530749926e+01    0.2769177    0.1402701 -40.43  0.001264654    1.744    0.427
       295 -10.2692     68.5901     32.8031   8.6695738337e+01   6.1013014787e+01    0.4050391    0.3084182  30.68  0.002413953    1.401    0.286
       296  -8.7119      1.3067    200.2957   1.3327046397e+02   3.2985443653e+01   0.08644031   0.06707842 -71.26 0.0003484354    1.586    0.370
       297  -8.7899    204.3355     30.6745   5.4220884098e+01   2.9946328387e+01    0.2289203    0.1252509 -80.92 0.0008286499    2.700    0.630
       298  -9.0853    216.6018     32.2216   5.3053302822e+01   2.6577019950e+01    0.1900618    0.1396958 -12.38 0.0003346095    1.572    0.364
       299  -8.9634     21.7031     32.1519   1.0509496320e+02   6.6563026328e+01    0.1609252   0.07688376 -46.41 0.0002422104    1.567    0.362
       300  -9.3204    210.8402     30.0697   5.3184335662e+01   2.8330510521e+01    0.2650154    0.1611784 -39.04 0.0008943769    1.583    0.368
       301  -9.6219    221.2715     29.4598   5.1715758043e+01   2.5731734131e+01    0.2519453    0.1907289 -33.14 0.0005629726    1.297    0.229
       302 -11.2188     98.5152     27.2531   7.4604856032e+01   5.6523393676e+01    0.3788688    0.2621417 -40.53  0.000529368    1.550    0.355
       303  -9.9744    230.4639     27.3220   5.0082439657e+01   2.3685697984e+01    0.3764985    0.2029053 -35.93  0.001343639    1.715    0.417
       304  -9.5031    250.5493     26.4964   4.7799047564e+01   1.8939187298e+01    0.2751744    0.1233089 -29.24 0.0007882963    2.101    0.524
       305 -10.9839     58.2365     61.7621   1.0052523369e+02   5.6987376294e+01    0.4608048     0.398619 -78.85   0.00216571    1.400    0.286
       306 -10.6454    214.3807     23.5161   5.0897178217e+01   2.8212968799e+01    0.4503162    0.3493974 -10.07   0.00188205    1.495    0.331
       307 -10.2713    211.3326     18.7564   4.9923998200e+01   2.9551532653e+01    0.2471947    0.2315083  82.28  0.000258459    1.044    0.042
       308  -9.3729    169.4326     23.9299   5.7385834357e+01   3.9975946449e+01    0.2338299    0.1932256  62.32 0.0007935301    1.158    0.136
       309 -10.1106    234.6340    196.6871   8.9759580151e+01  -1.9813705848e+00    0.4212934    0.2244382  26.54  0.002059842    1.904    0.475
       310  -9.8239    169.7495    191.4244   1.0071815550e+02   1.0637893833e+01    0.3426928    0.1738512  34.48  0.001001093    2.075    0.518
       311  -9.9629     81.0672     19.3244   7.6648869649e+01   6.0969255893e+01    0.3393463    0.1919607  43.57  0.001068884    1.801    0.445
       312  -9.3383     86.4530     20.5432   7.5446590315e+01   5.9808406137e+01    0.2400959     0.189748  10.12 0.0007674641    1.195    0.163
       313 -12.2439      5.2921    185.1616   1.3182184841e+02   3.5482651691e+01    0.6628243    0.3416452  77.10  0.004092433    1.521    0.343
       314  -9.6132    239.6742    184.7864   8.6665022461e+01  -1.3418524536e+00    0.1799959    0.1369825  22.02 0.0006083768    1.135    0.119
       315 -10.3617     47.0678     18.9489   8.9110001212e+01   6.6280221743e+01    0.3069474    0.2349813 -13.84  0.001217857    1.122    0.108
       316 -10.1646     38.7090     21.8685   9.3891620905e+01   6.6800610463e+01    0.2979197    0.1650137 -31.21  0.001063177    1.555    0.357
       317 -10.1142    212.0210    181.9946   9.1027944010e+01   4.1044632210e+00    0.2111188    0.1417329  12.55  0.001073389    1.764    0.433
       318  -9.9741    250.0065    179.8023   8.3951630300e+01  -2.5097042335e+00    0.3152486    0.1468035 -19.88  0.001410391    2.501    0.600
       319  -9.7052    100.9726    175.9839   1.1224986811e+02   2.5690368950e+01    0.1811248    0.1547231  72.15            0    1.009    0.009
       320  -9.6208    242.7220     22.0518   4.7450378657e+01   2.1323623605e+01    0.3354846    0.1656194  60.81  0.001524094    2.036    0.509
       321  -9.3531    223.0837     22.2994   4.9559046171e+01   2.6136666951e+01    0.2488566    0.1863877  83.75 0.0007767106    1.335    0.251
       322  -8.9192    221.0078     18.9853   4.8891268307e+01   2.7047109231e+01    0.1645809    0.1488362 -48.76 0.0003071245    1.080    0.074
       323  -9.9427     51.8689    173.4878   1.2210722136e+02   3.3064356565e+01     0.346704     0.150043 -84.75  0.001600223    2.623    0.619
       324  -9.2597     28.1817    175.9261   1.2700146028e+02   3.5167271847e+01    0.1812761    0.1169136  75.93  0.001176376    1.252    0.201
       325  -9.5384    231.3873    175.2974   8.6244126524e+01   1.4314986164e+00    0.3572669   0.09653348  41.45   0.00123197    3.440    0.709
       326  -9.0470     57.2772    174.9658   1.2116299736e+02   3.2101548210e+01    0.1641262    0.1291624  88.24 0.0004127488    1.058    0.055
       327  -9.7061    246.9574    174.1648   8.3341984126e+01  -1.2461779861e+00    0.3227356    0.1367295  27.94  0.001240228    3.142    0.682
       328  -9.7047     39.5055    173.5071   1.2458720020e+02   3.4472343490e+01      0.17362    0.1423862  56.96  0.001020384    1.290    0.225
       329 -10.5992     35.8658    170.2956   1.2502481791e+02   3.5525394092e+01    0.3381073    0.1805744  86.46  0.001729251    1.720    0.419
       330  -8.8161      1.4580     20.5959   1.1029162419e+02   7.0039151559e+01    0.1107403   0.07795242 -42.27 0.0002063121    1.039    0.038
       331  -9.7611    206.3725     18.1899   5.0352891397e+01   3.0902167102e+01    0.4093683    0.2163232 -65.03  0.001639044    2.411    0.585
       332  -8.5016    170.6532    172.2712   9.7151400939e+01   1.3729066586e+01    0.1377573    0.1052045  71.94 0.0004318427    1.621    0.383
       333 -11.9128      9.8676    166.5907   1.2983608860e+02   3.8762063082e+01    0.5657817    0.3123957 -75.67  0.003043941    1.458    0.314
       334 -10.7268     13.9315    157.7278   1.2838968373e+02   4.0236320510e+01    0.3819414    0.1531284 -80.53  0.002046295    2.033    0.508
       335  -8.7847    228.3155    168.6742   8.5451247662e+01   2.9475912230e+00    0.1236215    0.1099145 -80.53 0.0007043711    1.670    0.401
       336  -8.8918    197.9826    168.0045   9.0930042370e+01   8.9997326051e+00    0.1655572    0.1540551   9.80 0.0005989225    1.062    0.059
       337  -8.7930    203.4585    167.4415   8.9770061521e+01   7.9955789868e+00    0.1391124    0.1240725  24.29 8.254192e-06    1.011    0.011
       338  -9.7124    219.6907     12.6656   4.7320777347e+01   2.8087262084e+01    0.3575515    0.1563866  67.30  0.001492097    2.145    0.534
       339  -9.9273     40.6589    165.5064   1.2360754210e+02   3.6008497171e+01    0.3192287    0.1358298 -70.37  0.001665383    2.002    0.501
       340 -10.2147     18.7635    165.2020   1.2800136314e+02   3.8261632765e+01    0.2213331    0.2110211  72.90  0.001818083    1.445    0.308
       341  -9.9187    188.8775    164.1737   9.1933709700e+01   1.1475494008e+01    0.2859315    0.2034368 -28.12  0.001110224    1.566    0.361
       342  -9.9865    204.9887    163.0017   8.8572188786e+01   8.4001643342e+00    0.2755034    0.1885712  35.59  0.000623305    1.377    0.274
       343 -10.3633     28.5373    159.9890   1.2559269290e+02   3.8422899967e+01    0.2576349   0.09116066 -72.82 0.0007644417    2.321    0.569
       344 -10.6777    246.5127    159.9276   8.0487444280e+01   7.5542686321e-01    0.5131562    0.1257323 -31.97  0.001667004    4.093    0.756
       345  -9.5196     79.9846    160.6665   1.1462830054e+02   3.2081312367e+01    0.2513068    0.1629509  83.96  0.001345807    1.647    0.393
       346  -9.6531    215.0163    158.5814   8.5764439862e+01   7.0780289866e+00    0.3165013    0.1925157 -19.35  0.001458902    1.946    0.486
       347  -8.8800    223.7589    156.9643   8.3820725684e+01   5.5744536557e+00    0.1793558    0.1134955 -30.38 0.0008797226    1.598    0.374
       348 -10.4931    104.9106    154.4202   1.0809083847e+02   2.9540348298e+01    0.4258527    0.3343359 -71.90  0.002427919    1.242    0.195
       349 -11.3945      8.9110    156.0088   1.2927308937e+02   4.1012892735e+01    0.5322471    0.2536639 -89.00  0.003141651    1.721    0.419
       350 -11.6740      3.7266    147.2906   1.2968718990e+02   4.3234425948e+01    0.5737698    0.3227636 -80.81  0.002613207    1.333    0.250
       351 -11.5947      3.6703    142.2882   1.2931915528e+02   4.4289472344e+01    0.3346272    0.2953358  37.93  0.002724347    1.531    0.347
       352 -11.8761      3.9849    136.9742   1.2882789257e+02   4.5392395466e+01    0.2222903    0.1566978 -78.70  0.001611879    1.116    0.104
       353 -10.8888     31.3268    152.8494   1.2433479336e+02   3.9665578093e+01    0.4829389    0.2529793 -87.65  0.002716002    1.720    0.419
       354 -10.8724     10.7718    127.1354   1.2641113460e+02   4.7014776485e+01    0.5319207    0.2236437 -68.45  0.002522687    1.794    0.442
       355 -12.1719     22.5328    149.4682   1.2590014156e+02   4.1221297676e+01    0.5752997    0.3290871 -48.86  0.003374566    2.228    0.551
       356 -11.2073     15.2603    147.4035   1.2727103153e+02   4.2295493066e+01    0.3882589    0.2409437  85.23  0.001480762    1.315    0.239
       357 -11.5962     12.3802    139.1154   1.2716827033e+02   4.4301475397e+01    0.6832706    0.3700605 -82.80  0.004132474    1.449    0.310
       358 -10.1544     72.3256    152.3261   1.1518070669e+02   3.4964706591e+01    0.4289814    0.1908297  51.42  0.001968985    2.293    0.564
       359  -9.9471     48.0954    151.9311   1.2057520361e+02   3.8084895584e+01    0.2729871    0.2282485  52.72  0.001045487    1.305    0.234
       360 -11.0851     47.3697    146.5560   1.2010072130e+02   3.9342505500e+01    0.4607074    0.2501865 -70.02  0.002528457    1.566    0.362
       361 -10.2791    214.9508    151.0268   8.4150387258e+01   8.2905137450e+00    0.3194261    0.1941213 -30.10  0.001107098    1.696    0.410
       362 -11.3884     62.8152    150.0111   1.1702669913e+02   3.6730493991e+01    0.4385459    0.3767677  49.77  0.002141098    1.293    0.227
       363  -9.9702     55.5584    149.3811   1.1859285567e+02   3.7768894897e+01    0.2188667    0.1975874 -43.05  0.001483388    1.467    0.318
       364  -9.8630    239.8022    146.5807   7.8741616123e+01   3.9483664643e+00    0.2422793    0.1853087 -22.93  0.000654187    1.244    0.196
       365 -10.7191    249.6027    142.7307   7.6250761445e+01   2.5955223269e+00    0.6109436       0.2413 -31.57  0.002483728    2.397    0.583
       366  -9.6331    108.2790    146.0392   1.0585718081e+02   3.0772610564e+01    0.2340466    0.1914896  51.54 0.0008207958    1.204    0.170
       367 -10.5873     33.0840    144.2324   1.2306212020e+02   4.1356329135e+01    0.2655689    0.1908184  80.97 0.0007553888    1.203    0.169
       368 -10.2669    104.5208    142.2101   1.0604366452e+02   3.2251428210e+01     0.237517    0.2149541  76.12 0.0002566694    1.042    0.040
