#   1 NUMBER                 Running object number                                     
#   2 MAG_AUTO               Kron-like elliptical aperture magnitude                    [mag]
#   3 X_IMAGE                Object position along x                                    [pixel]
#   4 Y_IMAGE                Object position along y                                    [pixel]
#   5 X_WORLD                Barycenter position along world x axis                     [deg]
#   6 Y_WORLD                Barycenter position along world y axis                     [deg]
#   7 A_WORLD                Profile RMS along major axis (world units)                 [deg]
#   8 B_WORLD                Profile RMS along minor axis (world units)                 [deg]
#   9 THETA_WORLD            Position angle (CCW/world-x)                               [deg]
#  10 FWHM_WORLD             FWHM assuming a gaussian core                              [deg]
#  11 ELONGATION             A_IMAGE/B_IMAGE                                           
#  12 ELLIPTICITY            1 - B_IMAGE/A_IMAGE                                       
         1  -9.7019    189.8215     14.2108   6.3243702285e+01   3.6099531237e+01    0.3108784    0.2007416 -82.86  0.001535237    1.562    0.360
         2  -8.3309     16.6322     13.8508   1.0816298388e+02   6.9562596377e+01    0.1389552    0.0874248 -41.19 0.0004644231    1.709    0.415
         3  -8.4074     55.7689     10.1623   9.0567225220e+01   6.5171104093e+01    0.1591412    0.1409461   2.34 0.0006441421    1.261    0.207
         4  -8.3441     90.7860      9.2056   7.9459070585e+01   5.9118027715e+01    0.1811299    0.1260462 -67.90 0.0009388403    2.717    0.632
         5 -10.6797    246.6042      4.8995   5.5819323109e+01   2.4175056495e+01    0.4339823    0.3553617  68.80  0.001997555    1.417    0.294
         6  -8.5120      5.8184      8.6033   1.1103928654e+02   7.1179659634e+01    0.1274406   0.08548622  23.91 0.0005979051    1.695    0.410
         7  -8.7659     33.2644      5.2777   9.7085730749e+01   6.8803234375e+01    0.2237667    0.1599977 -50.60   0.00137729    2.811    0.644
         8  -8.5789     78.8668      3.7055   8.0560365083e+01   6.1858805577e+01    0.2010721    0.1395183 -46.50 0.0009524178    2.126    0.530
         9  -8.3609     62.2305      1.6075   8.4721035724e+01   6.4949953306e+01    0.1564651    0.1277382  43.20 0.0004747315    1.352    0.260
        10  -9.3424    236.1012      1.3579   5.5930038679e+01   2.6824401677e+01    0.2415588    0.0818553  66.34  0.001107842    2.549    0.608
        11  -8.9290     34.6087    248.1005   1.4513036591e+02   1.9189061230e+01    0.2200455    0.1118901  58.68 0.0007717047    1.566    0.361
        12  -8.3481     93.8354    249.5277   1.3466445678e+02   1.0695413547e+01    0.2451125    0.1295144  71.97  0.001177199    2.322    0.569
        13  -9.2107     65.6785    249.5050   1.3982764725e+02   1.4857776724e+01    0.2650908    0.1522267  69.87   0.00119021    1.582    0.368
        14  -9.8608     52.6525    249.2336   1.4211217463e+02   1.6683543398e+01    0.3994614    0.2272241  73.78   0.00223145    1.564    0.361
        15  -8.7995     28.1925    250.4699   1.4635952434e+02   1.9503806390e+01    0.2598934   0.08343941  42.44  0.001310888    2.640    0.621
        16  -8.7312    232.6590    247.2515   1.0781689674e+02  -1.1705525084e+01    0.1598765    0.1493807 -16.27  0.000581996    1.363    0.266
        17 -10.0458    224.1286    244.1725   1.0886100228e+02  -9.9993795430e+00    0.3947503     0.241687 -43.75  0.002235135    1.993    0.498
        18  -8.9098    210.9382    246.5357   1.1170561309e+02  -8.2679600156e+00     0.203109    0.1736649 -58.71 0.0007550582    1.679    0.405
        19  -9.3935    146.8423    246.3796   1.2406865961e+02   2.5280547857e+00    0.2777171    0.2144054  53.29    0.0016866    1.157    0.136
        20  -7.9125     76.5486    247.5031   1.3767070556e+02   1.3683849939e+01    0.1235816   0.09596805  68.20 1.843656e-05    1.005    0.005
        21  -8.8544    120.0535    245.3692   1.2917600154e+02   7.2471833271e+00    0.2951848    0.1831643  83.30  0.001291104    2.220    0.550
        22  -9.1123     45.6354    244.6595   1.4298115416e+02   1.8479766168e+01    0.2141889    0.1164707  48.87 0.0007394229    1.572    0.364
        23  -9.5379    248.4557    242.4874   1.0418589105e+02  -1.3364265595e+01    0.2375763    0.2174177 -18.61 0.0009714869    1.397    0.284
        24  -8.5351    201.9530    243.3818   1.1289246757e+02  -6.3546247875e+00    0.2141905    0.1760368 -61.64 0.0008921975    1.733    0.423
        25  -8.3175    159.6557    244.6855   1.2131307030e+02   6.1139420563e-01    0.2240123    0.1594644  26.94  0.000838586    1.469    0.319
        26  -9.2499    160.3716    240.5700   1.2056719937e+02   1.1861835600e+00    0.3667339    0.2487041 -89.21    0.0014993    2.541    0.606
        27  -8.0602    139.3418    244.6643   1.2530767021e+02   4.1132849670e+00    0.1360075   0.09044878  67.77 0.0007050575    1.761    0.432
        28  -8.3355    168.9915    243.3074   1.1927438450e+02  -7.7010899346e-01    0.1821085    0.1498092  43.29 0.0005735375    1.067    0.063
        29  -7.9757     77.4740    242.9745   1.3705962211e+02   1.4421835317e+01    0.1751797   0.08965648  82.64 0.0008097193    2.518    0.603
        30  -9.1630     30.1959    241.9338   1.4545273687e+02   2.0910384737e+01    0.2129488    0.1497382 -88.46 0.0005171773    1.204    0.170
        31  -8.8705    194.2604    240.2478   1.1386152841e+02  -4.5974562641e+00    0.2761148    0.1861418 -56.51  0.001359025    2.061    0.515
        32  -9.3546    182.5700    240.5000   1.1617740169e+02  -2.6496740092e+00    0.4658369     0.308098  41.80  0.001551538    1.322    0.244
        33  -7.8645    153.4010    242.2255   1.2219134794e+02   2.1141344903e+00    0.1625462    0.1246076 -72.94  0.000512413    1.653    0.395
        34  -8.2113    135.4643    242.5140   1.2578274099e+02   5.1616742451e+00    0.1314842    0.1105121  53.24 0.0008094169    1.010    0.010
        35  -7.9380     88.3741    242.2157   1.3492406474e+02   1.2929237652e+01    0.1668849    0.1060967 -85.91 0.0006030539    1.674    0.403
        36  -9.4479      3.3647    240.8447   1.4982578197e+02   2.4058008076e+01    0.2301449     0.134736  84.58 0.0006964614    1.268    0.211
        37  -7.7235     62.3102    241.6840   1.3974496649e+02   1.6842106343e+01    0.1287578   0.07239689  69.04 0.0003755451    1.636    0.389
        38  -8.2950     37.5246    241.4799   1.4415663996e+02   2.0117803279e+01    0.1182422   0.08554579  74.18 0.0001349324    1.021    0.020
        39  -8.1509    240.5398    240.5214   1.0525485201e+02  -1.1966648187e+01    0.1212028   0.09868499   8.72 0.0001369284    1.013    0.013
        40  -8.1951    146.4305    239.9188   1.2324618191e+02   3.7313977244e+00    0.1687892    0.1114748 -88.50 0.0008045738    2.401    0.583
        41  -8.7133    136.0898    239.0820   1.2519236588e+02   5.6772391778e+00    0.2631108    0.1459353  60.96   0.00122315    2.101    0.524
        42  -8.5230    125.8016    239.6218   1.2731401984e+02   7.3422623298e+00    0.1907191    0.1023675  50.52 0.0004648593    1.633    0.388
        43  -8.2376    107.5648    238.7438   1.3081161185e+02   1.0555326409e+01    0.1693956    0.1163766 -83.70 0.0009433372    1.621    0.383
        44  -8.0729     84.0010    239.0204   1.3542127309e+02   1.4220865218e+01    0.1556158    0.1177249  58.00 0.0004323267    1.109    0.098
        45  -8.3112     72.0157    238.7528   1.3766906019e+02   1.6048842216e+01    0.1748978    0.1351488  63.25 0.0004283695    1.071    0.066
        46  -8.6404     52.9094    239.1857   1.4124009905e+02   1.8609639550e+01    0.1917498    0.1226125  69.78 0.0006132956    1.292    0.226
        47  -9.2122     19.3954    238.6180   1.4706326760e+02   2.2794356089e+01    0.2229446    0.1462639  75.51 0.0005970976    1.125    0.111
        48  -7.9268    209.2460    238.6358   1.1072031543e+02  -6.8393794795e+00    0.1108193    0.1008607  88.27 0.0003302572    1.611    0.379
        49  -9.1580    246.4135    229.4782   1.0226892060e+02  -1.1319531954e+01    0.2393493    0.1917811 -20.84 0.0006300971    1.210    0.173
        50 -10.2065    250.6183    233.2694   1.0219872459e+02  -1.2451186469e+01    0.2897377    0.1215352 -32.83 0.0002191408    2.356    0.576
        51  -9.2601    247.6680    234.7027   1.0297206497e+02  -1.2219915785e+01    0.2527326    0.1707976  -9.10 0.0009971204    1.443    0.307
        52  -8.1848     58.0068    237.2167   1.4013612910e+02   1.8319095656e+01    0.1591002   0.08526574  44.05 0.0008785194    1.716    0.417
        53  -9.0570    231.0605    237.2838   1.0641511980e+02  -1.0101217681e+01    0.2115543    0.1764487 -35.67  0.000945734    1.419    0.295
        54  -9.9978    214.2316    232.4324   1.0871708496e+02  -6.7207992001e+00    0.5409629    0.3729812 -77.51  0.002294195    4.029    0.752
        55  -9.1131    203.2104    234.8518   1.1123979613e+02  -5.2630386916e+00    0.2736706    0.1993407 -64.09  0.001391016    2.168    0.539
        56  -9.7338    175.7317    233.5021   1.1641488554e+02  -3.0279275277e-01    0.4650792    0.2374023 -58.51   0.00200937    2.936    0.659
        57  -7.6186     44.6820    236.3355   1.4249083575e+02   2.0245903649e+01    0.1288165   0.06847028  69.71 0.0003896689    1.699    0.411
        58  -8.0391    170.2731    235.6501   1.1784503049e+02   2.9281291579e-01    0.1266199    0.1002662  74.58 0.0002301468    1.631    0.387
        59  -9.1416    108.4917    234.5835   1.3011878568e+02   1.1210665808e+01     0.292391    0.1875059  67.97  0.000943678    1.616    0.381
        60  -8.6271     94.1512    233.9451   1.3288854756e+02   1.3655819892e+01    0.4348897    0.2077722  74.40  0.001616531    3.742    0.733
        61  -8.7246     78.8261    234.5460   1.3594571221e+02   1.5890086976e+01    0.2436177    0.1424577  86.83 0.0009879237    1.880    0.468
        62  -9.9034     55.4925    230.9973   1.4004302624e+02   1.9917971540e+01    0.2937189    0.1589352 -49.84  0.001487875    2.693    0.629
        63  -9.9414     61.6626    228.3494   1.3862312143e+02   1.9623347909e+01    0.3812874    0.1689651  49.84  0.001475116    1.946    0.486
        64  -8.0720    122.7993    234.2182   1.2720090676e+02   8.8756025957e+00    0.2237774    0.1242344  71.86 0.0008737569    2.728    0.633
        65  -8.1958     99.4003    234.2600   1.3188766253e+02   1.2756279910e+01    0.1710917    0.1138323 -84.03 0.0005145022    1.638    0.389
        66  -9.2668     68.4641    232.5700   1.3773454929e+02   1.7802040759e+01    0.4295938    0.1857698  68.01  0.001756036    3.056    0.673
        67  -7.9269     38.6465    234.3135   1.4341395999e+02   2.1405777592e+01    0.1290698   0.06636661  67.79 0.0007045418    1.733    0.423
        68  -8.3128    194.3714    232.6721   1.1259094315e+02  -3.4159740445e+00    0.1788655    0.1502466  72.47 0.0005973834    1.626    0.385
        69  -9.0706    141.0552    230.8710   1.2302608673e+02   6.3306231591e+00    0.5575106    0.2462704  60.70  0.001863449    4.044    0.753
        70  -8.0661    132.6008    232.8225   1.2502701004e+02   7.4486713599e+00    0.1723871    0.1241044 -77.28  0.000899316    1.667    0.400
        71  -9.2333    186.5110    230.7886   1.1382568323e+02  -1.7417388970e+00    0.3227944    0.2428788  89.13  0.001508029    2.251    0.556
        72  -8.8438    235.9712    230.8169   1.0438688208e+02  -9.9370421062e+00    0.2057241    0.1624326 -24.00 0.0005971019    1.260    0.206
        73  -8.2622      1.8115    231.0408   1.4953915902e+02   2.6120921329e+01    0.1853034   0.08043149  74.99 0.0007235784    1.997    0.499
        74  -9.9807    149.4659    226.3515   1.2062105706e+02   5.6766024860e+00    0.6144495    0.3990217  88.17  0.002743884    2.620    0.618
        75  -9.1292    127.8464    227.8870   1.2530476057e+02   9.2285579759e+00    0.3494366    0.2499993 -51.43  0.001756037    1.597    0.374
        76  -8.8439    162.0995    227.9253   1.1827557228e+02   3.1072868605e+00    0.2614008    0.1989464  66.69 0.0009228689    1.532    0.347
        77  -8.7267     48.7477    227.8143   1.4102274052e+02   2.1460528089e+01     0.229476    0.2024205  47.12  0.001612463    1.436    0.304
        78  -8.9050    206.1453    226.2231   1.0918914918e+02  -4.3977911655e+00    0.2776212    0.1685583 -51.82  0.001312588    2.150    0.535
        79  -8.5518     32.9140    230.3207   1.4413304008e+02   2.2905440486e+01    0.1600456    0.1207298  70.52 0.0003805575    1.083    0.076
        80  -9.0161     94.4134    224.7057   1.3173907387e+02   1.5491132521e+01    0.4755065    0.2380126  73.92  0.001868599    3.163    0.684
        81  -8.9300      6.4124    226.3020   1.4849100580e+02   2.6609640506e+01    0.2209422    0.1240173  67.12  0.001053212    1.417    0.294
        82  -8.1030    200.3554    226.2212   1.1031755612e+02  -3.4018177623e+00    0.1733014    0.1236088 -51.34 0.0007037982    1.728    0.421
        83  -9.0949    180.3340    224.8884   1.1407332444e+02   3.6086673772e-01    0.3194057    0.2527212 -22.78  0.001209133    1.454    0.312
        84  -8.1072     74.7774    225.2237   1.3574498581e+02   1.8401294838e+01    0.1533755    0.1421573 -83.11 0.0002841773    1.296    0.229
        85  -8.7342    216.5269    223.3170   1.0667627851e+02  -5.6924811479e+00    0.2432121    0.2053958 -77.08 0.0009544533    1.868    0.465
        86  -8.6410    173.0156    223.0461   1.1524974946e+02   2.0098197483e+00     0.267673    0.1865702 -79.17 0.0008923782    2.369    0.578
        87  -7.8913    113.7274    224.2991   1.2772147034e+02   1.2381832598e+01     0.134341   0.09313019  72.06 0.0002128714    1.529    0.346
        88  -8.7644    104.9361    223.7931   1.2946912444e+02   1.3963992661e+01     0.291129     0.168478  75.11  0.001320735    2.260    0.557
        89  -8.8711    239.1566    221.6970   1.0216826140e+02  -9.1041934600e+00    0.2257649    0.1962166 -60.45 0.0008509619    1.726    0.421
        90  -9.1962    225.4344    221.8201   1.0472186522e+02  -6.9335057796e+00    0.2059739    0.1982737  57.38 0.0004332066    1.386    0.278
        91  -9.2275    192.4230    221.3935   1.1104417368e+02  -1.2012222446e+00    0.2866918    0.2418088  86.20  0.001049986    1.672    0.402
        92  -9.4761    160.0301    221.0349   1.1759040858e+02   4.7522824681e+00    0.5150095     0.241842  57.85  0.001898856    3.100    0.677
        93  -8.6185     18.8859    221.4702   1.4599507509e+02   2.6304230520e+01    0.2276467    0.1274319  72.32 0.0008425014    1.493    0.330
        94  -9.2177    120.4182    219.4261   1.2564645472e+02   1.2219661153e+01    0.4143678    0.2271559  70.68  0.001668839    2.783    0.641
        95  -8.6225     82.7699    220.6187   1.3362059513e+02   1.8168998021e+01    0.2574024    0.1455818  81.08  0.001212073    2.143    0.533
        96  -8.3747     73.4454    220.9765   1.3554709654e+02   1.9490164762e+01    0.1856183   0.09544039  84.76 0.0008070901    2.539    0.606
        97  -7.8695    202.9396    220.4525   1.0879478131e+02  -2.9015945973e+00     0.173509    0.1119509  60.62 0.0008038846    2.294    0.564
        98  -9.4065    132.9195    216.9420   1.2263590799e+02   1.0503245499e+01    0.5799999    0.3283615 -76.84  0.002377381    2.829    0.647
        99  -7.9536    249.7590    218.9653   9.9769368750e+01  -1.0325257440e+01    0.1632515    0.1391136  52.71  0.001036689    1.662    0.398
       100  -8.2562    210.1709    219.2027   1.0715881171e+02  -3.9526056659e+00    0.1651891    0.1587971  72.41 0.0004735708    1.334    0.250
       101  -8.7164     55.0150    221.8857   1.3928074330e+02   2.1877113431e+01    0.1904509    0.1499877  76.89 0.0005208649    1.005    0.005
       102  -8.7321    154.4895    215.4871   1.1783661322e+02   6.8337963879e+00    0.2267237    0.1357723 -64.74 0.0007441119    2.209    0.547
       103  -7.8107      1.4429    219.5360   1.4893127014e+02   2.8462141186e+01    0.1132225   0.07824951  80.67  0.000143167    1.030    0.029
       104  -8.4233     61.9718    217.3750   1.3745914314e+02   2.1892939601e+01     0.277798    0.1453923  69.39  0.001133519    2.033    0.508
       105  -8.7343     51.4628    217.7239   1.3957207546e+02   2.3229776985e+01    0.2500558    0.1519299  71.15 0.0009451823    1.499    0.333
       106  -8.8885    169.3690    216.3522   1.1486745280e+02   3.9041427290e+00     0.295213    0.2317586 -76.46 0.0009929655    1.676    0.403
       107  -8.6802    142.8253    216.4837   1.2046435186e+02   8.7921685465e+00    0.2611301    0.1810902 -79.05  0.001025454    1.907    0.476
       108  -7.8510    111.6607    217.3393   1.2719712937e+02   1.4166552392e+01     0.147336   0.09496932  71.51 0.0007050384    1.764    0.433
       109  -8.5412    108.2509    217.4242   1.2792794642e+02   1.4729419845e+01    0.1892712    0.1121249  52.92 0.0005411368    1.543    0.352
       110 -10.1009     34.0040    214.9481   1.4269274378e+02   2.5981544136e+01    0.3840909    0.2459453  89.72  0.001665172    1.296    0.228
       111  -8.4554     12.7140    216.1279   1.4672754752e+02   2.8056691431e+01    0.1829275    0.1208153  62.53 0.0005252596    1.286    0.222
       112  -8.4579    232.3749    214.9844   1.0217433704e+02  -7.0090814272e+00    0.2091773    0.1842748  61.31  0.001041178    1.582    0.368
       113  -8.2674     86.9911    215.5023   1.3213456052e+02   1.8606386910e+01    0.1963851    0.1152576  47.76 0.0006325645    1.543    0.352
       114  -8.1600    185.7892    214.5763   1.1117757482e+02   1.1936225420e+00    0.1894297    0.1222069  49.82 0.0007072215    1.581    0.367
       115  -8.7305     93.1277    213.9647   1.3065377391e+02   1.7963433464e+01    0.2906416    0.1613332  69.75  0.001039092    2.183    0.542
       116  -9.8749     71.9657    212.0124   1.3483748813e+02   2.1634605937e+01    0.6584158    0.2740094  51.85  0.002914879    2.266    0.559
       117  -8.1767    224.6006    212.7126   1.0320305071e+02  -5.3631342739e+00     0.172786    0.1217281 -45.40 0.0008070687    1.620    0.383
       118  -9.3451    213.8429    212.0766   1.0514045244e+02  -3.4145667128e+00    0.3280458    0.2515648  58.63  0.001634231    1.694    0.410
       119  -8.9901    161.8218    212.5719   1.1579920253e+02   6.0294525378e+00    0.2535968    0.1867305 -75.20 0.0007416105    1.811    0.448
       120  -8.9460    204.3816    211.0285   1.0679693109e+02  -1.5631678868e+00    0.2692518    0.2139059 -69.61 0.0008069265    1.823    0.451
       121  -9.3955    175.4909    210.1671   1.1251244448e+02   3.9184580043e+00    0.3869251    0.2734932  87.33  0.001447776    2.414    0.586
       122  -7.4877    106.3300    212.6797   1.2767822419e+02   1.6058382450e+01    0.1460385   0.09526004  71.38 0.0005049633    1.691    0.409
       123  -8.1351      3.8575    212.1473   1.4804574251e+02   2.9753375317e+01    0.1369303    0.1099195 -83.62 0.0003982716    1.263    0.208
       124  -8.9114    147.7682    210.6763   1.1846693416e+02   9.0370994874e+00    0.2640917    0.2330199 -67.86 0.0008844313    1.227    0.185
       125  -8.8065    116.2768    210.6502   1.2524953699e+02   1.4775426221e+01    0.2971706    0.1990962  72.97 0.0008482444    1.714    0.417
       126  -8.3418     99.4086    210.9286   1.2891603466e+02   1.7593681033e+01    0.3012393    0.1375375  65.44  0.001039021    3.583    0.721
       127  -8.3192     85.7045    209.7508   1.3168175067e+02   2.0054983408e+01    0.2709633    0.1478267  87.62   0.00116021    2.490    0.598
       128  -8.9284    236.5042    208.3663   1.0017164409e+02  -6.6481241146e+00    0.2869744     0.231595 -72.71  0.001315276    2.106    0.525
       129  -8.0829    237.5167    204.4776   9.9244961848e+01  -6.1984031032e+00    0.1927407    0.1150302  27.91 0.0009246873    1.729    0.422
       130  -8.8247    137.7814    208.3995   1.2024352140e+02   1.1361161210e+01    0.4218178    0.2077534  35.58  0.001431579    2.145    0.534
       131  -9.0614     25.9470    208.6035   1.4369948171e+02   2.8254041373e+01    0.2250126    0.1441459 -78.76  0.000575424    1.303    0.232
       132  -9.3617    246.3503    207.4435   9.8219199706e+01  -8.0851209923e+00    0.2554913    0.2027954 -27.35  0.000588581    1.199    0.166
       133  -7.9436    126.4435    208.5265   1.2272408323e+02   1.3412560409e+01    0.1430865    0.1246153  67.42 0.0002145519    1.065    0.061
       134  -9.2162     99.3978    206.0150   1.2823724938e+02   1.8666450629e+01    0.4037951    0.2308489  83.45  0.001416017    2.535    0.605
       135  -8.9616     79.7809    206.4705   1.3252650446e+02   2.1690436066e+01    0.2529283    0.1804233  63.44 0.0007421235    1.277    0.217
       136  -8.6844     56.6299    205.5661   1.3728917931e+02   2.5196788436e+01      0.33064    0.1519518  65.86  0.001425932    2.592    0.614
       137  -7.8501     51.2897    206.3158   1.3846651475e+02   2.5731980210e+01    0.1143579   0.09326273 -51.12 0.0002537777    1.593    0.372
       138  -9.2611     12.8256    204.2385   1.4584833959e+02   3.0557773554e+01    0.3080758    0.1738758 -79.82  0.001225372    1.413    0.292
       139  -9.5548    194.9544    203.3600   1.0725126077e+02   1.5229228494e+00     0.430521    0.2820209 -48.75  0.001318415    1.693    0.409
       140  -9.4132    192.4929    197.3631   1.0660893147e+02   3.0970653623e+00    0.3987014    0.2687796 -55.33  0.001307148    1.774    0.436
       141  -9.1419    183.6108    203.9174   1.0968499590e+02   3.5586681264e+00    0.3011924    0.2425643  72.74 0.0008453802    1.594    0.373
       142  -8.6508    179.0369    203.9934   1.1065179589e+02   4.4147460083e+00    0.2498014    0.1924879  40.68 0.0004613107    1.213    0.176
       143  -8.7372    131.3148    204.4173   1.2100407143e+02   1.3391305223e+01      0.31994    0.2067212  71.36  0.001116218    1.987    0.497
       144  -8.1852    109.0288    205.2659   1.2602720936e+02   1.7197379749e+01    0.2037746    0.1414583  86.54 0.0007095923    1.652    0.395
       145  -9.6287    163.7491    203.0948   1.1372522698e+02   7.5204560288e+00    0.4078368    0.2704571  64.24 0.0009404001    1.907    0.476
       146  -8.3928    122.1273    204.1469   1.2297981108e+02   1.5125985385e+01    0.1986232     0.189587  32.86 0.0004394422    1.206    0.171
       147  -9.4276    250.1043    201.9609   9.6507726847e+01  -7.8320835662e+00    0.3691065     0.172404 -36.51  0.001326162    2.008    0.502
       148  -9.0077    140.5927    201.4312   1.1846621033e+02   1.2289006954e+01    0.3454855    0.2297576 -89.93  0.001369184    2.252    0.556
       149  -9.1007    243.0140    200.9443   9.7569872819e+01  -6.5368927772e+00    0.2882206    0.1733589 -43.93 0.0009306913    1.784    0.439
       150  -8.1731    210.9796    202.0238   1.0379702120e+02  -1.1916197545e+00     0.200992    0.1716886 -85.61   0.00057071    1.687    0.407
       151  -8.6057     79.7154    201.3870   1.3189058302e+02   2.2835349860e+01     0.307025    0.1558014  71.55  0.001229576    2.765    0.638
       152  -7.9549    222.0021    201.2423   1.0151530243e+02  -3.0248801642e+00     0.184577    0.1491915 -58.68 0.0007635622    1.621    0.383
       153  -9.3305    149.5318    198.6581   1.1601655070e+02   1.1163767093e+01    0.4225056    0.2843436 -86.17  0.001041254    2.282    0.562
       154  -8.8708    124.0244    199.4386   1.2180424056e+02   1.5801539784e+01    0.3004603    0.2072449  87.74  0.001106001    1.840    0.457
       155  -9.1052    112.9961    198.5646   1.2412724523e+02   1.7978111691e+01       0.4745    0.2599156  71.01   0.00180823    2.844    0.648
       156  -8.9407     88.8827    199.0056   1.2956124437e+02   2.1942922541e+01    0.3352525    0.1996101  74.96   0.00152906    2.039    0.510
       157  -8.1534     29.5165    200.5626   1.4230669344e+02   2.9613103979e+01    0.1232174   0.09430075  83.52 8.588307e-05    1.019    0.019
       158  -8.7514    236.9314    198.6799   9.8231111358e+01  -5.1665269863e+00    0.2537172    0.1798127 -42.00 0.0008944461    1.478    0.323
       159  -8.4154    177.2045    199.1862   1.1014185578e+02   5.6919362126e+00     0.192455    0.1689131  88.37  0.000462869    1.372    0.271
       160  -9.1101    105.5501    199.0343   1.2586284114e+02   1.9171974555e+01    0.2567771    0.1918678  49.99 0.0004084347    1.254    0.203
       161  -8.3290     44.6415    199.2735   1.3910513070e+02   2.8136268172e+01    0.1332946   0.07790155  68.03 0.0003042935    1.651    0.394
       162  -8.0268     21.7687    199.3723   1.4373726639e+02   3.0706162860e+01    0.1374202    0.1144754  29.99 0.0006590756    1.660    0.398
       163  -8.2477    202.1881    198.1152   1.0478606109e+02   1.1239256254e+00    0.1839321    0.1689341 -84.42 0.0005524213    1.366    0.268
       164 -10.0281     61.4915    197.1995   1.3531283675e+02   2.6418019163e+01    0.4155951    0.2168098  73.16  0.001494698    2.336    0.572
       165  -9.9239     53.0233    197.3123   1.3713620455e+02   2.7520480560e+01    0.2794417    0.2359831 -75.65  0.001801213    1.194    0.163
       166  -8.2952    133.0210    195.9926   1.1921574559e+02   1.4881103086e+01     0.228582    0.1681476  81.61 0.0005283357    1.643    0.391
       167  -8.9968    245.8772    193.9450   9.5695210408e+01  -5.8852696430e+00      0.29617    0.2450507 -75.61  0.001285194    1.955    0.489
       168  -8.6548    224.3111    194.1797   9.9694895713e+01  -2.2279208936e+00    0.2409614    0.1793451 -53.02 0.0009222904    1.629    0.386
       169  -8.9112    185.2534    194.8377   1.0762098950e+02   4.9730761491e+00     0.251133    0.2137245 -81.08 0.0006727283    1.489    0.328
       170  -8.6670    161.0870    194.5048   1.1272736972e+02   9.7757139231e+00     0.277582    0.2228101  81.36 0.0008676716    1.526    0.345
       171  -9.3187     44.1373    193.8388   1.3863936687e+02   2.9422232935e+01    0.4076518    0.2032578  74.91  0.001869484    2.366    0.577
       172  -7.9718    230.7285    194.3503   9.8524521456e+01  -3.3873966829e+00    0.1256908    0.1074727 -68.24 0.0004619127    1.629    0.386
       173  -8.7119     77.0283    194.0324   1.3150980641e+02   2.4911807993e+01    0.2161335    0.1729325  81.14 0.0004990968    1.122    0.109
       174  -8.6397      6.1476    194.2136   1.4636582509e+02   3.3352053539e+01    0.1653522    0.1323703 -82.39 0.0004856922    1.190    0.159
       175  -8.5282    240.2160    192.7976   9.6480813537e+01  -4.7554718132e+00    0.3829349    0.1362957  33.40  0.001289874    3.593    0.722
       176  -8.6874    215.8477    195.7302   1.0162336185e+02  -9.7318018446e-01    0.2432169     0.178747 -66.57 0.0007942959    2.060    0.515
       177  -8.2969    198.6795    191.5887   1.0421555674e+02   2.9945163874e+00    0.2408447    0.1300874 -43.48 0.0007244081    1.903    0.475
       178  -8.4286    179.4309    191.9229   1.0828231693e+02   6.6824433258e+00    0.1981983    0.1286917 -71.33 0.0007432378    2.495    0.599
       179  -8.5012    172.6432    192.0855   1.0976388795e+02   7.9899702427e+00    0.2265149    0.1840903 -72.83  0.001156267    1.496    0.331
       180  -9.0836    139.6431    190.9154   1.1683270594e+02   1.4721940134e+01    0.4057292    0.2589315  75.71  0.001282579    2.353    0.575
       181  -8.2994    117.9106    192.2913   1.2200461712e+02   1.8496293611e+01    0.2046582    0.1764925  55.67 0.0004903091    1.092    0.085
       182 -10.4693     91.9239    188.8772   1.2740866651e+02   2.3766323111e+01    0.8667468    0.3330329  54.17  0.003050818    3.149    0.682
       183  -7.7440    205.2774    191.6837   1.0290467890e+02   1.7181137530e+00     0.132441    0.1138934 -85.16 0.0002213982    1.570    0.363
       184  -8.4898     17.1141    191.5284   1.4399292923e+02   3.2904782967e+01    0.1570068    0.1076885  46.19   0.00101373    1.546    0.353
       185  -8.8748    249.1173    185.8092   9.3514905747e+01  -5.0976060892e+00    0.2379056    0.1716528 -34.38 0.0008066382    1.278    0.217
       186  -9.3529    155.9277    187.6155   1.1256629380e+02   1.2235851111e+01    0.3808269    0.2154424 -58.09 0.0009088159    2.041    0.510
       187  -8.3048    148.5735    189.2772   1.1452311870e+02   1.3335991918e+01    0.2343515    0.1743263  83.53 0.0006450778    1.738    0.425
       188  -8.8341    129.1722    188.6402   1.1880656589e+02   1.7224559405e+01    0.2993595    0.2153277  86.27  0.001033082    1.735    0.424
       189  -9.7571    120.9494    186.8635   1.2038603049e+02   1.9162175097e+01    0.5944092    0.3133729 -75.13  0.002130591    3.068    0.674
       190  -8.1674     71.0993    189.1064   1.3217601036e+02   2.6922328661e+01    0.1854743    0.1384164  71.89 0.0004037329    1.260    0.207
       191  -8.1618    237.0647    188.3493   9.6166811825e+01  -3.4753394491e+00    0.1831762     0.167918  -6.76 0.0006891813    1.054    0.051
       192  -8.8514    216.3466    187.8583   9.9959261667e+01   3.3523600784e-01    0.2445094    0.2082514 -66.00 0.0007546194    1.502    0.334
       193  -9.0913    191.3652    187.3658   1.0487664421e+02   5.2230246915e+00    0.3223471    0.2481007 -65.59  0.001223139    1.644    0.392
       194  -9.4108     54.7615    187.1610   1.3557689735e+02   2.9617958329e+01    0.3856057    0.2015968  73.36  0.001654534    2.348    0.574
       195  -8.4545     49.9747    188.3387   1.3677030253e+02   2.9957627216e+01    0.1755787    0.1486569  72.88 0.0003703675    1.111    0.100
       196  -8.4453     34.1279    187.9484   1.4014283117e+02   3.1925397629e+01    0.2804124    0.1391303  72.32  0.001327976    2.275    0.561
       197  -8.2483    230.4171    187.2889   9.7174754364e+01  -2.1271132189e+00    0.1850484    0.1243381 -46.72 0.0008138763    1.601    0.376
       198  -8.8834    182.9142    185.5712   1.0629006515e+02   7.2532685021e+00    0.3342594     0.203893 -40.30 0.0009839777    1.709    0.415
       199  -8.7924    164.7681    186.8893   1.1047053065e+02   1.0622564941e+01     0.257038    0.2030405 -72.95 0.0005010139    1.523    0.343
       200  -9.0509    109.5047    186.1155   1.2290981245e+02   2.1407747365e+01    0.3909148    0.2412197  83.26  0.001262038    2.338    0.572
       201  -8.7666     28.6426    187.1976   1.4122582690e+02   3.2693821998e+01     0.195612    0.1414393  61.70  0.000495224    1.304    0.233
       202  -9.0159    210.0711    184.2579   1.0045755125e+02   2.1764805915e+00    0.2341604     0.197152 -36.80  0.000532763    1.184    0.156
       203  -8.8384    202.7604    184.8824   1.0204368049e+02   3.4688712806e+00    0.2509967     0.197781 -59.98 0.0006007556    1.527    0.345
       204  -9.0540     66.3924    184.6128   1.3263966865e+02   2.8639603818e+01    0.3008846    0.1816464  73.58  0.001034294    1.852    0.460
       205  -8.3700    224.0197    183.5312   9.7612433581e+01  -3.1027853893e-01    0.2141607    0.1748389 -33.88 0.0004001245    1.184    0.155
       206  -8.9726    174.2714    183.6387   1.0775552611e+02   9.3817585356e+00    0.3041991    0.2368759  88.74 0.0009175828    1.743    0.426
       207  -8.9353    241.2253    182.0940   9.4158438851e+01  -3.1382854005e+00    0.3603407    0.2284809 -61.76  0.001598593    2.668    0.625
       208  -9.3669     44.2372    182.3401   1.3733660688e+02   3.2046252436e+01    0.3305762    0.1843877  84.46  0.001076984    1.927    0.481
       209  -7.9536      1.7497    183.7701   1.4642794361e+02   3.6013812620e+01    0.1644523   0.06648239  46.08  0.000870948    2.406    0.584
       210  -8.2560     60.1767    182.1683   1.3373147333e+02   3.0065111551e+01    0.1853596      0.13552  72.91 0.0003762765    1.302    0.232
       211  -7.8026    235.2832    181.6501   9.5138813639e+01  -2.0184940528e+00    0.1304008     0.107857 -67.40 0.0006394597    1.652    0.395
       212  -9.1357    147.4562    180.6145   1.1313135217e+02   1.5439426929e+01    0.3388192    0.2516651  78.17 0.0009078261    1.695    0.410
       213  -9.3833     25.6576    179.0713   1.4104880417e+02   3.4852857554e+01    0.6009695    0.2373867  80.13  0.002054181    4.571    0.781
       214  -8.6446    137.8513    179.7140   1.1516880249e+02   1.7545296891e+01    0.2827582    0.1938896 -87.89  0.001206908    2.056    0.514
       215  -8.0083    114.5431    180.5081   1.2077084704e+02   2.1793446634e+01     0.149698    0.1334324  79.26 4.515955e-05    1.063    0.059
       216  -9.4081    191.5475    178.4857   1.0303130531e+02   6.9286275776e+00    0.3127398    0.2584959  81.24 0.0006512981    1.561    0.359
       217  -9.0141     35.8122    176.7277   1.3856749465e+02   3.4315406000e+01    0.5017796    0.2069727  82.73  0.001642309    4.713    0.788
       218  -9.5013    248.3270    176.7623   9.1829078668e+01  -3.4609416609e+00    0.4316142    0.2764379 -51.25  0.001828826    1.831    0.454
       219  -8.6448    250.5072    172.8947   9.0666314699e+01  -3.1820654494e+00    0.1959943    0.1765598 -40.08  0.000592067    1.181    0.153
       220  -8.8608    205.0205    177.7670   1.0012656920e+02   4.3790259626e+00    0.2682977    0.1809462 -53.64  0.001133504    1.691    0.409
       221  -8.4166    129.1411    177.2512   1.1673711535e+02   1.9799897478e+01    0.2796266    0.1892055 -85.63 0.0006973181    2.014    0.503
       222  -7.8360    101.4558    178.4734   1.2351953287e+02   2.4591788215e+01    0.2140593    0.1272632  51.69 0.0001007486    1.679    0.404
       223  -8.1195     97.8047    177.5886   1.2424036749e+02   2.5424151167e+01    0.2173185    0.1413249  40.96 0.0008154787    1.568    0.362
       224  -8.4624    231.2130    176.9775   9.4925769434e+01  -4.6636486060e-01    0.2464453     0.147651 -46.14 0.0007423479    1.721    0.419
       225  -8.3002    217.4105    177.2602   9.7584315938e+01   2.0664935443e+00    0.1935703    0.1309639 -49.19 0.0005344157    1.588    0.370
       226  -9.1183    183.1359    176.2256   1.0433715412e+02   9.0938999259e+00    0.2937301    0.2364288 -59.38 0.0005048005    1.379    0.275
       227  -8.6580     89.0125    176.8927   1.2622313404e+02   2.7044326530e+01    0.3039997    0.1843643  76.18  0.001080282    2.164    0.538
       228  -9.5100     58.3258    174.9957   1.3320367082e+02   3.1999786253e+01    0.4910751    0.2442409  83.09  0.001877997    3.143    0.682
       229  -9.1187     55.6883    171.0103   1.3328021755e+02   3.3287555316e+01     0.378648    0.1907775 -82.98  0.001590914    2.320    0.569
       230  -8.7549     12.8807    176.7231   1.4355172183e+02   3.6612208256e+01    0.2356341    0.1185097  78.11  0.000759465    2.039    0.510
       231  -9.4238    158.7671    175.1423   1.0947314877e+02   1.4339491526e+01    0.3851516    0.2725465  84.52 0.0009931951    2.083    0.520
       232  -9.3585    104.3640    174.8430   1.2220069885e+02   2.4939248704e+01    0.5352035    0.2823393  67.47  0.001753554    3.045    0.672
       233 -10.6771     75.8622    170.1971   1.2832293349e+02   3.0682876878e+01      1.23739    0.4553415 -73.43  0.003567034    4.770    0.790
       234  -8.1468    224.4779    174.4987   9.5663744983e+01   1.2299052256e+00      0.13897    0.1316137 -23.37 0.0004147645    1.066    0.062
       235  -9.5133    175.6736    172.2955   1.0512727349e+02   1.1446782737e+01    0.3812233    0.2631037 -44.28   0.00107525    1.474    0.322
       236  -8.1983    142.8222    172.8131   1.1266762376e+02   1.8104397696e+01    0.2108424    0.1765191  86.22 0.0005801513    1.325    0.245
       237  -8.3530    194.6361    172.3064   1.0109695178e+02   7.5297550634e+00    0.1503911    0.1191719  85.84 0.0007038083    1.742    0.426
       238  -8.5807    134.5094    172.0688   1.1447384344e+02   1.9933866585e+01    0.2330708    0.2184569   9.17 0.0005871493    1.236    0.191
       239  -9.4830    121.3843    170.6475   1.1733292859e+02   2.2809311298e+01    0.4006118    0.2801162 -83.67  0.001148508    1.785    0.440
       240  -9.1528     44.7873    170.9669   1.3583240129e+02   3.4639369600e+01    0.3204744    0.1766459 -88.73  0.001537952    1.951    0.487
       241  -9.0564    230.6926    170.3311   9.3638702910e+01   8.1745345926e-01    0.2813115    0.1752993 -31.68 0.0008143128    1.574    0.365
       242  -8.6818    205.8164    170.5073   9.8440784117e+01   5.6175220353e+00    0.2882211    0.1880443 -58.38  0.001012912    1.918    0.478
       243  -8.8024     20.0288    170.6322   1.4141523164e+02   3.7337054239e+01    0.1606769    0.1370656  75.11 0.0005549838    1.175    0.149
       244  -8.3435    237.1826    169.8840   9.2370888932e+01  -3.0190126331e-01    0.2020378    0.1796404 -50.95 0.0005036409    1.241    0.194
       245  -8.5455    198.5948    170.3017   9.9856986530e+01   7.1196549100e+00    0.2238976    0.1789663 -79.54 0.0008939994    1.681    0.405
       246  -9.2451    167.3940    168.8659   1.0623337269e+02   1.3903503985e+01    0.4069094    0.2757788  75.82  0.001111444    2.231    0.552
       247  -8.3969    149.8455    169.7339   1.1041044754e+02   1.7363412654e+01    0.2810266     0.197504 -82.04 0.0007753775    1.983    0.496
       248  -9.2286    111.5157    168.0335   1.1923368039e+02   2.5264060171e+01    0.4538181    0.2463854 -54.52  0.001927524    1.809    0.447
       249  -8.7207     39.6752    170.4387   1.3695144448e+02   3.5351965058e+01    0.2050203    0.1173813  40.80 0.0002912569    1.862    0.463
       250  -7.9488     88.6180    168.7609   1.2497744737e+02   2.9044436580e+01    0.2019271    0.1282917 -73.89 0.0006712358    1.644    0.392
       251  -8.3697    218.7225    168.2922   9.5447313301e+01   3.4807444274e+00    0.2150365    0.1770386 -59.02 0.0007487607    1.398    0.285
       252  -8.8445    191.9680    166.6879   1.0045229509e+02   9.2083266710e+00    0.2823283    0.2128099 -53.05 0.0006141062    1.406    0.289
       253  -8.9611    184.9636    166.5289   1.0189621570e+02   1.0704707434e+01    0.2882594    0.2077658 -61.25 0.0006967676    1.630    0.386
       254  -8.1513    140.6498    166.3113   1.1186330458e+02   2.0015187975e+01    0.2171864    0.1554499  58.87 0.0008256083    1.483    0.325
       255  -9.6625    135.6492    163.9445   1.1257003924e+02   2.1568721335e+01    0.5089491    0.3185028  70.27 0.0008803246    2.302    0.566
       256  -9.2414     20.7521    166.5479   1.4082569315e+02   3.8207738667e+01    0.3235725    0.1470214  60.60 0.0009681471    2.564    0.610
       257 -10.1976     94.9253    162.8426   1.2237912610e+02   2.9421838949e+01    0.8474668    0.4739276  82.95  0.002908465    3.464    0.711
       258  -8.1683    234.0105    165.0231   9.1919039138e+01   1.1530602010e+00    0.2084847    0.1687999 -68.55 0.0005490627    1.609    0.379
       259  -8.6659    159.3886    164.2314   1.0705909758e+02   1.6594674440e+01    0.2975087    0.2264916 -86.35 0.0008388703    1.716    0.417
       260  -9.4312     63.1487    164.6370   1.3056633849e+02   3.3824554547e+01    0.4289427    0.2364611  56.84  0.001578446    2.019    0.505
       261  -8.6862     60.5103    160.4881   1.3058671327e+02   3.5173759566e+01    0.3014475    0.2030122 -63.80  0.001338805    1.318    0.241
       262  -9.4824     33.5415    163.5022   1.3753192145e+02   3.7646980414e+01    0.4987773    0.2021833  58.37  0.002005945    3.299    0.697
       263  -8.2074    239.9802    164.2411   9.0693759308e+01   1.8535691371e-01    0.1887212    0.1704476 -27.29 0.0005878459    1.025    0.025
       264  -9.1128    246.0219    163.0442   8.9396438129e+01  -7.0177405243e-01    0.2090164    0.1848854 -24.78 0.0004679724    1.011    0.011
       265  -8.6483    204.8497    163.0014   9.7020820469e+01   7.2787091683e+00    0.2244982    0.1982299 -70.44  0.000487879    1.303    0.233
       266  -8.2566    127.3685    162.8862   1.1435661811e+02   2.3462240931e+01    0.2203781    0.1865654  67.91 0.0007844716    1.206    0.171
       267  -9.0913      3.2568    162.2720   1.4429004238e+02   4.0676494610e+01    0.3489461    0.1549855  61.76  0.001685012    2.565    0.610
       268  -8.8816    177.5441    160.6811   1.0222653284e+02   1.3499852353e+01    0.2954169    0.2419487 -71.53 0.0009093002    1.419    0.295
       269  -8.6701    151.7161    160.9658   1.0813438640e+02   1.8935111218e+01    0.2831247    0.2098848 -70.52 0.0007829217    1.589    0.371
       270  -7.6618    242.2928    160.2909   8.9459124475e+01   4.6099126115e-01    0.1358148    0.1032365  -3.38 0.0001877635    1.550    0.355
       271  -8.4681    227.2223    159.0775   9.1882497489e+01   3.5390099198e+00    0.2611662    0.1855936 -55.36  0.001013503    1.592    0.372
       272  -8.9417     84.5181    159.5344   1.2440379857e+02   3.1918920214e+01    0.2726182    0.2231879 -85.52   0.00053431    1.187    0.158
       273  -9.9079     81.5309    154.8400   1.2432953212e+02   3.3520767103e+01    0.4856501    0.3024594  78.14  0.001533282    2.216    0.549
       274  -8.7215    212.9803    163.7917   9.5589377826e+01   5.4724819578e+00    0.2551943    0.2015719 -42.25 0.0005975072    1.235    0.190
       275  -8.2859    128.0349    159.0011   1.1339773735e+02   2.4237104982e+01    0.2529559    0.1847434  84.43  0.001060426    1.752    0.429
       276  -9.7982    105.6532    158.0861   1.1878935519e+02   2.8693778589e+01    0.4486502     0.301854  84.06  0.001054603    2.004    0.501
       277  -8.4081    196.6514    158.1155   9.7610565546e+01   9.9615474364e+00    0.2331885    0.1818844 -59.23 0.0005865255    1.422    0.297
       278  -8.4188    188.0033    157.8237   9.9347549356e+01   1.1860108441e+01    0.2700786     0.191168 -58.49 0.0006151184    1.596    0.373
       279  -9.2038    167.5546    157.5209   1.0374606680e+02   1.6322626948e+01     0.351009    0.2662995  84.93   0.00141018    1.757    0.431
       280  -8.7146    144.9740    155.8563   1.0862357534e+02   2.1504523318e+01    0.4504133     0.223806 -63.35  0.001504173    2.926    0.658
       281  -9.5867    250.2018    157.8964   8.7614255081e+01  -5.5452458487e-01    0.3206705    0.1717508 -40.79 0.0008315151    1.680    0.405
       282  -9.1374     42.4240    157.4519   1.3461201623e+02   3.8111668552e+01    0.2202232     0.191936 -89.82 0.0005534262    1.074    0.069
       283  -8.4326    217.8931    156.5499   9.3072137555e+01   5.8689213354e+00    0.2915465     0.178862 -55.22  0.000893064    1.914    0.478
       284  -8.6288    157.5420    156.3440   1.0577319645e+02   1.8731454017e+01    0.2733758    0.2180516 -74.03 0.0009361509    1.448    0.309
       285  -9.2902     99.2966    156.0609   1.2000858102e+02   3.0303180562e+01    0.4652815    0.2586691  62.36  0.001710442    2.421    0.587
       286  -9.2210    119.3144    155.2130   1.1477513844e+02   2.6832359676e+01    0.3795484    0.2534415 -75.60   0.00123853    1.865    0.464
       287  -9.2814     49.5844    155.2465   1.3252287493e+02   3.7807017235e+01    0.3737473    0.2074028  77.13  0.001641672    2.452    0.592
       288  -8.2270    242.6843    154.7117   8.8209648262e+01   1.3814384261e+00    0.1959129     0.120866 -46.15 0.0004493494    1.567    0.362
       289  -8.2465    239.7322    153.3452   8.8424646664e+01   2.1814880189e+00    0.2052534    0.1454522  51.19 0.0003108385    1.591    0.372
       290  -8.0927    204.5534    155.4931   9.5431538360e+01   8.8235319758e+00    0.1478581    0.1425288 -32.39 0.0001689359    1.011    0.010
       291  -9.6775     67.9270    154.2200   1.2771214718e+02   3.5676057590e+01    0.3830542    0.2330464  75.26  0.001186061    2.179    0.541
       292  -9.7257    132.8422    152.9423   1.1093337800e+02   2.4682712894e+01    0.4497145    0.3249389 -83.79  0.001195716    1.799    0.444
       293  -9.2096    133.5863    148.2150   1.0971458494e+02   2.5627873114e+01    0.3404277    0.2814023 -42.50  0.001247789    1.253    0.202
       294  -8.5183    151.6580    152.5796   1.0631461855e+02   2.0831897983e+01    0.2822172    0.1456445 -48.84  0.001084224    1.946    0.486
       295  -8.9702     20.0384    152.9717   1.3946673013e+02   4.1415098050e+01    0.1984439    0.1242513  76.80 0.0006355067    1.657    0.396
       296  -9.7869     29.1975    150.6585   1.3695450180e+02   4.1104046354e+01    0.4908039    0.2322712  76.33  0.001956291    3.359    0.702
       297  -9.6072    248.8654    149.4301   8.6050950151e+01   1.1728210750e+00    0.3850282    0.1849352 -44.61 0.0007537068    1.935    0.483
       298  -9.3045    246.9940    144.0248   8.5205801351e+01   2.4807156571e+00    0.2150615    0.1813565 -34.94  0.000584437    1.064    0.060
       299  -8.8380    243.1762    149.9307   8.7105734853e+01   2.1446666537e+00    0.2909091    0.1642049 -42.26 0.0009122569    1.615    0.381
       300  -8.8252    189.3553    150.3014   9.7374672596e+01   1.3125906697e+01    0.2979502    0.2206759 -59.10 0.0007441423    1.493    0.330
       301  -7.8291    182.4907    151.4778   9.9100584078e+01   1.4375594141e+01    0.1538735    0.1485175 -81.60 5.997687e-05    1.064    0.060
       302  -8.1809    162.5617    150.7997   1.0337721513e+02   1.8874880094e+01     0.219321    0.1475409 -59.79 0.0009324457    1.664    0.399
       303  -8.8803     98.0799    150.5764   1.1924877083e+02   3.1833371407e+01    0.2894659    0.1988448 -74.88 0.0008004519    1.615    0.381
       304  -8.1893    212.8192    149.8394   9.2556619771e+01   8.2066217232e+00    0.1973189    0.1692402 -66.02 0.0002608627    1.302    0.232
       305 -10.9311     54.7080    145.2824   1.2965328904e+02   3.9573497620e+01    0.8824523    0.4896162 -81.20   0.00320901    2.110    0.526
       306 -10.2939     61.5491    135.8172   1.2616338292e+02   4.0973710735e+01    0.6298712    0.2530728  38.89  0.001629032    2.648    0.622
       307 -11.1244     69.1230    142.0949   1.2526855396e+02   3.8436645143e+01    0.6945351    0.4758869 -65.26  0.002444486    1.332    0.249
       308 -10.3737     72.2378    134.1482   1.2290187960e+02   3.9903296595e+01    0.6467133    0.2858713  31.72  0.002598501    2.654    0.623
       309 -10.2652     73.1461    129.6326   1.2173720375e+02   4.0849773457e+01    0.5028317    0.3146036 -77.98  0.001608126    1.985    0.496
       310  -8.6652      2.8420    150.0111   1.4319219155e+02   4.3478387716e+01    0.2042432    0.1062327  79.00   0.00107693    2.062    0.515
       311  -8.4301    198.7776    148.7843   9.5087305716e+01   1.1395993079e+01    0.2032682    0.1758014 -76.11 0.0003665938    1.325    0.245
       312 -10.2928     89.0115    146.6487   1.2084320946e+02   3.4308687142e+01    0.6837528    0.4331465 -77.97  0.002571931    1.916    0.478
       313 -10.0147     39.7085    147.8055   1.3392603426e+02   4.0703547625e+01    0.4847078    0.2344809  65.08  0.001979017    3.118    0.679
       314  -8.7045    233.3946    147.6324   8.8292075966e+01   4.4478874608e+00    0.2764938    0.1624828 -37.41 0.0007352279    1.586    0.370
       315  -9.5183    223.5981    144.6628   8.9387671903e+01   6.9724438816e+00    0.4421078    0.2214909 -39.69  0.001064779    1.878    0.468
       316 -10.2370    148.9583    145.0217   1.0524686575e+02   2.3116462788e+01    0.5644469    0.3791514 -88.23  0.001844441    2.419    0.587
       317 -10.1508    139.0367    145.2626   1.0770797357e+02   2.5175853500e+01    0.7967129    0.2999243 -56.09  0.002415849    3.302    0.697
       318 -10.0706    106.4217    144.3772   1.1580301036e+02   3.1833683064e+01    0.6738911    0.4066192  79.09  0.001920279    3.044    0.672
       319  -8.5076    104.4904    139.4400   1.1525096821e+02   3.3363050084e+01    0.2658983    0.2190108   1.68  0.000765636    1.607    0.378
       320  -8.8318     77.9623    146.9673   1.2381928189e+02   3.5971112685e+01    0.2315318     0.163586  81.14 0.0006321124    1.696    0.411
       321  -9.1490     13.2609    145.9471   1.4027439549e+02   4.3612756332e+01    0.3401524    0.1894789  75.63   0.00163706    2.043    0.510
       322  -9.1453    240.4236    145.4960   8.6616715953e+01   3.4690033572e+00    0.2393836    0.1893319 -32.17 0.0004866217    1.178    0.151
       323  -7.9841    206.7904    146.6094   9.2998960546e+01   1.0113485647e+01    0.2020259    0.1435026  61.00   0.00054795    1.629    0.386
       324  -7.9528    175.4268    146.2390   9.9440264000e+01   1.7040221804e+01    0.2159639    0.1458939 -57.17  0.000444408    1.621    0.383
       325  -9.4054     32.7971    145.0881   1.3529771686e+02   4.2062063022e+01    0.3474055    0.1638141  56.47  0.001552929    2.718    0.632
       326  -9.6458    124.9929    142.7107   1.1064319304e+02   2.8658213240e+01    0.5040092    0.3267821 -79.87  0.001420044    2.308    0.567
       327  -7.6465    194.6058    144.3056   9.4914510493e+01   1.3213928610e+01    0.1604253    0.1213163 -88.50 0.0007007247    1.823    0.451
       328  -8.8711    165.5191    144.0347   1.0114876689e+02   1.9710797223e+01    0.2782944    0.2191811  69.93  0.000565031    1.453    0.312
       329  -9.3725      2.8269    142.0722   1.4236050531e+02   4.5278748326e+01    0.3147408    0.1648197  76.35  0.001656953    2.184    0.542
       330  -9.2965    242.6814    143.3168   8.5766212324e+01   3.4285218010e+00     0.226236    0.1590158 -49.16 0.0006408704    1.387    0.279
       331  -8.4256    182.0255    141.9722   9.7013860536e+01   1.6481368764e+01    0.2466062    0.1909045 -84.14 0.0006030033    1.674    0.403
       332  -8.7484    250.3054    141.0330   8.4029569250e+01   2.3897724747e+00    0.2008701    0.1605418 -39.89 0.0005234831    1.111    0.100
       333  -8.5855    133.8628    140.2729   1.0784904406e+02   2.7408404756e+01    0.3130082    0.1734897 -61.11  0.001181203    2.148    0.534
       334  -8.9798     45.7456    140.6550   1.3126341229e+02   4.1741218125e+01    0.2985744    0.1644688  46.04  0.001480949    2.017    0.504
       335  -9.7806     23.4550    138.3204   1.3675224853e+02   4.4524690273e+01    0.4906958    0.2475636  70.47  0.001943619    2.894    0.655
       336  -8.6245     18.7145    139.4088   1.3811126815e+02   4.4677774009e+01    0.2067574    0.1118859  34.88  0.001135772    2.141    0.533
       337  -8.6710    172.1171    138.2028   9.8292749879e+01   1.9503051684e+01    0.2877708    0.1990627 -71.68 0.0005970643    1.946    0.486
       338  -7.5904    218.6979    138.7047   8.8946863452e+01   9.1305396320e+00     0.144614     0.115933   1.46 0.0002143792    1.576    0.366
       339  -8.3159    207.4629    137.9957   9.0901326386e+01   1.1675925228e+01    0.2288351    0.1422928 -44.37 0.0005703947    1.543    0.352
       340  -8.6046    197.5898    137.5968   9.2753796203e+01   1.3923063318e+01    0.2945491    0.2093779 -74.59 0.0008990353    1.943    0.485
       341  -8.7600    114.2187    138.2100   1.1241343869e+02   3.1834529914e+01    0.2172295    0.1790624  84.80 0.0005145718    1.370    0.270
       342  -8.9147     92.3897    137.5280   1.1808256262e+02   3.5940461661e+01    0.4664411    0.1817922  41.36  0.001706071    2.654    0.623
       343 -10.4361     83.2557    133.4289   1.1971364009e+02   3.8411646075e+01    0.6193854    0.3732207 -58.60  0.001830136    1.552    0.356
       344  -9.5178     39.0785    136.1268   1.3231630233e+02   4.3540342216e+01    0.2756243    0.1771483  81.77 0.0008552441    1.858    0.462
       345  -8.9434    250.7313    130.1371   8.1626065150e+01   4.2390029686e+00    0.4217321    0.1141191 -36.85  0.001316395    3.671    0.728
       346  -9.3409    248.3514    135.3574   8.3124101852e+01   3.7679667270e+00    0.3458803    0.2077859 -44.78 0.0007076539    1.505    0.336
       347  -8.6488    246.9636    130.2813   8.2246564481e+01   4.9423548959e+00    0.2463027    0.1673689 -47.30  0.000670432    1.351    0.260
       348  -7.9026    162.5013    136.4826   1.0005957836e+02   2.2035461376e+01    0.1584708    0.1516085 -85.10 0.0008099713    1.048    0.046
       349  -8.2856    237.5564    133.7718   8.4537284999e+01   6.1715681086e+00    0.2070581    0.1229686 -49.41 0.0009438387    1.647    0.393
       350  -8.6763    179.4204    133.8220   9.5647382822e+01   1.8785301547e+01    0.2982581    0.1463705 -48.71 0.0008499122    2.076    0.518
       351  -9.1387    112.8409    133.4362   1.1169074639e+02   3.3221780912e+01    0.3507492    0.2493066  81.55  0.001052093    1.948    0.487
       352  -7.8216    231.4689    133.5509   8.5517951749e+01   7.4474219234e+00    0.1436873    0.1327949 -39.97 2.350449e-05    1.015    0.014
       353  -9.9366    132.3221    131.5743   1.0618994158e+02   2.9729155436e+01    0.4532363    0.3089615 -74.15  0.001006709    1.967    0.492
       354 -10.3144     98.1605    130.3350   1.1494077861e+02   3.6656675493e+01     0.654451    0.2757111 -56.31  0.001749018    2.383    0.580
       355  -9.0165    143.0260    131.7066   1.0354630136e+02   2.7408152309e+01    0.3146356    0.2461395 -69.21 0.0006333386    1.433    0.302
       356 -10.5070     60.4940    125.9254   1.2456506771e+02   4.3465393282e+01    0.7805081    0.4418067  82.70  0.002890876    3.538    0.717
       357  -8.5354     31.0836    130.8136   1.3363522813e+02   4.5583838015e+01    0.1912071      0.15369  85.55 0.0006197533    1.269    0.212
       358 -10.0657     12.9933    129.4725   1.3827588963e+02   4.7419993069e+01    0.4146649    0.2195715  71.68  0.001725815    2.571    0.611
       359  -7.9286    220.5119    130.4618   8.6741533723e+01   1.0325895935e+01     0.147652    0.1376863 -52.01 0.0001957673    1.027    0.026
       360  -8.0862    204.6865    130.3572   8.9660596203e+01   1.3800038223e+01    0.2289464    0.1736575 -76.93 0.0005608167    1.670    0.401
       361  -7.8236    192.7079    130.3284   9.2026199558e+01   1.6494694461e+01    0.1573004    0.1204822 -76.45 0.0002572533    1.624    0.384
       362  -9.0331    168.3501    129.6598   9.7079392341e+01   2.2190702520e+01    0.3266892    0.2455931 -80.21 0.0007661612    1.722    0.419
       363  -9.4900    152.8799    129.0094   1.0050207797e+02   2.5832968388e+01    0.4118293     0.226992 -52.46 0.0007556338    1.903    0.474
       364  -7.9355      1.4704    129.9863   1.4132277210e+02   4.8101995800e+01     0.164062   0.08222533  83.68 0.0008068978    2.365    0.577
       365  -7.9016    211.5099    129.0452   8.8060266464e+01   1.2550498619e+01    0.2132947    0.1219259 -61.28 0.0006063542    2.380    0.580
       366 -10.8123     44.9217    123.7141   1.2858189500e+02   4.5841134529e+01     1.032326    0.5480608  82.99  0.003768463    3.938    0.746
       367  -9.9949    117.8716    125.5488   1.0848964830e+02   3.4071100985e+01    0.4795155    0.3335603  86.70  0.001343624    2.178    0.541
       368  -8.2182    228.5540    125.7514   8.4262976274e+01   9.5076986240e+00    0.2121134    0.1254074 -51.34  0.000934478    1.701    0.412
       369 -10.3248     28.8621    122.9089   1.3298565688e+02   4.7627555964e+01    0.6817694    0.3597765  74.01  0.002878731    3.260    0.693
       370  -8.8976    179.3786    124.8738   9.3486429521e+01   2.0668864726e+01    0.2960592    0.2391471 -86.99 0.0006785776    1.478    0.323
       371  -8.5544     84.5053    123.5447   1.1721704570e+02   4.0554766005e+01     0.448478    0.2444782 -26.53  0.001553685    3.479    0.713
       372  -7.9736    243.7022    124.6787   8.1538954421e+01   6.5913816019e+00    0.1369693    0.1091316  -4.62 0.0003351872    1.621    0.383
       373  -7.6091    188.6421    124.2826   9.1400737647e+01   1.8655282615e+01    0.1592611    0.1217671 -86.64 0.0004136521    1.669    0.401
       374  -9.8406    131.0547    118.8395   1.0336638467e+02   3.2871265949e+01    0.5997149    0.3944495  87.17   0.00221021    2.726    0.633
       375  -8.3774    172.0506    121.8225   9.4321807924e+01   2.3001659064e+01    0.2379272    0.2064266 -83.48 0.0004852774    1.263    0.208
       376  -9.1909    158.4586    121.5728   9.7337169332e+01   2.6188517435e+01    0.3293814     0.257379 -77.32 0.0008704751    1.548    0.354
       377  -8.9185     99.8563    120.0819   1.1207939818e+02   3.8749257093e+01    0.4026373    0.2498012   4.79  0.001388957    3.555    0.719
       378  -9.5485     70.9010    119.9853   1.2033400201e+02   4.3449240344e+01    0.3168625    0.2217642  80.89  0.001099963    2.000    0.500
       379  -9.6692    141.5921    118.6099   1.0064223078e+02   3.0632899751e+01    0.4482235    0.2965147 -71.40  0.001129776    2.126    0.530
       380  -8.8255     21.1502    118.8601   1.3450162735e+02   4.9216288342e+01    0.1846996    0.1481382 -84.75 0.0005629039    1.226    0.185
       381  -9.9088      3.1698    117.7431   1.3932510226e+02   5.0744266876e+01    0.3739951    0.2056011  70.28  0.001831854    2.440    0.590
       382 -10.0573    109.2497    114.1497   1.0799578508e+02   3.8351990357e+01    0.5484864    0.3352648 -69.26  0.001278206    2.336    0.572
       383  -7.9457    185.6825    116.2978   9.0046153425e+01   2.0961375522e+01    0.1583031    0.1212822 -81.17 0.0002420361    1.613    0.380
       384  -9.3085    250.1210    115.1497   7.8478574933e+01   7.0053962325e+00    0.2166057    0.1910437 -54.54  0.000901948    1.043    0.041
       385  -8.1012    193.0056    115.5161   8.8377488079e+01   1.9409846026e+01    0.2178112    0.1525328  55.62 0.0004573587    1.470    0.320
       386 -10.0036     78.8398    112.5203   1.1630704982e+02   4.3999829558e+01    0.5280461    0.3626384  86.56  0.001950301    2.275    0.561
       387  -9.3889     36.4415    115.1163   1.2945103471e+02   4.8713918860e+01    0.2228449     0.185519  45.85 0.0006967621    1.407    0.289
       388  -7.8893    167.2319    114.6168   9.3571154569e+01   2.5627716048e+01     0.217361    0.1476723  41.98 0.0007740671    1.549    0.354
       389 -10.2594    133.9792    109.7263   1.0025068400e+02   3.4233923959e+01    0.7861453    0.3180909 -50.65   0.00241543    2.673    0.626
       390 -10.0566     92.6331    112.3857   1.1224762471e+02   4.1781632518e+01    0.5143378    0.3047785 -65.24  0.001423463    2.071    0.517
       391  -9.7856     14.3427    112.0529   1.3536094102e+02   5.1276398779e+01    0.3493901    0.1874477 -78.48  0.001833885    1.873    0.466
       392  -9.4346      8.8863    110.1101   1.3662732245e+02   5.2084623800e+01    0.3128515    0.1416573  40.88  0.001612634    2.729    0.634
       393  -9.8497    121.9334    112.4604   1.0411542372e+02   3.6197824193e+01    0.3807294    0.2912054 -60.80 0.0009068229    1.397    0.284
       394  -8.3936    174.8080    112.1169   9.1276312667e+01   2.4362597506e+01     0.240823    0.2057532 -70.85 0.0004631016    1.243    0.195
       395  -8.4865    159.2141    111.9001   9.4688815666e+01   2.8063122893e+01    0.2406427    0.2059264 -73.80 0.0005576974    1.270    0.213
       396 -10.2302     66.3879    110.5746   1.1956324624e+02   4.6254819567e+01    0.4122653    0.3053978  88.21  0.001383047    1.804    0.446
       397 -10.6443    248.8065    108.5273   7.7231183532e+01   8.4298158676e+00    0.5330717    0.3321675 -49.88  0.002660948    1.462    0.316
       398 -10.6582    249.1703    103.1107   7.5999394321e+01   9.2976610673e+00    0.4588578    0.2931644 -28.28  0.002230456    1.782    0.439
       399  -8.0738    189.4051    108.2001   8.7275107526e+01   2.1697131361e+01    0.2229856    0.1383679 -52.09 0.0004965659    1.659    0.397
       400 -10.5183     45.6557    102.4825   1.2410492712e+02   5.0629986240e+01    0.6717577    0.4044701  72.47  0.002869469    3.204    0.688
       401 -10.7079     22.8065    102.9118   1.3127449867e+02   5.2680247215e+01    0.6217964    0.3692944  80.49  0.002523324    2.680    0.627
       402  -8.5675    166.7142    104.3579   9.1029915924e+01   2.7845590598e+01    0.2776724    0.1849757 -54.61 0.0006705471    1.601    0.375
       403  -9.2023    139.6949    104.5850   9.7433874596e+01   3.4059596225e+01    0.3330938    0.2684622 -89.44 0.0009080607    1.530    0.346
       404  -9.3198     51.0936    113.2574   1.2474011562e+02   4.7574938466e+01    0.2899255    0.2239776  56.03  0.001145737    1.541    0.351
       405  -9.3631    150.4987    102.9826   9.4372776269e+01   3.1928861151e+01    0.3675344     0.249706 -67.85 0.0009695325    1.933    0.483
       406  -9.7663    128.4559    102.2016   9.9656546490e+01   3.7030252395e+01    0.3258263    0.2638904 -70.25 0.0007997963    1.432    0.302
       407 -10.6475    109.5187     99.4356   1.0403139604e+02   4.1517013005e+01    0.7752585    0.4706971  71.09  0.002790138    3.173    0.685
       408  -8.9483      6.7280    103.0951   1.3615793295e+02   5.3772051176e+01    0.1963543    0.1490347  70.21  0.001020195    1.606    0.377
       409  -7.8084    175.6725    102.3234   8.8574406440e+01   2.6116422929e+01    0.1625692    0.1208105 -79.46  0.000286146    1.693    0.409
       410  -8.1252    159.6259    100.8625   9.1687343338e+01   3.0223389982e+01    0.2224628    0.1405697 -53.20 0.0005593471    1.695    0.410
       411  -9.3117     82.0615    100.0468   1.1223404291e+02   4.6284506508e+01    0.3233512    0.2228934 -65.42 0.0008722587    1.695    0.410
       412  -9.1718     95.0068     97.0001   1.0754312254e+02   4.4751941032e+01    0.3137221    0.2231617 -60.18 0.0006225809    1.565    0.361
       413 -10.0436     63.8820     95.8186   1.1678364926e+02   4.9883959532e+01    0.4732839    0.3118432 -83.56  0.001649249    2.579    0.612
       414  -9.1375     56.6177     95.0429   1.1890226502e+02   5.0993168179e+01    0.2392893    0.1821598  52.07   0.00101677    1.630    0.386
       415  -7.8374    164.6834     94.2965   8.8802036148e+01   3.0310313311e+01    0.1573268    0.1206217 -81.82 0.0002590836    1.608    0.378
       416  -9.4508    139.2748     92.6203   9.4248319085e+01   3.6587593753e+01    0.4329906    0.2984967 -88.20 0.0009238971    2.343    0.573
       417 -10.1067    123.0512     91.5180   9.8104192610e+01   4.0380372071e+01    0.7781722    0.4473748  38.41  0.001999182    1.847    0.459
       418  -8.1782    176.3932     93.2451   8.6051613746e+01   2.7692992360e+01    0.2217487    0.1377901 -51.52 0.0005260843    1.677    0.404
       419  -8.8173    107.7866     92.5123   1.0258914707e+02   4.3300154092e+01     0.310465    0.2388729  23.27  0.001111916    1.464    0.317
       420  -9.7403      4.6876     92.4102   1.3499506522e+02   5.6208620596e+01    0.2966183    0.1990147  32.09  0.001941721    1.876    0.467
       421  -9.0202     42.8801    109.4254   1.2642453816e+02   4.9361770653e+01    0.2797517    0.1337524  13.63  0.001154123    3.378    0.704
       422  -8.7852     47.0724     92.2649   1.2130654627e+02   5.2717551849e+01    0.2982208    0.1789665  21.53  0.001556853    1.972    0.493
       423  -9.5967     34.7066     89.7381   1.2476513158e+02   5.4528237643e+01    0.4176787    0.2453734 -78.42  0.001778268    2.488    0.598
       424  -7.8794    158.2489     91.6488   8.9506060274e+01   3.2355668830e+01    0.1556872     0.117455 -70.14 0.0002529895    1.589    0.371
       425  -9.2037     23.3350     90.1849   1.2859475803e+02   5.5416984842e+01    0.2411948    0.1991435   0.69    0.0011628    1.408    0.290
       426  -8.3512    150.9368     89.1400   9.0480298436e+01   3.4566319010e+01    0.2346581    0.2036383 -74.18 0.0004941118    1.261    0.207
       427  -9.9310     86.3506     86.6883   1.0726749129e+02   4.8401019053e+01    0.4242064    0.3128564 -81.42  0.001223625    2.140    0.533
       428  -8.8276     86.3358     81.3251   1.0571336016e+02   4.9478621966e+01    0.2074867    0.1242037  13.57 0.0008382903    2.621    0.618
       429  -8.7478     65.4098     87.3895   1.1408854584e+02   5.1470408744e+01    0.2481931     0.124959  16.55 0.0009541839    3.251    0.692
       430 -10.0020     48.3482     84.0056   1.1882270338e+02   5.4323900669e+01     0.503468    0.3326178 -72.07  0.002491047    2.028    0.507
       431  -9.7123    104.8411     83.2757   1.0075612057e+02   4.5723021765e+01    0.4321857    0.2965679 -61.04 0.0009735576    1.849    0.459
       432  -8.6739    105.3247     77.3239   9.8832503849e+01   4.6766965205e+01     0.306008    0.1839347   8.28  0.001087471    3.361    0.702
       433  -8.0376    157.8331     84.1621   8.7533627821e+01   3.3862792084e+01    0.2005883     0.180219  13.00 0.0003498711    1.281    0.219
       434  -9.1147    140.9061     83.1176   9.1150085704e+01   3.8039530091e+01    0.3440796    0.2026212 -50.70 0.0007251528    1.867    0.464
       435  -9.9927     10.1989     81.5487   1.3115616244e+02   5.8170739924e+01    0.3414068    0.2194122  69.27  0.001898149    2.550    0.608
       436  -9.7120     24.5613     80.4659   1.2604059160e+02   5.7367586650e+01    0.3798664    0.2354041 -81.37  0.001385767    2.406    0.584
       437  -8.4304    150.2775     80.7585   8.8273219850e+01   3.6284815102e+01    0.2664167    0.1821099 -44.43 0.0007799512    1.494    0.331
       438  -8.7653    119.2068     80.5307   9.5934482815e+01   4.3331585723e+01    0.2994421    0.2221938 -68.01 0.0009477285    1.792    0.442
       439  -8.6666     74.7156     80.8460   1.0924423468e+02   5.1451409540e+01    0.2487964    0.1812055 -61.63 0.0008926117    1.647    0.393
       440  -8.5916    183.5383     78.9076   8.0878918051e+01   2.8560098244e+01    0.3225405    0.2209741   7.78  0.001279348    2.685    0.628
       441  -8.2044    166.6014     79.7341   8.4434071045e+01   3.2547977116e+01    0.1995934    0.1402028 -49.67  0.000321713    1.466    0.318
       442  -8.9838     65.0000     78.0017   1.1159791161e+02   5.3439408226e+01    0.2946977    0.1730263 -52.31   0.00114266    1.701    0.412
       443  -9.8426     63.3932     73.6199   1.1085317109e+02   5.4521754140e+01    0.4092511    0.2336066 -56.78  0.001467416    2.042    0.510
       444  -9.3248    128.2457     75.6568   9.2106820631e+01   4.2270160428e+01    0.3678053    0.2421416 -63.14  0.000791838    2.111    0.526
       445  -7.7939    157.2665     76.6668   8.5559238064e+01   3.5348548671e+01    0.1515165    0.1151958 -71.92 0.0003022965    1.584    0.369
       446  -8.7915    140.4915     75.4857   8.9034381310e+01   3.9523930129e+01    0.2483825    0.1361589 -49.21 0.0006392797    2.028    0.507
       447  -8.7625    163.3484     73.6759   8.3432255706e+01   3.4397093128e+01    0.2575893    0.2204178 -71.47 0.0007146901    1.244    0.196
       448  -9.6555     82.2676     72.6715   1.0437745559e+02   5.1827365030e+01    0.3613587    0.2363996 -55.29  0.001026547    1.817    0.450
       449  -8.0168    175.3955     72.7840   8.0788358057e+01   3.1605364280e+01    0.1898305     0.145843 -27.20 0.0003847483    1.482    0.325
       450  -8.1404    151.4650     73.5067   8.5933505847e+01   3.7289829244e+01    0.1487679    0.1426498  78.07  0.000235402    1.034    0.033
       451  -8.7920    115.5088     72.6786   9.4561883203e+01   4.5550889869e+01     0.284992    0.1408527 -40.31 0.0007867552    2.042    0.510
       452  -8.1671     42.6101     72.7724   1.1778856993e+02   5.7235961071e+01    0.1707299     0.110081 -58.33 0.0004469918    1.619    0.382
       453  -9.0533    105.8809     71.7327   9.6954778104e+01   4.7683968611e+01    0.2591702    0.2038408 -49.19 0.0005666468    1.376    0.273
       454  -9.2907     95.1563     71.2423   9.9946728343e+01   4.9827714707e+01    0.3279937     0.227425 -56.36 0.0009732288    1.777    0.437
       455  -9.5547     51.3407     69.6411   1.1382331404e+02   5.6850582516e+01    0.4009595    0.2406667 -65.02  0.001402177    2.450    0.592
       456  -7.6260    170.2924     71.6648   8.1474743617e+01   3.3044644666e+01    0.1541875     0.112662 -72.98  0.000347685    1.639    0.390
       457  -9.0579     28.7956     70.7638   1.2216436879e+02   5.8977753390e+01    0.2292936    0.1365324 -18.65 0.0009150372    1.931    0.482
       458  -9.7597    237.5688     69.6756   7.0212234218e+01   1.7363408941e+01    0.2473581    0.2292552 -79.43 0.0005079764    1.122    0.109
       459  -8.4719    157.2255     69.9999   8.3679902701e+01   3.6505183780e+01    0.1915394    0.1234185 -37.36 0.0004112078    1.613    0.380
       460  -8.8015     16.4590     69.9026   1.2638537283e+02   6.0124465021e+01    0.2004471     0.173869 -89.73 0.0009446212    1.530    0.347
       461  -8.8697    147.0380     68.4958   8.5470238600e+01   3.9195403396e+01    0.2673363    0.2019377 -56.28  0.000580852    1.475    0.322
       462  -8.9408    138.6606     66.3762   8.6767984194e+01   4.1512078916e+01    0.3043368    0.1995513 -61.11 0.0008797981    2.021    0.505
       463  -8.7452    121.5054     66.0271   9.0908329858e+01   4.5426720631e+01    0.2802916    0.2241714 -63.71 0.0008423324    1.543    0.352
       464  -8.8273     37.4415     64.4527   1.1728811162e+02   5.9385673305e+01    0.2387542    0.1837322  81.59  0.001022788    2.344    0.573
       465  -8.9253    110.1354     63.7140   9.3232214647e+01   4.8218237690e+01    0.2309341     0.190091 -48.95 0.0005572586    1.346    0.257
       466  -8.8673     64.9144     63.2017   1.0712686319e+02   5.6255719856e+01    0.4333843     0.237961   5.60  0.001714633    3.368    0.703
       467  -8.1299    158.0080     61.9620   8.1222907772e+01   3.7626994106e+01    0.1711064    0.1657694  81.27 0.0003545971    1.033    0.032
       468  -9.4947     97.5715     60.3028   9.5722446010e+01   5.1277486782e+01     0.373738    0.2401708 -32.78  0.001416038    1.563    0.360
       469  -9.6506     73.2914     59.6766   1.0315026502e+02   5.5617729194e+01    0.3575882    0.2183114 -49.33  0.001203178    1.842    0.457
       470  -8.9866    246.5322     59.4895   6.6909807592e+01   1.6984894047e+01    0.1327691    0.1136436 -68.52 0.0008094052    1.039    0.037
       471  -7.8819     89.2627     59.6438   9.8014373765e+01   5.2928401931e+01    0.1275844    0.1078187 -68.20 0.0003558505    1.624    0.384
       472  -9.8946     23.4528     56.5171   1.2023337981e+02   6.2157635200e+01    0.3839229    0.2612571 -78.81  0.002013166    2.640    0.621
       473  -8.1833    130.6096     57.8162   8.6072507912e+01   4.4733958628e+01    0.1920104    0.1316249 -46.54 0.0003144643    1.604    0.376
       474  -9.4698      7.3293     57.2195   1.2661875043e+02   6.3177675563e+01    0.2585634    0.1783823 -73.11   0.00104811    1.834    0.455
       475  -9.3147    119.0787     55.4533   8.8197587228e+01   4.7657292072e+01     0.435399    0.2133071 -44.28  0.001474391    2.282    0.562
       476  -9.4990     54.3466     55.7862   1.0843518429e+02   5.9010502108e+01    0.3214373    0.2087341 -53.82  0.001253298    1.855    0.461
       477  -8.1117    139.6372     56.2424   8.3484320094e+01   4.2896896507e+01     0.186878     0.137905 -20.65 0.0002711064    1.558    0.358
       478  -8.9938     44.1305     55.7266   1.1215598962e+02   6.0267100835e+01    0.2068901    0.1547413 -49.41 0.0007823127    1.421    0.296
       479  -8.6422    152.4958     54.1533   8.0092774156e+01   4.0157370359e+01    0.2375083    0.1954799  84.61  0.001259684    1.319    0.242
       480  -8.0695    179.6844     53.3628   7.4788990230e+01   3.3624692210e+01    0.1539759     0.103721 -70.95 0.0007041284    1.763    0.433
       481  -9.4328     92.3762     50.6347   9.4035902550e+01   5.3799870670e+01     0.355092    0.2158911 -48.19  0.001282831    2.009    0.502
       482  -8.7823    105.4217     53.4479   9.1204725516e+01   5.0828765073e+01    0.2409424    0.2093998 -32.94 0.0007472505    1.204    0.170
       483  -7.7587    129.7339     49.3357   8.3627085253e+01   4.6200318946e+01    0.1358877    0.1085402 -69.85 0.0002248699    1.588    0.370
       484  -7.5818    163.3556     48.3054   7.6293024585e+01   3.8366355524e+01    0.1483276    0.1042446  33.17 0.0007040888    1.718    0.418
       485  -8.6014    120.9379     47.5362   8.5173738344e+01   4.8422638343e+01    0.1969608    0.1826952 -13.39 0.0003694944    1.123    0.109
       486  -8.4373    112.1144     47.2703   8.7338823915e+01   5.0361481578e+01    0.1863681    0.1742199  40.68  0.000643991    1.083    0.077
       487  -8.9680     82.0326     46.4954   9.5796230290e+01   5.6294428008e+01    0.2237742    0.1767627 -45.52 0.0005932302    1.496    0.332
       488  -8.2756     45.1500     44.8723   1.0814048934e+02   6.1990613750e+01    0.1692996    0.1511863 -31.98 0.0005313969    1.285    0.222
       489  -9.0218     16.7806     44.8572   1.1937376673e+02   6.4775567886e+01    0.1907867    0.1451208 -60.42 0.0008858978    1.634    0.388
       490  -8.6922    132.8917     43.6218   8.1103375464e+01   4.6274683987e+01    0.2596405    0.1733902 -53.06  0.001062869    1.834    0.455
       491  -8.4863     93.0393     42.9258   9.1168782499e+01   5.4807458542e+01    0.3264272    0.1887466  13.67   0.00140807    2.599    0.615
       492  -9.0051     58.0386     42.5554   1.0253149159e+02   6.0675758384e+01      0.29522    0.1685789 -50.94  0.001480125    2.386    0.581
       493  -9.3076     69.5452     41.7897   9.8218739319e+01   5.9069835810e+01    0.2796934    0.2115177 -52.59 0.0009457504    1.821    0.451
       494  -9.7578      5.2093     42.1562   1.2331674433e+02   6.6039731447e+01    0.2789901    0.1796031 -67.11  0.001522178    2.069    0.517
       495  -8.6640    105.9799     41.2857   8.6953686242e+01   5.2471969397e+01    0.2242716    0.1847532 -58.62 0.0005871463    1.576    0.365
       496  -8.1893    206.4799     41.4718   6.7752979791e+01   2.8777080283e+01    0.1373711    0.1199739 -87.51 0.0002170465    1.015    0.014
       497  -7.9202    140.2846     41.6505   7.8885005421e+01   4.4819520362e+01    0.1388554    0.1055116 -70.46 0.0003635549    1.654    0.396
       498  -8.3821     36.9812     40.9843   1.0994312481e+02   6.3552251045e+01    0.1551438     0.147299 -68.77  0.000592945    1.628    0.386
       499  -8.3692     95.2159     38.1780   8.8862971807e+01   5.5039601616e+01    0.1665879    0.1583707  84.72 0.0006010064    1.360    0.265
       500  -8.1196     80.6335     36.8319   9.2770115825e+01   5.7917346408e+01    0.1711525    0.1122768 -40.70 0.0004004707    1.724    0.420
       501  -9.3728     26.2076     35.5693   1.1238576271e+02   6.5510912484e+01    0.2441411    0.1845286 -49.55 0.0009182045    1.593    0.372
       502  -8.4834    200.7026     35.8567   6.7157060055e+01   3.0915363919e+01    0.2224877    0.1648631  63.37 0.0005173095    1.282    0.220
       503  -8.0804    125.9795     35.6990   8.0136942005e+01   4.8875431355e+01    0.1870155    0.1599592  49.44 0.0002668661    1.063    0.059
       504  -8.9321    111.7332     34.6526   8.3194335354e+01   5.2127778395e+01    0.2478661    0.1731594 -40.44 0.0007492423    1.622    0.384
       505  -8.7937     48.7330     33.4583   1.0261117889e+02   6.3289472145e+01    0.1923309    0.1765699 -36.18 0.0006361161    1.463    0.317
       506  -8.8165     60.7703     32.8561   9.7947555312e+01   6.1688363953e+01    0.2000918    0.1598437 -42.99 0.0006434496    1.577    0.366
       507  -7.8359    139.2973     32.3007   7.6212316678e+01   4.6226402376e+01    0.1378395   0.09609091  32.14 0.0004240774    1.577    0.366
       508  -8.6983     72.1761     31.2753   9.3430456833e+01   6.0099284014e+01    0.2036164    0.1558552 -53.26 0.0008506669    1.946    0.486
       509  -9.2610     12.9610     30.2734   1.1615026736e+02   6.7482192286e+01    0.2425772    0.1404904 -53.80  0.001283935    2.011    0.503
       510  -8.6999    119.3334     33.2241   8.0863661067e+01   5.0658286634e+01    0.1815062    0.1180146 -39.07   0.00058798    1.717    0.418
       511  -8.0477    101.4208     29.2572   8.3985820753e+01   5.4924433906e+01    0.1683633    0.1187494 -38.77  0.000557416    1.625    0.385
       512  -8.6354    208.8240     27.7626   6.4222247133e+01   3.0002974559e+01    0.1928493    0.1628453  68.09 0.0006847031    1.201    0.167
       513  -8.9377     81.4015     27.6874   8.9132325345e+01   5.8950649213e+01    0.2306586    0.2016497 -71.69 0.0008669832    1.768    0.434
       514  -8.5303      3.5023     27.5331   1.1938947368e+02   6.8580800117e+01     0.169414   0.09375384 -57.45 0.0007398878    2.195    0.544
       515  -8.7083     91.8174     26.5248   8.5630808755e+01   5.7145114164e+01    0.2300095    0.1538962 -43.87 0.0007589677    1.882    0.469
       516  -8.9166    184.0739     24.0338   6.6434111087e+01   3.6396689371e+01    0.2266336    0.1445892 -75.28  0.001137379    1.749    0.428
       517  -9.6419    230.2030     21.6582   6.0591940897e+01   2.5807493450e+01    0.2671455    0.1997606 -52.13  0.001069337    1.275    0.216
       518  -8.1128     34.4784     23.4677   1.0435734909e+02   6.6431823253e+01    0.1135528   0.08980904  -8.23 5.124206e-05    1.052    0.050
       519  -7.6104    104.3077     22.7043   8.0919437072e+01   5.5068858657e+01     0.117316     0.100779 -79.93 0.0002647043    1.588    0.370
       520  -9.0063     63.5949     21.3294   9.2445147756e+01   6.2721028760e+01    0.2441034    0.1813786 -38.50 0.0009746552    1.655    0.396
       521  -8.8207     48.4257     21.8346   9.8150352161e+01   6.4898428785e+01    0.1821802    0.1701669  -2.37 0.0005393578    1.409    0.290
       522  -7.9626    120.6647     21.3196   7.6608048445e+01   5.1702887392e+01    0.1271866   0.09971584 -76.78 0.0007049398    1.702    0.413
       523  -8.1892     19.5085     21.5271   1.0999220267e+02   6.8242632823e+01     0.109253   0.08430962 -15.39 0.0001270485    1.069    0.064
       524  -8.7934     73.9877     19.5444   8.8307581979e+01   6.1198834989e+01     0.206727    0.1612187 -38.24 0.0007628315    1.595    0.373
       525  -8.2200     87.8129     17.7853   8.3504998818e+01   5.8868321526e+01    0.1480617    0.1475076 -34.60 0.0004578946    1.320    0.243
       526  -7.9826     38.5722     18.5079   1.0065241762e+02   6.6596866055e+01    0.1137217   0.08878549  -4.15 0.0001047183    1.031    0.030
       527  -7.8876    112.5280     16.6003   7.6826456067e+01   5.3955530507e+01    0.1278193    0.1083038  44.11  7.42991e-05    1.022    0.022
       528  -8.4259     29.8770     16.0931   1.0325378799e+02   6.7923669965e+01    0.1528343    0.1254452 -50.31  0.001062996    2.032    0.508
       529  -7.5421    191.3374    249.6561   1.1591426593e+02  -5.5463931175e+00    0.1220809    0.0951043  66.12 0.0007049277    1.771    0.435
       530  -8.2665      7.2061     15.2361   1.1311259594e+02   7.0165589514e+01    0.1302817     0.112661 -17.35  0.001069513    1.380    0.275
       531  -8.9728    175.6243    247.7450   1.1864673397e+02  -2.6226841022e+00    0.2944086     0.219728  71.77  0.001193337    1.884    0.469
       532  -8.8302    132.3053    248.0538   1.2713072549e+02   4.7097524051e+00    0.2965232    0.1922708  63.55 0.0007457679    1.628    0.386
       533  -7.9748    113.0000    248.8963   1.3096240230e+02   7.7635072220e+00    0.1809345   0.07136805 -59.13 0.0007963499    2.900    0.655
       534  -9.5445     21.6217    248.3511   1.4730487406e+02   2.0664619404e+01    0.1946683    0.1459178  73.29 0.0005657971    1.109    0.098
       535  -8.5041    242.8996    247.4826   1.0601862394e+02  -1.3222723664e+01     0.176573    0.1393217 -10.38 0.0006858712    1.176    0.150
       536  -8.3967    218.6266    248.2051   1.1054515197e+02  -9.7091630436e+00    0.1610095    0.1072046 -21.63 0.0006515397    1.629    0.386
       537  -8.3935    156.1677    248.2298   1.2250318044e+02   6.1652939265e-01    0.1742228    0.1348365  61.58 0.0004343168    1.355    0.262
       538  -7.6821     83.4889     11.4351   8.2293191589e+01   6.0311995345e+01    0.1210513    0.1009422  28.34 0.0001356709    1.035    0.034
       539  -9.0122    103.8256    246.7282   1.3246890139e+02   9.6456802694e+00    0.3957203    0.1923882 -77.81  0.001743105    3.035    0.670
