#   1 NUMBER                 Running object number                                     
#   2 MAG_AUTO               Kron-like elliptical aperture magnitude                    [mag]
#   3 X_IMAGE                Object position along x                                    [pixel]
#   4 Y_IMAGE                Object position along y                                    [pixel]
#   5 X_WORLD                Barycenter position along world x axis                     [deg]
#   6 Y_WORLD                Barycenter position along world y axis                     [deg]
#   7 A_WORLD                Profile RMS along major axis (world units)                 [deg]
#   8 B_WORLD                Profile RMS along minor axis (world units)                 [deg]
#   9 THETA_WORLD            Position angle (CCW/world-x)                               [deg]
#  10 FWHM_WORLD             FWHM assuming a gaussian core                              [deg]
#  11 ELONGATION             A_IMAGE/B_IMAGE                                           
#  12 ELLIPTICITY            1 - B_IMAGE/A_IMAGE                                       
         1 -13.9839    182.2420     58.3962   3.8988483030e+01   3.2420362210e+01      2.86665     2.046265 -52.86   0.01588308    1.359    0.264
         2 -12.8155    201.2797     36.6002   3.1473665119e+01   3.1216404479e+01     1.411946     1.244925 -80.84    0.0054324    1.099    0.090
         3 -11.0844      2.6762     29.0894   8.6818227726e+01   6.9800147845e+01    0.5317144    0.3520685 -70.37   0.00298732    2.817    0.645
         4 -14.7113    235.3283     61.4594   3.2911306217e+01   2.0871432383e+01     4.039371     3.276741  63.19   0.02701746    1.436    0.303
         5  -9.9437     42.5562     28.0255   6.6161383201e+01   6.5692245071e+01    0.6278777    0.4805209 -79.78   0.00261311    4.024    0.752
         6 -11.0559     44.2167     20.0506   6.2024552799e+01   6.6475205175e+01    0.4741687    0.3338017  22.52  0.001710305    1.175    0.149
         7 -10.1833     75.0273     16.6379   4.9242720927e+01   6.1430445552e+01    0.5891534    0.2431885  29.73  0.002338703    3.288    0.696
         8  -9.2013     80.1982     11.6247   4.5758757395e+01   6.0878382513e+01    0.2815156    0.2067152 -74.52   0.00157231    2.326    0.570
         9 -10.8325     66.5207     13.0179   5.0508361395e+01   6.3417389252e+01    0.2196302    0.1835697  15.41  0.000432132    1.121    0.108
        10  -8.9442    102.2915     13.8681   4.0988731801e+01   5.6024371434e+01    0.2657523    0.1397649  17.71  0.001170325    3.058    0.673
        11  -9.4826     37.1462     11.6065   6.1350941317e+01   6.8522773865e+01    0.3747229    0.1510164 -31.58  0.001722825    2.597    0.615
        12  -9.8121    124.9445     11.4957   3.5710337141e+01   5.1186878956e+01    0.1822544    0.1792785  48.12  0.001298346    1.186    0.157
        13  -9.2330    116.9844     10.6497   3.6895906174e+01   5.3056455885e+01    0.1845407     0.133322  62.80 0.0004933747    1.159    0.137
        14 -11.2579    247.3101      6.2389   2.1744840633e+01   2.5599032355e+01    0.4095433    0.3718984  84.90  0.002352702    1.482    0.325
        15  -9.9297     69.8100      7.5616   4.7211168087e+01   6.3292277520e+01    0.3092257    0.2148249 -50.86  0.001808833    2.231    0.552
        16  -9.5448     73.4366      6.5032   4.5690374765e+01   6.2674888766e+01    0.2006768    0.1597073  18.90 0.0005752863    1.204    0.169
        17  -9.2901     74.3143      3.6674   4.4300185668e+01   6.2733217128e+01    0.1864739    0.1350379  61.25 0.0009440308    1.410    0.291
        18 -10.1436     61.0006      8.9924   5.0685670351e+01   6.4822138339e+01    0.1477436    0.1169976  28.05 0.0003291085    1.014    0.014
        19  -9.0904    110.4774      5.5483   3.6503736572e+01   5.4932834788e+01     0.279529    0.2040157 -61.43  0.001703099    1.737    0.424
        20  -9.2021     91.3969      3.3246   3.9775664910e+01   5.9247657987e+01    0.1965223     0.113861 -26.74  0.001072193    2.038    0.509
        21  -8.4183    100.2326      8.3705   3.9559164549e+01   5.6950491543e+01    0.1217041   0.08019791  29.71 0.0006902909    1.602    0.376
        22  -8.1060     53.2986      7.6905   5.2884504746e+01   6.6318909127e+01   0.09968784   0.09448397  73.75 0.0002325629    1.597    0.374
        23 -10.7380    236.9817      1.9542   2.1636822845e+01   2.7970753017e+01     0.420752    0.1536165  77.09   0.00213867    2.454    0.592
        24  -8.7168    104.8986      1.4432   3.6236913612e+01   5.6477790793e+01    0.1786749   0.09800769  61.56  0.000335997    1.469    0.319
        25  -7.9962     90.2703    113.3072   7.5970777862e+01   4.1835109745e+01     0.154361    0.1160873 -18.91 0.0002060626    1.540    0.351
        26 -11.9517    245.4367    246.7270   6.6767491792e+01  -1.1528739591e+01    0.6487678     0.404377 -23.35  0.004176393    1.300    0.231
        27  -9.4283     38.1743    110.1865   9.3227128796e+01   4.9890364170e+01     0.232307    0.1961583 -73.73   0.00023749    1.268    0.212
        28  -9.2663     41.8299    109.3850   9.1736257779e+01   4.9705704962e+01    0.2930226    0.1743046 -31.78  0.001114452    1.787    0.440
        29  -8.0570     82.3206    110.7256   7.7901762119e+01   4.3806578528e+01      0.14686    0.1203947  70.02 0.0004284713    1.573    0.364
        30 -11.3971    209.2884    105.5311   4.5622435819e+01   1.8786112768e+01    0.4793179     0.277282 -64.15  0.001616393    2.220    0.550
        31  -8.3343     35.3093    105.3593   9.3253972930e+01   5.1355079774e+01    0.1542205   0.08941092 -34.30 0.0004183891    1.737    0.424
        32  -8.2488     14.6456    105.2839   1.0083567406e+02   5.3065993639e+01    0.1273404   0.09708819  62.08 0.0002819061    1.664    0.399
        33 -10.0885      3.1039    104.4555   1.0486973169e+02   5.3944203809e+01     0.344185    0.1851963 -10.82  0.001399099    2.237    0.553
        34 -11.4650     80.8661     99.9808   7.5545644146e+01   4.6532509065e+01    0.2785772    0.2534017  -0.90 0.0002953557    1.074    0.069
        35 -11.3903     37.9316    249.7525   1.1077764829e+02   1.5581923508e+01    0.5216367    0.2878634  30.74  0.002866207    1.822    0.451
        36  -9.1310     33.9688     98.9938   9.2365687522e+01   5.3013656838e+01    0.2049947    0.1758518 -40.75            0    1.011    0.011
        37  -9.0309    136.8593     97.4578   5.8273944155e+01   3.5927995014e+01      0.32858    0.2074775 -23.76  0.001337372    2.125    0.530
        38  -8.2252     97.7292     98.3227   6.9567750854e+01   4.3867008439e+01    0.1454841    0.1224494 -88.92 0.0002304067    1.571    0.363
        39 -10.4669     47.3076     96.6141   8.6744592395e+01   5.2143526162e+01    0.5309446    0.1585601 -49.61   0.00150074    2.795    0.642
        40 -10.8403     11.1265     96.8457   1.0062112124e+02   5.5318016431e+01    0.2878432    0.2295909 -44.92 0.0006806645    1.051    0.048
        41  -8.3478    105.6007     97.4642   6.6900828381e+01   4.2518749226e+01    0.1512585    0.1429595  -9.91  5.81255e-05    1.039    0.037
        42 -10.8380    197.4993     95.1766   4.5222016237e+01   2.3057813017e+01     0.300642    0.2023465  70.03 0.0008144597    1.701    0.412
        43  -8.4834     98.2942     92.6487   6.7778222978e+01   4.4968997710e+01    0.1486168     0.122192 -89.22  0.000205587    1.680    0.405
        44  -9.1361     72.9624     89.6546   7.5398799639e+01   5.0116343068e+01    0.2026356    0.1735932  19.26  0.000500628    1.153    0.133
        45 -11.3260    185.7945     85.8068   4.5008314048e+01   2.7216499627e+01    0.2851278    0.2360046 -66.80  0.000911277    1.183    0.154
        46  -8.9248     23.6828     88.6826   9.4046758247e+01   5.6336601204e+01    0.1447215   0.08302666 -32.93 0.0005980033    1.654    0.396
        47  -9.6771     48.8416     86.3072   8.3467251743e+01   5.4296530533e+01    0.2258916    0.2157892 -67.94 0.0006489793    1.266    0.210
        48  -9.7852     43.9656     85.3571   8.5124845343e+01   5.5091548848e+01    0.3191003    0.1261307  29.20  0.001166503    2.584    0.613
        49  -9.7609    106.8662     85.8061   6.3164187459e+01   4.4655053990e+01    0.2323298    0.2196682   4.52 0.0003355433    1.033    0.032
        50  -9.6936    162.6692     84.4073   4.8975770209e+01   3.2616169629e+01    0.4103793    0.2450985  70.26  0.001438253    2.105    0.525
        51  -9.3944     98.0722     85.1600   6.5654120813e+01   4.6545725180e+01    0.2153725    0.1866558  -0.99 0.0002822518    1.197    0.165
        52  -9.1023     14.9283     85.2478   9.6808038647e+01   5.7774090703e+01    0.2395568    0.1601993  -0.58  0.001343645    1.609    0.378
        53  -9.8643     69.1598     82.8314   7.4773182804e+01   5.2172090043e+01    0.3228994    0.2095777 -45.44   0.00156333    1.513    0.339
        54 -10.1181     62.0394     83.4813   7.7605104917e+01   5.3121695569e+01    0.2842231    0.1800872 -32.34  0.001045792    1.581    0.367
        55  -9.1766     29.5974     83.7669   9.0488896102e+01   5.6940119882e+01     0.179206    0.1223885 -64.10 0.0005628993    1.571    0.363
        56  -9.5522    107.9632    119.9306   7.2194898017e+01   3.7013395753e+01    0.2232903    0.2165751 -15.39  0.001176903    1.007    0.007
        57  -8.6330     44.2797     81.2960   8.3888149128e+01   5.5943841714e+01    0.1410355   0.09313639 -23.95 0.0001965608    1.535    0.349
        58 -11.6288    171.7375     76.1391   4.5125768002e+01   3.1994782992e+01    0.4575582    0.3607631 -47.08  0.001657193    1.251    0.201
        59 -11.4722    166.1895     74.9600   4.5853533330e+01   3.3449881062e+01    0.5971878    0.3356515 -38.45  0.002515137    1.820    0.451
        60  -9.8773     50.7531     79.3113   8.0742974618e+01   5.5566755826e+01    0.2903746    0.2215032  45.12  0.001116326    1.612    0.380
        61  -8.7665      1.9520     80.7656   1.0117309406e+02   5.9538266698e+01    0.1482233    0.1005067   0.93 0.0008732519    1.608    0.378
        62  -9.1118     82.3833     79.1678   6.8975754070e+01   5.0683369774e+01    0.2446858    0.1844579  22.25 0.0005684134    1.339    0.253
        63 -10.1394     24.9966     78.2599   9.1004194606e+01   5.8568338492e+01    0.3735683    0.2019145   8.90   0.00128505    2.059    0.514
        64  -9.4732     29.9974     75.3122   8.8123327529e+01   5.8755261992e+01    0.2071349    0.1545018 -24.64 0.0004766715    1.198    0.165
        65 -11.1091    203.1779    116.1459   4.8998470098e+01   1.8034672062e+01    0.5685216    0.3144569  67.55  0.002075119    2.708    0.631
        66  -9.8869     72.2016     75.7500   7.1502446216e+01   5.3115851685e+01    0.2853927    0.2222683  12.48  0.001115935    1.293    0.226
        67  -8.7902    125.1990     74.7831   5.4839985334e+01   4.2790461184e+01    0.1909591    0.1613378  26.27  0.000303597    1.257    0.204
        68  -8.7238     96.1362     75.1674   6.3218038313e+01   4.8856615575e+01    0.1841294    0.1725104 -72.30 0.0004875165    1.279    0.218
        69  -9.0323    145.8075     73.7927   4.9681399271e+01   3.8306544647e+01    0.2031333    0.1812337  62.41  0.000224529    1.082    0.075
        70 -11.2793    140.2887     71.9478   5.0393356248e+01   3.9879363975e+01     0.659148    0.3665784  47.87  0.001890242    1.738    0.425
        71  -9.1448     86.6782     73.9642   6.5900424021e+01   5.0901863661e+01    0.2334372    0.1752052 -19.91  0.001168541    1.431    0.301
        72  -9.4582     37.4355     72.9222   8.4317256275e+01   5.8500729487e+01    0.3363706    0.1841263 -25.61   0.00155955    1.988    0.497
        73  -8.7115     14.5150     74.4790   9.4517226797e+01   6.0203355952e+01    0.1299908    0.1054392 -36.04 7.570186e-05    1.005    0.005
        74 -11.6011    176.5981     71.2449   4.3044957630e+01   3.1703558537e+01    0.4433797    0.3256964  52.51  0.001448626    1.398    0.284
        75  -9.3680     84.0000    249.0043   1.0088550184e+02   9.9296273608e+00    0.1965051    0.0736848 -63.66 0.0008067763    2.973    0.664
        76  -8.7728    151.3664     73.2649   4.8349254337e+01   3.7122923615e+01    0.1901035    0.1307516 -49.25 0.0002912027    1.506    0.336
        77  -8.7719     49.6404     70.6894   7.8597372043e+01   5.7487561402e+01    0.1469849   0.09481999 -13.87 0.0003301387    1.741    0.426
        78 -10.0154     10.2478     67.1725   9.4587482420e+01   6.2052694456e+01     0.558989     0.244113 -34.02  0.002664512    2.067    0.516
        79 -11.7683    153.5076     65.5934   4.5836703184e+01   3.7882929405e+01    0.6769187    0.6104009   9.45  0.001749221    1.334    0.251
        80 -10.0221     23.5581     68.3299   8.8983857828e+01   6.0814856415e+01    0.2352883    0.2048546  63.06 0.0008526416    1.660    0.398
        81  -8.6008    139.6400     66.2969   4.8940259840e+01   4.0960327865e+01    0.1470251    0.1100522 -85.08 0.0007033477    1.707    0.414
        82  -7.9795    102.3242     66.2583   5.8525799401e+01   4.9192983408e+01    0.1435602     0.105765  18.21  0.000212002    1.552    0.356
        83  -9.2574     18.0092     65.6961   9.0723652264e+01   6.1816084204e+01    0.1768268    0.1446945 -15.49 0.0004161378    1.108    0.098
        84 -10.8568     28.6080     61.6994   8.4803683696e+01   6.1696771690e+01    0.6169848    0.3081433 -30.69  0.002458419    1.967    0.492
        85 -10.5390    118.5783     61.8576   5.2659067810e+01   4.6427782190e+01    0.5459248    0.3596207  26.66   0.00253628    1.870    0.465
        86 -10.0847     39.2901     63.0300   8.0520370316e+01   6.0286090632e+01    0.3898988    0.2704961 -49.91  0.001602694    1.508    0.337
        87  -9.4208     42.3565     61.3132   7.8648810116e+01   6.0247980398e+01    0.2468332    0.1910324  -0.22 0.0008490515    1.193    0.161
        88  -9.5401    150.4762     58.4929   4.4500708546e+01   3.9677611050e+01    0.2726679    0.1833772 -75.15 0.0006138165    1.965    0.491
        89  -8.9684     60.5591     62.6973   7.1652426351e+01   5.7461062597e+01    0.2321058    0.1661642  50.80  0.001194665    1.838    0.456
        90  -8.8835     21.2918     61.3369   8.8003497104e+01   6.2439064061e+01    0.1375324   0.07754813 -28.11 0.0007024675    1.642    0.391
        91  -9.7356    140.6898     58.7014   4.6551705686e+01   4.1906451595e+01    0.1931463    0.1598014 -85.21  0.000303371    1.347    0.258
        92  -9.9910    139.1750     54.2139   4.5587577359e+01   4.2921138528e+01    0.3645149    0.2287631 -42.42  0.001520407    1.694    0.410
        93  -9.6352     15.6382     58.3343   8.9735465317e+01   6.3494602255e+01    0.3556379    0.1298517 -32.91  0.001468033    2.786    0.641
        94  -8.9167    109.3077     64.3079   5.5903871350e+01   4.8048900842e+01    0.1450653    0.1079643  15.29 0.0002582193    1.613    0.380
        95  -8.3443     78.4731     58.4679   6.3599959110e+01   5.5178722900e+01    0.1394884    0.1232057  11.94 8.913262e-06    1.012    0.012
        96 -10.2099      3.7965     56.0279   9.4678910687e+01   6.4734995113e+01    0.2649104    0.2475917 -34.80 0.0008893062    1.274    0.215
        97 -10.0589      3.8527     50.9914   9.3267069289e+01   6.5731336142e+01    0.3040182    0.2105329  -8.33  0.001950705    1.338    0.253
        98 -10.6573     82.0167     54.9404   6.1177756431e+01   5.5098703151e+01    0.2652177    0.2527128  85.77 0.0003197763    1.363    0.266
        99  -9.5092     59.0764     54.5861   6.9442831854e+01   5.9127037245e+01     0.262437    0.2099233   3.17 0.0006935823    1.145    0.127
       100  -9.1347     43.4572     54.0336   7.5720975983e+01   6.1453850035e+01    0.2982532    0.1553199   9.48    0.0012896    2.553    0.608
       101 -10.5215     16.8094     50.7247   8.6868675985e+01   6.4881331429e+01    0.4471227    0.2233227 -60.87  0.002144363    2.543    0.607
       102 -10.8638    150.5390     47.4415   4.1457798665e+01   4.1243106817e+01    0.5507193    0.3391992  -4.15  0.002301041    3.139    0.681
       103  -9.4685    149.3887     41.2036   3.9952593943e+01   4.2334161225e+01    0.3393771    0.1956719 -47.76  0.000906461    1.881    0.468
       104  -9.3037    148.0478     37.3297   3.9121485588e+01   4.3132387097e+01     0.194087    0.1682374  47.40 0.0005399707    1.199    0.166
       105 -10.6470     86.8122     46.8342   5.6788074589e+01   5.5409794866e+01    0.3372211    0.2892864 -25.45 0.0009634448    1.244    0.196
       106  -9.0483     68.7978     49.1134   6.3768979423e+01   5.8421623999e+01    0.1866247     0.170189  17.01 0.0003189028    1.128    0.113
       107  -8.6401     81.1878     48.3861   5.9163270174e+01   5.6273606196e+01    0.1799929    0.1211921  50.72 0.0003617568    1.568    0.362
       108 -10.3381    100.8739     46.0489   5.2330010459e+01   5.2635096616e+01    0.3587754    0.3038841  72.38  0.001416371    1.398    0.285
       109  -8.9215     57.9113     46.4483   6.6961806550e+01   6.0650356841e+01    0.2916664    0.1824159  60.15  0.001110708    3.279    0.695
       110  -9.1630     53.3142     45.5062   6.8471171226e+01   6.1512414264e+01     0.318206    0.1728209   7.06  0.001330172    2.822    0.646
       111  -9.1941     42.6470     44.8079   7.2755712611e+01   6.3146662802e+01    0.3611338     0.233866 -62.21  0.001709445    2.985    0.665
       112 -10.1230     24.4201     45.3124   8.1377602186e+01   6.5185301000e+01    0.2818906    0.2317177  42.80  0.001061783    1.741    0.426
       113  -8.8272     94.4559     44.9630   5.3802284187e+01   5.4130118813e+01    0.2610941    0.1729353  88.08  0.001039186    3.471    0.712
       114 -12.2827    166.9650     40.9666   3.6999297072e+01   3.8305241274e+01    0.5686386    0.5104047  36.08  0.001063483    1.345    0.256
       115  -9.6681     16.1657     43.7393   8.4886778344e+01   6.6224703213e+01    0.2302821    0.1594088 -19.90 0.0006739771    1.198    0.165
       116  -8.9565     61.6025     44.3265   6.4723662616e+01   6.0382558406e+01    0.3916993    0.1112337  41.05  0.001406597    3.323    0.699
       117  -9.4374     12.4987    249.0065   1.1579142390e+02   1.8455370272e+01    0.2194689    0.1519086   3.14  0.001285753    2.458    0.593
       118 -10.9415      3.3144     40.3526   9.0332550827e+01   6.7778207839e+01    0.4629996    0.2844079 -18.87 0.0008436875    1.390    0.281
       119 -10.6188      9.3321     38.0998   8.6438704498e+01   6.7773429595e+01    0.6713609    0.1019339 -48.86  0.002392896    4.215    0.763
       120 -10.2385     10.3497     31.9043   8.3671118561e+01   6.8758999507e+01    0.2638076    0.2080973   8.21 0.0008795868    1.271    0.213
       121 -10.2597     82.4497     41.1131   5.6144601284e+01   5.7075967404e+01    0.4550985    0.2866575  33.66   0.00163152    1.477    0.323
       122 -10.1083     30.6928     37.7661   7.5578677461e+01   6.5788576754e+01     0.259661    0.1954341 -37.30 0.0008653979    1.392    0.281
       123  -8.7955    103.5435     41.0167   4.9911594854e+01   5.2746048079e+01    0.1828502     0.133552 -27.51 0.0004337468    1.515    0.340
       124  -9.9279    132.5261     37.9585   4.2210121814e+01   4.6642589631e+01    0.5296614    0.2864024  56.81  0.002573957    1.621    0.383
       125 -10.3356    138.7949     34.5714   4.0009556719e+01   4.5609067163e+01    0.2825786    0.2144975  48.17 0.0007113261    1.270    0.213
       126 -12.9987    241.0078     77.0550   3.5357424989e+01   1.7461915352e+01     1.395962    0.8516849 -55.75  0.003724993    1.411    0.291
       127  -9.5568     51.9720     37.9260   6.6130220679e+01   6.2880663143e+01    0.4414248      0.22882  30.09  0.002218035    1.799    0.444
       128 -10.8250     60.3621     37.7826   6.2714661818e+01   6.1554078956e+01    0.2551531    0.2381321   3.19 0.0008965273    1.232    0.188
       129 -11.3427     61.8661     33.5195   6.0475167951e+01   6.1888524014e+01    0.3821009    0.3184304 -55.33  0.001753132    1.793    0.442
       130 -11.0491     64.4781     31.4675   5.8692230658e+01   6.1703985149e+01    0.3139562    0.2751007  79.40    0.0013372    1.802    0.445
       131  -8.6968     13.0760     38.5383   8.4649630266e+01   6.7403854510e+01    0.1702692    0.1043078  14.76  0.001020413    1.567    0.362
       132  -8.7660    123.0297     37.2890   4.3997500822e+01   4.8896370729e+01      0.18865    0.1604671  55.65 0.0004391429    1.042    0.040
       133  -9.6208     91.6441     34.3783   5.0917972937e+01   5.6104748243e+01    0.3454748    0.1577304 -25.75  0.001151161    2.615    0.618
       134 -10.4379      2.6070    243.1227   1.1738351116e+02   2.0628041008e+01    0.2590418    0.1270045 -85.41  0.001458182    1.826    0.452
       135  -9.8885    160.8975     34.6207   3.6296195755e+01   4.0492932399e+01     0.256908    0.2020855  82.28 0.0008372576    1.169    0.145
       136 -10.0629     49.7458     31.3185   6.4422688249e+01   6.4165530305e+01    0.4565547    0.2826004  13.33  0.002197716    1.674    0.403
       137  -9.2688    112.0373     32.9685   4.5117436196e+01   5.1887143969e+01    0.2722852    0.1669944  55.96 0.0008830187    1.437    0.304
       138  -8.1729     97.2903     32.3274   4.8620893016e+01   5.5170126074e+01    0.1348201    0.0912215  24.77 0.0007016045    1.618    0.382
       139 -10.0364    154.7283     30.6091   3.6196150877e+01   4.2390456426e+01    0.2227883    0.1979187  80.47 0.0003300327    1.028    0.027
       140  -8.9244    120.3275     30.2950   4.2403366584e+01   5.0336596226e+01    0.1784155    0.1529331  14.88  0.001091627    1.327    0.246
       141 -10.6173    210.1130     27.8931   2.8700470575e+01   3.0420649031e+01     0.356179    0.1898766  63.07  0.001109215    1.828    0.453
       142 -11.4831     56.8312    242.4637   1.0619266373e+02   1.4861668344e+01    0.3362149    0.2184444  61.10  0.001887878    1.451    0.311
       143 -10.7650     59.4996    248.0015   1.0611478875e+02   1.3357841402e+01    0.2833346    0.2106463  13.03  0.001642951    1.747    0.427
       144  -9.6428     48.4821     17.5001   5.9112374766e+01   6.6105327476e+01    0.2389344     0.200821  18.14 0.0009776105    1.131    0.116
       145  -9.2340    137.0149     27.9481   3.8425941213e+01   4.6782686733e+01    0.1985095    0.1691831  69.57 0.0004152947    1.038    0.037
       146 -11.0318     28.0505     27.0490   7.2557647840e+01   6.7747091287e+01    0.4276038    0.2031153  33.57  0.002260456    2.070    0.517
       147  -9.2743     70.9460     26.9269   5.4616543826e+01   6.1089711082e+01    0.1898175     0.159381  27.69 0.0003308562    1.037    0.035
       148 -10.8090    196.6878    108.7503   4.8468386124e+01   2.0740362960e+01    0.4403395    0.3474287 -58.52  0.001459564    1.234    0.189
       149 -10.3695     59.5288     26.5040   5.8551663739e+01   6.3193752541e+01    0.2573591    0.1086822  43.27  0.001196563    2.115    0.527
       150  -9.3983    101.6291     23.2619   4.4366843187e+01   5.5251227286e+01    0.3830298    0.2307938 -70.67  0.001617657    3.472    0.712
       151  -9.5054     86.1526     22.3652   4.8130720172e+01   5.8613099975e+01    0.2313692    0.1742235  71.74 0.0008874842    1.664    0.399
       152  -8.8732     76.3478     21.6700   5.0798528914e+01   6.0650311372e+01    0.2110092    0.1798543 -66.56   0.00131618    1.739    0.425
       153 -11.8353     52.6382    233.6642   1.0631090149e+02   1.7295942984e+01     0.579191    0.4733717  -7.02  0.003445033    1.716    0.417
       154  -8.9514     40.8955    229.5370   1.0855225535e+02   1.9613861225e+01    0.1890495    0.1530026 -89.24 0.0005252413    1.154    0.134
       155  -8.6996      1.4517     35.4854   8.9725976910e+01   6.8770509641e+01    0.1195025   0.08764043 -24.90 1.199038e-06    1.021    0.020
       156 -11.3384     33.3917    213.7109   1.0887729187e+02   2.4101323538e+01    0.6040131    0.2878864 -67.06  0.002036102    1.945    0.486
       157  -9.1335     13.0169    214.5036   1.1353791032e+02   2.5965046475e+01    0.1907009    0.0662949  50.08 0.0008105225    2.637    0.621
       158  -8.8555    107.1341    202.4997   8.9259255067e+01   1.6825344574e+01    0.2167083    0.1404075  33.68 0.0004365715    1.492    0.330
       159  -9.0464      3.7036     13.5997   7.9968343766e+01   7.2154290683e+01    0.1470165    0.1038928 -17.29  0.000645609    1.083    0.077
       160  -9.8709    244.0015    153.5016   5.0064440601e+01   3.9387652663e+00    0.1965119      0.15137 -38.52 0.0004436755    1.064    0.060
       161 -10.7260    245.6995    146.0867   4.8358596440e+01   4.9923372719e+00    0.2671088    0.2009326 -84.11  0.001473933    2.077    0.519
       162 -12.1439    244.0491    134.8720   4.6403552859e+01   7.2336489996e+00    0.7567577    0.3394928 -29.14  0.002964438    3.082    0.676
       163  -8.8792     24.9747    134.0675   1.0199416746e+02   4.5069770004e+01    0.1937841    0.1792245 -56.57 0.0005297944    1.071    0.066
       164  -8.5950      9.2404    131.4534   1.0663013976e+02   4.6901722116e+01     0.165406    0.1189622  40.37 0.0005129449    1.601    0.376
       165  -8.9262      3.3152    124.4046   1.0760844842e+02   4.9028128212e+01     0.213323    0.1393986  84.31 0.0006637413    1.669    0.401
       166  -9.5844    215.7081    122.9975   4.8369767179e+01   1.4329206058e+01    0.1967195     0.163512 -44.81 0.0004327279    1.058    0.055
       167 -12.0050    168.2292     55.2447   4.0435537836e+01   3.6061406454e+01     1.360801    0.5744436  70.24  0.005108425    2.955    0.662
       168 -14.2382    242.7445    103.5948   4.0388614947e+01   1.2859857525e+01     2.367177     1.910409  74.01   0.01509568    1.431    0.301
       169 -10.2349      2.7356    114.2036   1.0643462174e+02   5.1587705508e+01    0.2360719    0.2233246 -62.82 0.0007809136    1.151    0.131
       170  -8.8993     27.0337    113.7321   9.7910429562e+01   5.0049771917e+01     0.185394    0.1634839 -37.29  0.001107659    1.082    0.076
       171  -9.5357     12.2405    113.5061   1.0306674187e+02   5.1206813046e+01    0.2592427    0.1655274 -65.47  0.001390819    1.333    0.250
