#   1 NUMBER                 Running object number                                     
#   2 MAG_AUTO               Kron-like elliptical aperture magnitude                    [mag]
#   3 X_IMAGE                Object position along x                                    [pixel]
#   4 Y_IMAGE                Object position along y                                    [pixel]
#   5 X_WORLD                Barycenter position along world x axis                     [deg]
#   6 Y_WORLD                Barycenter position along world y axis                     [deg]
#   7 A_WORLD                Profile RMS along major axis (world units)                 [deg]
#   8 B_WORLD                Profile RMS along minor axis (world units)                 [deg]
#   9 THETA_WORLD            Position angle (CCW/world-x)                               [deg]
#  10 FWHM_WORLD             FWHM assuming a gaussian core                              [deg]
#  11 ELONGATION             A_IMAGE/B_IMAGE                                           
#  12 ELLIPTICITY            1 - B_IMAGE/A_IMAGE                                       
         1 -12.0646     42.8665     20.6356   9.1789471529e+01   6.9619721133e+01    0.5670202    0.3366247  26.81  0.001686876    1.906    0.475
         2 -12.2119    216.5520     14.0450   4.5847381861e+01   2.8295108735e+01    0.5399591    0.4068795  -8.02  0.002492379    1.444    0.307
         3 -12.0794     43.6040      8.5260   8.4686803183e+01   7.1782990770e+01    0.3568372    0.3257622  46.45  0.001284449    1.342    0.255
         4 -13.2223    186.4931      6.7434   4.6420591145e+01   3.6737831912e+01    0.9102558    0.5394465 -66.04  0.004069057    1.847    0.458
         5 -11.8341     58.3095      8.0780   7.6620721679e+01   6.9335066547e+01     0.450473    0.3584316  36.34  0.002589922    1.279    0.218
         6 -11.1547     55.3647      2.8567   7.4748564829e+01   7.0670055053e+01    0.2974455    0.2609169 -48.66  0.001122616    1.367    0.269
         7  -9.8274    109.4984      8.5228   5.9225785548e+01   5.7575620196e+01    0.1453474    0.1410265  39.29 0.0002032237    1.027    0.027
         8 -10.1621     71.3041      3.3109   6.8059548906e+01   6.7377331344e+01    0.2919208    0.1851999  19.20  0.001295501    1.872    0.466
         9  -9.6178      5.7922      2.6501   1.0873019033e+02   7.6999001765e+01     0.144145    0.1056631  26.20 0.0004744465    1.628    0.386
        10 -11.8373    226.4537    221.1599   9.0721058304e+01   1.2423506342e+00    0.2352338     0.145126 -21.45  0.001662383    1.758    0.431
        11 -10.5027    211.4517    217.4664   9.2617048012e+01   3.6542856116e+00    0.1611043    0.1015061 -42.60  0.001035848    2.401    0.584
        12 -11.2077    239.9742    216.2464   8.7897725262e+01  -9.1487471020e-02    0.2321671    0.1160559 -41.10  0.001292536    3.500    0.714
        13 -11.2439    230.1434    213.5621   8.9026969220e+01   1.4678451976e+00    0.1896674    0.1132489  -7.77 0.0005172287    1.714    0.417
        14 -10.0041    173.8035    221.3908   9.9613659799e+01   8.5864039990e+00    0.1747305   0.09007654 -44.59  0.001031186    2.620    0.618
        15  -9.5276    217.6766    212.3015   9.0843895280e+01   3.3123233182e+00   0.09702174   0.08064906  43.36  0.000702847    1.633    0.388
        16 -10.7832    115.9130    209.3658   1.0911495364e+02   1.8656911892e+01    0.2320802    0.1550077 -77.21  0.001451378    2.081    0.519
        17 -10.0258     56.3252    205.6584   1.2083328394e+02   2.7023263301e+01    0.1225451     0.060217  58.46  0.000545206    1.733    0.423
        18 -10.0404    185.4863    203.9904   9.5147681232e+01   8.9628202678e+00    0.1347053    0.1056439 -74.18 0.0008103771    2.557    0.609
        19 -10.3734     48.7399    201.5363   1.2212222694e+02   2.8603302033e+01    0.2281121     0.111366  80.27  0.001293177    2.218    0.549
        20 -11.0771     41.6697    200.9907   1.2353711377e+02   2.9466390227e+01    0.2144342     0.168586 -79.11  0.000954222    1.452    0.311
        21 -10.7383      3.4433    199.8534   1.3112729826e+02   3.3261306462e+01    0.2055277    0.1111983  48.50 0.0009799566    1.323    0.244
        22 -10.4899    149.0212    198.0570   1.0118169792e+02   1.5407334967e+01    0.2670689    0.1612008 -77.70  0.001152696    4.372    0.771
        23 -10.4692    112.8315    198.5358   1.0855455026e+02   2.0825809741e+01    0.2284197    0.1320675  65.97  0.001195934    2.280    0.561
        24 -12.2859    159.4384    191.4119   9.8200412906e+01   1.4728327614e+01    0.5791661    0.4254349  77.41  0.002872321    2.334    0.572
        25 -10.0466    109.0132    186.0008   1.0790071640e+02   2.3514965462e+01    0.2073967    0.1250458  82.07  0.001017258    2.628    0.620
        26 -10.4506    183.2987    182.7881   9.2277057441e+01   1.2053874356e+01    0.2830105    0.1494263 -34.72  0.001498955    2.187    0.543
        27 -10.2336    210.2562    182.7449   8.7409014855e+01   7.6979630229e+00    0.1809419   0.09169943 -18.71 0.0009009695    2.443    0.591
        28  -9.7614    133.3003    195.6599   1.0401041768e+02   1.8210381337e+01    0.1209295   0.08395422  61.79   0.00070363    1.668    0.400
        29 -10.2170    191.7155    177.1738   8.9770101079e+01   1.1417217915e+01    0.2684985    0.1089108 -34.56  0.001225853    2.805    0.644
        30 -10.6139    224.0179    183.2840   8.5176958733e+01   5.4948718706e+00    0.1692179    0.1311055  18.18 0.0009175549    1.037    0.035
        31 -11.7500     38.3091    175.0311   1.2272439988e+02   3.4722066670e+01    0.2116633    0.1691237  57.33   0.00151179    1.073    0.068
        32 -10.1377    215.0259    193.4801   8.8374047490e+01   5.7153098692e+00    0.2061844     0.139866 -47.49  0.001030997    2.406    0.584
        33 -10.0409    176.2338    171.2190   9.1685230787e+01   1.4881012930e+01    0.1836498    0.1038372 -51.33 0.0008928027    2.491    0.599
        34 -11.8423    121.2514    166.8215   1.0260479565e+02   2.5033872460e+01    0.5736245    0.2107814 -53.48  0.002369723    3.129    0.680
        35 -11.6242     55.3369    167.6601   1.1820208361e+02   3.4318045573e+01    0.4085439    0.2126772  81.01  0.001974073    2.149    0.535
        36 -10.3411     92.3937    160.2019   1.0844088477e+02   3.0869509216e+01    0.1778745    0.1188057 -83.93 0.0009495612    1.765    0.433
        37 -10.6356     22.7989    159.8865   1.2543826101e+02   3.9319293213e+01    0.2435501   0.09231284  51.38  0.001151635    2.099    0.524
        38 -11.7633    106.2662    157.7544   1.0474986909e+02   2.9202473277e+01    0.5677848    0.3450415  69.37   0.00269039    2.188    0.543
        39 -10.8139    167.2567    157.1262   9.0964027196e+01   1.8640020236e+01    0.2541622    0.2302523 -76.50  0.001244924    1.456    0.313
        40 -10.5263    218.4210    156.2605   8.1192261263e+01   9.6245713467e+00    0.2939687    0.1133041 -33.93  0.001305047    2.655    0.623
        41 -10.8195    118.4263    156.7039   1.0169696480e+02   2.7402597983e+01    0.2853306    0.2259338  42.80  0.001318841    1.115    0.103
        42 -10.1359     81.3158    153.9922   1.1036287337e+02   3.3766772948e+01    0.2047458   0.09763482  87.72 0.0007042707    4.219    0.763
        43 -10.3906     23.3318    153.7718   1.2495690515e+02   4.0559863668e+01    0.1840232    0.1152479  72.19 0.0006164362    1.340    0.254
        44 -10.7318     40.1025    152.5558   1.2066737898e+02   3.9190652392e+01    0.2322923     0.137511  74.53 0.0008750386    1.577    0.366
        45 -10.5995    189.7545    150.3096   8.5189098155e+01   1.5548555319e+01    0.2901479    0.1761399 -50.27  0.001405371    2.271    0.560
        46 -10.7732    233.6875    146.1917   7.6696529498e+01   8.2708392046e+00    0.2413403   0.09614496 -35.88  0.001081616    2.597    0.615
        47 -11.2574    107.0670    145.4575   1.0263168717e+02   3.1543549311e+01    0.4189273     0.236531  67.16  0.001751407    2.601    0.615
        48 -10.4082     55.4936    145.9806   1.1606854459e+02   3.8893525457e+01    0.1842509   0.09121291  76.40 0.0008098225    2.489    0.598
        49 -10.5144    148.2268    144.6973   9.2697123486e+01   2.4295281015e+01    0.3041836     0.212623 -81.90  0.001386169    2.473    0.596
        50 -10.3316     88.3154    144.6638   1.0728930257e+02   3.4707517296e+01    0.1424876   0.09280581  67.52 0.0007047454    1.694    0.410
        51 -10.0838    124.5054    143.0100   9.7910513912e+01   2.9003076971e+01    0.1912906    0.1224056 -82.45 0.0008106568    2.618    0.618
        52 -10.0931    181.6926    141.7084   8.5018919840e+01   1.8379628622e+01    0.2563092    0.1640527 -58.41  0.001167449    2.480    0.597
        53 -10.5755     83.0037    132.0257   1.0677002085e+02   3.8270850900e+01    0.2317432    0.1505626  68.68  0.001136757    1.734    0.423
        54 -11.7612     98.8769    128.1356   1.0175624621e+02   3.6587978293e+01    0.5752478     0.336367  86.05  0.002214812    3.072    0.675
        55 -10.7273     59.2834    124.6891   1.1241908258e+02   4.3244800310e+01    0.4852454    0.2261515  75.86  0.001755344    3.575    0.720
        56  -9.9987    117.3426    125.6660   9.6367280947e+01   3.3834748036e+01    0.1507771    0.1088803  74.67 0.0005371381    1.758    0.431
        57 -11.1541     43.0770    122.5811   1.1693534437e+02   4.5626879171e+01    0.6379152    0.2534218  82.48  0.002151698    4.241    0.764
        58 -11.1503     27.1234    121.0715   1.2152199493e+02   4.7533819504e+01    0.6168956    0.2073602  75.57  0.001965482    4.944    0.798
        59 -11.1406     14.4459    121.1150   1.2525784546e+02   4.8548317855e+01    0.3325959    0.2904233 -19.07  0.002305199    1.558    0.358
        60 -11.8049    193.3585    118.4679   7.7640367853e+01   1.9676732584e+01    0.4668081    0.4058871 -73.08  0.001825307    1.558    0.358
        61 -11.1431    141.3822    112.7733   8.7436212399e+01   3.1677568991e+01    0.2929392    0.1898785 -40.11  0.001349351    1.632    0.387
        62 -10.6281      2.1825    115.6250   1.2852377209e+02   5.0626290300e+01    0.2954031    0.1166288  78.29   0.00129784    2.286    0.563
        63 -11.0670    140.6910    117.2392   8.8652502100e+01   3.0949534817e+01     0.519869    0.1883357 -52.46  0.001654094    3.663    0.727
        64 -10.5417    108.6765    113.3197   9.6085408672e+01   3.8086311077e+01    0.4841835    0.2089369 -65.11  0.001515288    3.958    0.747
        65 -11.6025    159.0000    111.0061   8.2898002184e+01   2.8248102678e+01    0.7435334    0.2421499 -41.52  0.002466206    3.172    0.685
        66 -10.5363     91.7920    111.1947   1.0046392440e+02   4.1567974257e+01    0.4364701    0.1962141 -67.45  0.001564412    3.005    0.667
        67 -11.1258     78.4407    110.5841   1.0435185447e+02   4.3865753888e+01    0.5703914    0.2328834 -65.82  0.002139678    2.739    0.635
        68 -10.7218    174.1186    110.8463   7.9607974103e+01   2.4995638303e+01    0.3500095    0.2155135 -39.00  0.001273483    1.668    0.400
        69 -11.3777     14.1625    109.5003   1.2449449922e+02   5.1277392362e+01    0.5816016    0.2357221 -82.99  0.002738006    2.151    0.535
        70 -12.2369    140.2573    105.1495   8.5843390571e+01   3.3410836757e+01    0.4134484    0.3647207  65.74  0.002135967    1.202    0.168
        71 -12.2673    139.8292    100.9903   8.4887656100e+01   3.4321484564e+01    0.6016056    0.2803458  41.58  0.002287278    2.167    0.539
        72  -9.8182    133.2884    106.3270   8.7883188267e+01   3.4659742189e+01    0.1482839    0.1186126   0.62 0.0002375126    1.613    0.380
        73 -11.8766     44.2855    100.7785   1.1365787675e+02   5.0705904549e+01    0.6582693     0.324004  84.06  0.002687512    2.717    0.632
        74 -11.7286    127.6555    100.7308   8.7934989887e+01   3.6988091913e+01    0.4344359    0.2602001 -50.94   0.00188432    1.766    0.434
        75 -11.0307     82.3513    100.6100   1.0110075986e+02   4.5579087975e+01     0.260944    0.2561497 -22.99 0.0008075673    1.152    0.132
        76 -10.7386     63.8128     97.2128   1.0644506783e+02   4.9170559456e+01    0.2499557    0.1335717  69.43 0.0009576713    2.863    0.651
        77 -12.5868    170.3153     90.6142   7.5156897200e+01   2.9308957063e+01    0.4620636    0.3707806  70.61  0.001296956    1.458    0.314
        78 -12.7869    109.9327     99.8289   9.2585129094e+01   4.0792881620e+01     1.109031    0.5454249  62.57  0.003540937    3.676    0.728
        79 -10.7636     34.2316     86.9440   1.1506872822e+02   5.5104018136e+01    0.7055795    0.1513576 -66.75  0.002363875    3.584    0.721
        80 -10.3674      4.3859     89.8213   1.2621130792e+02   5.6557372289e+01    0.1824529   0.08838604 -70.15 0.0009527018    1.719    0.418
        81 -11.6949     42.5670     87.8101   1.1214735313e+02   5.4057083865e+01    0.6132973    0.3592461  -9.24  0.002595895    3.159    0.683
        82 -10.9719     45.2570     81.6178   1.0999549742e+02   5.5281643777e+01    0.3602808    0.2092912 -82.02 0.0009687864    1.851    0.460
        83 -10.5276    151.4560     87.2901   7.8368539603e+01   3.4308956245e+01    0.2887258    0.1520464 -32.51 0.0007968382    2.061    0.515
        84 -10.6722     86.9773     87.4816   9.6506491557e+01   4.7850992475e+01    0.4107947    0.2234056  72.95  0.001221077    4.629    0.784
        85 -10.9632    104.2914     83.2330   8.9858403881e+01   4.5545744463e+01    0.4095535     0.257719 -71.41  0.001642487    2.291    0.564
        86 -10.2790    140.5573     82.2972   7.9540590305e+01   3.7792086869e+01    0.3026043     0.146442 -43.99  0.001141827    2.110    0.526
        87 -10.6390     23.7297     79.8600   1.1797737174e+02   5.7739896563e+01    0.3277993    0.1344511  84.44  0.001214706    3.363    0.703
        88 -10.9816     62.4130     72.8381   1.0141486258e+02   5.5226079116e+01    0.5988011    0.1261816 -57.86  0.001696188    4.334    0.769
        89 -10.9982     81.8432     72.9227   9.4269461590e+01   5.2098208636e+01     0.431114    0.2661212  86.62  0.001550442    3.252    0.693
        90 -11.9054    223.4050     71.1915   6.0841825165e+01   1.9979100804e+01    0.3024068    0.2467711 -37.13 0.0008316303    1.179    0.152
        91 -10.2474    116.3227     73.6519   8.3403994813e+01   4.5035687615e+01    0.1597694    0.1221657 -83.61 0.0007049296    1.743    0.426
        92 -10.5472     51.8628     70.7538   1.0502322104e+02   5.7145859716e+01    0.2671441    0.1716347  86.11  0.001122509    2.041    0.510
        93 -11.5772     20.4604     51.0299   1.1434870743e+02   6.5025612243e+01    0.6627934    0.2308664 -66.52  0.002804374    2.300    0.565
        94 -13.6712     30.4215     59.6456   1.1154663228e+02   6.2143432186e+01     1.216831    0.8232552  26.88  0.004248514    1.673    0.402
        95 -12.2983    235.5488     62.6242   5.7073788152e+01   1.8409784140e+01    0.5703626    0.3037619 -67.74  0.002147545    3.624    0.724
        96 -11.7516     19.3661     59.5428   1.1653855555e+02   6.3035203024e+01    0.3748004     0.234355 -54.13  0.001128766    1.429    0.300
        97 -11.6089     39.6742     52.3302   1.0544784590e+02   6.2991316602e+01    0.4903974    0.2326583 -49.85  0.000961072    1.882    0.469
        98 -11.2909      7.9656     56.1560   1.2122463449e+02   6.4521935793e+01    0.3950389    0.1867497 -82.16  0.001946809    1.871    0.466
        99 -12.5019    149.4091     52.2720   6.7851713027e+01   4.0939444357e+01    0.3448161    0.3080921  56.70 0.0004347338    1.116    0.104
       100 -10.6903    156.9875     44.9822   6.3776772264e+01   4.0085173120e+01    0.2814704    0.2154263  59.20 0.0004369059    1.300    0.230
       101 -11.3908     70.0208     42.2197   8.8295602624e+01   6.0929046589e+01    0.5375826    0.3162692  63.81  0.002108236    2.899    0.655
       102 -11.3945      7.8303     43.3553   1.1921797728e+02   6.7612885169e+01    0.5539758    0.2361684  36.84   0.00267286    2.657    0.624
       103 -11.9841     41.9074     37.7373   9.9635905679e+01   6.6107507160e+01    0.4250287    0.3379279 -23.75  0.001290957    1.339    0.253
       104 -11.1179     36.4976     38.9872   1.0287714653e+02   6.6446304816e+01    0.4000945    0.2265617 -69.23  0.001830406    1.909    0.476
       105 -11.3979    120.2136     34.3301   6.8051336121e+01   5.1320107230e+01    0.3303818    0.2945907  80.56  0.000614154    1.217    0.179
       106 -10.1311     48.3763     34.8252   9.5223577921e+01   6.5909479583e+01    0.2022291    0.1106047 -42.74 0.0005318709    1.699    0.412
       107 -11.6023     29.1683     32.8413   1.0473152605e+02   6.8593827983e+01    0.4024965    0.2920613  48.81  0.001331235    1.677    0.404
       108 -10.3727     73.3833     32.2030   8.2605983335e+01   6.2303006577e+01    0.3110082    0.1754002  66.54  0.001099033    3.557    0.719
       109 -11.1356    106.5840     30.0368   6.9989968169e+01   5.5387253465e+01    0.4017858    0.2844392  64.41  0.001445727    1.544    0.352
       110 -10.4567    101.5747     29.4343   7.1226980379e+01   5.6689112604e+01    0.4912975    0.1894677 -41.57   0.00171596    2.652    0.623
       111 -10.6967     68.6835     24.5459   8.0953077777e+01   6.4614642901e+01    0.2908065    0.1803035 -34.85 0.0007780992    1.551    0.355
       112 -11.7866    221.5103    248.4875   9.5147927793e+01  -5.6388426888e-01    0.4534025    0.1882223  40.91   0.00276988    2.113    0.527
       113 -10.4339     46.5993     16.2643   8.7438948185e+01   6.9923682577e+01      0.25664    0.2074574  -8.77 0.0008579195    1.269    0.212
       114 -10.8869    239.6171     20.6082   4.5744901956e+01   2.2215819617e+01    0.2337443    0.2147946 -52.14 0.0006228584    1.069    0.065
       115 -12.2782     22.6256    239.3234   1.2867257242e+02   2.5043770466e+01    0.4295116    0.1521151  61.61  0.002667553    2.175    0.540
       116  -9.9710     89.0508     18.0273   6.9829461535e+01   6.1380748988e+01    0.2517119    0.1654124  86.29  0.001020656    2.614    0.617
       117 -10.0048     32.6613    242.2874   1.2703614323e+02   2.3626380783e+01    0.1073472     0.044711  53.75 0.0006201214    1.636    0.389
       118 -10.6245      7.8178    240.4117   1.3121825072e+02   2.6225777009e+01     0.120317    0.0757405  30.68 0.0004203743    1.665    0.400
       119 -11.1125     12.7252    227.4705   1.3008025107e+02   2.7801706467e+01    0.2018731    0.1129406  57.45 0.0005618467    1.220    0.180
       120  -9.9213    104.4596    224.9952   1.1285737794e+02   1.7874011491e+01     0.137816    0.1092805 -75.47  0.001035098    1.610    0.379
       121 -10.9565     95.2296    224.8790   1.1460191356e+02   1.9103006147e+01    0.2307781    0.1302248  60.66  0.001438477    1.794    0.443
       122 -11.0619    149.5760    221.9019   1.0406587985e+02   1.2020359957e+01    0.3484325    0.2097186 -43.79  0.002250629    2.191    0.544
