#   1 NUMBER                 Running object number                                     
#   2 MAG_AUTO               Kron-like elliptical aperture magnitude                    [mag]
#   3 X_IMAGE                Object position along x                                    [pixel]
#   4 Y_IMAGE                Object position along y                                    [pixel]
#   5 X_WORLD                Barycenter position along world x axis                     [deg]
#   6 Y_WORLD                Barycenter position along world y axis                     [deg]
#   7 A_WORLD                Profile RMS along major axis (world units)                 [deg]
#   8 B_WORLD                Profile RMS along minor axis (world units)                 [deg]
#   9 THETA_WORLD            Position angle (CCW/world-x)                               [deg]
#  10 FWHM_WORLD             FWHM assuming a gaussian core                              [deg]
#  11 ELONGATION             A_IMAGE/B_IMAGE                                           
#  12 ELLIPTICITY            1 - B_IMAGE/A_IMAGE                                       
         1 -10.4850     24.5717     16.7363   1.2120731730e+02   7.1384872118e+01     0.640923    0.3388617  35.37 0.0008390518    2.301    0.565
         2  -9.3307     31.5780     10.8070   1.1382175702e+02   7.1794780374e+01    0.4384249    0.2019444 -32.71  0.001420343    2.094    0.522
         3  -9.5840     63.9063     14.4530   9.9119604058e+01   6.6179787953e+01    0.4267924    0.2660114  19.30 0.0009934889    1.880    0.468
         4  -8.8648     79.9427     12.8292   9.1920322609e+01   6.3229185633e+01    0.3011393    0.2683097 -44.50  0.001074533    1.347    0.257
         5  -9.1394     74.5826     13.0846   9.4029423254e+01   6.4308322517e+01     0.426519    0.2676244 -13.86  0.001702408    1.634    0.388
         6  -8.7106     88.4832     13.3912   8.9326597808e+01   6.1295982810e+01    0.3359367    0.1936973  25.83  0.001193126    2.003    0.501
         7  -8.1701    134.8137     13.1959   7.7738522971e+01   4.9990689941e+01    0.3065262    0.1757213  18.36 0.0004018013    2.161    0.537
         8  -9.2868    137.1283      9.1387   7.5638761501e+01   4.9796507161e+01    0.4071848    0.1768261 -28.75  0.001600892    2.189    0.543
         9  -8.6552     97.2260     12.0818   8.6000636281e+01   5.9461254718e+01    0.2858986     0.207417  30.74 0.0006904641    1.341    0.254
        10  -8.6085    157.4129     11.1869   7.3196119618e+01   4.4295426872e+01    0.2203258    0.1212499 -33.61 0.0009550953    1.770    0.435
        11  -8.2105    105.8702     10.8427   8.3047692412e+01   5.7542587950e+01    0.2343828    0.1825764  24.28 0.0005531737    1.241    0.194
        12 -10.5263     20.2730      8.7379   1.1994967697e+02   7.3417002562e+01    0.2462752    0.1998839 -16.11 0.0003139151    1.152    0.132
        13  -8.3394      2.0467      7.8501   1.3250356541e+02   7.4908641207e+01    0.2566364    0.1777598 -65.69  0.001599137    1.365    0.268
        14  -8.8713    128.6632      6.7930   7.6183632298e+01   5.2218652517e+01    0.5070514    0.1487388 -13.78  0.001447623    4.326    0.769
        15  -8.6622     84.3828      6.5392   8.6996331655e+01   6.3060062106e+01    0.4233435    0.2054486  19.42  0.001498788    3.174    0.685
        16  -8.2992     76.8079      7.1063   8.9880579034e+01   6.4644417265e+01     0.324438    0.1527723  41.68  0.001151221    2.078    0.519
        17  -8.6461     68.9357      3.3791   9.0627154454e+01   6.6753016371e+01    0.4534152    0.2168435 -11.51  0.001799105    2.561    0.610
        18  -8.7604     56.6489      4.8308   9.6709379963e+01   6.8945466093e+01    0.3487355     0.205796  14.00  0.001599684    2.108    0.526
        19 -10.0180     49.1166      4.6079   1.0021117849e+02   7.0300215176e+01    0.2617911    0.1981818  -5.37 0.0003332801    1.201    0.168
        20  -9.2453    110.9424      4.2030   7.8633924088e+01   5.6981289970e+01    0.3869533    0.2312661 -33.47  0.001784676    1.723    0.420
        21  -8.9737     12.3414      4.6931   1.2337701440e+02   7.4915903346e+01    0.2420224    0.1962162 -81.58  0.001504298    1.809    0.447
        22  -8.6809    154.1627      3.2263   7.0668547323e+01   4.5862584708e+01    0.2750408    0.1947661  31.26 0.0007159399    1.470    0.320
        23  -8.8898    125.5167      3.7995   7.5464570725e+01   5.3307808788e+01    0.2438928    0.1954753  55.48 0.0004585345    1.202    0.168
        24  -8.9099    104.1280      3.6581   7.9954451699e+01   5.8723529471e+01    0.4353312     0.219068  15.75  0.001650343    2.642    0.621
        25  -9.1554    142.1224      2.2695   7.2019350128e+01   4.9107467899e+01    0.4481083    0.1767853  56.64 0.0008691252    2.233    0.552
        26  -8.0785    182.1851      2.1864   6.7022784672e+01   3.8678680989e+01     0.200987    0.1797049  39.42  0.000441717    1.151    0.131
        27  -7.8435      2.8589      1.3070   1.2891536523e+02   7.6250521623e+01    0.1500422   0.09659221 -11.08            0    1.623    0.384
        28  -7.7822    194.8669    229.2355   1.2001663317e+02   5.1708110427e+00    0.1558523   0.09832421  15.42 0.0007143169    1.364    0.267
        29  -8.2203    249.1663    250.0550   1.1418479844e+02  -3.3653696579e+00     0.164303   0.09265994  11.50  0.001230586    1.309    0.236
        30  -9.2146    212.7681    250.4317   1.1984020005e+02   8.0690277978e-01    0.2920298   0.07273082  35.61  0.001399321    2.985    0.665
        31 -10.2373    200.6619    249.0722   1.2161689680e+02   2.3963889357e+00    0.3457441    0.1689403  23.80  0.001310954    1.645    0.392
        32  -9.1286    151.2320    249.5996   1.2995261389e+02   8.4490889993e+00    0.2653599    0.1199182  29.75  0.001001432    1.780    0.438
        33  -7.7809    123.5546    250.5170   1.3480642461e+02   1.1709426664e+01    0.1841467   0.07960374  27.19  0.001022142    2.268    0.559
        34  -7.7939    100.5572    229.4874   1.3706436660e+02   1.7328890680e+01    0.1060949   0.08406355  39.36 0.0001537815    1.039    0.038
        35  -7.3355    175.2526    228.2982   1.2330066047e+02   7.8671103229e+00    0.1047194   0.07011432   9.23            0    1.495    0.331
        36  -7.3341    133.6429    228.7183   1.3087152084e+02   1.3299087167e+01    0.1084668   0.07402781  12.92 0.0007016041    1.666    0.400
        37  -8.9849    247.2251    225.3193   1.1093991017e+02  -1.0604968204e+00     0.275888     0.144522  -4.67  0.001756762    1.826    0.452
        38  -8.4865    187.2696    226.7518   1.2099103775e+02   6.4498107262e+00     0.226468    0.1182519  26.93 0.0008469176    1.546    0.353
        39  -7.0051    110.7010    227.6940   1.3501737801e+02   1.6352363972e+01   0.09995655   0.07712951   7.60 0.0006109611    1.591    0.372
        40  -7.3843     92.7065    227.6363   1.3836324459e+02   1.8537935268e+01   0.09692781   0.07860156  -4.38 0.0006560958    1.708    0.415
        41  -8.0120    237.2015    225.5684   1.1253451964e+02   1.3709275798e-01    0.1502846   0.07345565  23.61   0.00050515    1.608    0.378
        42  -7.9373    223.5824    225.1546   1.1465037598e+02   1.8822117468e+00     0.144172   0.08380323  -8.96 0.0009392896    1.714    0.417
        43  -7.3756    206.5535    222.4832   1.1708563687e+02   4.3658332887e+00    0.1143206   0.08027689  15.18 9.533215e-05    1.082    0.076
        44  -7.4052     51.6262    221.7016   1.4558631094e+02   2.3981281609e+01   0.09123853   0.07762375  -6.18  0.000702784    1.746    0.427
        45  -8.5091    182.4123    219.7497   1.2089211178e+02   7.9228952740e+00    0.2206323     0.140142  20.28 0.0007412795    1.337    0.252
        46  -7.6473    130.4552    220.5187   1.3056591180e+02   1.4857330249e+01    0.1123628   0.08900704  35.27 0.0008085572    1.024    0.024
        47  -7.5786     40.3624    220.2779   1.4758648339e+02   2.5319805811e+01   0.08706196   0.07686169  -4.46 0.0007010415    1.669    0.401
        48  -7.6210    217.3469    219.3027   1.1480912848e+02   3.2816772448e+00    0.1177246   0.06596545  11.71 0.0005148085    1.690    0.408
        49  -7.6724    173.5897    219.2008   1.2240024116e+02   9.1967021348e+00    0.1371703    0.0977219 -14.15 0.0004664407    1.568    0.362
        50  -8.2911    239.6670    218.0040   1.1099799141e+02   5.4344301353e-01    0.1534874    0.1046985   7.67 0.0005823981    1.073    0.068
        51  -7.7059    227.5070    217.4668   1.1286175687e+02   2.1459800470e+00    0.1138233   0.07882228  12.88 1.994664e-05    1.043    0.041
        52  -9.0258    248.0262    211.9170   1.0873447182e+02   7.3393850429e-02     0.271176    0.1475749   4.74  0.001490455    1.670    0.401
        53  -7.8028    203.8418    216.2075   1.1663184028e+02   5.4169445130e+00     0.162576    0.1023428  14.82 0.0006646205    1.364    0.267
        54  -8.4156    193.6081    215.6870   1.1833534626e+02   6.8720788649e+00    0.2428042    0.1419181  12.31 0.0009270733    1.754    0.430
        55  -7.8050    179.1743    215.1201   1.2082883180e+02   8.9340780561e+00    0.1751611    0.1242068  12.12 0.0005827237    1.281    0.219
        56  -7.7396     83.7567    215.3904   1.3903434471e+02   2.1500444904e+01     0.150594   0.09135068  26.90 0.0006694466    1.653    0.395
        57  -7.5392    210.5165    214.5663   1.1524516000e+02   4.6966774071e+00    0.1142572   0.08399692  16.64 0.0001307998    1.022    0.022
        58  -7.9267    122.2948    213.2471   1.3131556416e+02   1.7005088187e+01    0.2159151    0.1158187  27.75 0.0007645093    1.763    0.433
        59  -7.2629    169.3509    212.2900   1.2223112178e+02   1.0666521123e+01     0.119079   0.07596707  11.87  0.000367598    1.670    0.401
        60  -7.7017    232.7831    211.1956   1.1103055216e+02   2.0933918314e+00    0.1603537   0.09788855  10.08 0.0007375878    1.354    0.261
        61  -7.9483    185.9606    210.6412   1.1896056015e+02   8.5411065268e+00    0.1904993    0.1139301  20.33  0.001148673    1.499    0.333
        62  -8.0782     54.3213    210.7509   1.4440005697e+02   2.5526389312e+01    0.1448077    0.1152862 -19.21  0.001033658    1.965    0.491
        63  -7.7444    133.1694    209.6187   1.2877165700e+02   1.6084263929e+01    0.1663868   0.09284247  27.63 0.0008033948    1.659    0.397
        64  -7.7812    163.0532    207.9560   1.2280630531e+02   1.2135581277e+01    0.1821526    0.1226386   6.71 0.0006399362    1.664    0.399
        65  -8.1261    246.8746    205.3905   1.0785528580e+02   8.4616395542e-01    0.2225278    0.1140535  -7.88  0.001307909    1.926    0.481
        66  -9.2594    124.0157    205.9916   1.3013757739e+02   1.7887454345e+01    0.1652639    0.1357616  35.36   0.00116408    1.004    0.004
        67  -7.8122    215.8542    205.2554   1.1289052255e+02   4.9988249158e+00    0.1638454    0.1030675  12.27 0.0005156989    1.372    0.271
        68  -8.1106    117.7060    205.1579   1.3129884536e+02   1.8871334438e+01    0.2038485    0.1357414  11.50 0.0007965494    1.940    0.485
        69  -7.5779     48.4824    205.4957   1.4520161724e+02   2.7029203953e+01    0.1789779   0.09913175  18.23  0.001024944    2.441    0.590
        70  -7.3940    205.6986    204.6857   1.1454903957e+02   6.4790101431e+00    0.1198006   0.07297878   8.77 0.0003256622    1.613    0.380
        71  -7.9443    176.4876    204.4711   1.1978555892e+02   1.0677684069e+01    0.1192378   0.09407333  21.48 2.617583e-05    1.014    0.013
        72  -7.4802    156.7716    203.9825   1.2345020994e+02   1.3587569379e+01    0.1299119   0.09751505 -37.34 0.0004826149    1.564    0.360
        73  -8.4142    250.3999    199.5022   1.0632674304e+02   9.6936213497e-01    0.2667488    0.1107494 -21.06  0.001441188    2.317    0.568
        74  -8.1539    228.8228    200.1606   1.0988728587e+02   3.7754901996e+00    0.2727202    0.1191893  -7.15  0.001083895    4.186    0.761
        75  -7.8925    195.9974    200.5173   1.1560775434e+02   8.3638472553e+00    0.1860355    0.0960122  33.55  0.001037447    1.609    0.378
        76  -7.9510    243.3072    198.6118   1.0728643062e+02   1.9872856572e+00     0.192613    0.1061145  -4.05  0.000880393    1.733    0.423
        77  -7.4857     99.6816    198.7185   1.3424328288e+02   2.2309768997e+01    0.1078645   0.08655863   2.61 0.0006303941    1.582    0.368
        78  -7.2066     42.6788    198.6382   1.4592543518e+02   2.8823283916e+01   0.09837955   0.07998668 -36.00 0.0007042102    1.776    0.437
        79  -8.2410    165.6685    197.5099   1.2079728485e+02   1.3209392038e+01    0.2444751    0.1004018  36.10  0.001174737    2.045    0.511
        80  -7.7556    236.6178    195.7830   1.0787687992e+02   3.1799143286e+00    0.1418972   0.09564836 -25.81 0.0008064311    1.587    0.370
        81  -8.2434    192.8915    194.3785   1.1518427876e+02   9.5942447512e+00    0.3006291    0.1825176   0.95  0.001661002    1.922    0.480
        82  -7.8560      1.7677    194.3891   1.5377202642e+02   3.3086381139e+01    0.1188221    0.0901541  25.66 0.0006747392    1.560    0.359
        83  -7.2477    124.4600    193.4672   1.2848571789e+02   1.9832890025e+01    0.1198575    0.1023597  30.53 0.0003487015    1.040    0.039
        84  -7.7201    246.7262    189.8560   1.0523972404e+02   2.4309772186e+00    0.2017262   0.09403482   8.98 0.0009463894    2.763    0.638
        85  -7.9827    224.4845    190.0092   1.0888752440e+02   5.5102568625e+00    0.1679353   0.08495007  -5.71  0.000809967    2.508    0.601
        86  -8.9749    190.9805    189.1544   1.1467397057e+02   1.0563561682e+01    0.1842438    0.1512404   1.05 0.0002596026    1.118    0.106
        87  -7.7236     64.9680    189.5103   1.4063412214e+02   2.8162842598e+01    0.1694113    0.1002738  33.41 0.0005284628    1.561    0.359
        88  -7.4993    231.5049    184.4833   1.0674168110e+02   5.1337137509e+00    0.1212582   0.09073371   7.74 -8.916316e-05    1.007    0.007
        89  -7.4458    217.4937    184.4837   1.0911228592e+02   7.1767582313e+00    0.1254335   0.09261934   9.46 0.0001105704    1.072    0.067
        90  -7.1525    249.6890    182.3099   1.0343165215e+02   2.8173614547e+00   0.09734447   0.08788767 -10.48 0.0004640745    1.624    0.384
        91  -7.2776    165.4844    182.4470   1.1846900623e+02   1.5441837852e+01    0.1264254    0.1053643  20.67 0.0001230416    1.006    0.006
        92  -7.4118    183.5667    180.4925   1.1459812269e+02   1.2893969646e+01    0.1270313    0.1029419  13.40 0.0001564193    1.028    0.027
        93  -7.4881     96.6118    178.2299   1.3253103005e+02   2.6376394858e+01    0.1493419    0.1118861 -48.04 0.0003021988    1.524    0.344
        94  -7.3399    121.5244    177.4539   1.2691387183e+02   2.2999254215e+01    0.1248938    0.1099463  37.68 0.0001453112    1.025    0.024
        95  -7.6546    204.7552    175.2403   1.0970269389e+02   1.0283261505e+01    0.2032424   0.08320347  30.07 0.0008852347    2.436    0.590
        96  -8.0751    148.7778    174.8849   1.2065282026e+02   1.9263836342e+01    0.2595377    0.1460485  14.35  0.001138378    2.643    0.622
        97  -7.2432    137.6848    175.6839   1.2314150010e+02   2.0864109597e+01    0.1273496   0.09390743   1.21 0.0007036731    1.647    0.393
        98  -7.6593     46.7494    175.4218   1.4343498119e+02   3.2819142980e+01    0.1448086    0.1069865  20.88 0.0009423057    1.594    0.373
        99  -8.1963    184.2131    171.8145   1.1293202503e+02   1.4037503365e+01    0.1846226    0.1327947   8.29  0.001068252    1.352    0.261
       100  -8.0283     14.7878    170.3942   1.5017684640e+02   3.6678672969e+01    0.1373932    0.1028837  11.31 0.0009558957    1.784    0.439
       101  -8.2146    176.9801    167.5275   1.1356883706e+02   1.5860435178e+01    0.2416607    0.1586578   7.06  0.001261211    1.746    0.427
       102  -7.4856    134.6617    167.6968   1.2251756092e+02   2.2728181833e+01    0.1313315   0.09670131   2.11 0.0007038619    1.670    0.401
       103  -7.9534    168.6433    163.8294   1.1457216711e+02   1.7824203865e+01    0.2634234    0.1593173  16.63  0.001273628    1.949    0.487
       104  -7.7766    123.0080    162.4923   1.2428947896e+02   2.5505996442e+01    0.1778958    0.1105132  11.77 0.0007401002    2.360    0.576
       105  -7.6376    160.1613    160.1235   1.1565251543e+02   1.9856386589e+01    0.2672464    0.1448402 -22.14  0.001144178    2.631    0.620
       106  -8.2449    204.4947    159.4912   1.0674378446e+02   1.2456505994e+01     0.134019    0.1060667   7.28 0.0008099208    1.058    0.055
       107  -7.4497    138.5103    158.5002   1.2008748358e+02   2.3758495465e+01    0.1321927    0.1207189  29.25 0.0008102331    1.043    0.041
       108  -7.4551    205.3559    152.2744   1.0512695381e+02   1.3320459245e+01    0.1384666    0.0882503  11.60 0.0007003987    1.647    0.393
       109  -7.6447    168.7904    151.9847   1.1225922133e+02   1.9722549325e+01    0.2031417    0.1356617  17.71 0.0009707023    1.602    0.376
       110  -7.6029    107.0249    152.0000   1.2635628310e+02   3.0004982637e+01     0.217032   0.07093433  35.82   0.00065839    2.896    0.655
       111  -7.2523    120.3232    148.3398   1.2250592899e+02   2.8654591102e+01    0.1380716    0.1037038  -8.59 0.0007050888    1.723    0.419
       112  -8.0202    133.4960    147.5053   1.1922112395e+02   2.6636801661e+01    0.1357182    0.1257409  19.38 0.0008106399    1.010    0.010
       113  -9.4118     66.8908    144.4512   1.3537701627e+02   3.7094504465e+01    0.4444921    0.2663932  63.74  0.002164823    1.902    0.474
       114  -7.5999     40.3690    140.2986   1.4183996726e+02   4.0882510315e+01    0.1204489   0.08841927 -37.13 0.0006121984    1.735    0.423
       115  -6.9208    166.5628    139.4990   1.1014473777e+02   2.2225267821e+01      0.14055    0.1242552   6.45  0.000158476    1.021    0.021
       116  -7.8385     16.1570    138.6476   1.4799502583e+02   4.3284477156e+01    0.1434931    0.1107954   5.23 0.0007334256    1.726    0.421
       117  -9.0528    135.1745    136.7837   1.1670564888e+02   2.8407845837e+01    0.2342314    0.2114038   5.12  0.000232687    1.097    0.089
       118  -8.0081     54.4944    135.5065   1.3752108722e+02   4.0518038240e+01    0.2141517    0.1268314  10.34  0.001025746    2.484    0.597
       119  -8.3229      4.9785    134.2939   1.5058927149e+02   4.5004681147e+01    0.2960498    0.1339287 -31.29  0.001275884    4.314    0.768
       120  -8.4934     23.0176    130.0130   1.4551617613e+02   4.4714616643e+01    0.2482913    0.1588115  -8.06  0.001364683    2.400    0.583
       121  -7.4079    193.3654    127.3031   1.0192828975e+02   1.9191172726e+01    0.1504046   0.09893166  10.57 0.0007035672    1.737    0.424
       122  -7.5051    199.6083    125.2290   1.0025758150e+02   1.8322039709e+01    0.1856401     0.121529 -18.40 0.0003118217    1.487    0.328
       123  -7.5203    153.3255    124.3346   1.0969736467e+02   2.7422000114e+01    0.1520389     0.108896   1.67            0    1.715    0.417
       124  -8.2999    132.0858    122.6101   1.1439867209e+02   3.1764656645e+01    0.3379448    0.2012092 -55.42            0    1.977    0.494
       125  -8.9867     13.8301    119.9737   1.4723104397e+02   4.7689201484e+01    0.4159322    0.1768413 -45.06  0.001908754    2.950    0.661
       126  -7.1894     85.3148    121.3277   1.2668612994e+02   3.9838466696e+01     0.139873    0.1047768 -24.77 0.0007044203    1.673    0.402
       127  -7.6586    119.9903    118.6848   1.1660946353e+02   3.4768262980e+01     0.232818    0.1170687  19.18 0.0007042962    4.221    0.763
       128  -7.5176    100.0101    118.5083   1.2198510633e+02   3.8214715781e+01    0.1976468    0.1260547   7.21 0.0008101941    2.557    0.609
       129  -9.7749    245.1731    116.1849   9.0560874068e+01   1.1225133793e+01    0.2426601    0.2111401   0.48 0.0003397377    1.151    0.131
       130  -7.4137    142.6269    111.7093   1.0919105763e+02   3.1906354801e+01    0.1552164    0.1123642   6.43 0.0007022794    1.725    0.420
       131  -9.0524      2.4905    109.4668   1.4972073609e+02   5.0810528785e+01    0.3825333    0.1401647 -56.49  0.001800321    2.534    0.605
       132  -7.8784    124.0699    107.1653   1.1278445373e+02   3.6421773499e+01    0.2434909    0.1677632  10.52 0.0008300274    1.983    0.496
       133  -7.4564    109.3171    106.3472   1.1662318483e+02   3.9308071954e+01    0.1523339    0.1129235 -13.47 0.0007048269    1.726    0.421
       134  -9.0418     15.2653    104.8851   1.4545630718e+02   5.1151555409e+01    0.4663943     0.209462 -30.29  0.001962476    3.666    0.727
       135  -7.8412     77.6616    104.6855   1.2563186726e+02   4.4780532447e+01    0.2227969    0.1578324 -26.39   0.00100373    1.767    0.434
       136  -8.8169    249.5033    104.0802   8.7142470702e+01   1.1962708039e+01     0.207053    0.1084301 -25.74  0.001032285    1.593    0.372
       137  -7.5754    190.3754    103.3341   9.6610774474e+01   2.3561534775e+01    0.1598815    0.1048041  11.65   3.0401e-05    1.855    0.461
       138  -8.4799    133.7623    107.3929   1.1031614706e+02   3.4504986980e+01    0.5276368    0.1898692 -38.94  0.001772361    2.919    0.657
       139  -8.1270    248.6587     97.3114   8.5660024782e+01   1.2943377861e+01    0.1266576   0.09484062 -47.97 0.0007045787    1.697    0.411
       140  -7.6584    129.7901     97.3904   1.0871389256e+02   3.7311046958e+01     0.219727    0.1382371  30.39 0.0009472962    1.767    0.434
       141  -9.2741      8.9204     96.5252   1.4666375486e+02   5.3535687318e+01    0.3547676    0.1570874  -7.25  0.001522186    3.881    0.742
       142  -7.3948     81.6662     95.0073   1.2218770424e+02   4.6449392924e+01    0.2486937   0.08860385 -38.87 0.0007051485    4.357    0.770
       143  -8.5041     44.4650     91.8150   1.3397170804e+02   5.1939692437e+01    0.3503435    0.2051198 -33.28  0.001657273    2.135    0.532
       144  -8.9495     20.4435     91.6785   1.4226203513e+02   5.4000589707e+01    0.2439551     0.189667 -46.97  0.001520454    1.326    0.246
       145  -7.9739    109.3054     91.3708   1.1275075689e+02   4.2557385212e+01    0.2379401    0.1772893  -5.95 0.0009967085    1.729    0.422
       146  -8.0848     96.3957     90.6790   1.1644769870e+02   4.5039468335e+01    0.3332827    0.2166084  -2.73  0.001321417    2.632    0.620
       147  -8.6724     67.1291     85.8218   1.2481126816e+02   5.0708016897e+01    0.4408046    0.2046763  22.00   0.00168579    2.988    0.665
       148  -9.3706     35.5600     82.2019   1.3538204211e+02   5.5140795112e+01    0.5850105    0.2680729 -34.88   0.00237648    2.956    0.662
       149  -7.2559    140.5442     79.4985   1.0074672099e+02   3.8530192949e+01    0.1549242    0.1436945  -8.40 0.0008089836    1.013    0.013
       150  -8.4045     89.0324     78.6562   1.1543921047e+02   4.8999297849e+01    0.3666791    0.2255899  20.33  0.001555742    2.162    0.537
       151  -9.3948      8.3625     77.1176   1.4474410806e+02   5.8272397388e+01    0.4010831    0.1972152 -50.17  0.001515888    1.861    0.463
       152  -7.8793    184.1627     78.1726   9.0874049037e+01   2.8867752232e+01    0.2273915    0.1918964  11.28  0.000662243    1.179    0.152
       153  -8.7656     48.8875     77.0030   1.2931333649e+02   5.5081275316e+01    0.3389619    0.2758361 -16.52   0.00193494    1.417    0.294
       154  -7.3248    119.3689     76.3169   1.0538674544e+02   4.3704455884e+01    0.1623823    0.1179459   3.69 0.0004950227    1.783    0.439
       155  -9.6690     24.3853     72.8218   1.3792761654e+02   5.8349210113e+01    0.7479444    0.2797404 -37.97   0.00284542    3.422    0.708
       156  -8.1220     23.4515     69.5057   1.3769353765e+02   5.9230353229e+01    0.2022853    0.1808241 -81.59 0.0004990931    1.120    0.107
       157  -7.8707     75.0996     74.5057   1.1900914656e+02   5.2206517566e+01    0.2054262    0.1447401  32.90 0.0006221998    1.541    0.351
       158  -8.0333     80.4759     68.0434   1.1513982651e+02   5.2810526406e+01    0.2102135    0.1709274 -41.90  0.000317705    1.129    0.114
       159  -8.3659     84.0290     64.0015   1.1256416751e+02   5.3094231800e+01    0.3855748    0.2295936  16.57  0.001534482    2.532    0.605
       160  -8.3487     61.8024     67.0235   1.2175723348e+02   5.5867688963e+01    0.3052647    0.1792081 -52.70 0.0007698498    1.517    0.341
       161  -9.4981     65.5666     61.2447   1.1852393483e+02   5.6665993367e+01    0.4505819    0.3216335 -20.16 0.0002054776    1.636    0.389
       162  -8.7861     43.9707     67.5168   1.2894446051e+02   5.7906490398e+01    0.3666029    0.2207317 -19.44  0.001680115    2.309    0.567
       163  -7.6911    105.8801     67.3781   1.0646784903e+02   4.8273846261e+01    0.2123957    0.1398469  29.84 0.0009345313    1.707    0.414
       164  -9.4799     17.5064     62.4348   1.3883771711e+02   6.1358197030e+01    0.4975651    0.2035823 -52.64  0.002308348    1.966    0.491
       165  -7.5076    147.9881     63.5207   9.3828693630e+01   3.9666610773e+01    0.2196094    0.1521836  49.64 0.0004071092    1.487    0.328
       166  -9.0144     51.1856     60.5795   1.2410447786e+02   5.8740954068e+01    0.3835879    0.3273949  67.56  0.001751588    1.444    0.307
       167  -8.7610     33.5106     60.5053   1.3155621165e+02   6.0618784538e+01    0.2528886    0.2235681 -70.35  0.001219603    1.119    0.106
       168 -10.5022     38.8692     57.3421   1.2841146571e+02   6.0869334844e+01    0.3499024    0.2442871 -34.36 0.0001227543    1.433    0.302
       169  -9.5346      1.8588     55.9365   1.4452477117e+02   6.3715725174e+01     0.501512    0.1500408 -63.89  0.002184871    2.274    0.560
       170  -7.1641    111.3124     58.3780   1.0167665107e+02   4.8917933419e+01    0.1636421    0.1165739   0.08 0.0007027724    1.796    0.443
       171  -8.1974    197.1166     54.6344   8.1699733393e+01   2.9244680682e+01    0.2140061    0.1763636 -17.95  0.000248412    1.121    0.108
       172  -8.0259     99.2900     54.5255   1.0400646070e+02   5.2167356617e+01    0.3145874    0.1703997 -28.84  0.001248619    2.017    0.504
       173  -7.8654    118.2663     51.3734   9.7078941981e+01   4.8667304046e+01    0.2089282    0.1489308  58.85 0.0009491431    1.631    0.387
       174  -9.2287     75.3539     50.1558   1.1083471887e+02   5.7537127764e+01    0.3152052    0.2510986 -25.61 0.0003887638    1.204    0.169
       175 -10.3097     45.3505     49.0409   1.2302269647e+02   6.2109028326e+01    0.2654262    0.2263795 -26.65 0.0004805133    1.141    0.124
       176  -9.9376     10.5570     47.0135   1.3891878317e+02   6.5492321632e+01    0.5640014    0.2608347 -38.39  0.001872464    2.126    0.530
       177  -8.3162    106.8839     48.1468   9.9172436225e+01   5.1767598083e+01    0.2117811    0.2021755 -38.25            0    1.140    0.122
       178  -8.8110     22.6614     47.7047   1.3323995824e+02   6.4574385822e+01    0.2534193    0.1779433 -48.04 0.0007115096    1.198    0.165
       179 -10.1482     26.4920     46.5106   1.3107176690e+02   6.4562150843e+01    0.7850922    0.3529305  -9.97  0.002822934    4.371    0.771
       180 -10.0430     83.1742     40.1005   1.0384147116e+02   5.8114368535e+01    0.3470348    0.2522837 -17.29  0.001702905    1.436    0.304
       181  -7.8736     92.7251     42.6145   1.0151374781e+02   5.5757389373e+01    0.1971684    0.1446265  53.14 0.0009464012    1.581    0.368
       182  -8.8656      2.0257     45.4597   1.4274978345e+02   6.6239096286e+01    0.2685187    0.1685089 -53.74  0.001596554    1.290    0.225
       183  -8.5460      3.7430     40.3589   1.4091729474e+02   6.7394875860e+01    0.2488097    0.1403195 -87.74 0.0009007517    1.869    0.465
       184  -9.5101      6.4925     34.2673   1.3808877227e+02   6.8721104819e+01    0.5924302     0.267151 -40.59  0.002743965    1.976    0.494
       185  -7.6423    123.4893     40.5192   9.1474891220e+01   4.9256824981e+01    0.1562065    0.1404976   6.49 0.0001083065    1.068    0.064
       186  -8.1249     46.3144     39.1959   1.1905705886e+02   6.4195061015e+01    0.3705502    0.1755519 -22.58  0.001202173    4.271    0.766
       187  -8.3740     41.3057     40.2904   1.2186954327e+02   6.4552964838e+01     0.139513   0.09133835 -28.16 0.0002950955    1.574    0.365
       188  -9.6073     18.1784     37.9527   1.3281721758e+02   6.7193459204e+01    0.4296292    0.1546492 -40.72  0.001782957    2.614    0.617
       189  -9.1123     91.6661     37.1800   9.9576397736e+01   5.6949964288e+01    0.3406565    0.2462171  35.61  0.001070912    1.424    0.298
       190  -9.0654     96.0554     33.4033   9.6459352001e+01   5.6664313816e+01     0.305168    0.2290891  -3.68    0.0002851    1.426    0.299
       191  -8.2741    106.5896     36.4779   9.4512796962e+01   5.3832008054e+01    0.3332137    0.2316687  12.73   0.00150023    1.726    0.420
       192  -9.2830     54.7317     36.5697   1.1406868932e+02   6.3620175094e+01    0.3120547    0.2444251   0.68 0.0009247449    1.384    0.278
       193  -8.6489     69.5607     35.8510   1.0730573692e+02   6.1408883368e+01    0.3078443    0.2062519  29.24  0.001515858    1.618    0.382
       194  -8.6340     75.6846     33.9684   1.0400675324e+02   6.0666725371e+01    0.4414564    0.1907921  37.66  0.001714194    2.534    0.605
       195  -8.6221     37.6110     35.5528   1.2192720193e+02   6.6016830105e+01    0.3011039     0.164967  14.66  0.001409142    2.315    0.568
       196  -7.8410     82.0706     32.4535   1.0088776120e+02   5.9718065709e+01      0.21062    0.1413585  39.99 0.0005004159    1.551    0.355
       197  -7.4453    155.3895     31.2677   8.0945767182e+01   4.2601495190e+01    0.1624809    0.1048755  31.89 0.0006985076    1.710    0.415
       198  -8.1158    127.8128     30.3923   8.6330106547e+01   4.9692226925e+01     0.242373    0.1892161   8.64 0.0002959052    1.347    0.257
       199  -9.1633      1.6522     29.9160   1.3972251695e+02   6.9941152149e+01    0.2876464    0.1371694 -68.23  0.001413851    1.654    0.395
       200  -7.6987    184.3998     27.4874   7.5059465327e+01   3.5666712462e+01    0.1437909    0.1336475  -4.19 9.169623e-05    1.048    0.046
       201 -10.0660     72.2491     25.7731   1.0152715069e+02   6.2767007243e+01    0.4150697    0.2687501  35.48 0.0008213025    1.610    0.379
       202  -8.9998     64.3257     23.3050   1.0361999331e+02   6.4634463887e+01    0.2615263    0.2004391  30.44  0.001021226    1.357    0.263
       203  -8.8797     61.6715     26.7082   1.0646938430e+02   6.4477414681e+01    0.4127567    0.2103533  39.76  0.001843056    2.127    0.530
       204  -8.7362     57.4650     25.4630   1.0777300006e+02   6.5397709126e+01    0.2791049    0.2334164   1.09 0.0008137451    1.171    0.146
       205  -8.5201     60.2320     22.9987   1.0528189248e+02   6.5393207285e+01    0.3186044     0.200088 -39.20 0.0003197126    1.469    0.319
       206 -10.9153     48.2319     25.5230   1.1224504911e+02   6.6780946480e+01    0.2873584    0.2407056   2.21 0.0003945535    1.203    0.169
       207  -7.7123    102.3131     25.3483   9.0879677741e+01   5.6516587742e+01    0.1596536    0.1079279  14.98 0.0003482083    1.719    0.418
       208  -8.2862    112.5455     29.7226   8.9920265326e+01   5.3492345400e+01    0.3506306     0.158263  46.83  0.001346857    2.173    0.540
       209  -8.3766    110.2443     24.0073   8.8028161931e+01   5.4846419763e+01    0.3140778    0.2094552   5.46  0.001400699    1.755    0.430
       210  -7.6500     77.4718     24.4477   9.8826099135e+01   6.1985435048e+01    0.2041362    0.1300656 -20.69 -6.697675e-06    1.579    0.367
       211  -9.5227     83.8409     22.0209   9.5279937577e+01   6.1075822378e+01    0.5677432    0.2617964  39.75  0.001361859    2.267    0.559
       212  -8.2367     27.5672     22.0786   1.2185408109e+02   6.9975094353e+01    0.4964519    0.2159584 -27.14  0.001907818    3.261    0.693
       213  -8.0115     74.0195    247.4624   1.4314365147e+02   1.7751927870e+01    0.1532928   0.07572738  34.73 0.0009473514    1.586    0.370
       214  -7.9600     32.3037    247.3000   1.5017057784e+02   2.1891693212e+01   0.07546246   0.07021177  10.87 0.0002190995    1.589    0.370
       215  -8.0357    131.4786     21.3434   8.1786118177e+01   4.9934411409e+01    0.3738499    0.2004532  19.89  0.001373389    2.629    0.620
       216  -8.7290     92.3046     21.2707   9.2046946294e+01   5.9364574533e+01    0.3121235    0.2134084  16.39 0.0009546187    1.639    0.390
       217  -8.3288     45.5314     20.0923   1.1094193945e+02   6.8210629747e+01    0.2882732    0.1801999 -30.74  0.001004671    1.444    0.307
       218 -10.0059      8.8027     20.0541   1.3252028068e+02   7.1872979753e+01    0.2995539    0.2292093  16.54 0.0003594115    1.566    0.361
       219  -8.5925     12.3630     18.3289   1.2960916548e+02   7.2038080554e+01    0.2188007    0.1621449 -17.81 0.0007554575    1.373    0.272
       220  -8.4100    117.0036     20.0088   8.4506342303e+01   5.3727584797e+01    0.2237145    0.1716301 -53.49  0.001089564    1.574    0.365
       221  -7.9569    161.6108     19.1780   7.5498952569e+01   4.2395451630e+01    0.1954579    0.1366167  -2.83 0.0003711677    1.536    0.349
       222  -8.2314    127.9441     16.9717   8.0698562589e+01   5.1344131362e+01    0.2248951    0.2021437  21.66 0.0003775737    1.055    0.053
       223  -7.6783     17.9856    248.0000   1.5252146068e+02   2.3042889177e+01    0.1409433   0.03992995  31.61 0.0007887955    2.849    0.649
       224  -8.5895     50.2952     15.2336   1.0591602659e+02   6.8382086473e+01    0.2757022    0.2008229  -7.69 0.0008446811    1.383    0.277
       225  -7.9905    249.3833    245.8141   1.1357210419e+02  -3.0514085235e+00    0.1314179   0.07224534  -6.71 0.0004530522    1.644    0.392
       226  -8.1520    184.4196    249.7787   1.2437009235e+02   4.3192636233e+00      0.12693   0.08652475 -10.31 0.0009490769    1.649    0.393
       227  -8.3093    146.7423     14.0848   7.5971700078e+01   4.6797514556e+01    0.2346763    0.2058143  60.02 0.0004154271    1.146    0.128
       228 -10.0060    192.8861    243.8828   1.2225128612e+02   3.8734206060e+00    0.2496681    0.2007202  -8.36  0.001512023    1.371    0.271
       229  -7.2518    151.2638     13.3092   7.4932538335e+01   4.5695351014e+01    0.1495807    0.1044107  27.07 0.0006936712    1.533    0.348
       230  -8.8540    234.0989    243.9993   1.1564592463e+02  -1.1459552922e+00    0.2283246    0.1394476  -7.07  0.000946827    1.510    0.338
       231  -8.0653    218.5110    244.9609   1.1821997826e+02   6.2029296039e-01    0.1348317   0.08829819 -15.05  0.001024535    1.577    0.366
       232  -9.3143    243.1191    244.5496   1.1434026458e+02  -2.2374743268e+00    0.2298752    0.1155975  12.76  0.001529059    1.703    0.413
       233  -9.5801    157.5240    245.1571   1.2839970474e+02   8.1804604303e+00    0.2004942    0.1149607  33.24 0.0007624016    1.283    0.221
       234  -9.3689    176.3288    243.2529   1.2495964324e+02   6.0230267972e+00    0.2579936    0.1410045  -7.77  0.001434549    3.001    0.667
       235  -8.0471     15.5253     10.4809   1.2407471974e+02   7.3481677194e+01    0.1613457    0.1161412  31.38 0.0009746373    1.723    0.420
       236  -7.8951     95.7833    243.3902   1.3906709573e+02   1.5909944962e+01    0.1411208   0.07934571  29.21  0.000592749    1.592    0.372
       237  -9.0135    170.1501    239.8735   1.2561904592e+02   7.1869148500e+00    0.2757464    0.1609734   8.52  0.001195267    2.117    0.528
       238  -7.8820     25.7254    240.9865   1.5103074596e+02   2.3410671801e+01    0.1319146   0.09472221  57.17 0.0006144332    1.042    0.040
       239  -8.4714    249.3716    238.4293   1.1253691051e+02  -2.4449143408e+00    0.2049083    0.1162392  13.75 0.0009060061    1.293    0.226
       240  -9.8557    146.1212     21.7017   7.9044425048e+01   4.6133326561e+01    0.3793553    0.3327432  78.54 0.0004265269    1.255    0.203
       241  -8.3574    224.5897    238.7717   1.1642079376e+02   4.5557283532e-01    0.1173679   0.09035668 -18.25 0.0006213504    1.565    0.361
       242  -7.3572    214.4615    239.4910   1.1814213130e+02   1.6275331754e+00    0.1091678   0.07288019  16.16  9.65692e-05    1.086    0.079
       243  -9.0136    242.1021    236.4786   1.1336387086e+02  -1.4339374012e+00    0.2421951    0.1470984   5.34  0.001334785    1.304    0.233
       244  -7.5743     79.5063    238.4683   1.4159324657e+02   1.8441528608e+01    0.1027631   0.07711232  45.57  0.000809805    1.002    0.002
       245  -7.4067    148.3031    237.7057   1.2919916572e+02   1.0244214918e+01     0.101491      0.07008  49.82 0.0003678131    1.576    0.365
       246  -8.4586    195.4067    236.0880   1.2083609766e+02   4.3653983871e+00    0.1952108    0.1102437  24.76 0.0006404293    1.361    0.265
       247  -9.9364    188.8589    234.6053   1.2175278355e+02   5.3661545226e+00    0.2543694    0.2134766  13.24  0.001153549    1.227    0.185
       248  -8.3058    161.8761    234.3434   1.2641139536e+02   8.9040145891e+00    0.2034069    0.1272957  17.39 0.0006922465    1.551    0.355
       249  -7.6409    137.8582    235.1426   1.3079012525e+02   1.1904136923e+01     0.147847    0.1060506  19.54 0.0008494718    1.331    0.249
       250  -8.1068      5.7205    234.1238   1.5414529998e+02   2.6127186190e+01    0.1419521    0.1163534  -8.70  0.001216459    2.084    0.520
       251  -8.1194    248.5016    232.9376   1.1187566417e+02  -1.8793564281e+00    0.1396885   0.08292053 -13.79 0.0005801125    1.548    0.354
