#   1 NUMBER                 Running object number                                     
#   2 MAG_AUTO               Kron-like elliptical aperture magnitude                    [mag]
#   3 X_IMAGE                Object position along x                                    [pixel]
#   4 Y_IMAGE                Object position along y                                    [pixel]
#   5 X_WORLD                Barycenter position along world x axis                     [deg]
#   6 Y_WORLD                Barycenter position along world y axis                     [deg]
#   7 A_WORLD                Profile RMS along major axis (world units)                 [deg]
#   8 B_WORLD                Profile RMS along minor axis (world units)                 [deg]
#   9 THETA_WORLD            Position angle (CCW/world-x)                               [deg]
#  10 FWHM_WORLD             FWHM assuming a gaussian core                              [deg]
#  11 ELONGATION             A_IMAGE/B_IMAGE                                           
#  12 ELLIPTICITY            1 - B_IMAGE/A_IMAGE                                       
         1 -12.2045      3.1840     62.7730   8.0720586226e+01   6.4142304027e+01     1.874533    0.4023844 -75.26  0.006174332    3.761    0.734
         2 -11.9028     99.3903     27.0442   2.3764303242e+01   5.7018666431e+01    0.7567168    0.4426736 -30.03 0.0004915678    1.762    0.433
         3 -12.1492     15.0270     18.4919   6.1419261253e+01   7.4013875039e+01    0.3770378     0.314672 -23.42 0.0004216892    1.097    0.088
         4 -11.3688     10.4115     11.4207   6.1662403835e+01   7.5887596901e+01    0.4448044    0.3474765 -81.96  0.002654576    1.710    0.415
         5 -12.5165      3.0653     13.9675   6.9098788387e+01   7.5837213818e+01    0.8507558     0.289859 -63.34  0.002181607    2.489    0.598
         6 -11.3079      7.9878     15.0926   6.5452028425e+01   7.5291521332e+01    0.3187724    0.2267013  52.35  0.001159877    1.926    0.481
         7 -11.9960    249.2491     20.8018   1.0830763034e+00   2.0849313882e+01     0.362632    0.1780684 -36.68 0.0002398723    1.565    0.361
         8 -11.0534    193.4399     20.5404   5.3372484212e+00   3.3242308347e+01    0.3202763    0.2436602  -9.17  0.001515117    1.551    0.355
         9 -11.1463     69.0262     21.0902   3.1232911817e+01   6.5018306152e+01    0.4286953     0.285313 -31.10  0.002115102    1.510    0.338
        10 -11.2105     64.3218     18.3586   3.1721350536e+01   6.6438054431e+01    0.4058306    0.3032051 -38.81 0.0009565966    1.389    0.280
        11 -11.9365     28.7645     19.7372   5.2132893982e+01   7.2286676915e+01    0.3016866    0.2264831 -15.28  0.000342647    1.353    0.261
        12 -11.2754    132.4216     17.3923   1.2209190547e+01   4.9575528978e+01    0.5160204    0.2846239 -58.46  0.001485609    2.182    0.542
        13 -10.5229    100.8647     17.6701   1.9043533599e+01   5.7903698714e+01    0.3514553    0.2548251 -66.19  0.001674933    1.703    0.413
        14 -10.9557    137.3515     15.1128   1.0504445059e+01   4.8496701988e+01    0.3022677    0.2170969 -57.72 0.0004310771    1.456    0.313
        15 -12.3881     75.7594     10.5844   2.2919184767e+01   6.4960492219e+01    0.6481597     0.511502   9.45  0.002213409    1.350    0.259
        16 -12.2372    240.5530     14.4832   1.4830470844e-01   2.3254590543e+01    0.2729566    0.2549939 -15.10  0.001272757    1.289    0.224
        17 -12.5966    235.6045      9.7899   3.5932831523e+02   2.4758182695e+01     0.417495    0.3030498  61.24  0.002488808    1.634    0.388
        18 -12.4691    239.9090      4.3899   3.5781944071e+02   2.4395702956e+01    0.4801634     0.281649  56.72  0.001330248    2.109    0.526
        19 -11.4661    159.9169     14.7744   7.2074199971e+00   4.2469575136e+01    0.2516039    0.2320262  74.15 0.0002901258    1.087    0.080
        20 -11.2529     59.8866     11.6533   2.9783890417e+01   6.8350154264e+01    0.5691103    0.2059247 -33.46  0.002173674    2.734    0.634
        21 -10.2869    124.2803     14.0104   1.2304975496e+01   5.2147114323e+01    0.3341812    0.2446191 -87.55  0.001224166    1.471    0.320
        22 -11.5122    145.6752      9.2157   7.0792058083e+00   4.6858257694e+01    0.5750648     0.306392 -23.91  0.002066584    1.956    0.489
        23 -12.0131    249.3425      8.9541   3.5838399625e+02   2.2045016903e+01    0.5353386    0.2202689 -33.14  0.002736906    1.860    0.462
        24 -10.0160    177.7474     12.0495   4.3439461748e+00   3.8093462144e+01     0.190238     0.171703 -48.92 0.0003755924    1.080    0.074
        25 -10.4517    174.3024     11.9441   4.6589982078e+00   3.8991561945e+01    0.1908097    0.1721143 -48.09 0.0001785975    1.085    0.079
        26 -11.6433    159.9027      8.9871   5.2478716472e+00   4.3066977728e+01    0.4186034    0.2404768  45.10  0.001320196    1.980    0.495
        27 -10.5058    154.2835      8.1068   5.5982831841e+00   4.4652068844e+01    0.3067769    0.1861968  75.68  0.001076292    1.565    0.361
        28 -10.6491    139.6807     10.9004   8.5444002663e+00   4.8310000724e+01    0.2634529    0.1969868  82.31 0.0001510491    1.295    0.228
        29 -10.3251    119.8835     10.7057   1.1732523670e+01   5.3681832067e+01    0.2742016    0.1990251   4.72  0.001006128    1.661    0.398
        30  -9.9834     27.1858     10.8329   4.8094768225e+01   7.4191136186e+01    0.1885031    0.1721227 -30.44 0.0005263638    1.164    0.141
        31 -10.4605    100.6265     10.0867   1.5505937992e+01   5.8844995941e+01    0.4140463    0.2199184  45.61  0.001784052    1.839    0.456
        32 -10.8288     98.2212      3.5015   1.2849878480e+01   6.0136270888e+01    0.5265756    0.2814717 -61.52   0.00157364    2.702    0.630
        33  -9.9090    113.9100      8.8935   1.2084644900e+01   5.5468473200e+01    0.2151016    0.2019317  84.43 0.0004284507    1.052    0.049
        34  -9.6822    110.3263      5.6440   1.1327255840e+01   5.6744883103e+01    0.2954569    0.2170228 -64.68  0.001478445    1.533    0.348
        35  -9.9835     90.6926      7.6285   1.6785283931e+01   6.1653306787e+01    0.2344314    0.1474816  33.65 0.0005298749    1.706    0.414
        36 -10.3411     27.6862      2.5926   4.2133121031e+01   7.5535041125e+01    0.2239877    0.2112871  45.06 0.0009534365    1.386    0.278
        37 -10.4314     19.9888      8.1576   5.1865862338e+01   7.5588055528e+01    0.1898496    0.1773959  11.48 0.0004312539    1.221    0.181
        38 -11.1823     21.8155      2.9755   4.6910373067e+01   7.6293598794e+01    0.4906239    0.3436676  14.10  0.002882918    1.453    0.312
        39 -10.3074    223.0867      5.5452   3.5902585748e+02   2.7874971686e+01    0.2404772    0.1525002 -23.61    0.0010375    1.572    0.364
        40 -11.2781     82.2098      6.9413   1.8821457784e+01   6.3837655246e+01    0.2349534    0.1854775  49.72 0.0002776798    1.173    0.148
        41 -10.1425     36.4351      6.2295   3.8762993967e+01   7.3579121957e+01       0.2882    0.1726227  15.58  0.001364143    2.150    0.535
        42 -10.7347     68.0365      5.1539   2.2521040944e+01   6.7394872221e+01     0.382922    0.2427013  66.13  0.001548777    1.772    0.436
        43 -11.3051    179.6519      3.5331   1.5515790915e+00   3.8440844716e+01    0.4651028    0.2220708  56.95 0.0005279991    2.165    0.538
        44 -10.9607    164.4626      4.8170   3.3639379452e+00   4.2260943990e+01    0.2503256    0.2136221 -77.02 0.0003061032    1.076    0.071
        45  -9.7188    135.5910      4.8252   6.7983125854e+00   5.0007589025e+01    0.2059622    0.1213085 -38.24 0.0007610252    1.698    0.411
        46 -12.3649     65.2527     11.8516   2.7606896896e+01   6.7176783794e+01    0.2697661    0.2501814  10.07 0.0004137121    1.025    0.024
        47 -10.1893    126.0262      2.8678   7.4088808827e+00   5.2777820353e+01    0.2151997    0.1997735  84.36 0.0005749945    1.018    0.018
        48  -9.1080     91.2961      2.2775   1.3853818835e+01   6.2036807093e+01    0.1454117   0.09633802  36.38 0.0002275643    1.532    0.347
        49 -10.4273     32.5927      2.0171   3.8262100588e+01   7.4858248554e+01    0.2650557    0.1773017  35.11  0.001103944    1.474    0.322
        50  -9.5221     14.2244      1.9931   5.2650342803e+01   7.7375577759e+01    0.1533822   0.09108368 -45.54            0    1.538    0.350
        51 -10.5261    230.2094      1.4150   3.5761299407e+02   2.6720976941e+01    0.1994891    0.1111447  76.66  0.000668539    1.882    0.469
        52  -9.3420    120.5152      1.5429   7.7115402149e+00   5.4384510952e+01    0.1438615    0.1301008  61.05  4.91252e-05    1.054    0.052
        53 -10.4722     73.9315      1.4442   1.8261243561e+01   6.6417695873e+01    0.3094576    0.1275971  61.05 0.0006581027    2.296    0.564
        54 -11.4148    244.2359    178.8064   3.5577325478e+01   1.9555594279e+00    0.3212524    0.1457606 -14.20  0.001050206    2.730    0.634
        55 -11.6589    248.7613    248.2477   4.5795514170e+01  -5.7179079161e+00    0.4334994    0.1887721 -12.35  0.002614413    2.526    0.604
        56 -11.3186    218.9737    247.0608   5.0265717347e+01  -2.3799642281e+00    0.2412895    0.1614662 -31.22   0.00170652    1.856    0.461
        57 -11.8719    224.9348    247.9303   4.9425043986e+01  -3.1357679455e+00    0.4310241    0.1971635 -20.90  0.002684728    2.359    0.576
        58  -9.3492    110.0178    250.0178   7.0227330126e+01   1.0784015294e+01    0.1384658    0.1003169  36.03 0.0006413402    1.010    0.010
        59 -11.9286     21.9365    248.5271   8.7028298933e+01   2.0944902115e+01    0.4937149     0.134485  44.76  0.002702542    2.130    0.531
        60 -10.0042     13.3129    249.6767   8.8649840128e+01   2.1565486300e+01    0.1725873   0.09479375  48.80 0.0006409201    1.216    0.178
        61 -10.4188      6.9616    249.3063   8.9795792235e+01   2.2198038292e+01    0.1849274    0.1474978  65.08 0.0008059953    1.240    0.193
        62 -10.1733     10.4955    248.0312   8.9123504320e+01   2.2089161687e+01    0.1693176    0.1138948  46.82 0.0005935431    1.081    0.075
        63 -10.0830      1.4931    180.4835   8.9130733084e+01   3.5581190022e+01    0.1540821   0.09639847 -76.58  0.000757301    1.616    0.381
        64 -10.6501      4.3479    179.3171   8.8416524184e+01   3.5607724666e+01    0.1659535    0.1312636 -46.67  0.001022658    1.730    0.422
        65  -9.8391     54.0323    174.9501   7.5754239531e+01   3.1625505784e+01    0.1828821    0.1535718 -32.22 0.0005839791    1.597    0.374
        66 -10.9032     17.9193    173.1127   8.4827811935e+01   3.5823227154e+01    0.2017312     0.129422  59.11 0.0006499219    1.278    0.218
        67 -11.8695      8.1872    172.4642   8.7224571138e+01   3.6793265141e+01    0.2345974    0.1811847  85.83 0.0009526234    1.186    0.157
        68 -10.1359     67.5088    165.8715   7.1268365621e+01   3.1946099198e+01    0.1913784    0.1296844 -73.07 0.0009043355    1.542    0.352
        69 -10.7602      1.3800    165.0407   8.8641901996e+01   3.8969078240e+01    0.2737286   0.09879377 -84.90  0.001262101    2.490    0.598
        70 -10.7520      7.1994    163.7990   8.7106577666e+01   3.8810046891e+01    0.1506275    0.1363612 -70.61 0.0006013241    1.320    0.242
        71 -11.6185    246.9025    156.9040   3.1134669043e+01   4.2444029453e+00    0.2233798    0.1392803 -28.98  0.001371351    1.412    0.292
        72  -9.6018     67.3066    157.6212   7.0318301258e+01   3.3864783892e+01    0.1742377    0.1267891  26.01 0.0004919501    1.468    0.319
        73 -10.2405    216.3204    154.5437   3.5482085322e+01   9.2107800766e+00    0.2170549    0.1797067 -18.04 0.0002250743    1.121    0.108
        74  -9.5468    158.4832    153.5291   4.6489730371e+01   1.9477943472e+01     0.141018    0.1272676  14.98 2.740141e-05    1.029    0.028
        75 -10.3816     10.4631    152.5669   8.5697267135e+01   4.1148992307e+01    0.3320121    0.1121011  40.65  0.001500607    2.363    0.577
        76  -9.8159     40.6552    151.9664   7.7178207155e+01   3.8473894335e+01    0.1840723    0.1507242  85.91 0.0004072731    1.124    0.110
        77  -9.5418     81.3654    150.3106   6.5386423502e+01   3.3552501604e+01    0.1412776    0.1108753 -16.33 0.0007038644    1.757    0.431
        78 -10.9288     26.0196    147.9562   8.1017807951e+01   4.0919373016e+01    0.3104195    0.1718294  77.23  0.000781104    1.750    0.428
        79 -12.0649     13.8591    147.9057   8.4485479745e+01   4.1984773287e+01    0.2596023    0.1937277  77.06  0.000302626    1.133    0.118
        80 -10.4720    234.0155    146.5336   3.1030887975e+01   7.5037762055e+00    0.2003809    0.1390534 -23.15 0.0005940126    1.241    0.194
        81 -11.2101     39.7585    145.8809   7.6832794178e+01   4.0041440253e+01    0.4594492    0.1088001  35.59  0.001032912    3.210    0.688
        82 -10.3223    217.4276    145.0281   3.3371492756e+01   1.0392806613e+01    0.2815194    0.1429311  25.96  0.001132471    2.449    0.592
        83 -10.9660      6.2100    145.2856   8.6503121265e+01   4.3190906924e+01    0.4034086    0.1608382  20.15  0.001842103    2.768    0.639
        84 -11.1770     17.5883    143.6115   8.3135489615e+01   4.2713273012e+01    0.3032013     0.159446  60.85  0.001527534    1.739    0.425
        85 -11.1914    239.9639    140.0795   2.8836399148e+01   7.4362093600e+00    0.1938129    0.1547339  -9.69  0.000594232    1.035    0.034
        86  -9.7497    189.1128    139.8273   3.7326756534e+01   1.6193858741e+01    0.1879941    0.1831697 -24.17 0.0004096337    1.199    0.166
        87 -10.7246     14.3481    139.6321   8.3815002905e+01   4.3942914909e+01    0.2417352    0.1464339 -44.17  0.001118534    2.096    0.523
        88 -10.9843    235.7453    137.8914   2.9012920252e+01   8.3940181006e+00     0.215372    0.1733008  -9.56 0.0006564143    1.043    0.041
        89 -10.6916     44.0174    137.8386   7.4674722084e+01   4.1548872086e+01    0.2549813    0.1838176 -78.78  0.001382726    1.318    0.241
        90 -13.2107     37.4005    135.0042   7.6394513833e+01   4.2977016954e+01    0.4500467    0.3431432 -83.77  0.002558511    1.214    0.177
        91  -9.9175     20.5359    134.9991   8.1606970836e+01   4.4576886825e+01     0.203104    0.1152882 -81.60 0.0007842675    1.594    0.373
        92 -10.9548    241.5177    133.9869   2.7364920516e+01   7.9994792601e+00    0.1932651    0.1039375 -29.92 0.0007363023    1.585    0.369
        93 -11.2498     57.4080    132.6838   6.9848734288e+01   4.1205485582e+01    0.3901707    0.2760611 -15.22 0.0008446882    2.131    0.531
        94 -10.9154     53.0583    132.9628   7.1249382619e+01   4.1689982378e+01     0.248537    0.2323373 -41.65 0.0004319281    1.244    0.196
        95 -10.5418     64.1763    131.1556   6.7501467656e+01   4.0676003305e+01    0.2022777     0.157343  71.27 0.0005618593    1.294    0.227
        96 -11.0035     16.6464    130.8754   8.2481895045e+01   4.5920076297e+01    0.3882091    0.1926225  35.59  0.001923065    1.903    0.474
        97 -11.1937      4.8067    130.1395   8.6099302950e+01   4.6956256768e+01    0.2034335    0.1810901  77.91 0.0002891292    1.094    0.086
        98 -12.5466     81.5230    124.5504   6.0928815755e+01   3.9698691494e+01    0.7525828    0.5408277 -60.51  0.002431512    1.396    0.284
        99 -10.7129     24.7155    127.2630   7.9608175089e+01   4.6150618635e+01    0.2906506    0.2039051 -77.43  0.001618156    1.295    0.228
       100 -12.1151     74.2372    128.9253   6.3995958853e+01   3.9766686054e+01    0.3936357    0.3586789 -16.70  0.001341294    1.311    0.237
       101 -10.4258    229.5731    124.7685   2.7167642870e+01   1.1227654121e+01    0.1833769    0.1063276 -38.41 0.0009505994    1.628    0.386
       102 -11.9547     47.0383    124.3021   7.1971791106e+01   4.4606116065e+01    0.2773382    0.2413623  39.74 0.0003242402    1.186    0.157
       103  -9.5753    225.9482    123.2052   2.7374284743e+01   1.2077838458e+01    0.1592377    0.1032521  46.24 0.0008610358    1.723    0.419
       104 -10.9707     10.6272    122.3060   8.3747190201e+01   4.8512216754e+01    0.2400602    0.1779931  63.06 0.0007675522    1.221    0.181
       105 -11.2943      7.9420    119.2551   8.4404402939e+01   4.9460322103e+01    0.2616198    0.1866715  85.23 0.0006653261    1.203    0.169
       106 -11.5706     68.3437    121.5174   6.4545532572e+01   4.2489652877e+01    0.4031368    0.2313165  29.39  0.001772761    1.854    0.461
       107 -11.3722     61.0409    121.4938   6.6926196063e+01   4.3533815899e+01    0.2659442     0.222727 -33.41 0.0006371787    1.419    0.295
       108 -11.0668     57.0131    121.0310   6.8178414462e+01   4.4193405264e+01    0.2434095    0.2102499  82.26 0.0003209713    1.102    0.093
       109 -10.6289     23.8982    119.1206   7.9062026329e+01   4.8290187746e+01    0.3135852    0.2163194 -43.81  0.001517507    1.680    0.405
       110 -12.1723    249.2193    117.5983   2.2885193188e+01   8.9285574110e+00    0.3973807    0.2351448 -10.70  0.002110775    1.856    0.461
       111 -11.6501    249.5450    111.9761   2.1647760812e+01   9.6104613300e+00    0.2253754    0.1865511 -35.74 0.0007662259    1.215    0.177
       112 -11.3642      1.9961    118.4448   8.6304265254e+01   5.0029149582e+01    0.2834526    0.2173559  89.06  0.001095889    1.097    0.089
       113  -9.6460    217.4320    129.4535   3.0074028651e+01   1.2668500419e+01    0.1320495    0.1132666 -11.51 8.189762e-05    1.007    0.007
       114 -11.1115     15.9520    115.2688   8.1386413896e+01   4.9911886166e+01    0.2762783    0.2175937  80.98 0.0004587071    1.117    0.105
       115 -12.2649     13.6976    110.1796   8.1699283819e+01   5.1376568496e+01    0.4384295    0.3810071  68.19  0.001046503    1.096    0.088
       116 -10.2206    182.2226    114.6469   3.2902413702e+01   2.1815326798e+01    0.2299425    0.2118999 -60.50 0.0005663514    1.242    0.195
       117  -9.4960    110.2053    129.3848   5.3461594699e+01   3.3525646591e+01    0.2036171    0.1346411  48.35 0.0003294269    1.495    0.331
       118 -11.4347     55.1840    109.7473   6.6856932942e+01   4.7319539020e+01    0.2871239    0.2337452 -65.05 0.0005889068    1.176    0.149
       119  -9.0132    225.2883    110.6747   2.4682604517e+01   1.3997010768e+01    0.1282699   0.09604671 -53.29 0.0002566999    1.609    0.379
       120 -11.7821     31.1664    107.8384   7.5167653712e+01   5.0541239713e+01    0.5852757    0.3034844  77.02  0.002469289    2.304    0.566
       121  -9.6896      3.3348    107.6772   8.5144585745e+01   5.2664945594e+01    0.2474535    0.1286267  76.61 0.0006438819    1.800    0.444
       122 -10.2768      3.0739    105.0000   8.5042968324e+01   5.3359069841e+01    0.2634781     0.187559  22.37 0.0008458804    1.597    0.374
       123 -11.3976     62.7785    106.2986   6.3516709207e+01   4.7154103131e+01    0.3460503     0.188006 -54.37  0.000705195    1.775    0.437
       124 -11.2212     62.2162     98.6469   6.2103903995e+01   4.9185570053e+01    0.3536357    0.2435689 -47.84  0.001243448    1.478    0.324
       125 -10.7595     20.1414    108.6776   7.9253931195e+01   5.1282919121e+01    0.2714261    0.2278188 -15.22  0.001116328    1.476    0.323
       126  -9.9576     81.0262    104.5264   5.6838689583e+01   4.4714570808e+01    0.2915147    0.2094336 -78.52 0.0006807164    1.610    0.379
       127 -11.0307     70.7906    102.0196   5.9778385584e+01   4.7026661730e+01    0.3259529    0.2298022 -22.72  0.001445732    1.987    0.497
       128 -10.6471     74.9604    104.0339   5.8785061539e+01   4.5851917642e+01    0.2228218    0.2108783 -85.99 0.0003183083    1.018    0.017
       129 -10.9206     75.4550     99.2693   5.7504719915e+01   4.6957873573e+01    0.4759277     0.245168 -47.31  0.001878249    1.990    0.497
       130 -10.8330     50.8882    103.7261   6.7290616795e+01   4.9425895810e+01    0.2363296    0.2214971 -83.68 0.0004404195    1.021    0.021
       131 -11.4166     22.7285     99.6148   7.7214339382e+01   5.3424001308e+01     0.430236    0.2953051 -65.02  0.002322452    1.317    0.241
       132  -9.2792    108.8334    100.6216   4.7024969498e+01   4.0373005055e+01    0.2110537    0.1427198  53.65 0.0001605139    1.561    0.359
       133 -10.3487     52.0713     97.0497   6.5546557298e+01   5.0997163433e+01    0.2975165     0.175419 -55.55  0.001355292    1.598    0.374
       134 -10.1882     52.0118     93.5232   6.4833407733e+01   5.1912832480e+01    0.1961174    0.1812454  43.91 -1.044163e-05    1.132    0.117
       135 -10.9760     16.7714     96.1230   7.9073954295e+01   5.4786586242e+01    0.3905668    0.2513968 -10.64  0.001979839    2.069    0.517
       136 -10.3164     56.8650     95.9681   6.3507347190e+01   5.0631414424e+01     0.257212     0.209339  54.72 0.0003710704    1.265    0.210
       137 -10.2742    101.3473     94.9283   4.7772759763e+01   4.3206755301e+01    0.2554431    0.2080396  56.60 0.0003747647    1.273    0.214
       138  -9.8233    226.2170     93.2314   2.0514638796e+01   1.6322026403e+01     0.177743    0.1433027 -52.34 0.0004128496    1.347    0.258
       139  -9.7308     31.7165     92.7624   7.2687518578e+01   5.4413469940e+01    0.1882199    0.1467896  68.79 0.0004734575    1.314    0.239
       140 -11.8146     57.3942     90.5309   6.2085921086e+01   5.1945922699e+01    0.3920428    0.3113065 -37.82 0.0007657221    1.368    0.269
       141 -10.1895     12.9350     91.3032   8.0017254613e+01   5.6296777175e+01    0.3615198    0.1402951 -63.28  0.001545228    2.132    0.531
       142 -10.8980     36.5007     90.0125   7.0277394657e+01   5.4649797820e+01    0.4002587    0.2791776 -16.06  0.001577927    1.893    0.472
       143 -10.4870     23.0918     89.3332   7.5634638020e+01   5.6070309628e+01     0.402553    0.2070255  67.63  0.001710708    2.380    0.580
       144 -10.8191     97.2933     89.0846   4.7425738456e+01   4.5376200443e+01    0.3940612    0.2141948  40.43   0.00133488    1.869    0.465
       145  -9.1366     83.2773     88.3993   5.1959042381e+01   4.8248156456e+01    0.1600626    0.1175446 -24.05 0.0006988543    1.758    0.431
       146  -9.1580     17.6941     88.3630   7.7711842939e+01   5.6735175326e+01    0.1451182   0.08937079  65.51 0.0007038345    1.738    0.425
       147 -10.1819    109.7540     86.1125   4.2662057015e+01   4.3429510451e+01    0.2325016    0.2109937 -89.27  0.001176222    1.191    0.160
       148  -9.8462     30.0402     85.6967   7.2155083584e+01   5.6410901278e+01    0.2677003    0.1847227 -68.87 0.0008175115    1.298    0.230
       149 -10.3034     30.0630     81.9225   7.1452787346e+01   5.7387905229e+01    0.2408372    0.1859971 -59.11 0.0005335028    1.183    0.154
       150 -10.5212    239.4836     85.4826   1.7010748997e+01   1.4885741974e+01    0.1298814    0.1086973 -29.94 2.890015e-05    1.011    0.011
       151  -9.5440    184.7962     85.2155   2.4893223919e+01   2.6249262617e+01    0.1840202    0.1620327   2.57 0.0002645259    1.231    0.188
       152 -10.6670     64.7633     83.4274   5.7451656188e+01   5.2633403509e+01    0.3768126    0.2444911 -78.73 0.0009595798    1.947    0.486
       153  -9.8803      8.7155     85.1095   8.1024061628e+01   5.8152752453e+01    0.2164877     0.138505  79.76 0.0008244585    1.520    0.342
       154 -11.4071     77.2180     82.1657   5.2375656249e+01   5.0845501953e+01    0.3831274     0.252391  46.30 0.0007933041    1.570    0.363
       155 -10.5973     41.8245     83.2080   6.6710264242e+01   5.5825237443e+01    0.3019497    0.1958689 -76.44 0.0008086897    1.567    0.362
       156  -9.8372     21.4679     81.5203   7.5096591481e+01   5.8229331442e+01    0.1372467    0.1193566 -65.85 0.0001247514    1.053    0.051
       157  -9.6605      7.9172     80.4623   8.0817033926e+01   5.9394516498e+01    0.1677184    0.1320314  14.39  0.000399419    1.485    0.326
       158 -12.7006     88.3642     77.2398   4.6884344477e+01   4.9893317413e+01    0.3767164    0.3381384  38.60 0.0004424219    1.138    0.121
       159  -9.4055    203.0768     77.9799   2.0024544126e+01   2.3311989133e+01    0.1670546    0.1477724 -34.09 0.0003620748    1.029    0.028
       160 -11.1925     48.9754     77.5749   6.2359142118e+01   5.6381192607e+01    0.4296329    0.2293251  18.61  0.001759454    2.405    0.584
       161 -10.4717     53.8485     75.3746   5.9712279277e+01   5.6269210918e+01    0.3111332    0.1544864  22.79 0.0007871105    2.525    0.604
       162 -10.7813      6.4650     68.0560   7.9862841351e+01   6.2650340995e+01    0.2304015    0.1993901 -80.68  0.000655483    1.049    0.047
       163 -10.6117     73.0253    244.5070   7.7011134872e+01   1.6130405073e+01    0.2264781     0.182333  20.36 0.0009679448    1.417    0.294
       164 -13.6428     12.5352     47.9684   7.2980514341e+01   6.7364569542e+01    0.7569305    0.5213105  31.10 0.0006818347    1.633    0.387
       165 -11.2861     19.9336     46.0313   6.8205180350e+01   6.7308693424e+01    0.3706276    0.3102276  69.32 0.0003078709    1.402    0.287
       166 -10.2814    168.1539     74.4764   2.4924385027e+01   3.1930192549e+01    0.3842695    0.1751584 -48.17  0.001396577    2.413    0.586
       167 -10.1239     36.5817     76.3312   6.7450363989e+01   5.8174618990e+01    0.2253965    0.1570379  40.63 0.0005321763    1.528    0.346
       168  -9.8743     61.6030     73.2483   5.5865209691e+01   5.5634267950e+01    0.2797802    0.1408829 -59.70  0.001004013    2.006    0.502
       169  -9.3224     44.4590     74.4005   6.3509367832e+01   5.7757582918e+01    0.2205526      0.17596 -73.35 0.0001183623    1.235    0.190
       170 -10.9069     45.0075     70.8709   6.2348721350e+01   5.8576445130e+01    0.2457798     0.195358 -70.09 0.0003704538    1.233    0.189
       171 -10.3529      7.0037     73.3761   8.0333404226e+01   6.1263115325e+01    0.2869159    0.1718569 -18.28 0.0009140801    2.064    0.515
       172 -10.5950    107.0703     72.0749   3.9063008467e+01   4.7043281724e+01    0.2332539     0.225621  76.15 0.0004005724    1.050    0.047
       173 -11.1894    102.9622     69.9667   3.9638903862e+01   4.8407404039e+01    0.4485838    0.2296547 -44.71 0.0009595855    1.947    0.486
       174  -9.6052    199.5636     68.9829   1.8161212423e+01   2.5433553215e+01    0.2083655    0.1289258 -32.54 0.0003002769    1.480    0.325
       175 -10.6174     99.6268     75.8984   4.2662943402e+01   4.7862045687e+01    0.3056738    0.2379115 -76.76  0.001244848    1.597    0.374
       176 -11.8291     50.3970     68.1518   5.9179521687e+01   5.8538687847e+01    0.3217739    0.2658628 -36.60 0.0005006049    1.231    0.187
       177  -9.0871    131.6908     68.7277   3.1105251659e+01   4.1886619652e+01    0.1542985    0.1226472  19.03            0    1.547    0.354
       178 -11.0351     92.7288     67.5416   4.2185515230e+01   5.1153144351e+01    0.3259979     0.275367 -18.32 0.0009201517    1.342    0.255
       179 -14.1285     16.7965     67.6819   7.4840422804e+01   6.2136745913e+01    0.7944177    0.5155615  73.42   0.00118197    1.754    0.430
       180 -10.4406    147.1973     65.8104   2.6538692767e+01   3.8572353758e+01    0.3067253    0.2098948 -53.89 0.0009022427    1.583    0.368
       181 -12.9777     30.3665     63.2980   6.7261647292e+01   6.2118270639e+01    0.4796742    0.4364907 -47.14  0.001126701    1.059    0.056
       182 -10.5751    110.6578     65.2657   3.5668534330e+01   4.7611870315e+01    0.3698574     0.268683 -79.75  0.001207101    1.946    0.486
       183 -10.6620    160.1895     63.9082   2.3277825836e+01   3.5648030056e+01    0.4230364    0.2876526  18.13  0.001403182    2.172    0.539
       184 -11.1687     81.6837     64.7093   4.5158404489e+01   5.4042224765e+01    0.3295707    0.2386496  27.63  0.001182443    1.568    0.362
       185  -9.8010    209.9757     63.0668   1.5173081889e+01   2.3956542655e+01    0.2058383    0.1835441 -37.49 0.0003761236    1.016    0.015
       186 -10.0301    155.0609     63.4736   2.4152559810e+01   3.7003010977e+01    0.2288785    0.1516836  60.90  0.001015374    1.553    0.356
       187  -9.5567    123.0046     63.0520   3.1436959065e+01   4.5080417924e+01     0.190965    0.1717989 -40.08 0.0004157388    1.114    0.103
       188 -12.1149     46.5995     59.7010   5.8360537968e+01   6.1111698182e+01    0.7053151    0.3669105 -38.27    0.0020679    2.155    0.536
       189 -10.4394     50.1471     43.1518   5.0627418005e+01   6.4396417356e+01    0.3664901    0.2869995  29.92  0.001968895    1.332    0.250
       190 -11.8026     55.2853     49.0083   5.0460180019e+01   6.2298209745e+01    0.4455914    0.3826835 -31.30 0.0004197457    1.137    0.120
       191 -10.0725     44.9501     38.6115   5.1415969186e+01   6.6163833246e+01    0.3497339    0.2452906 -69.14  0.001012082    1.840    0.456
       192 -11.7052     55.3071     38.4758   4.6067474388e+01   6.4540166942e+01    0.8801693    0.2444998 -44.99  0.002815055    3.435    0.709
       193 -11.0399     57.8175     34.2238   4.2902500548e+01   6.4946590285e+01    0.4730954    0.2204261  38.08  0.001661365    2.229    0.551
       194 -11.7210     46.4198     48.5288   5.4608916679e+01   6.3754644898e+01    0.6788131    0.2436139 -51.63  0.002514289    2.527    0.604
       195 -10.9023     44.0560     43.6740   5.3966236077e+01   6.5184093766e+01    0.3270051    0.2797573 -22.16 0.0003783486    1.166    0.143
       196 -10.1860    119.2668     61.0084   3.1731192411e+01   4.6377217205e+01    0.2188674    0.1978815 -43.11 0.0003308818    1.108    0.098
       197 -11.3368     89.1532     53.9007   3.8455070552e+01   5.4766329548e+01    0.6291153    0.3639576 -26.90  0.002465429    2.224    0.550
       198 -10.3789     90.0347     60.9918   4.0804539817e+01   5.3120979820e+01    0.2983068    0.2234494  37.99 0.0009048485    1.378    0.274
       199 -10.1343     92.9641     58.1389   3.8738937914e+01   5.3075315755e+01    0.3283126    0.2432523 -82.83  0.001428881    1.944    0.486
       200 -10.2577    136.3568     58.9501   2.6714422056e+01   4.2494888602e+01    0.4595691    0.2701375  85.09  0.001573101    3.034    0.670
       201  -9.9266     57.3408     59.3042   5.3267476800e+01   5.9630206627e+01    0.1508646    0.1111991 -18.00 0.0003000908    1.679    0.404
       202  -9.9866    193.6483     58.0892   1.6023460514e+01   2.8385226114e+01    0.2001567    0.1694971 -30.54  0.000509421    1.133    0.117
       203 -11.5371     13.0976     53.1292   7.3835720750e+01   6.6052933354e+01    0.4795057    0.2601496 -30.60   0.00150101    2.053    0.513
       204  -9.9037     80.2867     56.3063   4.2632582043e+01   5.6138779714e+01    0.3855026    0.2569372  -9.31  0.001524706    2.461    0.594
       205  -9.4471     68.6068     56.7996   4.7487365945e+01   5.8282025427e+01    0.2008244    0.1393885 -58.60 0.0004202757    1.549    0.355
       206  -9.2562     61.2860     57.3251   5.0821232142e+01   5.9443761760e+01    0.1493854    0.1113573 -20.71 0.0003971703    1.604    0.377
       207  -9.6499    176.7511     56.3440   1.8058568375e+01   3.2718665423e+01    0.1996375    0.1313431  52.54 0.0003771493    1.584    0.369
       208 -11.9171    115.6477     55.2845   3.0672281982e+01   4.8323047660e+01    0.3297647    0.2683245  68.43 0.0004926102    1.311    0.237
       209 -10.2252    145.4045     54.3024   2.3150083058e+01   4.0971251670e+01    0.3110425    0.2279983  24.63 0.0006375783    1.741    0.426
       210 -11.0982    149.4180     51.3138   2.1332907687e+01   4.0416950243e+01    0.3125345    0.2695055 -53.76  0.001181704    1.156    0.135
       211 -11.6764    105.3478     52.5082   3.2615634086e+01   5.1328446303e+01    0.3839234    0.2805845  51.78 0.0001209239    1.360    0.265
       212 -11.2506     39.1986     50.1367   5.8888040633e+01   6.4346780230e+01    0.5506623     0.289355 -47.83  0.002493078    1.734    0.423
       213 -10.6922     62.5851     51.1515   4.7945803242e+01   6.0598121861e+01    0.3517006    0.1350313 -46.71  0.001266891    2.490    0.598
       214 -10.7209    132.3204     49.7842   2.4453628401e+01   4.5076229009e+01    0.4188441    0.2759411 -85.56   0.00167764    2.202    0.546
       215 -10.0697    126.9748     50.7662   2.6074991241e+01   4.6281179198e+01      0.27991    0.2212212  82.34  0.001324167    1.438    0.305
       216 -10.9173     83.0076     48.6561   3.8603492769e+01   5.7135301520e+01    0.5028093    0.3847759 -25.97  0.001506849    1.412    0.292
       217 -10.1068     78.2742     48.2293   4.0231539838e+01   5.8213231765e+01    0.3242172    0.2151603 -19.21  0.001148124    2.007    0.502
       218  -9.6710    180.3837     47.1768   1.4765210852e+01   3.3144220588e+01    0.2648086    0.1768597 -55.20 0.0008588767    1.537    0.349
       219  -9.5493     72.7355     48.3713   4.2501479953e+01   5.9300006323e+01    0.1480091    0.1174402 -77.10 0.0003719449    1.661    0.398
       220 -10.1496    101.0472     46.9490   3.1762138323e+01   5.3371440360e+01    0.2253039    0.2198965 -20.35 0.0003203819    1.033    0.032
       221 -12.1008    247.9875     36.1829   4.7081590490e+00   1.9408991547e+01    0.9327148    0.2556286 -24.62 0.0003516436    3.837    0.739
       222 -10.6733     68.1996     45.8920   4.3378039197e+01   6.0686763753e+01    0.2833961     0.193596  11.73  0.001220761    2.056    0.514
       223 -10.0632    236.9469     44.4503   7.5696632313e+00   2.0640486393e+01    0.2283311    0.1449492 -43.25 0.0007704125    1.319    0.242
       224  -9.7372    112.1236     45.3229   2.7874023747e+01   5.0952715089e+01    0.2082943    0.1957367  60.27 0.0004572774    1.053    0.051
       225  -9.7321    163.4077     44.2298   1.6473544683e+01   3.7864373735e+01      0.20393    0.1300143 -43.16 0.0003158462    1.512    0.339
       226 -10.0583    131.0173     42.6986   2.2172623566e+01   4.6545374589e+01    0.3394931    0.2165826 -21.55  0.001452953    1.798    0.444
       227 -11.0865    121.9015     43.1135   2.4469005672e+01   4.8840203724e+01    0.3463206    0.2557255 -49.92 0.0006236107    1.421    0.296
       228 -10.3106     72.7639     42.4984   4.0022387139e+01   6.0471741489e+01    0.3504787    0.1942541 -57.51  0.001170235    2.441    0.590
       229  -9.9864     90.2412     41.6907   3.3112459769e+01   5.6844428586e+01    0.2843208    0.1863429  62.32  0.001246489    1.754    0.430
       230 -10.8886     62.2042     41.0128   4.3939173323e+01   6.2801543117e+01    0.2722406    0.2073099 -60.67  0.001362878    1.533    0.348
       231  -9.7846    187.1770     41.0253   1.2011825337e+01   3.2297957989e+01    0.1939876    0.1713665 -48.46  0.001091212    1.045    0.043
       232 -10.4620    108.4707     40.7597   2.7070217810e+01   5.2627049035e+01    0.3305853    0.2212254  67.60 0.0009142887    1.661    0.398
       233 -10.0449    102.2677     40.9227   2.8935159889e+01   5.4129764992e+01    0.2378988    0.1750423   7.70 0.0007291912    1.809    0.447
       234 -11.3535     65.0207     36.6532   4.0714818139e+01   6.3131663577e+01    0.2596107    0.2161857 -42.57 0.0001816563    1.201    0.167
       235 -10.1023     23.5995     40.2024   6.4227269390e+01   6.8379203169e+01    0.2872328    0.1577805 -50.80   0.00141003    1.568    0.362
       236 -12.3238     27.6850     37.6637   6.0862088441e+01   6.8561856416e+01    0.2582045    0.2386268   5.39  0.000266474    1.149    0.129
       237 -10.7975     24.4526     34.5647   6.1677955569e+01   6.9597777943e+01    0.2486133    0.1946697 -39.55 0.0005355136    1.143    0.125
       238 -10.8832     96.7291     41.4373   3.0862456559e+01   5.5374374278e+01    0.3234103    0.2788145   6.60  0.001656521    1.294    0.227
       239 -12.4144     83.7440     36.6889   3.3208265424e+01   5.9204881764e+01    0.8236735    0.5670076  41.01  0.003362901    1.458    0.314
       240 -10.9664     75.1534     36.0865   3.6193375493e+01   6.1186151233e+01    0.4280857    0.2806121 -51.31   0.00117426    1.722    0.419
       241 -10.6193    233.4767     39.3904   6.6490683963e+00   2.1957730965e+01    0.2703424    0.1620917  88.85  0.001188187    2.025    0.506
       242 -11.1973    225.7304     39.1527   7.2849854563e+00   2.3622075007e+01    0.2194473    0.1582352 -49.81  0.001261296    1.225    0.183
       243 -12.0255    139.8572     36.5503   1.8068731728e+01   4.5132345518e+01    0.4124903    0.3536867  64.98 0.0006204688    1.140    0.123
       244  -9.5125    164.7787     36.8166   1.3857718063e+01   3.8534694747e+01    0.2109249     0.163405 -67.29  0.001054274    1.336    0.252
       245 -10.4431    241.5629     35.2602   4.9868372873e+00   2.0786470675e+01    0.2566912   0.09258685 -33.44  0.001140088    2.126    0.530
       246  -9.4578    129.3919     35.7735   1.9930637892e+01   4.8009753797e+01    0.1969063    0.1478382 -12.41 0.0002521255    1.554    0.357
       247 -10.3912    110.5791     34.7937   2.4045044198e+01   5.3041990510e+01    0.3342911    0.1678303  45.85  0.001304501    2.023    0.506
       248 -10.2874     92.8349     34.5360   2.9130930656e+01   5.7465644169e+01    0.3023702    0.1825977 -50.47  0.001282337    1.920    0.479
       249  -9.9787     34.1859     33.5597   5.5309359431e+01   6.8726283886e+01    0.2009362      0.16725 -43.35 0.0008238208    1.101    0.091
       250 -11.8441     74.8570    239.5016   7.6299973160e+01   1.6714941191e+01    0.4060165     0.358431 -76.15  0.003198024    1.441    0.306
       251 -11.2444     12.0386     29.1898   6.7918325936e+01   7.1872268138e+01    0.2263348    0.1930538 -35.07 0.0003466994    1.072    0.067
       252 -10.5323     10.9349     24.6843   6.7082939147e+01   7.2973528219e+01    0.2654763    0.1580333 -36.47 0.0005466319    1.545    0.353
       253 -10.6551      7.4338     28.5235   7.0923119634e+01   7.2315726010e+01    0.2233964    0.1753492 -41.14 0.0006530343    1.115    0.103
       254 -10.4583      6.4109     25.2138   7.0587751944e+01   7.3135605032e+01     0.218198    0.1847178  68.51 0.0002354702    1.456    0.313
       255 -10.3033     15.8328     32.1619   6.6373412191e+01   7.0910078718e+01    0.2052162    0.1633298 -40.18 0.0003387735    1.108    0.098
       256 -10.2083     19.2799     30.9854   6.3653273320e+01   7.0893502276e+01    0.2204844    0.2142799   2.07 0.0008832968    1.161    0.139
       257  -9.7392     65.2170     31.5703   3.8220118402e+01   6.4042381634e+01    0.1959793    0.1330293  32.74 0.0004401941    1.543    0.352
       258 -10.0959     71.8421     28.2333   3.3767818332e+01   6.3262046973e+01    0.3169184    0.1640388 -25.82  0.001261373    2.315    0.568
       259  -9.5323     49.2340     28.9302   4.4649120897e+01   6.7466413571e+01    0.1947475     0.171067 -35.73  0.001007459    1.107    0.096
       260 -12.2568    231.5959     26.4170   3.6253105235e+00   2.3844430062e+01    0.3179778    0.2468502 -78.30 0.0008495072    1.312    0.238
       261 -10.9212    197.9990     28.1807   7.0603012350e+00   3.1259547321e+01    0.3269866    0.1816851  86.92 0.0008661464    2.052    0.513
       262 -10.8117    112.5339     26.2032   1.9932091593e+01   5.3777263495e+01     0.416819    0.2726259  -4.11  0.001796553    2.026    0.506
       263 -10.9053    176.6096     26.4603   8.9438402145e+00   3.6786233342e+01    0.3240433    0.2108153 -47.94 0.0003633458    1.455    0.313
       264  -9.9157    133.8007     27.1962   1.5754634279e+01   4.8014305177e+01    0.2137596    0.1937391 -79.28 0.0004062422    1.104    0.094
       265 -10.7751    119.5111     27.0965   1.8678172438e+01   5.1827931956e+01    0.3288352    0.2131415  57.13 0.0006203182    1.463    0.317
       266 -10.1763    122.9389     26.2827   1.7594094913e+01   5.1029456630e+01    0.2396912    0.2079424 -30.13 0.0004453795    1.195    0.163
       267 -10.0298     80.2468     26.9538   2.9905930371e+01   6.1617161034e+01     0.208247    0.1882295 -25.39  0.001149176    1.114    0.103
       268 -10.5582     61.4164     26.4708   3.7375800582e+01   6.5699468970e+01    0.2395171    0.2192041   3.35 0.0005315914    1.042    0.040
       269 -11.6573    240.0978     25.7562   2.8423504411e+00   2.2149022451e+01    0.2952267    0.1605984 -45.47  0.001600756    1.501    0.334
       270 -12.2611    215.8485     25.7189   4.7186197043e+00   2.7372475076e+01    0.5902396    0.2078192  70.72  0.002384837    2.973    0.664
       271  -9.3227     16.4949     26.5684   6.3832843689e+01   7.2125712140e+01    0.1290319    0.1119567 -38.63 1.815794e-05    1.012    0.012
       272 -10.4610     91.4150     24.9148   2.5158237740e+01   5.9294032135e+01     0.346342    0.1877212  50.08 0.0009804638    1.750    0.428
       273  -9.9787      4.6396    244.0187   9.0105537465e+01   2.3269852938e+01    0.1409001   0.09673885  61.37 0.0004938174    1.133    0.117
       274  -9.3173     88.7066    241.6417   7.3695163994e+01   1.4691277000e+01    0.1028726   0.08199136   0.39 0.0002691757    1.695    0.410
       275 -10.2994      3.6949    238.7469   9.0168796794e+01   2.4236868821e+01     0.210504    0.1152528  89.66  0.001259474    1.845    0.458
       276 -10.3563    195.8590    238.3085   5.2971133974e+01   1.2982809964e+00     0.193317    0.1392884  -9.26  0.001027132    1.361    0.265
       277 -10.8440     35.0422    237.8349   8.4124972167e+01   2.1426808366e+01    0.2203248   0.09786544  46.76 0.0009409455    1.567    0.362
       278 -11.5312    246.4732     16.5456   2.7481945303e-01   2.1844321744e+01    0.2351428    0.1834903 -79.86 0.0008399743    1.314    0.239
       279 -10.5543    159.5080     23.5129   1.0219716815e+01   4.1596725333e+01    0.4716563    0.2963149  18.34  0.001987252    2.378    0.579
       280 -10.3218    156.1246     21.4958   1.0006062520e+01   4.2731502815e+01    0.2592343    0.2289577  81.41 0.0005859997    1.087    0.080
       281 -10.4942    128.9354     24.0850   1.5487320490e+01   4.9713277813e+01     0.219202    0.2071728  57.76 0.0003524756    1.051    0.048
       282  -9.4174     54.0388     22.9651   3.9062044469e+01   6.7717140895e+01    0.1648849    0.1510668  -9.74 0.0003405605    1.019    0.018
       283 -11.9110     34.1850     22.6660   5.0136492182e+01   7.0990425063e+01    0.2505544    0.2065042  -5.63 0.0002164097    1.203    0.169
       284 -10.3955     82.2292     21.7735   2.6627756720e+01   6.1943349769e+01    0.2538502    0.2332743 -49.63 0.0007058157    1.190    0.160
       285 -10.7912     30.4996    234.1647   8.4864897997e+01   2.2517738840e+01    0.2993113    0.1673686  68.14  0.001164528    1.600    0.375
       286  -8.9375    122.7379     19.3042   1.4784735438e+01   5.1957380309e+01    0.1547607    0.1390711  41.66 0.0001872717    1.137    0.121
       287  -9.7220     40.5319    237.5435   8.3030259451e+01   2.0906762857e+01    0.1109802   0.08069491  48.93 0.0008081433    1.017    0.017
       288 -11.3122    160.8585    235.2411   5.8912807937e+01   6.1931221674e+00    0.2457436    0.1665652   6.32  0.001129554    1.560    0.359
       289  -9.5825     58.8388     21.3575   3.5853327699e+01   6.7075299412e+01    0.1981845    0.1223775  35.12 0.0008495967    1.663    0.399
       290 -10.0691     32.8039     15.3953   4.6995146950e+01   7.2575439411e+01    0.2222777    0.1647203 -24.84 0.0003089873    1.283    0.220
       291  -9.5066     45.4825    244.4499   8.2393902970e+01   1.9230888320e+01    0.1120514   0.07665177  48.72  7.46709e-05    1.047    0.045
       292 -10.1383     24.5874     20.1586   5.5228617494e+01   7.2703174241e+01    0.2206462    0.1377366 -37.58 0.0005397367    1.463    0.316
       293  -9.9094    230.3412     20.2879   2.2114845373e+00   2.4782191558e+01    0.1177015   0.09515002  31.37 0.0001522403    1.643    0.391
       294 -10.6344    169.8199     18.3103   7.1797678006e+00   3.9478262531e+01    0.2578075     0.173202 -41.03  0.001111786    1.405    0.288
       295 -11.7348    183.0286    233.6675   5.4621919356e+01   3.4729812100e+00    0.3046349    0.2224301 -27.56  0.001594676    1.568    0.362
       296  -9.9467    126.8982     18.9427   1.3828400289e+01   5.0884485280e+01    0.2416748    0.1636789 -63.69 0.0007325363    1.694    0.410
       297  -9.1200     23.6613    232.6819   8.6158396533e+01   2.3450429359e+01   0.09131889   0.08237369 -14.55 0.0007049158    1.707    0.414
       298 -10.3209    165.1433     17.1434   7.3582797180e+00   4.0831951178e+01    0.2054227     0.185904  44.30 0.0003485729    1.226    0.185
       299  -9.5220    119.5008     17.0061   1.4477430684e+01   5.3092622118e+01    0.2137019    0.1040929 -49.50 0.0008084356    2.393    0.582
       300 -10.4869    109.2191     16.7562   1.6586513347e+01   5.5846232153e+01    0.2767615    0.1929432  58.08 0.0008122264    1.341    0.254
       301 -10.4007    217.1150     16.1070   2.1147687576e+00   2.8137157190e+01    0.4095905    0.1267644  60.75  0.001607133    3.288    0.696
       302 -10.1619     54.6724    231.6713   7.9871023283e+01   2.0373797862e+01   0.09985724   0.08510045  -5.21 0.0007050892    1.706    0.414
       303 -10.3201     76.8266     15.8649   2.5440864013e+01   6.4029675695e+01    0.2294479     0.186982  47.17 0.0002658738    1.173    0.147
       304 -10.4749     39.5181    229.2006   8.2828302977e+01   2.2459012703e+01    0.2322707    0.1176414  50.63 0.0009059613    1.477    0.323
       305 -10.9724    248.5245    228.5792   4.3028897484e+01  -3.8896444143e+00    0.1895837   0.08503594 -27.42  0.001197243    2.122    0.529
       306  -9.6729    168.7773    250.4387   5.9284448547e+01   3.2851898386e+00    0.1598331   0.07936291  24.91  0.000939786    1.648    0.393
       307 -10.2513    192.0070    226.4876   5.2027632459e+01   3.1712649629e+00    0.1982224    0.1510114 -57.22  0.001285212    2.443    0.591
       308 -10.8706      4.4930    225.7807   8.9723316701e+01   2.6431513978e+01    0.2591204    0.1369656  22.73   0.00160638    2.082    0.520
       309  -9.9995     79.6916    223.1201   7.4037250651e+01   1.8874926696e+01    0.2138119    0.1440786   7.98  0.001217508    2.142    0.533
       310 -10.0402     16.2778    222.0240   8.7260926295e+01   2.6058462274e+01    0.1519618    0.1120363  61.51 0.0004408798    1.085    0.078
       311 -10.5654     53.8987     14.2873   3.4181401608e+01   6.9171994008e+01    0.2389574    0.1654628  49.54  0.001241145    1.521    0.343
       312 -10.8811    165.7111     13.0954   5.9584715477e+00   4.1114278251e+01    0.2534908    0.1876459 -84.63  0.001313689    1.327    0.246
       313  -9.2723    126.3253    220.6564   6.3968756799e+01   1.3034499335e+01    0.1225397   0.08125497  55.88 0.0007050752    1.738    0.425
       314  -9.8017    211.6173    218.7533   4.7476785842e+01   1.5408865971e+00    0.1334485   0.09940126 -31.18 0.0006837983    1.611    0.379
       315 -11.1821     49.6372    218.3877   8.0110930748e+01   2.3313705274e+01    0.2507286    0.2306662  12.98  0.001171889    1.425    0.298
       316 -10.1750     38.3041    217.0214   8.2454126534e+01   2.4801693040e+01    0.1586924    0.1194039  57.50 0.0004323138    1.060    0.057
       317 -12.3751     11.4388    209.7164   8.7853540644e+01   2.8810498627e+01    0.3362525    0.2232375  64.37  0.001467839    1.183    0.155
       318 -12.7202      5.9288    212.8976   8.9102857969e+01   2.8684393194e+01     0.605778    0.2536183  76.56   0.00339134    2.167    0.539
       319 -10.8138     20.6544    211.9972   8.5980757044e+01   2.7525026255e+01    0.2294311    0.1033635  51.59  0.001309059    1.648    0.393
       320 -10.7713    217.4663    209.0593   4.4990372075e+01   1.9157656626e+00    0.3541828    0.1539907 -26.94  0.001785257    2.401    0.583
       321  -9.2563    132.3118    209.3071   6.1316511697e+01   1.4001603693e+01    0.1219939   0.08901747   5.31 0.0006046408    1.620    0.383
       322  -9.9174     72.4939    208.2988   7.4342106914e+01   2.2475752959e+01    0.2591442     0.142318  19.20  0.001279118    2.308    0.567
       323  -9.7632    147.6169    206.2167   5.7698062824e+01   1.2235384805e+01    0.1577704    0.1128033 -28.69  0.000827261    1.646    0.392
       324 -12.3397     20.1232    201.9068   8.5676354510e+01   2.9547127887e+01    0.6251146    0.2326019 -58.86  0.002935035    3.432    0.709
       325 -10.2170     28.2084    205.4080   8.4048696119e+01   2.8069668920e+01    0.1665596   0.07838102  42.84 0.0004788467    1.595    0.373
       326 -10.1097    175.0484    202.0560   5.1577035303e+01   8.7755510468e+00    0.1881412    0.1482864  19.05 0.0004266636    1.038    0.037
       327  -9.8561    238.3795    200.7592   4.0246107312e+01   1.8624282070e-01    0.1483676   0.08605374 -16.49 0.0003573236    1.546    0.353
       328  -8.9817    120.3339    200.3074   6.2736524430e+01   1.7304561877e+01    0.1260621   0.09406592   3.46 0.0007040975    1.670    0.401
       329  -9.9191    236.7610    196.9920   3.9875944403e+01   8.1723976483e-01     0.141816   0.08089575 -25.44 0.0007262815    1.607    0.378
       330 -10.0328    134.8689    196.3783   5.9007879738e+01   1.5787044071e+01    0.1790429    0.1733535 -78.89 0.0005048069    1.268    0.211
       331  -9.1406     56.4818    197.4825   7.7102806472e+01   2.6562669925e+01    0.1230886    0.1028706  51.51 0.0005205453    1.053    0.050
       332  -9.8858     40.4805    197.0318   8.0795384059e+01   2.8474296141e+01    0.1673077    0.1102314 -85.36 0.0003614847    1.552    0.356
       333 -12.4112     16.0088    191.3778   8.6153843945e+01   3.2069779477e+01    0.4175616    0.3223449 -73.83  0.002880104    1.454    0.312
       334 -11.9975     15.9139    182.5538   8.5784218614e+01   3.3940664312e+01    0.4697976    0.2142272  66.19  0.002231153    1.939    0.484
       335  -9.2011    186.4623    193.4860   4.8013837957e+01   8.3027433014e+00    0.1256672    0.1014999  12.63 0.0008091922    1.024    0.023
       336  -9.1261     59.9739    192.0000   7.5820721512e+01   2.7258594445e+01    0.2043904   0.06239771  31.02 0.0007934259    2.880    0.653
       337 -11.5766    244.6033    188.4019   3.7201983653e+01   7.9360842099e-01    0.2248034    0.2050995 -26.87  0.001550381    1.676    0.403
       338  -9.4569    145.5166    190.0016   5.5753121833e+01   1.5215496555e+01    0.1658736    0.1058463 -16.90  0.000394601    2.239    0.553
       339  -9.9257    211.9666    187.2427   4.2318609292e+01   5.3904351600e+00    0.1722439     0.128506  14.78 0.0003867786    1.124    0.110
       340  -9.6345      2.3097    187.3115   8.9151186197e+01   3.4077236897e+01    0.1010283   0.08435243 -52.18 0.0004652847    1.625    0.385
       341  -9.7961     61.9811    184.5343   7.4656392777e+01   2.8570291485e+01    0.1913352    0.1621861  85.94  0.001223334    1.195    0.163
       342 -12.2004    249.5383    179.0642   3.4827465174e+01   1.2287775706e+00    0.5484387    0.1130522 -32.68  0.002074391    4.316    0.768
       343 -10.9393     22.9857    180.2104   8.3953397107e+01   3.3798944327e+01     0.388467    0.1178271  52.48  0.001485022    2.704    0.630
