#   1 NUMBER                 Running object number                                     
#   2 MAG_AUTO               Kron-like elliptical aperture magnitude                    [mag]
#   3 X_IMAGE                Object position along x                                    [pixel]
#   4 Y_IMAGE                Object position along y                                    [pixel]
#   5 X_WORLD                Barycenter position along world x axis                     [deg]
#   6 Y_WORLD                Barycenter position along world y axis                     [deg]
#   7 A_WORLD                Profile RMS along major axis (world units)                 [deg]
#   8 B_WORLD                Profile RMS along minor axis (world units)                 [deg]
#   9 THETA_WORLD            Position angle (CCW/world-x)                               [deg]
#  10 FWHM_WORLD             FWHM assuming a gaussian core                              [deg]
#  11 ELONGATION             A_IMAGE/B_IMAGE                                           
#  12 ELLIPTICITY            1 - B_IMAGE/A_IMAGE                                       
         1 -20.5005    130.7527    184.5524   1.2256776445e+02   1.8998793831e+01     8.512461     6.632969  45.33   0.04849358    1.199    0.166
         2 -10.5737     72.4039    239.5493   1.4025152739e+02   1.7856060466e+01    0.1085894   0.08571848  65.09 9.005782e-06    1.112    0.100
         3 -15.2774    233.5762    190.4830   1.0364019546e+02  -9.7117397258e-01      1.60121    0.9134772  29.00  0.008335357    1.731    0.422
         4 -13.9474    237.3124    202.5131   1.0522045739e+02  -3.1993583682e+00    0.4593139    0.3557702  21.67 0.0001955647    1.102    0.093
         5 -16.3410    246.1873    239.2115   1.0992369944e+02  -8.8191794598e+00      3.64149     1.255329 -33.31   0.01824433    3.208    0.688
         6 -13.0830    250.2618    208.9234   1.0421263439e+02  -6.0419371571e+00    0.6017513    0.2074841 -32.31  0.002736079    2.955    0.662
         7 -10.7000    140.6615    250.1904   1.2939770056e+02   6.1164141301e+00    0.1144846    0.1072452 -28.88 0.0008718378    1.452    0.311
         8 -10.7816     91.5105    250.6773   1.3789518508e+02   1.3381480301e+01    0.1445333   0.08160737  41.85  0.000166622    1.563    0.360
         9  -9.8056     87.8879    249.8973   1.3844244828e+02   1.4014460227e+01    0.1744692    0.1081472  59.85  0.001168656    1.254    0.203
        10 -13.4196     42.4597    196.9741   1.4231886798e+02   2.9665510256e+01    0.5071708    0.2592687  75.57   0.00171914    1.864    0.464
        11 -12.3414     38.3963    230.6911   1.4543563975e+02   2.3674079517e+01    0.2518809    0.2298966 -80.12  0.001721314    1.578    0.366
        12 -12.3755     35.2410    226.7038   1.4572699941e+02   2.4758432258e+01    0.2850116    0.1512302  67.55 0.0007484074    1.488    0.328
        13 -13.8537     32.4810    207.9021   1.4500648801e+02   2.8620293080e+01    0.5068181    0.2673688 -80.81  0.001114297    1.652    0.395
        14 -13.6660     37.8915    204.8535   1.4379478165e+02   2.8612169298e+01    0.5006627    0.2906789  70.08  0.001753754    1.417    0.294
        15 -17.0759      7.3084    203.9479   1.4928127490e+02   3.1950970735e+01     4.996906     1.428603 -79.17   0.01936294    2.897    0.655
        16 -14.4274     31.7814    192.0233   1.4400332584e+02   3.1876631199e+01    0.9746977    0.5763651  53.56  0.004056545    1.467    0.318
        17  99.0000    160.1322    244.6495   1.2534180229e+02   3.8270630838e+00    0.3061292    0.2539585 -16.22  0.002149562    1.624    0.384
        18 -12.2479     81.2744    246.6945   1.3930194035e+02   1.5451203641e+01    0.2954354    0.1633169  76.06  0.001793112    1.887    0.470
        19 -11.4636    123.5636    245.6105   1.3188884066e+02   9.4451123866e+00     0.194759     0.111334 -69.79   0.00113715    2.288    0.563
        20 -11.2859     70.5189    246.0402   1.4106545398e+02   1.7009661719e+01    0.1620525   0.09713715 -75.50  0.001085706    1.759    0.432
        21 -12.0316     41.9451    245.1458   1.4571002888e+02   2.0732289117e+01    0.1856929    0.1299971  51.43 0.0008449935    1.311    0.237
        22 -10.6479     75.1449    245.3524   1.4023444436e+02   1.6506946273e+01   0.08806227   0.06903668 -70.28 0.0002977196    1.554    0.357
        23 -10.4068     54.0242    245.4381   1.4376231855e+02   1.9224402825e+01    0.1339431   0.09580808  64.08  0.001008496    1.043    0.041
        24 -12.0948    169.8109    243.8765   1.2354374996e+02   2.3834741465e+00    0.1834792    0.1307811  37.51  0.001047121    1.141    0.124
        25 -10.4645    129.4653    248.6862   1.3118138581e+02   8.0710942975e+00    0.1234595    0.1094256  88.70  0.000927927    1.300    0.231
        26 -11.5836     65.9289    237.4755   1.4120557509e+02   1.9072470389e+01    0.4377879    0.2617857  51.06  0.002916246    1.322    0.243
        27 -10.3601    172.4377    236.4450   1.2209548881e+02   2.9816932461e+00    0.1201165   0.09635166  38.79 0.0002027736    1.016    0.016
        28 -12.3342     39.2683    183.5008   1.4181963776e+02   3.2826272721e+01    0.3348854    0.2511024  77.23   0.00167969    1.045    0.043
        29 -12.4799     49.8192    171.3096   1.3841332018e+02   3.4226614326e+01    0.4300467    0.2906985  61.04  0.001690148    1.336    0.251
        30 -11.1612     50.7067    188.0237   1.3989676360e+02   3.0529342763e+01    0.2214208    0.1323637  72.53 0.0002306596    1.514    0.339
        31 -13.4969     47.2765    182.5172   1.4008182662e+02   3.2106909526e+01    0.6269413    0.3116714  61.31   0.00302356    1.900    0.474
        32 -12.9747     53.5917    178.4064   1.3834537538e+02   3.2220338252e+01    0.4589966     0.314099  72.37   0.00192423    1.275    0.216
        33 -13.3597    228.1086    182.0094   1.0296663747e+02   1.1839126371e+00     0.323051    0.2714964  11.38 0.0004517343    1.068    0.064
        34 -12.2704     39.3368    170.7036   1.4062913831e+02   3.5571249384e+01     0.313222     0.181186 -78.29   0.00181712    1.472    0.321
        35 -12.5199    234.2313    171.0070   9.9714188580e+01   1.6942281681e+00    0.2170123    0.1782647  30.92 0.0002978899    1.173    0.147
        36 -10.3605    188.9491    241.4050   1.1986724123e+02  -3.5525156845e-01    0.1923951    0.1404008  62.50  0.001207129    1.789    0.441
        37 -13.1993    225.9912    166.2541   1.0017894247e+02   3.9366690477e+00    0.2960057    0.2555473  20.83 0.0003321762    1.082    0.076
        38 -10.3929    216.3522    234.4017   1.1411863632e+02  -3.8232305204e+00    0.1126506   0.09160672  24.82 4.968427e-05    1.046    0.044
        39 -11.3712     49.4873    164.9627   1.3779509532e+02   3.5670682165e+01    0.1924041    0.1423551  63.12  0.001201816    1.234    0.189
        40 -16.6139     81.4015    205.6691   1.3551278113e+02   2.2828078290e+01     1.608777    0.9575123  89.29  0.008934637    1.800    0.445
        41 -12.1688     27.0318    232.0267   1.4740646106e+02   2.4710314324e+01    0.1671211    0.1124872  70.07 0.0003859581    1.033    0.032
        42 -10.8342     51.6360    159.2362   1.3664390933e+02   3.6697647352e+01    0.1729357    0.1346845 -80.87 0.0002650958    1.103    0.093
        43 -10.6406     56.6746    159.6774   1.3553119958e+02   3.5977004923e+01    0.2002165    0.1435314 -41.64 0.0009624363    1.919    0.479
        44 -11.4384     54.8898    156.9033   1.3560128436e+02   3.6828250307e+01    0.1878373    0.1557025  87.85 0.0003256776    1.014    0.014
        45 -12.1927     40.6434    157.9442   1.3902695741e+02   3.8258148553e+01     0.356779    0.2227777 -56.33  0.001264012    1.693    0.409
        46  -9.8882    165.7857    230.5970   1.2249638830e+02   4.9194038837e+00    0.1570705    0.1338229  -1.89 0.0008393684    1.452    0.311
        47 -11.0889     45.1776    166.9536   1.3897271555e+02   3.5734697262e+01    0.1864675    0.1335728  78.62 0.0003522925    1.192    0.161
        48 -12.5753    216.5329    150.2880   9.8475540200e+01   8.3540305785e+00     0.257189    0.2387405   7.23 0.0003821284    1.015    0.015
        49 -10.2139     94.6573    244.2688   1.3680343432e+02   1.3967833885e+01    0.1192235    0.0658738  62.17 0.0002055599    1.608    0.378
        50 -10.9168    141.7512    241.0265   1.2816020062e+02   7.2919163205e+00    0.3182369   0.09943453  46.17  0.001382228    2.546    0.607
        51 -12.5854     49.8577    228.1865   1.4330870540e+02   2.2763383245e+01    0.3835079    0.3293015 -61.63  0.002940438    1.688    0.408
        52 -10.8902     24.9521    147.2753   1.4154420058e+02   4.2262040252e+01    0.1617487    0.1319455  84.54   0.00035457    1.079    0.073
        53 -12.1142     63.7463    133.6270   1.3005752963e+02   4.1088590433e+01    0.3207305    0.2135566 -51.04  0.001154981    1.538    0.350
        54 -11.9750    225.9335    229.5067   1.1172940803e+02  -4.7309801039e+00    0.2522028    0.1790578  23.44 0.0009233591    1.169    0.145
        55 -11.5760     69.6066    127.3064   1.2741233654e+02   4.1782047857e+01    0.2496274    0.2168448 -26.31 0.0005831759    1.479    0.324
        56 -10.6897     70.5186    226.6705   1.3953896958e+02   2.0381475547e+01    0.2943682    0.1294666 -83.01   0.00145492    2.768    0.639
        57 -10.5711    205.7452    239.5780   1.1670574001e+02  -2.7875471331e+00    0.1320769   0.09288865  40.30 0.0002071443    1.219    0.180
        58 -12.5968    198.6431    120.3568   9.4846318372e+01   1.7466185722e+01    0.2765835    0.2693843 -15.49 0.0002219421    1.007    0.007
        59 -10.2325    191.4306    237.7485   1.1892031912e+02  -2.8110531647e-01    0.2072725     0.137527 -49.23  0.001072703    2.021    0.505
        60 -11.0620     19.8158    116.1518   1.3928231741e+02   4.9830782818e+01    0.1787406    0.1375594  89.21 0.0004722002    1.151    0.131
        61 -11.5457    192.8669    234.2554   1.1816557443e+02  -5.7393756922e-02    0.4143271     0.255293  68.05  0.001929643    3.427    0.708
        62 -13.0670     96.1002    108.4290   1.1609931738e+02   4.2042858418e+01    0.4513543    0.3271696  10.99  0.002083959    2.087    0.521
        63 -11.7184     78.6548    108.0397   1.2098092467e+02   4.4989155082e+01    0.2150273    0.2052229  27.59 0.0002756755    1.208    0.172
        64 -11.8574     68.7670    221.6035   1.3942644390e+02   2.1546593024e+01    0.2231486    0.1474446  48.60 0.0009578475    1.331    0.249
        65 -13.5101    131.5157     97.2998   1.0362432713e+02   3.7494101713e+01     0.378396     0.330871  43.66  0.001752572    1.183    0.155
        66 -13.3900    192.2585    219.3482   1.1602199090e+02   2.0792737277e+00    0.3050916    0.2357968  13.31  0.001790902    1.368    0.269
        67 -11.7707    169.4869    239.3464   1.2300911888e+02   3.0582717308e+00    0.1208474    0.1178431  13.15 0.0007397314    1.241    0.194
        68 -10.6791     97.5104     93.5405   1.1186997300e+02   4.5147140355e+01    0.1460211     0.136716 -56.85 0.0001277664    1.011    0.011
        69 -12.9620    132.5675     89.9454   1.0125541329e+02   3.8788759452e+01    0.4408609    0.2992814  33.91  0.001023401    1.706    0.414
        70 -13.3688    127.5175     87.4264   1.0181697769e+02   4.0421125378e+01    0.6620733    0.2814585  48.63  0.002115516    2.426    0.588
        71 -12.5280    129.3211     83.0969   1.0005359409e+02   4.0899688668e+01    0.3130943    0.2591397 -63.64 0.0003553318    1.317    0.240
        72 -11.0900     46.3811    217.5659   1.4316758544e+02   2.5156009005e+01    0.2050939    0.1229397  67.20  0.001201763    1.329    0.248
        73 -11.5679     35.8967     88.1832   1.2984379661e+02   5.4881250493e+01    0.2056832    0.1517012 -64.05  0.000328155    1.125    0.111
        74 -11.5835     73.0797     88.3221   1.1787153042e+02   5.0340313849e+01    0.2993959     0.235374   3.71 0.0008431518    1.660    0.397
        75 -11.9263    182.6951    239.8520   1.2074547280e+02   8.5082807816e-01    0.1613833    0.1310553  53.37   0.00110892    1.297    0.229
        76 -11.5844    205.2229    213.2438   1.1269563772e+02   7.2913741310e-01    0.3283316    0.2758142 -76.00  0.001328387    1.867    0.464
        77 -12.5820     96.7682     72.8072   1.0597475486e+02   4.9693704608e+01    0.4636283    0.3247434 -10.87  0.002107234    2.010    0.502
        78 -13.3083    211.3939    207.7487   1.1066169912e+02   4.4005309967e-01    0.2748708    0.2225542 -18.78  0.001311862    1.305    0.233
