#   1 NUMBER                 Running object number                                     
#   2 MAG_AUTO               Kron-like elliptical aperture magnitude                    [mag]
#   3 X_IMAGE                Object position along x                                    [pixel]
#   4 Y_IMAGE                Object position along y                                    [pixel]
#   5 X_WORLD                Barycenter position along world x axis                     [deg]
#   6 Y_WORLD                Barycenter position along world y axis                     [deg]
#   7 A_WORLD                Profile RMS along major axis (world units)                 [deg]
#   8 B_WORLD                Profile RMS along minor axis (world units)                 [deg]
#   9 THETA_WORLD            Position angle (CCW/world-x)                               [deg]
#  10 FWHM_WORLD             FWHM assuming a gaussian core                              [deg]
#  11 ELONGATION             A_IMAGE/B_IMAGE                                           
#  12 ELLIPTICITY            1 - B_IMAGE/A_IMAGE                                       
         1 -11.2213     80.6966     23.0420   5.4710351177e+01   6.0247745856e+01    0.6330753     0.230275  40.11 0.0008038874    2.556    0.609
         2 -10.3347     77.6190     13.0211   5.1592032582e+01   6.1934904442e+01    0.6682517    0.2087276  47.06  0.002710734    2.617    0.618
         3  -8.8035     64.7412     13.6916   5.6195812180e+01   6.4238666650e+01    0.3001738    0.1472952  34.14 0.0008347837    1.857    0.461
         4 -10.9743    218.3543      7.8525   2.6460456871e+01   3.0791419389e+01    0.6390941    0.5047454  64.14  0.004327383    1.387    0.279
         5 -11.7944    237.0922      3.4557   2.4141533520e+01   2.7333943232e+01     1.167626     0.413486  76.04  0.005650981    2.610    0.617
         6  -9.4552     31.5910     10.8768   6.8826721620e+01   6.9603581991e+01    0.2420939    0.1620995   7.19 0.0002495543    1.288    0.224
         7  -8.6171     96.8135     11.7771   4.5666132235e+01   5.8166777924e+01     0.239821    0.1598305  28.73  0.001000237    1.473    0.321
         8  -8.8039    125.3620      9.9372   3.8749772602e+01   5.1998663315e+01    0.2361151    0.1534984  53.03 0.0003420828    1.307    0.235
         9 -10.0018     21.1889      8.4659   7.2936539730e+01   7.1134797752e+01    0.3010314    0.2009701  33.93 0.0005618986    1.778    0.438
        10  -8.3000    142.9194      9.3021   3.5521341826e+01   4.7970749850e+01    0.1823376    0.1392904  60.94 0.0003401673    1.125    0.111
        11  -8.8254     41.1950      5.4773   6.1761280539e+01   6.8932011751e+01    0.2786873    0.1596221   0.76   0.00119214    1.896    0.472
        12 -10.1772     13.8007      4.2419   7.4886735512e+01   7.2455351823e+01    0.2421533    0.1640957  -7.04 0.0002160754    1.148    0.129
        13  -9.8030      8.6789      4.9274   7.8144413438e+01   7.2840357388e+01     0.492056    0.2123507  12.10  0.002593864    2.560    0.609
        14 -10.0856     85.0629      5.2014   4.6188123104e+01   6.1194007895e+01    0.2398637    0.1905995  35.73 0.0003416963    1.036    0.035
        15  -9.2213     77.0309      5.6274   4.8671931431e+01   6.2752474783e+01    0.2771948    0.2425907 -20.26   0.00154193    1.334    0.250
        16  -8.2138     32.1785      5.8448   6.6099637607e+01   7.0142125028e+01    0.1589455    0.1060678   0.46 0.0002849282    1.294    0.227
        17  -8.9799     92.2102      5.0182   4.4229529528e+01   5.9737120265e+01    0.4219663   0.08276102  51.44  0.001520109    3.372    0.703
        18  -7.9597    131.9426      4.7797   3.5917078513e+01   5.0926128999e+01    0.1735555    0.0884623  63.71 0.0006190469    1.642    0.391
        19  -9.2800     57.7187      3.2728   5.4043935848e+01   6.6515208927e+01    0.2373151    0.1535021  29.98 0.0002816457    1.281    0.219
        20  -8.0710    154.0181      3.0063   3.2074358667e+01   4.5919881525e+01    0.1564349    0.1215609  71.75 0.0003460394    1.088    0.081
        21  -8.0700    125.7340      3.4042   3.6543865532e+01   5.2470735188e+01    0.1781357   0.09550185  54.85 0.0004073925    1.531    0.347
        22  -8.3462    110.3313      2.4592   3.9145795821e+01   5.6027909038e+01      0.27236    0.1605388 -58.45  0.001342083    2.582    0.613
        23  -8.4919    105.5512      1.9353   3.9957175907e+01   5.7124323532e+01    0.2550796     0.134639  46.96  0.001349851    1.576    0.366
        24  -8.3745    176.5045    170.4779   7.1364752366e+01   1.2208829916e+01    0.1476239    0.1407493  -7.79 0.0008101854    1.019    0.019
        25  -7.9223    227.7022    158.6305   5.8595960796e+01   5.1400795060e+00    0.1450636    0.1002821 -10.31 0.0007030288    1.734    0.423
        26  -8.4517    195.3235    156.6714   6.4391521302e+01   1.1433664378e+01     0.144971    0.1189037 -81.43  0.000704944    1.695    0.410
        27  -8.2787    188.7821    149.2698   6.4120128086e+01   1.4204027352e+01     0.240979    0.1123426 -34.00 0.0007664381    2.379    0.580
        28  -8.0775    115.6660    149.7161   8.1917949829e+01   2.8547147757e+01    0.1546606    0.1218202 -10.77 0.0002571013    1.619    0.382
        29  -8.5781    133.5478    147.6844   7.6745693339e+01   2.5643883422e+01    0.3134347    0.1453328 -44.24  0.001139683    2.173    0.540
        30  -9.1503     68.4978    145.5083   9.4365012024e+01   3.7185649938e+01    0.3274946    0.2908382 -79.98  0.001496524    1.089    0.082
        31  -8.5917     65.4741    143.4787   9.4882670076e+01   3.8102997752e+01    0.2828484    0.2461293  50.49 0.0008583251    1.217    0.178
        32  -7.3755     34.3227    144.6760   1.0404262901e+02   4.1344534687e+01    0.1393625   0.09304169  70.45  0.000704719    1.682    0.406
        33 -10.2958    243.4438    141.3379   5.2318507531e+01   5.5065658845e+00    0.2594521    0.1845029 -20.89   0.00140142    1.467    0.319
        34  -8.2019     75.7170    133.9473   9.0048303148e+01   3.9078971225e+01    0.2047397    0.1787339 -59.73 0.0003205285    1.070    0.066
        35  -8.4217    153.3163    124.3176   6.6243603439e+01   2.6889615493e+01    0.1595254    0.1247343  -2.45 0.0007038947    1.653    0.395
        36  -9.0385    135.2014    123.6040   7.0636361433e+01   3.0878290247e+01     0.230287    0.1495961  31.24 0.0009589503    1.733    0.423
        37  -8.3299    119.5849    118.6087   7.3612115841e+01   3.5194308967e+01    0.3105336    0.1437584  27.47  0.000954823    3.401    0.706
        38  -8.4782    135.6769    113.3549   6.7894803895e+01   3.3066134201e+01    0.3150907    0.1960104 -50.18  0.001221008    1.635    0.388
        39 -10.1805    133.8229    107.1835   6.6750067747e+01   3.4805142787e+01    0.6584693    0.2991476 -41.90  0.002399693    2.200    0.546
        40  -7.7491    143.3288    110.9961   6.5310894403e+01   3.1934116760e+01    0.2599058    0.1252252 -25.56  0.000705008    4.315    0.768
        41  -9.0983      8.8444    109.0568   1.0672724543e+02   5.2061255556e+01     0.221353    0.1575388  57.22  0.001309292    1.696    0.410
        42  -9.3766    115.4963    106.9714   7.1738859909e+01   3.8647628217e+01    0.2864359    0.2172928  61.50 0.0006829445    1.579    0.367
        43  -8.5358    124.9693    106.5109   6.8953480538e+01   3.6819238724e+01    0.2345275    0.1533753  40.61 0.0005130676    1.557    0.358
        44  -8.3205     86.7645    105.4561   8.0064020894e+01   4.4274764222e+01    0.2565279    0.1419533  41.75 0.0007350378    1.919    0.479
        45  -9.2514     71.8865    104.9527   8.4785822024e+01   4.6716731840e+01    0.3671546    0.1999221  42.83  0.001151762    2.054    0.513
        46  -9.3053    247.2250    102.1688   4.3502022614e+01   1.1552155046e+01    0.2289619   0.08091541 -47.01 0.0008837315    2.574    0.611
        47  -9.7500    141.6937     99.1194   6.2535712098e+01   3.4788343193e+01    0.6474016     0.295917  36.90  0.002246775    2.636    0.621
        48  -8.4307     14.6419    104.7053   1.0416292826e+02   5.2743233296e+01    0.2146448    0.1149452 -42.01 0.0009467654    1.747    0.428
        49  -7.6588    175.3216     99.3221   5.4912476801e+01   2.7153483923e+01    0.1525586    0.1209009   7.69 0.0007045637    1.675    0.403
        50  -9.5680     13.6722     96.3477   1.0309839599e+02   5.4780257677e+01    0.3020531    0.2671115   5.03  0.002037047    1.331    0.249
        51  -9.2935     12.3892     93.2193   1.0300280986e+02   5.5588993823e+01    0.2709367    0.2156487  -9.76  0.001170166    1.419    0.295
        52  -8.7501    130.7503     96.4175   6.4614222728e+01   3.7742518171e+01    0.2201866    0.1451814  34.80 0.0009508042    1.636    0.389
        53  -8.9406     55.5173     92.7789   8.7378635326e+01   5.1756617890e+01    0.3326833    0.2469921  -8.37   0.00139553    1.528    0.346
        54  -8.8999      1.6885     92.4189   1.0663362440e+02   5.6346264500e+01    0.2235306    0.1384818 -85.68  0.001250247    1.719    0.418
        55  -8.6381     42.9976     91.7517   9.1637364567e+01   5.3423251854e+01    0.1898838     0.172058 -23.90  0.001168407    1.095    0.087
        56  -8.7041    116.0261     90.5091   6.6993277271e+01   4.2078981853e+01    0.2151063    0.1342687  67.01 0.0008102565    2.563    0.610
        57  -8.1907     98.3120     89.3116   7.1953646546e+01   4.5821728518e+01    0.1528766    0.1148729  -7.00 0.0002991112    1.630    0.387
        58  -8.5831    249.3070     87.3407   4.0109827475e+01   1.3581105103e+01    0.1224303    0.1004791  -5.85 0.0007042545    1.685    0.406
        59  -9.4485    152.0660     86.0511   5.6415576766e+01   3.5013638226e+01    0.4591052    0.2965812  27.87  0.001914623    2.070    0.517
        60  -8.5128     72.3428     85.1122   7.9346711798e+01   5.1143408233e+01    0.4132735    0.2103768  56.81  0.001364864    4.172    0.760
        61  -8.1455     66.0138     83.7246   8.1190277292e+01   5.2378051090e+01    0.1937851    0.1739374  -6.99 0.0004304566    1.084    0.078
        62 -10.8021     37.8968     80.6242   9.0817989849e+01   5.6457062640e+01    0.6916173    0.3556818 -10.73  0.002370067    3.053    0.672
        63  -9.0783     20.9712     84.0365   9.8073004316e+01   5.7132749887e+01    0.1968051    0.1535903 -44.32 0.0003303991    1.064    0.060
        64  -7.8714    127.6297     82.6823   6.1491674044e+01   4.1167549389e+01    0.1598961    0.1180151  10.68 0.0007035224    1.790    0.441
        65 -10.4800    246.3660     79.5545   3.8833620905e+01   1.5375225237e+01    0.3301906    0.1643788 -33.23  0.001542364    2.051    0.512
        66  -8.6025     96.0709     78.4688   6.9409403784e+01   4.8468744008e+01    0.4802259    0.2180399  54.50  0.001619602    3.400    0.706
        67  -8.7037     89.2195     78.3442   7.1585788910e+01   4.9754777743e+01    0.3906107    0.1954258  30.55  0.001562077    2.272    0.560
        68  -9.3945     47.8753     77.9736   8.6292522112e+01   5.5969208739e+01    0.3718563    0.1254653 -40.41  0.001341102    2.992    0.666
        69  -8.8596     52.2011     75.6122   8.3975188405e+01   5.5958230005e+01    0.2725897     0.127056  19.30  0.001118465    2.689    0.628
        70  -8.7680    184.4156     77.7025   4.7559569854e+01   2.8990299898e+01    0.2565025    0.2486859   8.14 0.0006544625    1.165    0.141
        71  -8.2065    142.0039     79.0000   5.6772921659e+01   3.8634136782e+01    0.2544642   0.08422143  50.71 0.0008077505    2.979    0.664
        72  -9.6742      7.9335     77.4113   1.0168888622e+02   5.9438814018e+01    0.3671889    0.1772178 -30.56   0.00186274    2.103    0.525
        73  -8.4398    110.9873     75.9930   6.4099020282e+01   4.5996762758e+01     0.384913    0.1962309  64.69  0.001149149    4.441    0.775
        74  -9.6032    168.2085     74.4375   4.9750764586e+01   3.3333425965e+01     0.353246    0.2664344  43.02  0.001176345    1.403    0.287
        75 -10.5988    163.6330     70.8982   4.9691210801e+01   3.5010954614e+01    0.4639669    0.3678576 -34.14  0.001710233    1.313    0.238
        76  -8.0620     23.3352     68.7180   9.3557609623e+01   6.0329196195e+01    0.1980692    0.1166776 -60.83 0.0004575902    1.626    0.385
        77  -8.0810     74.8316     74.1836   7.5204197482e+01   5.3039796812e+01    0.1982611    0.1553482  -9.03 0.0004846079    1.337    0.252
        78  -9.3125     29.3916     68.2168   9.0941319418e+01   5.9933703448e+01     0.502619    0.2068292 -19.68  0.001602706    5.171    0.807
        79  -9.0746    240.9984     71.1644   3.7697899821e+01   1.7730429759e+01    0.2154152    0.1339852 -76.38  0.001085754    1.953    0.488
        80  -8.4636    107.7925     66.6121   6.2066698945e+01   4.8381414852e+01    0.4498565    0.1666703  41.76   0.00159278    2.706    0.630
        81  -8.8306    249.4941     66.0075   3.5648400301e+01   1.6836880989e+01    0.1659336    0.1102795 -14.37 0.0008104623    2.547    0.607
        82  -8.5984     83.9118     63.8331   6.8704958547e+01   5.3495589359e+01    0.3234132    0.1910686  23.41  0.001366751    1.995    0.499
        83  -8.5232     88.6055     63.3967   6.6986752909e+01   5.2722969914e+01    0.2785797    0.2037098  72.09  0.001289351    2.274    0.560
        84  -9.2121     23.9965     73.1952   9.4412946026e+01   5.9314306089e+01    0.4777518    0.1070657 -47.52   0.00174698    3.152    0.683
        85  -9.3599     25.7311     62.1887   9.0807637127e+01   6.1503427079e+01    0.3138741    0.2040464 -57.48   0.00103847    1.501    0.334
        86  -9.0570     19.0319     61.4126   9.3446841956e+01   6.2186968370e+01     0.413276    0.1697715 -27.10  0.001744683    2.952    0.661
        87  -8.9452    244.7484     61.7112   3.5274182356e+01   1.8401810566e+01    0.2098524   0.07608917 -47.20 0.0007841394    2.360    0.576
        88 -10.5557     62.3209     60.9141   7.5518393277e+01   5.7547639707e+01    0.4858604    0.2423084  27.83 0.0002929172    2.139    0.533
        89  -8.1019     11.5959     60.7796   9.6468172489e+01   6.2814812974e+01    0.1635346    0.1053782 -66.59 0.0004157576    1.621    0.383
        90  -8.7705      4.6520     61.3123   9.9563552643e+01   6.3088420189e+01    0.1872201    0.1068083  26.52  0.001028213    2.103    0.524
        91  -8.1489      1.5156     59.4466   1.0047381182e+02   6.3628749648e+01    0.1844805    0.1375559 -64.03 0.0006481029    1.298    0.230
        92  -9.0176    183.0483     58.9493   4.2920389800e+01   3.2335036583e+01    0.3260073    0.2118995 -37.44  0.001462548    1.558    0.358
        93 -10.4569    178.6540     54.4303   4.2456691255e+01   3.4047400516e+01     0.603811    0.3749423  80.81  0.001755373    1.909    0.476
        94  -8.3364     49.8589     58.6959   7.9682169907e+01   5.9668497112e+01     0.175621     0.154673  -0.26  0.000393284    1.108    0.097
        95  -9.4973     36.0306     58.9298   8.5482368858e+01   6.1204632788e+01    0.2766229    0.1602667  -1.17  0.001376385    2.092    0.522
        96  -9.2983     99.7577     54.6685   6.0490243611e+01   5.2057472461e+01    0.3390801    0.2284728 -26.16 0.0005967845    1.569    0.363
        97  -8.1728    118.7730     50.8896   5.3878020061e+01   4.8603706680e+01    0.2157835    0.1784073  24.27 0.0005208743    1.239    0.193
        98 -10.6942     75.5508     49.8934   6.6767847432e+01   5.7389191666e+01    0.4024224    0.2428585  40.35  0.000404176    1.644    0.392
        99  -9.1625     45.2805     48.5569   7.8110986817e+01   6.2119982958e+01    0.3026556    0.1943916 -11.65   0.00154616    1.666    0.400
       100  -8.6771    106.7802     48.3684   5.6271728937e+01   5.1586205602e+01    0.3402203    0.1995423  25.43  0.001315377    2.174    0.540
       101  -9.2607     10.2242     47.0280   9.3354939172e+01   6.5667560123e+01     0.261642     0.208398 -17.28 0.0007921305    1.154    0.134
       102  -8.8074     13.6961     45.3101   9.1216476406e+01   6.5769290687e+01    0.1716191    0.1469842 -29.03 0.0003686717    1.141    0.123
       103  -8.6375    222.4720     43.9562   3.3912095964e+01   2.5542496903e+01    0.1932042    0.1553197  83.58 0.0005623885    1.184    0.155
       104  -8.7953     81.4618     43.5379   6.2382042101e+01   5.7343279587e+01    0.2381445    0.1930031  -6.63 0.0006366335    1.198    0.165
       105 -10.5809     83.0169     39.7107   6.0431486204e+01   5.7622037608e+01    0.4767641    0.2467435  35.06 0.0002443625    1.894    0.472
       106  -9.2621     56.5368     42.3851   7.1184200967e+01   6.1656327420e+01    0.4461491     0.221164 -13.24  0.001590224    4.019    0.751
       107  -8.6706     94.0038     42.0616   5.7797804728e+01   5.5149589640e+01    0.5098584    0.1993145  34.55  0.001809097    3.223    0.690
       108  -8.4654     99.5258     41.8663   5.6075961176e+01   5.4053879158e+01    0.2783095    0.1877928  53.10  0.001433984    1.505    0.336
       109  -8.7871     32.2938     43.2518   8.1917708519e+01   6.4544912400e+01    0.3548118    0.1396862  33.42  0.001633188    2.751    0.636
       110  -8.0257    113.9875     41.4887   5.1963586502e+01   5.1015867345e+01    0.2072327   0.09943855  34.75 0.0008095659    2.505    0.601
       111  -8.9549    185.3431     36.8230   3.6845212399e+01   3.4892617549e+01     0.466771    0.2719245 -10.59  0.001990147    3.031    0.670
       112  -8.0931    123.6270     39.7686   4.9000642636e+01   4.9088321249e+01    0.3040542    0.1260705  33.95 0.0009673422    3.997    0.750
       113  -9.1158    203.6345     38.3683   3.4834253318e+01   3.0464494234e+01    0.2249127    0.2016835  67.14 0.0005645966    1.198    0.165
       114  -8.4667     53.0046     37.9920   7.0932084824e+01   6.2873248451e+01    0.1548731    0.1285178  -0.88 0.0003388521    1.016    0.016
       115  -8.6845     35.6452     37.6838   7.8350814369e+01   6.5149530694e+01    0.2333303    0.1463456 -23.64 0.0008937035    1.452    0.311
       116  -9.0102     38.5023     35.0191   7.6029141598e+01   6.5258132548e+01    0.2620046    0.1526589  16.60 0.0009003055    1.740    0.425
       117  -8.4741    105.2911     36.8353   5.2653723659e+01   5.3530753319e+01    0.2751039      0.14947  31.90 0.0009606463    2.084    0.520
       118  -9.1287     67.9482     37.5033   6.4881535792e+01   6.0624253635e+01    0.2539079     0.115343  36.25  0.001148691    2.112    0.526
       119  -9.5053     72.5857     35.0528   6.2234557126e+01   6.0184538391e+01    0.4656384    0.1694123  45.11  0.001893683    2.697    0.629
       120  -8.9351     45.1938     35.7002   7.3336373643e+01   6.4308571242e+01    0.1823643    0.1521428  32.19 0.0008440361    1.417    0.294
       121  -8.9522     19.9162     35.9459   8.5119140074e+01   6.7008522744e+01    0.2824543     0.131602  34.68  0.001158181    2.635    0.621
       122  -9.2224     21.4343     32.0675   8.2947091926e+01   6.7544408836e+01    0.3429859    0.1779028   8.65 0.0009719348    2.093    0.522
       123  -8.2964     55.7097     35.0919   6.8681487902e+01   6.2926333499e+01    0.1788592    0.1458636  -8.72 0.0005596676    1.067    0.063
       124  -9.3851     11.9742     34.2371   8.8433212714e+01   6.7934678785e+01    0.2734596    0.1954746  51.12  0.001636321    2.488    0.598
       125  -9.5313      5.7140     33.8914   9.1465590582e+01   6.8411277036e+01    0.2840147    0.1452514  -4.03  0.001050705    2.079    0.519
       126  -9.0884      1.4853     28.4362   9.1817052496e+01   6.9633531879e+01    0.2159461    0.1137273 -45.94 0.0007514335    1.486    0.327
       127  -8.2517      3.4814     24.5432   8.9382636638e+01   7.0192001658e+01    0.1842652   0.08988173 -48.18 0.0005632273    1.718    0.418
       128  -9.9585    197.1262     32.4486   3.4213853038e+01   3.2706886976e+01    0.2560464     0.246422  33.81 0.0004618763    1.300    0.231
       129  -8.4093    177.9989     34.4864   3.7283293318e+01   3.6920127897e+01    0.2023488    0.1735492  46.79 0.0005071578    1.284    0.221
       130  -9.6034    179.6261     30.4168   3.5988030798e+01   3.7035938415e+01    0.2358193    0.2062687  52.68 0.0009033619    1.230    0.187
       131  -9.2378     96.3874     32.8293   5.3704129552e+01   5.5922096421e+01    0.2441797    0.1818723  31.54 0.0002902936    1.243    0.195
       132  -9.3883    212.0288     30.4139   3.2019097429e+01   2.9591551186e+01    0.2531894    0.2055465  69.42 0.0006907447    1.243    0.195
       133  -8.8322     70.7653     29.9945   6.0877169701e+01   6.1201933143e+01    0.1779427    0.1519472   5.59 0.0004087837    1.043    0.042
       134  -9.0034     42.1178     27.8566   7.1504183055e+01   6.5917980833e+01    0.1704527     0.147852   0.58 0.0002601322    1.178    0.151
       135  -8.3200    190.5038     27.5077   3.3822885921e+01   3.4838086230e+01    0.1302125    0.1136496 -88.34 0.0008106242    1.007    0.007
       136  -8.9786    173.5226     26.6588   3.5853641213e+01   3.8924091101e+01    0.2412402    0.1900327  65.71 0.0007177613    1.162    0.140
       137 -10.5221     48.0039    247.5368   1.1114046093e+02   1.6243929100e+01    0.3396996    0.2197447  77.98  0.002141788    1.429    0.300
       138  -9.1602     63.4400     26.6409   6.2201937780e+01   6.2902395406e+01    0.4953281    0.1940311  45.46  0.001828921    2.587    0.614
       139  -9.7162     70.3163     25.9486   5.9394179914e+01   6.1809687353e+01    0.2853093    0.2144183  17.53 0.0009903933    1.202    0.168
       140  -7.6693    185.9853     26.5071   3.4141684065e+01   3.6008288223e+01    0.1880092   0.08800956  47.51 0.0008100141    2.499    0.600
       141  -9.9516    204.9137     23.8435   3.1280623841e+01   3.1974749482e+01    0.2530783    0.2333955 -81.33 0.0005611036    1.141    0.123
       142  -8.9843     27.7201     22.0058   7.5773907875e+01   6.8521065188e+01    0.4404657    0.2146915  -9.21  0.001967339    3.061    0.673
       143  -9.1125    128.8474     22.0596   4.2037852292e+01   5.0004828657e+01    0.2177851    0.1797767  46.33 0.0002781306    1.109    0.098
       144  -8.8758     46.2912     20.8436   6.6658029688e+01   6.6332191608e+01    0.3192702     0.145868 -36.87  0.001614376    2.224    0.550
       145  -8.9553     92.5050     20.3766   5.0115368540e+01   5.8196976337e+01    0.2678314    0.1748772  32.75 0.0006351054    1.429    0.300
       146  -8.9826    197.7454     19.8672   3.1128422428e+01   3.4055559456e+01    0.2593741    0.1402231 -77.79  0.001239609    2.134    0.531
       147  -8.9524     18.0125     17.4928   7.8766875534e+01   7.0187072062e+01    0.3071621    0.1391976  28.77  0.001301785    2.241    0.554
       148  -8.9166      8.6546     19.7333   8.4730960196e+01   7.0634454220e+01    0.2434648    0.1510497  -7.43 0.0008325616    1.439    0.305
       149  -8.7552     12.9786     17.9707   8.1657130778e+01   7.0566426356e+01    0.2262104    0.1303448  -1.78 0.0009129746    1.676    0.403
       150  -8.1984    127.7357     16.4006   4.0413260964e+01   5.0842826389e+01    0.1838037    0.1041431  53.10 0.0004645206    1.507    0.336
       151  -8.8555    189.7663     15.0924   3.0865280445e+01   3.6407096380e+01    0.2247433     0.161285  76.48 0.0007887618    1.225    0.184
       152  -8.7750    215.6546    248.6772   7.7590955831e+01  -7.8266735936e+00    0.1286265   0.07892374   1.49 0.0007050037    1.736    0.424
       153 -10.1091     38.8610    244.7663   1.1268340118e+02   1.7856821327e+01    0.2269108    0.1626499 -26.18  0.001303257    2.728    0.633
       154 -10.6069     35.5693    240.0005   1.1298442808e+02   1.9178107087e+01    0.3053567    0.1393068  36.50  0.001644696    2.029    0.507
       155 -10.5284    183.7526    242.6965   8.2864300744e+01  -2.4139357729e+00     0.338818    0.2707644  70.24  0.001357883    2.072    0.517
       156 -10.5894     28.7520    241.6607   1.1438341276e+02   1.9597880627e+01    0.3083481    0.1354512 -87.95  0.001590834    2.314    0.568
       157 -10.3886    204.4455    237.1954   7.7884048811e+01  -4.5863257627e+00    0.2183635    0.1820265  18.90 0.0002655368    1.122    0.109
       158  -8.3568    195.4928    238.4500   7.9849125930e+01  -3.4792782105e+00    0.1272807    0.1062025  13.19  3.55353e-05    1.026    0.025
       159  -8.7474     17.6745    238.6539   1.1626188097e+02   2.1359381048e+01    0.1020451   0.08191763 -51.84 0.0007050153    1.745    0.427
       160  -9.7443    171.8126    236.9626   8.4409693296e+01   3.3241827743e-01    0.3410373    0.1793537  39.52 0.0008921657    1.730    0.422
       161  -9.4246    188.0665    233.5587   8.0545472682e+01  -1.5891979026e+00    0.2134157    0.1875409 -58.22  0.000982511    1.555    0.357
       162  -8.5149    184.4952    228.5005   8.0445305646e+01  -2.0056184199e-01     0.132801    0.1130869  11.64 -0.0001329961    1.020    0.020
       163  -8.4157    174.1602    227.8108   8.2473360906e+01   1.5372583645e+00    0.1836182    0.1702039  38.74 0.0007019144    1.214    0.177
       164 -11.6219     41.1393    218.9693   1.1028779742e+02   2.2943855465e+01     1.000985    0.5764754  57.25  0.002947792    1.555    0.357
       165  -8.0899     92.7259    214.9725   9.8552538799e+01   1.7020543969e+01    0.1732923    0.1600344 -89.80 0.0002921226    1.099    0.090
       166  -9.5807     30.5093    212.0873   1.1196255730e+02   2.5622035212e+01    0.2668981    0.2081587 -41.24 0.0009144418    1.777    0.437
       167  -7.9859    163.8689    206.8969   8.1160969302e+01   7.0990610672e+00     0.174563    0.1628373  63.49            0    1.256    0.204
       168  -8.4043    147.1188     14.1025   3.6286885312e+01   4.6529936036e+01    0.2002288    0.1540903  51.48 0.0008516182    1.218    0.179
       169 -10.7140     54.6998    197.5760   1.0525583797e+02   2.6160803254e+01    0.4171676    0.2573736  78.61  0.002123489    1.729    0.422
       170  -7.5745     25.0498    200.0194   1.1217500794e+02   2.8889531866e+01    0.1451131    0.1181032  81.01 0.0003919025    1.006    0.006
       171  -8.5077    193.2607    198.2483   7.3277765971e+01   3.7483574019e+00    0.2962075    0.1276522 -48.56    0.0011689    2.621    0.618
       172  -7.5036     95.6984    178.3038   9.2552788581e+01   2.5004184334e+01    0.1488606    0.1081512  71.06 0.0002925333    1.592    0.372
       173 -10.7077    101.0030    175.9926   9.0806354585e+01   2.4708711738e+01    0.2054747    0.1971164  79.60  0.001160605    1.001    0.001
