#   1 NUMBER                 Running object number                                     
#   2 MAG_AUTO               Kron-like elliptical aperture magnitude                    [mag]
#   3 X_IMAGE                Object position along x                                    [pixel]
#   4 Y_IMAGE                Object position along y                                    [pixel]
#   5 X_WORLD                Barycenter position along world x axis                     [deg]
#   6 Y_WORLD                Barycenter position along world y axis                     [deg]
#   7 A_WORLD                Profile RMS along major axis (world units)                 [deg]
#   8 B_WORLD                Profile RMS along minor axis (world units)                 [deg]
#   9 THETA_WORLD            Position angle (CCW/world-x)                               [deg]
#  10 FWHM_WORLD             FWHM assuming a gaussian core                              [deg]
#  11 ELONGATION             A_IMAGE/B_IMAGE                                           
#  12 ELLIPTICITY            1 - B_IMAGE/A_IMAGE                                       
         1 -14.6519    188.6379     42.7310   4.8468460403e+01   3.3138978671e+01     1.255273    0.9726059  24.16  0.003971648    1.641    0.391
         2 -14.1816    215.3071     11.8830   3.7264630437e+01   3.0447862613e+01    0.8974915    0.5461684 -40.54  0.004477771    1.554    0.356
         3 -13.6805    209.8665     13.1852   3.8094059493e+01   3.1573582342e+01    0.7669062    0.3166131 -37.33  0.002969474    2.220    0.550
         4 -12.4672    246.5482      3.6223   3.2966702030e+01   2.4441151190e+01    0.3450264    0.1920916  83.70  0.001983988    1.706    0.414
         5 -10.7256     77.1464    234.5932   1.1492944288e+02   1.6091113339e+01    0.1623732     0.142553 -68.21 8.366645e-05    1.347    0.258
         6 -14.0511    247.8672    243.0206   8.3281306345e+01  -1.0389349245e+01     1.202821    0.4270821 -28.97  0.005806765    2.886    0.654
         7  99.0000     96.5069    231.8085   1.1082801829e+02   1.3922192026e+01     8.152246     6.531493  55.81   0.05371994    1.051    0.049
         8 -10.3608     44.3336    221.7278   1.2021963655e+02   2.2707831026e+01    0.1236163   0.06832228  62.56 0.0006987848    1.595    0.373
         9  -9.4527     48.6652    217.6467   1.1905184194e+02   2.3030899500e+01    0.1877201    0.1022927  36.58 0.0008635115    1.813    0.448
        10 -11.4772     89.6224    211.7457   1.1000308889e+02   1.8865141587e+01    0.2514088    0.1924271  78.59 0.0008225604    1.305    0.233
        11  -8.3471     43.4378    209.7580   1.1945648435e+02   2.5270277052e+01    0.1926298   0.09880899  69.45 0.0007581644    1.957    0.489
        12 -10.0526     43.5674    205.9145   1.1911183986e+02   2.6068084728e+01    0.2296646    0.1206154 -58.13 0.0009658356    2.054    0.513
        13 -12.0909     65.8720    205.2028   1.1436439779e+02   2.3508007724e+01      0.34504     0.161891 -69.34  0.001680653    2.106    0.525
        14 -10.8851     56.9277    200.8559   1.1584208615e+02   2.5576407966e+01    0.2112347    0.1616699 -35.48  0.001242529    1.909    0.476
        15 -11.7090    192.5961    194.3544   8.5033158734e+01   5.0112727658e+00    0.8660927    0.4504268 -63.19  0.002267672    7.874    0.873
        16 -18.3751     18.4662     96.5382   1.1269906388e+02   5.4145120375e+01     14.08331     1.383016 -67.47   0.03146119    8.422    0.881
        17 -10.4097     44.7245    195.3561   1.1794082829e+02   2.8224299438e+01    0.1315471   0.07752132  71.29 0.0007005961    1.650    0.394
        18 -12.6128    150.3945    192.7950   9.3775013219e+01   1.2821222878e+01    0.2903698    0.2589614 -28.16  0.001320233    1.197    0.165
        19 -13.6923    147.5268    187.9418   9.3556906290e+01   1.4309894893e+01    0.7157182    0.3162131 -54.62  0.002780596    2.654    0.623
        20 -11.9708     94.8218    187.7384   1.0572761362e+02   2.3248311805e+01    0.6187418    0.3253645  70.49   0.00233482    3.186    0.686
        21 -13.3630     98.8876    181.9946   1.0391891445e+02   2.3908013858e+01    0.5922053    0.3483589 -54.27  0.001786187    1.728    0.421
        22 -10.8963     28.0693    184.8233   1.2061873686e+02   3.2335595296e+01    0.1684534    0.1229389  61.13 0.0005764845    1.242    0.195
        23 -11.4976     69.8015    182.6053   1.1090938605e+02   2.8009497690e+01    0.4124919    0.2055931  48.73  0.001929307    1.951    0.487
        24 -12.9175     72.4642    177.9791   1.0967997304e+02   2.8720082556e+01    0.6724602     0.561637  44.32  0.004017993    1.228    0.186
        25 -12.2263     60.9120    192.8349   1.1414028918e+02   2.6845963177e+01    0.3355774    0.2592405 -34.44  0.001672224    1.833    0.454
        26 -11.9811    186.6101    174.6106   8.2379658756e+01   9.6842931358e+00    0.3496931    0.3484989  31.82  0.001059485    1.185    0.156
        27  99.0000     37.9056    174.4783   1.1745434130e+02   3.3701383842e+01     9.582648    0.5083045 -58.51   0.02545217    6.804    0.853
        28 -11.1455     75.0183    250.1719   1.1668491075e+02   1.3529806920e+01    0.1432032    0.1285556 -88.68 0.0005121849    1.278    0.218
        29 -11.4515     30.7693    170.1316   1.1868618575e+02   3.5434819816e+01    0.2053243    0.1767695 -55.70            0    1.340    0.254
        30 -12.7002    147.2486    173.4321   9.0911906224e+01   1.7377374051e+01    0.5999534    0.3703416 -74.88  0.002286072    2.925    0.658
        31 -10.2912     59.6117    163.3235   1.1088008902e+02   3.3865533128e+01    0.1486212   0.09043206  67.56 4.476131e-05    1.862    0.463
        32 -10.8645      2.6704    161.8943   1.2445405942e+02   3.9705994369e+01    0.1866508    0.1421685  60.57 0.0003654155    1.290    0.225
        33 -11.9071     91.6528    156.2576   1.0150792818e+02   3.1073576169e+01    0.2570455    0.2473874 -71.39 0.0002541075    1.061    0.057
        34 -12.0941    133.8082    145.8718   8.8465741860e+01   2.6051962034e+01     1.177274    0.2691625 -54.28  0.002432021    7.333    0.864
        35 -12.6889     96.9692    150.1730   9.8988270329e+01   3.1689499036e+01    0.5601593    0.4216284 -26.40  0.002501977    1.692    0.409
        36 -10.8395    174.4674    149.2178   7.9518226439e+01   1.7090868439e+01    0.2124765    0.1445382 -53.32 0.0006112294    1.644    0.392
        37 -10.9028    108.8711    147.1355   9.5220418362e+01   3.0399626521e+01    0.2240137    0.1960453  81.88 0.0002740238    1.232    0.189
        38 -12.4990     96.7299    136.3815   9.6301809556e+01   3.5072667901e+01    0.3932229    0.2626192 -59.23 0.0005281288    1.456    0.313
        39 -11.7918    108.3251    136.5691   9.3134896115e+01   3.3023014655e+01    0.4970101    0.2789744 -37.90  0.001992304    2.057    0.514
        40 -11.9864    105.9404    130.9246   9.2539279582e+01   3.4801445944e+01    0.3958335    0.3384455 -61.49  0.001157593    1.155    0.134
        41 -11.0469    115.2711    128.2928   8.9342905846e+01   3.3714782252e+01    0.2655366    0.2329148 -13.76  0.000709262    1.276    0.216
        42 -11.2951    103.1626    123.7243   9.1664573464e+01   3.7020849373e+01    0.2840061    0.2464628  -5.90 0.0006751523    1.328    0.247
        43 -11.1535     52.4339    249.1564   1.2068680931e+02   1.6536804983e+01    0.2118015   0.09690732 -71.20  0.001213902    2.259    0.557
        44 -10.1987    110.4979    117.9051   8.8155250923e+01   3.7058238421e+01    0.2237853    0.1475032 -49.22 0.0003334721    1.455    0.313
        45 -10.7846    231.1403    113.9456   6.0125421051e+01   1.2013038663e+01    0.2239312    0.2137157  35.77 0.0007898305    1.166    0.142
        46 -10.6977    167.7821    112.9214   7.2100876819e+01   2.6032476856e+01    0.2669713    0.1821895 -66.59  0.001080971    2.048    0.512
        47 -12.1884    119.0390    111.0176   8.3963513370e+01   3.6993936184e+01    0.4202347    0.3083481  73.68  0.001817785    1.931    0.482
        48 -10.5111    205.3761    110.1755   6.3670684362e+01   1.8122945636e+01    0.2497609    0.2040774  36.33 0.0007524962    1.321    0.243
        49 -13.5115    173.5587     56.4852   5.4915394774e+01   3.4891247480e+01    0.4934771     0.466096  13.73 0.0008324367    1.146    0.127
        50 -10.7465     59.2837    220.6117   1.1719074373e+02   2.1141283135e+01    0.2271616    0.1906501 -31.78  0.001486008    1.807    0.447
        51 -13.3215    193.9110     36.8403   4.6091839331e+01   3.2624077630e+01    0.4926466    0.4563188  -0.30  0.001369837    1.266    0.210
        52 -11.6799     71.5248    241.5680   1.1661913997e+02   1.5533559682e+01    0.1818707    0.1343864 -58.62 0.0007486566    1.651    0.394
        53 -10.9412     53.2615    220.8718   1.1840761892e+02   2.1827843629e+01    0.2289733   0.07113595  55.20 0.0008911937    3.423    0.708
