#   1 NUMBER                 Running object number                                     
#   2 MAG_AUTO               Kron-like elliptical aperture magnitude                    [mag]
#   3 X_IMAGE                Object position along x                                    [pixel]
#   4 Y_IMAGE                Object position along y                                    [pixel]
#   5 X_WORLD                Barycenter position along world x axis                     [deg]
#   6 Y_WORLD                Barycenter position along world y axis                     [deg]
#   7 A_WORLD                Profile RMS along major axis (world units)                 [deg]
#   8 B_WORLD                Profile RMS along minor axis (world units)                 [deg]
#   9 THETA_WORLD            Position angle (CCW/world-x)                               [deg]
#  10 FWHM_WORLD             FWHM assuming a gaussian core                              [deg]
#  11 ELONGATION             A_IMAGE/B_IMAGE                                           
#  12 ELLIPTICITY            1 - B_IMAGE/A_IMAGE                                       
         1 -14.8120    162.2962     41.7193   8.1251584950e+01   3.9554309920e+01     1.420126      1.05266  -9.43  0.003886728    1.394    0.282
         2 -14.5179    175.5368      8.7581   6.7249642185e+01   3.9899213661e+01     1.150591     1.005497  11.16  0.003672827    1.136    0.120
         3 -11.4709    189.8716     14.6532   6.7352093911e+01   3.5497235424e+01     0.259164    0.2019626   0.93 0.0007778701    1.324    0.245
         4 -12.7972    197.1392      6.7790   6.3859296012e+01   3.4302693683e+01    0.5246655    0.2528697 -78.80  0.001806467    3.324    0.699
         5 -10.2162    150.6581    245.2327   1.2587669628e+02   1.0263145032e+01    0.1007583   0.09391835  -4.89 0.0003853429    1.451    0.311
         6 -20.0589     75.3817    175.8799   1.3195930357e+02   3.0718829068e+01     13.94874     5.408193 -68.18   0.07033513    2.732    0.634
         7 -12.8710    153.9642    185.6671   1.1810385723e+02   1.7444528474e+01    0.2925072    0.2351508  46.75  0.001065116    1.083    0.077
         8 -11.3404     21.9312    243.1581   1.4518114317e+02   2.5763256271e+01    0.1647951   0.09281193  88.59  0.001423891    1.614    0.380
         9 -12.7468    203.1011    172.3441   1.0699801593e+02   1.0790849445e+01    0.8011344    0.2711863 -41.63  0.003224312    3.758    0.734
        10 -13.6627    209.9954    187.2707   1.0841147021e+02   7.7862053201e+00    0.7258732    0.3494903 -50.60  0.003000032    4.631    0.784
        11 -12.6463    207.3705    178.3030   1.0731683920e+02   9.2999582344e+00    0.4320463    0.2478995  16.82  0.002130218    2.130    0.530
        12 -12.5017    209.7706    175.9934   1.0649423478e+02   9.1628010574e+00    0.3974974    0.2648161 -36.18  0.001861772    1.775    0.437
        13 -11.1253      8.0000    239.8934   1.4703678947e+02   2.7468496168e+01    0.1085839   0.03913372 -83.68 0.0007509139    2.597    0.615
        14 -10.6486     28.2243    179.5416   1.4121587178e+02   3.5231236631e+01    0.1584248    0.1470068 -76.89 0.0008270461    1.466    0.318
        15 -10.1309     25.5213    184.9894   1.4202212576e+02   3.4522068570e+01    0.1298266   0.09349748  82.29 7.955157e-05    1.119    0.106
        16  -9.9775     25.0101    181.7872   1.4193211979e+02   3.5131592703e+01    0.1301312    0.1022195  70.77   0.00108279    1.105    0.095
        17 -11.6096    139.2423    248.7393   1.2797462404e+02   1.1428034314e+01     0.262763    0.1930586 -65.55  0.002168816    1.910    0.476
        18 -11.0499    126.4576    236.5020   1.2884625720e+02   1.4623885169e+01    0.2034644     0.141351 -38.29  0.001211999    2.214    0.548
        19 -10.7844     13.8346    238.6468   1.4617676209e+02   2.7131172862e+01   0.07024562   0.05073816 -83.86 0.0006547128    1.533    0.348
        20 -11.3698    144.9256    179.1054   1.1883159034e+02   1.9926402373e+01    0.2408668    0.1769871 -41.12  0.001049022    1.619    0.382
        21 -13.5231    175.0202    193.4716   1.1545531297e+02   1.2878006788e+01    0.4498176    0.3254625 -51.50  0.001732264    1.834    0.455
        22 -10.5319    161.3142    178.3118   1.1561632031e+02   1.7294577361e+01    0.1217592   0.08935656  15.45 0.0002256641    1.635    0.388
        23 -13.7559    195.5771    170.9141   1.0807455321e+02   1.2317313955e+01    0.6788771    0.3935705 -44.89  0.002970858    2.213    0.548
        24 -13.3580    123.5473    166.3583   1.2113430019e+02   2.5505577729e+01     1.218205    0.4701831  59.74  0.003307141    7.422    0.865
        25 -14.4683    138.7437    171.8247   1.1893169395e+02   2.2107170898e+01     1.121333    0.3715522  48.58  0.004512509    2.903    0.656
        26 -14.4900    142.0316    167.4645   1.1760655145e+02   2.2269067918e+01    0.9376022    0.4310322  52.59  0.004230129    2.273    0.560
        27 -10.6218    132.8503    235.1944   1.2770095816e+02   1.3911725361e+01     0.357987    0.1616977  35.31   0.00158354    2.090    0.521
        28 -11.8411    166.9875    173.5259   1.1377820501e+02   1.7021071785e+01    0.2122767    0.1800471 -68.71  0.001007009    1.555    0.357
        29 -10.0404     11.9057    173.9645   1.4388646065e+02   3.7673591977e+01    0.1237683   0.09828938 -69.12 0.0002726254    1.509    0.337
        30 -12.1113    125.0664    243.5839   1.2970438867e+02   1.3936036546e+01    0.1535179    0.1332027 -73.06 0.0005861109    1.507    0.337
        31 -10.5549     25.6317    230.2165   1.4415633973e+02   2.7261054903e+01   0.09954345   0.06994416 -87.98 0.0003539429    1.413    0.292
        32 -12.0217    230.1773    166.6436   1.0131861442e+02   6.6879213215e+00    0.2774751    0.1559528 -41.72  0.001419737    2.433    0.589
        33 -11.7099    201.0784    165.0688   1.0601855242e+02   1.2096216645e+01     0.254201    0.2081003 -62.37 0.0009933797    1.878    0.468
        34 -10.5144     25.3551    224.9273   1.4398129805e+02   2.8069445428e+01    0.1263198   0.08502763 -85.70 0.0005665764    1.453    0.312
        35 -10.8791    222.7924    162.3068   1.0171551616e+02   8.5070691503e+00    0.2726861    0.1563119 -43.48  0.001059393    2.405    0.584
        36 -13.4187    163.9867    157.3422   1.1154023987e+02   2.0029079650e+01    0.3741943    0.3544194  25.72  0.001114536    1.074    0.069
        37  -9.7896    219.2711    224.3191   1.1261013541e+02   2.4526678847e+00    0.1079875   0.06532533  18.86 0.0002117419    1.564    0.361
        38 -14.7529    134.5251    146.9068   1.1567650484e+02   2.7099781532e+01     1.444974    0.5053769 -56.62  0.004981529    4.231    0.764
        39  -9.6914     19.3169    158.2650   1.4158020624e+02   3.9957063086e+01   0.08892389   0.07400883 -59.04 0.0002890643    1.549    0.355
        40 -10.6412     22.9453    156.1257   1.4071115066e+02   4.0052378260e+01    0.1560107    0.1222399  80.92 0.0005118428    1.050    0.047
        41 -13.6857    177.6020    171.4083   1.1143827571e+02   1.5457865617e+01    0.4644684    0.4304419 -52.71  0.003151714    1.344    0.256
        42 -12.5998    159.6610    150.9619   1.1121763493e+02   2.1852768010e+01    0.3176916    0.2069821 -28.41  0.001642216    1.864    0.463
        43 -14.0999    135.8415    127.3394   1.1160226473e+02   3.0461533672e+01     1.623543    0.3221321 -49.71  0.004180841    6.291    0.841
        44 -14.3239    143.5602    143.8972   1.1320543294e+02   2.6019224388e+01    0.9021319    0.4431332 -59.40  0.003696013    2.996    0.666
        45 -11.6930    174.6528    140.9613   1.0624062312e+02   2.0610502291e+01    0.1839588    0.1732497 -10.68 0.0004454181    1.113    0.101
        46 -12.7780    174.0634    149.1264   1.0800497308e+02   1.9437515234e+01    0.3760296    0.3064884 -33.15  0.001620486    1.332    0.249
        47 -10.4527     22.4622    221.3473   1.4427461733e+02   2.8879074772e+01   0.08569395   0.06624257  63.65 0.0003791204    1.199    0.166
        48 -10.1792      1.8901    139.8755   1.4401287191e+02   4.4876047219e+01    0.1433761    0.1132409 -81.18 0.0003366831    1.222    0.182
        49 -11.4544      8.2031    137.7123   1.4253859276e+02   4.4854782854e+01     0.228019      0.21314  36.78  0.001088191    1.468    0.319
        50 -11.9838    168.8383    202.5275   1.1784389154e+02   1.2703345932e+01    0.2138384    0.1705004  76.38 0.0006351937    1.755    0.430
        51 -13.3909    154.4161    196.0137   1.1949015548e+02   1.5887486067e+01    0.5458239    0.3565333 -68.89  0.003156967    2.430    0.588
        52 -12.6885    157.7823    202.6443   1.1978997475e+02   1.4443542122e+01    0.4499043    0.3054635  70.59  0.002682385    2.136    0.532
        53 -12.9223    160.5224    128.0238   1.0637030644e+02   2.5556746856e+01    0.3606397    0.3421583 -71.80  0.001789938    1.204    0.170
        54 -12.6793    163.7816    203.0743   1.1879884782e+02   1.3437479523e+01    0.3073857    0.2764053 -50.20  0.001007685    1.414    0.293
        55 -11.8563    140.9025    121.0259   1.0910593595e+02   3.0682510911e+01    0.3735659      0.25265  78.55   0.00161377    2.429    0.588
        56 -12.6777    161.1299    198.1434   1.1858757510e+02   1.4518135743e+01    0.2957325    0.2613944 -33.53  0.001557528    1.384    0.278
        57 -13.1308     11.7328    205.8788   1.4533168971e+02   3.2257122471e+01    0.3431413    0.2297013  30.25  0.002799602    1.955    0.488
        58  -9.9950     22.2874    205.3110   1.4360585268e+02   3.1405969135e+01   0.07814441   0.06824457 -73.25 0.0006263537    1.578    0.366
        59 -10.8749    205.3280    110.2389   9.3313442289e+01   1.8965640273e+01    0.3047686    0.1886634  41.72  0.000940145    1.549    0.354
        60 -12.0119    168.0465    244.0780   1.2305961075e+02   7.9550367088e+00    0.1583559    0.1132623  39.36 0.0003612123    1.013    0.013
        61 -11.4597    138.0485    198.6123   1.2277367847e+02   1.8084349105e+01    0.4852148    0.2690333  66.42   0.00244102    2.767    0.639
        62 -11.6344    169.8438    195.3389   1.1664591500e+02   1.3482298881e+01    0.1707211    0.1640998  87.55 0.0007271094    1.320    0.243
        63 -10.4981     11.7396    100.5719   1.3863042109e+02   5.2355360441e+01    0.1431875   0.09356823  48.86 0.0007787708    1.640    0.390
        64 -13.9172    167.4655    189.6800   1.1623500998e+02   1.4639093935e+01    0.5945477    0.3855897  45.41  0.002341617    1.312    0.238
        65 -12.8079    180.1775    192.6501   1.1442252600e+02   1.2130316951e+01    0.3237906     0.299858 -53.24  0.001433605    1.418    0.295
        66 -10.4752    143.8140     80.1869   9.7912933020e+01   3.7715237678e+01    0.2074466    0.1741378   4.57  0.000459797    1.307    0.235
        67 -14.3789    150.9226     56.4513   8.8734309018e+01   4.0167513441e+01     1.378541     1.083781  31.99 0.0009744979    1.305    0.234
        68 -14.0272    176.0008    187.0961   1.1430649122e+02   1.3561675756e+01    0.8066913    0.4430946 -60.21  0.003694123    3.674    0.728
        69 -13.0258    166.0771     33.1976   7.7520279788e+01   3.9715176261e+01    0.4598552    0.4021672   8.74 0.0008411649    1.122    0.108
        70 -11.1716     13.5324     59.9772   1.3253539612e+02   6.1184115439e+01    0.1870637    0.1488206  66.22 0.0005603881    1.454    0.312
        71 -10.0119    144.9862     34.2053   8.2091892124e+01   4.4974539724e+01    0.1988883    0.1212264  56.76 0.0003675759    1.682    0.405
        72 -12.0778    133.8335    246.5975   1.2861274057e+02   1.2403659686e+01    0.1442479    0.1245019  49.95 0.0003441014    1.209    0.173
        73 -12.4952    155.4477    190.5417   1.1853738691e+02   1.6495320896e+01    0.2977332    0.1800377  55.92  0.001694786    1.737    0.424
