#   1 NUMBER                 Running object number                                     
#   2 MAG_AUTO               Kron-like elliptical aperture magnitude                    [mag]
#   3 X_IMAGE                Object position along x                                    [pixel]
#   4 Y_IMAGE                Object position along y                                    [pixel]
#   5 X_WORLD                Barycenter position along world x axis                     [deg]
#   6 Y_WORLD                Barycenter position along world y axis                     [deg]
#   7 A_WORLD                Profile RMS along major axis (world units)                 [deg]
#   8 B_WORLD                Profile RMS along minor axis (world units)                 [deg]
#   9 THETA_WORLD            Position angle (CCW/world-x)                               [deg]
#  10 FWHM_WORLD             FWHM assuming a gaussian core                              [deg]
#  11 ELONGATION             A_IMAGE/B_IMAGE                                           
#  12 ELLIPTICITY            1 - B_IMAGE/A_IMAGE                                       
         1 -14.8908    162.9097     41.3790   2.9015735981e+02   6.3494790074e+00   0.06458867   0.04365467 -49.30  0.003717891    1.453    0.312
         2 -14.6655    177.5562      8.1773   2.8979181528e+02   6.6476291970e+00   0.07093265   0.05053471  13.86  0.006790272    1.562    0.360
         3 -10.0020    159.9638    247.5129   2.9141873836e+02   3.9843797278e+00   0.01027675  0.008180086 -60.84 0.0005361098    1.226    0.184
         4 -19.9924     75.0335    174.2192   2.9195063434e+02   5.3219704927e+00    0.9086608    0.3573552 -65.34   0.07237559    2.636    0.621
         5 -10.6956    150.8082    245.4893   2.9151086608e+02   4.0606331202e+00  0.008990602  0.008178202 -61.75 0.0003909259    1.077    0.071
         6 -11.6189    125.1074    243.5104   2.9179152376e+02   4.2318167510e+00   0.01065546  0.008127488 -61.22 0.0007076852    1.279    0.218
         7 -12.1165    155.3549    190.2451   2.9113095083e+02   4.6731314326e+00   0.01351849   0.01039274  52.21  0.001511388    1.391    0.281
         8 -12.0113    154.0173    185.5008   2.9111796429e+02   4.7357149027e+00   0.01475218   0.01022471 -78.42  0.001019052    1.610    0.379
         9 -13.7431    210.1908    187.5094   2.9049074862e+02   4.3876134386e+00   0.05151867   0.02363813 -82.83  0.003410198    4.344    0.770
        10 -12.7869    206.3429    178.9642   2.9048362454e+02   4.5086349575e+00   0.02094073   0.01623286 -12.83  0.002325214    1.511    0.338
        11 -11.9746    209.7717    175.9899   2.9042690960e+02   4.5231572600e+00   0.01594849   0.01170401  75.37 0.0008279836    1.655    0.396
        12 -11.5300     21.9071    243.6998   2.9296743201e+02   4.8237295612e+00   0.01235581  0.008841866 -64.31  0.001340796    1.378    0.275
        13 -10.8813      8.0000    240.1489   2.9310481697e+02   4.9446767316e+00  0.009637696  0.003670527 -63.02  0.000747041    2.572    0.611
        14 -10.8948     13.8123    238.6494   2.9302976816e+02   4.9286579009e+00  0.006597204  0.004419497 -44.07 0.0006685692    1.525    0.344
        15 -10.3605    126.4536    236.6458   2.9173548968e+02   4.3034379243e+00   0.01255132  0.004900774 -50.45  0.001008328    2.453    0.592
        16 -11.7050     31.4653    183.1554   2.9250024987e+02   5.4693445234e+00   0.02228879   0.01139884  29.23  0.002072094    1.953    0.488
        17 -11.8198    108.1518    182.4050   2.9162187894e+02   5.0363461799e+00     0.015691   0.01113926  61.23 0.0005250364    1.646    0.392
        18 -12.0383      4.6548    178.5571   2.9277866866e+02   5.6765789005e+00   0.01875113   0.01572439   1.88  0.001662142    1.310    0.236
        19 -13.5772    195.5404    170.8344   2.9055809514e+02   4.6651141111e+00   0.03897049   0.02160732 -76.06  0.002925368    2.177    0.541
        20 -13.2164    177.3176    171.5313   2.9076961446e+02   4.7624968240e+00   0.02699995   0.01725454 -88.35  0.002595676    2.040    0.510
        21 -11.4393    166.9009    173.3771   2.9089916976e+02   4.8014045528e+00   0.01154322  0.009143692 -81.68  0.000961845    1.363    0.267
        22 -14.2854    138.6292    171.5593   2.9121026040e+02   4.9858207289e+00   0.06438426    0.0199407  32.51  0.004836335    2.976    0.664
        23 -11.7309    203.0879    172.3028   2.9048097384e+02   4.6044581622e+00    0.0127146  0.009832826 -76.20 0.0008605141    1.364    0.267
        24 -13.9292    141.3282    167.1525   2.9115330732e+02   5.0211801821e+00   0.04444122   0.01774378  28.23  0.003664397    2.501    0.600
        25 -10.3658    131.6432    235.6809   2.9167071014e+02   4.2846552685e+00  0.008770499  0.008124787  44.28 0.0003040163    1.100    0.091
        26 -10.3790     34.2935    169.6238   2.9238779297e+02   5.6096356808e+00   0.01068307  0.008327455   5.66 0.0006697972    1.444    0.307
        27 -11.7183    230.1125    166.2377   2.9013747823e+02   4.5180338241e+00   0.01312104  0.008503327  79.07  0.001241155    2.123    0.529
        28 -11.5367    122.8244    165.9375   2.9135685125e+02   5.1421039560e+00   0.01836907  0.009937095  47.91   0.00120331    2.059    0.514
        29 -11.5148    201.1672    165.0461   2.9045959541e+02   4.6994365957e+00    0.0154014  0.009806069  78.42  0.001055523    2.208    0.547
        30 -10.7947     25.2887    165.1423   2.9246390101e+02   5.7132528122e+00   0.01018308  0.008791005  -3.78  0.000621371    1.263    0.208
        31 -10.7440    222.8119    162.3328   2.9019721941e+02   4.6054410440e+00   0.01556477  0.009017045 -85.06 0.0009304484    2.391    0.582
        32  -9.6817    134.9990    234.6797   2.9162658193e+02   4.2768695733e+00  0.008145387   0.00781017  46.28 0.0003835228    1.062    0.059
        33 -12.7123    164.2193    157.4113   2.9083465294e+02   5.0014734696e+00   0.01569407   0.01295639  25.86 0.0009914049    1.239    0.193
        34 -14.6307    134.0715    145.7379   2.9110853516e+02   5.3106989108e+00   0.08174974   0.02773999 -72.86  0.004721627    5.332    0.812
        35 -11.1209    139.3833    249.4407   2.9166427350e+02   4.0808798518e+00   0.01718554   0.01224196 -70.22  0.001793609    1.444    0.307
        36 -10.9395     22.8844    156.0761   2.9243756044e+02   5.8319564297e+00   0.01076565  0.009527945  23.98 0.0005534794    1.158    0.136
        37  -9.9419    192.3293    153.2850   2.9049008335e+02   4.8865133965e+00  0.006785088  0.004919456 -25.80 0.0003499665    1.611    0.379
        38 -12.1557    174.0497    149.1469   2.9067350507e+02   5.0401328562e+00   0.01645686   0.01459256 -86.32  0.001321783    1.179    0.152
        39 -13.8702    143.4451    143.2872   2.9098715391e+02   5.2848590007e+00   0.04429376   0.02137481 -80.28  0.003365156    3.226    0.690
        40  -9.1525     25.5931    230.4645   2.9284721587e+02   4.9556972656e+00  0.006503602  0.006219289 -51.63 8.624468e-05    1.028    0.027
        41 -11.0743     29.1555    227.3048   2.9278795422e+02   4.9717877872e+00   0.01006273  0.008036895 -47.64 0.0005013517    1.238    0.193
        42 -11.4398    174.1708    140.8306   2.9062257491e+02   5.1355462102e+00   0.01023966  0.008755148  63.75 0.0008625803    1.258    0.205
        43 -10.6479      1.6270    140.0480   2.9258501505e+02   6.1394776770e+00  0.009037263  0.008000408 -60.35  0.000455143    1.103    0.094
        44 -12.7737    134.7601    112.8701   2.9090493002e+02   5.6866487984e+00   0.02773621  0.008082135 -62.66  0.001936554    3.344    0.701
        45 -11.8676    134.5678    105.8031   2.9086500320e+02   5.7694331322e+00   0.02305868  0.006667245 -64.38  0.001550968    3.621    0.724
        46 -14.1253    135.7610    127.2919   2.9097944716e+02   5.5141729828e+00   0.06405482    0.0189337 -67.05   0.00410514    4.123    0.757
        47 -11.5765      7.2071    138.4761   2.9251202313e+02   6.1256190425e+00   0.01518235   0.01258434  24.11 0.0008779221    1.239    0.193
        48 -11.1123     25.2594    225.0583   2.9281904428e+02   5.0201706516e+00   0.01448089  0.007376119 -51.44  0.001335953    1.886    0.470
        49 -10.6696    219.1728    224.1891   2.9060693776e+02   3.9117742521e+00  0.009027141  0.007555724  72.89  0.000314595    1.320    0.243
        50 -12.5261    160.5339    128.1405   2.9070225435e+02   5.3611109744e+00   0.01714033   0.01445482 -89.14  0.001742141    1.281    0.219
        51 -10.8188     24.1395    212.9659   2.9276026393e+02   5.1665258353e+00   0.01679704  0.007923836 -44.31  0.001445321    2.267    0.559
        52 -11.9568    140.3301    120.4995   2.9088691130e+02   5.5662706307e+00    0.0148319  0.009319141  56.93 0.0008099511    1.912    0.477
        53 -13.1980     11.8231    205.8668   2.9285859925e+02   5.3194195828e+00    0.0295944    0.0183771   9.50  0.002631384    1.990    0.497
        54 -10.0666      6.6459    119.7455   2.9240728864e+02   6.3454809841e+00  0.006684556  0.004931488 -21.01 0.0004145877    1.605    0.377
        55 -11.9861    133.7802    247.0643   2.9171392192e+02   4.1406878964e+00   0.01008039  0.008928939 -64.09 0.0004904573    1.110    0.099
        56 -11.8071    154.4178    195.9748   2.9117568643e+02   4.6122981454e+00   0.02164366   0.01283984  86.95   0.00189432    2.519    0.603
        57 -10.8916    205.3172    110.2550   2.9008563536e+02   5.3084232492e+00   0.01371989  0.009437493  18.03  0.000896493    1.579    0.367
        58  -9.8675    180.6624    106.3485   2.9034303881e+02   5.4963965605e+00   0.00711939  0.004880156  64.42 0.0007046827    1.785    0.440
        59 -11.9477    157.7840    202.6590   2.9117710973e+02   4.5155662045e+00   0.02818938   0.01347813  56.06  0.002190006    3.085    0.676
        60 -12.3196    163.8047    203.2026   2.9111182535e+02   4.4744915916e+00   0.01893329   0.01381123 -74.38    0.0010705    1.451    0.311
        61 -12.7664    161.3452    197.7596   2.9110745264e+02   4.5516336863e+00   0.01928621   0.01601885  80.94  0.001567555    1.337    0.252
        62 -11.8305    168.8439    202.4257   2.9104986391e+02   4.4543504743e+00   0.01382164  0.009779553  73.34 0.0006143149    1.761    0.432
        63 -10.4681    143.9824     80.2813   2.9060546926e+02   6.0098617750e+00  0.009121222   0.00868535  20.94  0.000493004    1.074    0.069
        64 -14.4272    151.4739     56.2869   2.9037681396e+02   6.2436128780e+00   0.05353308   0.04714473 -27.60  0.002567313    1.193    0.162
        65 -11.0290    137.7446    198.4971   2.9138047909e+02   4.6794387615e+00   0.02794381   0.01482766  63.85   0.00222932    3.032    0.670
        66 -12.9988    166.6303     33.0484   2.9006514336e+02   6.4240620076e+00   0.01943178   0.01667792 -52.49 0.0008219904    1.139    0.122
        67 -10.8639     13.4239     59.8904   2.9197415608e+02   6.9984669919e+00   0.01054172  0.008844717  45.52 0.0004304739    1.226    0.184
        68 -10.4636    144.9586     34.0318   2.9031815611e+02   6.5382486225e+00  0.009700025  0.009417295  54.61 0.0003424031    1.050    0.047
