#   1 NUMBER                 Running object number                                     
#   2 MAG_AUTO               Kron-like elliptical aperture magnitude                    [mag]
#   3 X_IMAGE                Object position along x                                    [pixel]
#   4 Y_IMAGE                Object position along y                                    [pixel]
#   5 X_WORLD                Barycenter position along world x axis                     [deg]
#   6 Y_WORLD                Barycenter position along world y axis                     [deg]
#   7 A_WORLD                Profile RMS along major axis (world units)                 [deg]
#   8 B_WORLD                Profile RMS along minor axis (world units)                 [deg]
#   9 THETA_WORLD            Position angle (CCW/world-x)                               [deg]
#  10 FWHM_WORLD             FWHM assuming a gaussian core                              [deg]
#  11 ELONGATION             A_IMAGE/B_IMAGE                                           
#  12 ELLIPTICITY            1 - B_IMAGE/A_IMAGE                                       
         1 -14.7043    106.2124    106.1760   7.5552771067e+01   4.0486492387e+01     1.566697     1.179108 -35.02  0.007088004    1.346    0.257
         2 -14.9847      6.4351     71.6715   1.0353043578e+02   6.1410606903e+01     1.194655    0.6933036 -53.22  0.005502538    1.361    0.265
         3 -14.7547    120.0723     54.5441   5.6027897071e+01   4.7394140064e+01     1.055425    0.7697089  39.73  0.003266675    1.346    0.257
         4 -14.4163    100.7749     49.5404   5.9511135289e+01   5.2400160050e+01     1.057447    0.9476513  -6.56  0.005553829    1.139    0.122
         5 -13.7213    119.8915     26.4514   4.6841271564e+01   5.1115896732e+01     1.752048    0.7744758  38.93   0.00718086    2.651    0.623
         6 -14.5757    166.6971     28.7871   3.9494434706e+01   3.9871596772e+01      1.06377    0.9015523  76.73  0.003994306    1.058    0.054
         7 -14.4920    122.0287     37.1868   4.9915793721e+01   4.9357701836e+01     1.500446    0.5265162  44.18  0.005448259    2.980    0.664
         8 -14.8719    147.4672     29.7072   4.2685032724e+01   4.4291903620e+01     1.454588     0.863628  58.66  0.006853031    1.500    0.333
         9 -13.5366    138.3480     21.9299   4.1914382991e+01   4.7295362010e+01    0.8637598    0.2962346  63.77  0.002321162    2.542    0.607
        10 -13.4835    132.1749     32.9445   4.6433343283e+01   4.7516387636e+01    0.6693457    0.5268459 -29.54  0.002434491    1.409    0.290
        11 -15.4992    218.4392     16.9591   3.1122757741e+01   2.9708600689e+01     1.784436     1.553871 -32.30   0.01274027    1.451    0.311
        12 -14.1425    187.7075     12.4622   3.2915523553e+01   3.6831129948e+01     1.169158    0.6044439 -52.25  0.006242268    1.872    0.466
        13 -13.3443     44.5348     32.1408   7.2965695230e+01   6.5223911738e+01     0.600198    0.5243796  10.38  0.002010577    1.172    0.146
        14 -12.7488     59.5688     16.8585   6.0099209807e+01   6.4758985009e+01    0.5636789    0.4588834  71.25  0.003301022    1.912    0.477
        15 -13.3154     55.3193     27.2387   6.6300907743e+01   6.4231237681e+01     0.583635    0.3907295  37.32  0.002207984    1.392    0.281
        16 -12.4485     63.4653     25.2709   6.2315970045e+01   6.3073105912e+01     0.545473    0.3094652  23.96  0.002476615    1.876    0.467
        17 -13.4802      2.8228     10.2461   8.5035750995e+01   7.3215925268e+01    0.9198356    0.3630915 -44.80  0.004901221    2.396    0.583
        18 -13.0505      8.0454      2.7199   7.7974661209e+01   7.3775145202e+01    0.5858676    0.3857867  40.07  0.002698279    2.302    0.566
        19 -16.0127     13.8370     20.6163   8.3311882688e+01   7.0676379379e+01     1.953207     1.007084 -24.46   0.01009934    1.799    0.444
        20 -14.2470     25.3604     14.0846   7.3989748251e+01   7.0339917430e+01    0.8777634    0.3584123  31.93  0.004464508    2.270    0.560
        21 -12.0886     46.5121     20.7622   6.7100550677e+01   6.6493367022e+01    0.3503467    0.2537767   7.63  0.001241561    1.235    0.190
        22 -11.3112    202.6300     21.4608   3.3507892952e+01   3.2565310189e+01    0.2208719    0.2011816  88.57  0.001017821    1.183    0.154
        23 -15.4843     99.0705     11.5052   4.6202762707e+01   5.7298610559e+01     1.639192    0.7946485  55.70  0.004459052    1.703    0.413
        24 -12.8411     70.2292     16.0674   5.6021909063e+01   6.2859152750e+01    0.4202376    0.3434194  48.58  0.001766467    1.254    0.203
        25 -14.8666    212.5686     41.3708   3.6922061393e+01   2.7984764376e+01     2.081569    0.7122104  72.83  0.008092475    3.409    0.707
        26 -12.1729     46.6408     13.1097   6.3490159240e+01   6.7386618073e+01    0.3012255    0.2325805  43.78  0.001292601    1.460    0.315
        27 -12.5778    119.2259      3.0426   3.9236661434e+01   5.3458599049e+01    0.5751523    0.3460816  89.98  0.002859492    2.009    0.502
        28 -11.1371    123.3516     11.8573   4.1381633836e+01   5.1771896764e+01    0.2015195    0.1583431  73.85 0.0004506661    1.189    0.159
        29 -14.0284     41.7088      4.7312   6.1500552800e+01   6.9073357561e+01    0.7208548    0.4826196  17.36  0.003403347    1.286    0.222
        30 -12.1032    152.6598      8.6730   3.5945698610e+01   4.5229806386e+01    0.3851133    0.2389634  80.44  0.001440991    1.483    0.326
        31 -12.5240     75.4923     10.4197   5.1975871980e+01   6.2375203853e+01    0.3375107    0.2882674 -37.72  0.002238724    1.468    0.319
        32 -10.1744    145.3219      8.2872   3.6824034689e+01   4.6974828761e+01    0.1272466   0.08279327  45.35 0.0002349339    1.600    0.375
        33 -10.7647    133.7379      8.5791   3.8615811519e+01   4.9650130331e+01    0.2380431   0.09973927  62.56   0.00100035    1.938    0.484
        34 -13.0095     85.2598     14.3616   5.0785386801e+01   6.0002648248e+01    0.5059538    0.3591637  13.04  0.002712897    1.519    0.342
        35 -10.5478     59.9437      7.4945   5.5730577480e+01   6.5646927040e+01    0.1892328    0.1033747  48.02  0.001038157    1.608    0.378
        36 -11.0378     67.6180      4.1307   5.1670044372e+01   6.4487430324e+01    0.2086863    0.1501309  54.37 0.0008595486    1.353    0.261
        37 -11.9311     81.3104      1.6177   4.6701109704e+01   6.1921543796e+01    0.4808998   0.09734517  54.75  0.001788821    3.286    0.696
        38 -12.0651     61.0866      1.7841   5.2715909377e+01   6.5936318904e+01    0.3812116    0.1468609  53.43  0.001692806    2.295    0.564
        39 -13.9502    189.5258     26.4557   3.6036961658e+01   3.4894764888e+01     1.474657    0.5869936 -62.01   0.00551868    3.645    0.726
        40 -11.9069     86.0323    152.6981   9.2484416166e+01   3.2664763547e+01    0.5074105    0.2610747 -46.47  0.002018011    1.950    0.487
        41 -12.6360     56.7292    246.6846   1.1210898246e+02   1.4574499211e+01    0.6097203    0.2112768  32.67  0.002655855    2.641    0.621
        42 -13.3859     28.1232    246.2238   1.1783787402e+02   1.7968757873e+01    0.4821604    0.3362886  65.68  0.003199752    1.177    0.151
        43 -12.4670      2.8456    249.3005   1.2278362878e+02   1.9895460892e+01    0.4147914    0.2728928  73.33  0.002530467    1.197    0.164
        44 -13.7129      9.5470    245.9620   1.2138585373e+02   1.9920180745e+01    0.7953289     0.376606  57.62  0.003636608    1.724    0.420
        45 -11.6234    103.1587    150.2009   8.7056475959e+01   3.0445775069e+01    0.4432676    0.2755584 -33.35  0.001809763    1.938    0.484
        46 -13.1131    244.4148    146.8806   5.5301167309e+01   4.8959379371e+00    0.5260932    0.2303186 -43.87  0.002390712    1.959    0.489
        47 -12.8543     59.6300    148.5889   9.9549493614e+01   3.7519065974e+01    0.3771379    0.2933536 -29.07  0.001809805    1.475    0.322
        48 -11.1246     12.5484    148.8767   1.1346302245e+02   4.2197678932e+01    0.2087106    0.1111022 -73.38  0.001024118    1.578    0.366
        49 -11.3238      6.5074    145.5018   1.1481818780e+02   4.3476876456e+01    0.4619139    0.2286204  87.33  0.002109776    2.142    0.533
        50 -12.4211     76.5713    156.8116   9.5996203816e+01   3.3052326109e+01    0.6105806    0.3281531  31.46  0.002070131    1.955    0.488
        51 -12.4668     45.0123    135.1934   1.0175600061e+02   4.2745112702e+01    0.5174025    0.3653557 -55.58  0.002663581    1.265    0.209
        52 -13.2789    246.2360    134.1242   5.2449729029e+01   6.7969498313e+00    0.6083176    0.3562845 -43.25  0.003234798    1.423    0.297
        53 -14.4808    233.3999    129.6696   5.3452335008e+01   9.7312551397e+00     1.035184    0.7392898 -41.05  0.005822105    1.185    0.156
        54 -10.0922     10.6927    134.2650   1.1232635720e+02   4.6032468160e+01    0.1268384   0.09065885  67.05 0.0003248929    1.531    0.347
        55 -12.0089    135.7255    132.5871   7.4112239318e+01   2.8492444768e+01    0.5612961    0.2164128  47.20  0.001823187    2.834    0.647
        56 -11.5501    133.6192    126.3567   7.3130458722e+01   3.0350620259e+01    0.6780592     0.248973 -35.54  0.001843542    4.071    0.754
        57 -12.3333    121.0576    112.3163   7.2915788109e+01   3.6120292893e+01    0.5135073    0.4748683  61.80  0.001624209    1.164    0.141
        58 -14.2633    108.2659    121.7905   7.9032104000e+01   3.6471229303e+01     1.701823     1.214749  23.81   0.00762412    1.598    0.374
        59 -13.7918     85.9041    114.2118   8.3998630077e+01   4.2328608470e+01     1.352032      1.01052  32.01  0.004666854    1.394    0.283
        60 -12.3343    107.3725    244.5506   1.0109804932e+02   8.1928763221e+00    0.4689787    0.3674498 -27.92   0.00277864    1.607    0.378
        61 -13.4656     73.7090    153.5781   9.6248712265e+01   3.4302058982e+01    0.8796285     0.446573  30.48  0.003331477    2.095    0.523
        62 -11.2555    181.4627    120.6830   6.0612847939e+01   2.1469017504e+01    0.2588038    0.1395269  48.11 0.0009005086    1.978    0.495
        63 -11.9254      3.9828    119.8049   1.1262481336e+02   5.0081347394e+01    0.5413202     0.223324  14.99  0.002361723    2.942    0.660
        64 -13.1726     49.6685     96.1449   9.2005176953e+01   5.1960418547e+01     1.041056    0.8326321  24.18  0.005747654    1.340    0.254
        65 -12.3288     42.4902     90.9073   9.3407477795e+01   5.4024334737e+01    0.4913677    0.3895028   6.64  0.001973156    1.342    0.255
        66 -14.2581     18.1699    110.9926   1.0656722849e+02   5.1365389419e+01     1.172453    0.7344236 -31.68  0.006128547    1.690    0.408
        67 -13.6151      2.3107     97.2038   1.0998646496e+02   5.5704123280e+01     0.950577    0.3326096 -70.35  0.003560676    2.452    0.592
        68 -14.7674     22.8574     95.3196   1.0195435700e+02   5.4843100767e+01     1.619339     1.108943   1.70  0.008887155    1.668    0.400
        69 -11.8448     63.4779    111.4274   9.0786691226e+01   4.6475290960e+01    0.4410024     0.249739  48.18  0.001856612    2.172    0.540
        70 -11.5311    176.8259    110.2922   5.9017634641e+01   2.4518159427e+01    0.3914213    0.2685452 -19.69  0.001725032    1.900    0.474
        71 -10.9267     46.0454    110.3314   9.6617973050e+01   4.8947638297e+01    0.2862056    0.1710825 -39.18  0.001328259    1.649    0.394
        72 -14.1570     11.1387    103.3167   1.0777707458e+02   5.3731062774e+01    0.8300797    0.7894844 -34.15  0.004920946    1.166    0.142
        73 -13.5352    249.3692     98.4464   4.4772912460e+01   1.2226765532e+01    0.9435238    0.2198778 -40.62  0.003322897    3.398    0.706
        74 -13.2940     29.6092     89.5971   9.8096038669e+01   5.5628729928e+01     1.018441    0.5464819  58.85  0.003949043    3.646    0.726
        75 -12.4776    135.9486    103.3874   6.6530612795e+01   3.4896590641e+01    0.7877529    0.3543576  51.29  0.002585329    2.412    0.585
        76 -13.6262    120.7770    102.1796   7.0241396384e+01   3.8406067075e+01    0.7909428    0.3918119  38.71  0.003004146    2.127    0.530
        77 -12.2323     61.1250     97.8247   8.8234636801e+01   5.0069300882e+01    0.4616092    0.3217008 -76.26  0.002126154    1.964    0.491
        78 -12.2670    163.5328     98.3038   5.8724679960e+01   2.9786180425e+01    0.3607897     0.280955 -51.78  0.001790823    1.279    0.218
        79 -13.0298    136.4003     95.3864   6.4210805442e+01   3.6439665300e+01    0.5194466     0.404377  54.43  0.001803405    1.330    0.248
        80 -11.9774    129.3318     96.7829   6.6418541969e+01   3.7709445958e+01    0.3288243    0.2492964  77.56  0.001481473    1.773    0.436
        81 -13.4778     95.5042    111.0173   8.0130487465e+01   4.1398931129e+01     1.146837    0.7524797 -64.80  0.004621809    1.872    0.466
        82 -11.4075    125.6954     92.4208   6.6144099172e+01   3.9389969351e+01    0.2608988    0.1989207 -52.32  0.001242758    1.384    0.277
        83 -11.4168     89.9928     87.5095   7.5300442686e+01   4.7667325451e+01    0.4430614     0.260122  55.99   0.00178499    2.336    0.572
        84 -12.9393    188.4065     84.3029   5.0401533299e+01   2.6776867013e+01    0.7217557    0.3539686  42.03  0.002520666    2.609    0.617
        85 -13.4939    239.5785     81.7558   4.2526952141e+01   1.6660078315e+01    0.7023787    0.4102728 -86.35  0.003351684    2.558    0.609
        86 -12.6439    159.8386     67.8445   5.1279010396e+01   3.6066173009e+01    0.7917391      0.30711 -48.02   0.00244236    2.874    0.652
        87 -14.0479    163.9913     72.0615   5.1633315090e+01   3.4406795772e+01     1.464675    0.5810502  44.24  0.005175379    2.994    0.666
        88 -13.5884    161.7401     80.0930   5.4249283906e+01   3.3555396042e+01    0.8149984    0.5353524  24.62  0.003449046    2.326    0.570
        89 -14.5091    169.4073     77.2580   5.1997206342e+01   3.2280103506e+01     1.446705    0.5896243  52.39  0.004881497    2.434    0.589
        90 -12.5149     44.1824     78.6223   8.9455456099e+01   5.6609706524e+01    0.9092016    0.6420823  88.48  0.004207624    2.563    0.610
        91 -12.4625     40.1514     68.3839   8.8095579729e+01   5.9266657392e+01    0.7967322    0.3311283  26.36  0.003403939    2.525    0.604
        92 -12.4422     31.5098     62.8493   9.0127982870e+01   6.1346849204e+01      0.61707    0.3284759 -59.26  0.002937618    2.115    0.527
        93 -13.6646     65.8311     49.8657   7.1258057618e+01   5.9089309399e+01    0.9658012    0.6348068 -35.64  0.003566716    1.517    0.341
        94 -13.9568     55.1432     67.0510   8.1498801570e+01   5.7609360148e+01     1.309416    0.8581592 -18.14  0.006507353    1.690    0.408
        95 -13.3910     91.7643     57.9638   6.5161908444e+01   5.2933063790e+01    0.5466502    0.5031099  39.75  0.002184598    1.125    0.111
        96 -13.0262     71.1568     75.1938   7.8010780142e+01   5.3517707718e+01    0.6228347    0.4375347  -4.49  0.002608335    1.716    0.417
        97 -12.8336     77.7901     72.4262   7.4738980120e+01   5.2942342744e+01    0.6770964     0.412257 -16.75  0.001912297    2.276    0.561
        98 -13.2408     54.2305     81.4965   8.6316932823e+01   5.4714293799e+01    0.5630431    0.4146466 -52.77  0.002985262    1.361    0.265
        99 -14.0404     60.9345     75.7993   8.2023507124e+01   5.4987915118e+01    0.7934106    0.5173557 -24.13  0.001834621    1.662    0.398
       100 -13.2972    213.4071     78.5662   4.5193140565e+01   2.2353170343e+01      1.00515    0.5830642  86.15  0.004454441    2.528    0.604
       101 -12.8328    216.6472     73.1516   4.3532733998e+01   2.2540528214e+01     0.649934    0.4066139 -78.77  0.003192211    2.016    0.504
       102 -14.1044    199.4088     69.9582   4.5178151178e+01   2.6715119353e+01     1.133186    0.7062706  40.36  0.004229424    2.135    0.532
       103 -12.9316    199.9765     62.4925   4.3320966353e+01   2.7739862593e+01    0.4374835    0.3590222 -42.62  0.001819346    1.209    0.173
       104 -12.8886    135.4614     79.9391   6.0031323591e+01   3.9622384224e+01    0.7019387    0.4201081  49.44  0.002207346    1.644    0.392
       105 -11.9089    114.2386     80.1591   6.5660023366e+01   4.4278788685e+01    0.3845074    0.3400354 -54.65  0.001178365    1.224    0.183
       106 -12.8170     28.5031    122.2840   1.0493121956e+02   4.7696740366e+01    0.4604437    0.3271783 -49.00  0.002440003    1.265    0.209
       107 -13.8081    170.6324    242.6561   8.7250701207e+01  -7.1668100869e-01    0.9759231    0.6698989  13.06  0.005541321    1.412    0.292
       108 -13.9853      4.8835     63.5742   1.0233180428e+02   6.3265854354e+01    0.6393717    0.4954751  -1.92  0.003677353    1.359    0.264
       109 -11.4932     27.0726     75.3724   9.5618012567e+01   5.9099023667e+01    0.5486521    0.3088557 -76.44  0.002369572    2.814    0.645
       110 -12.4630    241.1275     71.0439   4.0135628634e+01   1.8009851062e+01    0.4433573    0.2719732 -81.83  0.002354484    2.013    0.503
       111 -13.2523    133.6334     66.4522   5.6464070846e+01   4.2397766181e+01    0.9010766    0.6945514   9.67  0.003758796    1.679    0.404
       112 -11.9857     99.9408     64.0347   6.4693712960e+01   5.0234614915e+01    0.4448623    0.3843341 -22.42  0.002467416    1.174    0.148
       113 -13.2628     78.6173     59.7154   7.0153893893e+01   5.5156308010e+01     0.741502     0.552512 -45.40  0.003941125    1.476    0.322
       114 -13.0909     82.2562     54.4458   6.7036757349e+01   5.5375594009e+01    0.6657017    0.4559141 -14.32   0.00305843    1.683    0.406
       115 -13.8452    177.8288     56.8158   4.5184935718e+01   3.3583808944e+01    0.9660224    0.6024762 -50.64  0.003665929    1.595    0.373
       116 -12.4331    135.5163     50.2796   5.1117353985e+01   4.4460805849e+01    0.5646649    0.3003168  38.34  0.001908059    2.221    0.550
       117 -12.3596    147.7152    239.3425   9.1618125517e+01   3.2254482320e+00    0.2156709    0.1697162 -65.08 0.0008302669    1.668    0.401
       118 -13.0889    247.5956    236.3622   7.1464765624e+01  -9.7801571462e+00      0.39563    0.2900029  -0.54  0.002748384    1.096    0.088
       119 -12.6284     24.9519    217.3633   1.1652239840e+02   2.4464575594e+01    0.6983597    0.2739618  49.08  0.003271401    2.258    0.557
       120 -12.7512     14.1346    221.9306   1.1912739315e+02   2.4522233824e+01    0.4273343    0.3413113  73.45  0.001711361    1.006    0.006
       121 -13.9303     25.9653    227.1900   1.1701214948e+02   2.2189492246e+01    0.8708985    0.4193313 -62.05  0.004552134    2.123    0.529
       122 -13.1957     20.6095    224.7278   1.1796223098e+02   2.3274661410e+01    0.5727984    0.3928449 -50.80  0.002653327    1.839    0.456
       123 -13.5409     97.1161    238.9001   1.0267447392e+02   1.0772282612e+01    0.7322267     0.481142  37.94  0.003632658    1.334    0.250
       124 -11.4379     39.1902     60.6030   8.6040571569e+01   6.0958331227e+01    0.2735787    0.2266859  74.07  0.001541494    1.974    0.493
       125 -12.1963     24.9633     59.1336   9.1925745723e+01   6.2738144972e+01    0.5260393    0.2607267 -41.21  0.002134786    1.704    0.413
       126 -13.7781     65.8154    223.4816   1.0797486263e+02   1.8326381811e+01    0.9435101    0.7258102  47.91  0.005622015    1.170    0.145
       127 -11.4367     17.7552     55.6486   9.4206851393e+01   6.4061983531e+01    0.3503286    0.1577781 -55.73  0.001682272    2.060    0.515
       128 -11.8825    230.9087     55.4253   3.7994494797e+01   2.2276301097e+01    0.3668866    0.2165661  84.40  0.001968257    1.908    0.476
       129 -13.4086     87.1569     65.1417   6.9111623188e+01   5.2591116945e+01    0.7769604    0.5393416  -2.41  0.003229209    1.853    0.460
       130 -11.8023     37.5329     52.6601   8.4077131813e+01   6.2684345288e+01    0.3965237    0.2258369 -13.68  0.001881584    2.142    0.533
       131 -13.5237    157.7243     43.7875   4.4973019922e+01   4.0118330283e+01     1.118272    0.5875866  44.38  0.004990885    2.139    0.532
       132 -10.6268      5.6727     50.9206   9.8625298167e+01   6.5858759772e+01    0.3801094    0.1627926 -17.71   0.00171669    2.770    0.639
       133 -11.7552     17.3415     40.5445   8.9418313057e+01   6.7001157149e+01    0.2191465    0.1698832 -24.04 0.0006960271    1.027    0.027
       134 -12.7254      3.7921     43.4095   9.7334548883e+01   6.7455101472e+01    0.4968112    0.3712695 -13.62  0.003356254    1.204    0.169
       135 -12.4858     11.7213     43.6890   9.3366089407e+01   6.6870583888e+01    0.5614324    0.2866744 -27.98  0.002329469    1.794    0.442
       136 -10.6023     23.5695     50.2102   8.9708656126e+01   6.4630130110e+01    0.1743798   0.09578422 -37.94 0.0003854234    1.546    0.353
       137 -13.1379    248.1871     51.8283   3.5566323508e+01   1.9439338932e+01    0.6083602    0.3369944 -40.24  0.003485218    1.593    0.372
       138 -13.7232     91.0763    231.9965   1.0320943022e+02   1.3045666539e+01    0.5787874    0.3650984  81.15  0.002831632    2.143    0.533
       139 -11.7381    247.2013    222.9178   6.9229469603e+01  -7.8261678270e+00    0.2451254     0.148536 -41.58  0.001437148    1.778    0.438
       140 -13.7062    241.9644     34.3237   3.2680179790e+01   2.2924294228e+01    0.7417821    0.5455122  88.01  0.003059562    1.287    0.223
       141 -12.8152     94.3803    218.6106   1.0079094264e+02   1.5437932113e+01     0.370509     0.259672  38.61   0.00138247    1.312    0.238
       142 -11.5877    250.0011    217.7494   6.7846625812e+01  -7.4021191603e+00    0.2317329    0.1238115 -24.46  0.001281756    1.646    0.392
       143 -12.9024     59.4787    212.9639   1.0832686753e+02   2.1512316888e+01    0.3900627    0.2274987 -55.23  0.001043813    1.820    0.451
       144 -14.0051     64.1083    214.5898   1.0741908084e+02   2.0545646479e+01    0.7999527    0.4460464  38.93   0.00399126    1.651    0.394
       145 -12.4516    238.2457    214.2356   6.9252202018e+01  -5.4210738726e+00    0.3436783    0.1418471 -33.07  0.001617368    2.161    0.537
       146 -12.0954    185.6026    213.6053   7.9295198888e+01   2.1412968412e+00    0.2452051    0.1710317 -38.15   0.00132379    1.427    0.299
       147 -10.8008    136.5168    211.0634   8.9752774252e+01   1.0497834469e+01     0.206379    0.1407406 -51.94   0.00100802    1.572    0.364
       148 -11.8819     72.5110    207.2780   1.0457394412e+02   2.1115325498e+01    0.3817653    0.3214815  73.38  0.002226676    1.143    0.125
       149 -11.5188     88.7539     26.3235   5.4477148224e+01   5.8012395889e+01    0.3464255    0.1819458 -25.32  0.001566751    2.109    0.526
       150 -11.1134     98.3411     26.9850   5.2094848379e+01   5.5893040503e+01    0.2705453    0.2120976  71.71  0.001428142    1.466    0.318
       151 -11.4496     30.8577     25.6296   7.6559555324e+01   6.8038431509e+01     0.296083    0.1730442  16.06  0.001574738    1.658    0.397
       152 -11.1828     36.1644     23.7160   7.3130792030e+01   6.7619473667e+01    0.2618143    0.1651353 -28.96  0.001555717    1.503    0.335
       153 -12.3895     41.2376    206.9085   1.1198222171e+02   2.5110050716e+01    0.3074087    0.1890323  86.69  0.001468307    1.639    0.390
       154 -11.0911     51.9194     20.5415   6.4732340044e+01   6.5648962240e+01    0.2817644    0.1486533  35.92  0.001084982    1.679    0.404
       155 -10.6611    150.9720    207.0074   8.5724307619e+01   8.9694707008e+00     0.219889    0.1585092  -5.90  0.001067496    1.692    0.409
       156 -12.4963     57.6154    203.2406   1.0770795106e+02   2.4019458141e+01    0.5854301     0.292824 -83.92  0.002484988    2.416    0.586
       157 -13.2270     15.4399    197.5494   1.1715695060e+02   2.9954003170e+01    0.8258355    0.3495318 -67.22  0.003959178    2.065    0.516
       158 -12.2616    248.8843    196.5330   6.4201984307e+01  -4.0227239840e+00     0.629554    0.2844732 -43.22  0.003066354    2.123    0.529
       159 -13.0433     40.5688    195.2565   1.1099772785e+02   2.7959326094e+01    0.5179404    0.2824165  76.03  0.002377372    2.109    0.526
       160 -13.7401     30.1103    169.2758   1.1088716763e+02   3.5505633466e+01     1.177583    0.9719527  29.27  0.007034711    1.373    0.272
       161 -13.4669     22.2985    181.2234   1.1413464064e+02   3.3262862176e+01    0.9466509    0.4137184 -56.11  0.004121074    2.197    0.545
       162 -14.9971      8.2940    183.6013   1.1776073680e+02   3.3902004162e+01     1.326477     1.050402 -83.00  0.008541142    1.077    0.071
       163 -14.9331     15.8143    175.3711   1.1522350400e+02   3.5286441621e+01     2.057693    0.9552487  59.24   0.00929633    2.359    0.576
       164 -11.9920    200.9426    192.0503   7.2129403360e+01   3.6958008104e+00    0.3720677    0.2625965 -24.58  0.001496855    1.348    0.258
       165 -11.6752    104.4845     36.8708   5.4045978204e+01   5.3355993355e+01     0.294975    0.2215435 -26.69  0.001062868    1.443    0.307
       166 -11.8854     49.0713    181.9813   1.0736852060e+02   3.0254011358e+01    0.3991937    0.2537515 -55.97  0.002013087    1.544    0.352
       167 -12.5185    197.9410    180.7696   7.0508450892e+01   6.3136347628e+00    0.5139327    0.3717267 -70.65  0.002391653    2.332    0.571
       168 -13.1078    124.4441    166.7041   8.4664649794e+01   2.2601003301e+01    0.7236992    0.4634186 -63.60  0.003083738    1.811    0.448
       169 -11.0640      1.7759    159.2251   1.1740661219e+02   4.0362974177e+01    0.2958902    0.1535183 -83.36    0.0014946    1.664    0.399
       170 -12.7870     75.5190     37.2829   6.2917550534e+01   5.9268542185e+01     0.499315    0.3258248  55.11  0.001311461    1.790    0.441
       171 -11.6309     70.4798     36.4885   6.4372341726e+01   6.0319049886e+01    0.2518113    0.2054669 -34.62 0.0008089822    1.372    0.271
       172 -12.7396    164.1627    194.8420   8.0516397253e+01   9.2531761731e+00     0.580505    0.3232567 -61.23  0.002309658    2.665    0.625
       173 -11.6477     74.1512    145.6900   9.4649370100e+01   3.6271503108e+01    0.8813848    0.4703711 -72.64  0.003377555    2.325    0.570
       174 -12.5137    209.3976    154.6431   6.2855904411e+01   9.3548338075e+00    0.5867793    0.4164723  33.83  0.003053595    1.557    0.358
       175 -11.0160     34.8572     34.8940   7.8565931883e+01   6.6107462205e+01    0.2576711    0.1495396 -30.38 0.0007946193    1.588    0.370
