#   1 NUMBER                 Running object number                                     
#   2 MAG_AUTO               Kron-like elliptical aperture magnitude                    [mag]
#   3 X_IMAGE                Object position along x                                    [pixel]
#   4 Y_IMAGE                Object position along y                                    [pixel]
#   5 X_WORLD                Barycenter position along world x axis                     [deg]
#   6 Y_WORLD                Barycenter position along world y axis                     [deg]
#   7 A_WORLD                Profile RMS along major axis (world units)                 [deg]
#   8 B_WORLD                Profile RMS along minor axis (world units)                 [deg]
#   9 THETA_WORLD            Position angle (CCW/world-x)                               [deg]
#  10 FWHM_WORLD             FWHM assuming a gaussian core                              [deg]
#  11 ELONGATION             A_IMAGE/B_IMAGE                                           
#  12 ELLIPTICITY            1 - B_IMAGE/A_IMAGE                                       
         1 -14.1875    248.9295    147.5561   3.3273093887e+01   2.7508581685e+00     10.68525     1.949219 -43.86    0.0303746    4.673    0.786
         2 -15.0079    246.0936    114.3160   2.6907135867e+01   9.2543757574e+00     4.758401     1.771342  48.02  0.005937799    3.227    0.690
         3 -14.3958    247.9390     96.8507   2.3096345206e+01   1.1942932410e+01     4.577674     2.022845 -65.11  0.006549347    4.524    0.779
         4  -8.2817     96.8502      8.7129   2.5926897260e+01   5.7768390781e+01     0.181624    0.1456899  20.72  0.000352724    1.256    0.204
         5  -8.4836    216.4838      3.8033   7.7294045322e+00   3.1445083292e+01    0.1955993    0.1455226  75.78  0.000332322    1.246    0.197
         6  -8.0865    227.9712    237.4521   5.4393473106e+01  -9.6680572003e+00    0.1597694    0.1054789  51.92 0.0008080477    2.519    0.603
         7  -9.4218    218.3751    249.2735   5.8285693408e+01  -1.0153367386e+01    0.2394306     0.213142  26.00   0.00116491    1.356    0.263
         8  -7.2117    219.6611    231.2959   5.4911183790e+01  -7.5092182926e+00    0.1146446    0.1049541  60.95  0.000662822    1.655    0.396
         9  -7.1513    137.2515    230.3005   7.2335967255e+01   6.0627178990e+00    0.1310518    0.1067515  -9.11 0.0002035554    1.498    0.332
        10  -7.4074    135.0103    225.9537   7.2165678518e+01   7.3426166580e+00    0.1647101    0.1604744  45.62 0.0004413857    1.064    0.061
        11  -7.7363     37.9245    216.3194   9.2978297899e+01   2.4072653380e+01    0.1683414    0.1465974  76.50 0.0003971831    1.094    0.086
        12  -7.6450     43.9962    214.2208   9.1450146744e+01   2.3833003088e+01      0.15877    0.1007511  38.21 0.0003244879    1.602    0.376
        13  -7.2721     18.5763    212.4604   9.6761641311e+01   2.7075006381e+01    0.1236912   0.09904733  86.70 8.254922e-05    1.039    0.038
        14  -8.8898    191.6965    192.8417   5.3370576595e+01   4.0932745626e+00    0.6769952    0.3420261 -62.98  0.002065905    4.567    0.781
        15  -9.6716    125.1499    193.4420   6.9031890329e+01   1.6342114438e+01    0.2649325    0.2446125 -73.21 0.0001519299    1.117    0.105
        16  -7.6582    130.9183    191.4872   6.7244034321e+01   1.5744580410e+01    0.2245693    0.1477567  36.59 0.0003318516    1.498    0.332
        17  -8.8214    110.6715    244.2873   8.0218411397e+01   7.5936771101e+00    0.2192586    0.1985012  35.85 0.0002447009    1.130    0.115
        18  -8.5136     36.2003    240.2748   9.5378043264e+01   1.8960816402e+01    0.1775414    0.1558421  84.17 0.0002720788    1.192    0.161
        19  -9.3960    228.3280    171.2921   4.1644879704e+01   1.8405154003e+00     0.512194    0.2629838 -60.03  0.001813113    3.606    0.723
        20 -10.7705    230.8584    167.9848   4.0505187137e+01   2.0322971620e+00    0.6085503    0.4427098 -64.83   0.00239766    1.856    0.461
        21  -8.4501    187.3696    169.8101   4.9523881014e+01   9.6978519695e+00    0.2771074    0.2427606 -85.04  0.001422064    1.420    0.296
        22  -8.7261    235.9514    165.4848   3.9087397810e+01   1.6348174704e+00    0.2268448    0.1655818 -38.78  0.001178784    1.196    0.164
        23  -9.2324    198.0579    162.3251   4.5641300351e+01   9.1834821915e+00    0.3925925     0.297702   6.05 0.0009934974    1.666    0.400
        24  -9.9282    190.0854    160.5914   4.6935317895e+01   1.1122129628e+01    0.5055835    0.4257834 -49.71  0.001400897    1.182    0.154
        25 -10.1171    192.4563    154.2517   4.5031031329e+01   1.1989196973e+01    0.7001888     0.495571 -59.51  0.003221907    1.608    0.378
        26  -8.4601    213.1545    171.5524   4.4574394287e+01   4.4675252931e+00      0.24668    0.1875776 -39.23 0.0002993061    1.211    0.174
        27  -7.7339     34.1253    161.3620   8.7765206808e+01   3.7894161218e+01    0.1744595    0.1604755 -86.55 0.0003830756    1.088    0.081
        28  -8.3018    209.3413    156.9307   4.2204859589e+01   8.1048494798e+00    0.3574587    0.2256435 -63.25  0.001127006    2.187    0.543
        29 -13.7815    239.3190     96.9938   2.4266290593e+01   1.3581985909e+01     1.890638     1.343846  89.27  0.006504448    1.642    0.391
        30  -7.8309     79.0096    155.3397   7.4250371607e+01   3.3727924625e+01    0.1973727    0.1870995  38.92 0.0002856127    1.125    0.111
        31  -8.1684    211.8582    149.4737   4.0098278014e+01   9.1204986504e+00    0.3187804    0.1854157 -27.50  0.001325508    2.069    0.517
        32  -9.6280    146.6891    148.3065   5.4225193469e+01   2.2872874632e+01    0.5171524     0.410796 -29.67  0.002405701    1.370    0.270
        33 -10.4520    145.2842    143.5701   5.3471811633e+01   2.4275695838e+01    0.6755393    0.5698586 -56.45  0.003271257    1.204    0.170
        34  -9.3047    132.8024    141.3895   5.6188489164e+01   2.7401418805e+01    0.7667455    0.2305488 -53.61  0.002029665    4.021    0.751
        35  -8.6901    151.5356    147.3464   5.2793478345e+01   2.2075899400e+01    0.3093832     0.199926  39.15  0.001148298    1.595    0.373
        36 -10.4173    139.5259    147.2480   5.5804527843e+01   2.4617137521e+01     1.003239    0.4376435 -50.46  0.002609504    2.309    0.567
        37 -10.1834    164.8210    144.4826   4.8924989196e+01   1.9899635544e+01    0.5670188    0.3802271 -52.93  0.001140943    1.529    0.346
        38  -9.9978    159.8651    144.6876   5.0145955310e+01   2.0913761204e+01    0.4222932     0.391221  39.63  0.001323323    1.103    0.093
        39  -8.7238     24.9847    135.7096   8.6695470099e+01   4.5171509758e+01    0.2427763    0.1663024 -66.11 0.0001891706    1.226    0.185
        40  -7.4280    141.8106    240.0146   7.2801170187e+01   3.3640031157e+00    0.1687745    0.1078661 -52.30 0.0004102364    1.764    0.433
        41  -7.9499     60.4685    133.7761   7.5553695760e+01   4.1839043619e+01    0.2554291    0.2082361  24.26 0.0008126961    1.360    0.265
        42  -7.5012    118.3812    132.8307   5.8059699571e+01   3.2376609640e+01    0.2053568     0.146331 -39.66 0.0001804771    1.432    0.302
        43  -9.7843    161.4636    128.9995   4.5999197492e+01   2.4072679102e+01    0.5270619    0.3510336  42.85  0.002297523    1.545    0.353
        44  -8.0119    150.2114    130.2097   4.9008608664e+01   2.6280974822e+01    0.2229038    0.1891492 -86.47  0.000649497    1.385    0.278
        45  -8.1409     58.3000    124.9620   7.4422967157e+01   4.4308026707e+01    0.2035191     0.166745 -52.49    0.0011009    1.099    0.090
        46  -8.5837    115.8321    123.1631   5.6379225634e+01   3.5168978513e+01    0.3858412    0.2259367 -50.81  0.001029616    1.709    0.415
        47 -10.0937    136.6613    121.4533   5.0251732986e+01   3.1204500530e+01    0.5843961    0.4046505  44.66  0.001897586    1.456    0.313
        48 -10.1859     46.8604    122.5263   7.7589773771e+01   4.6278357195e+01    0.2526225    0.2199816 -46.33 0.0002965742    1.042    0.040
        49  -8.7185     68.7519    179.0425   8.1096186204e+01   2.9184652581e+01    0.2105825    0.1976454  62.63 0.0003067603    1.097    0.089
        50 -10.1413     48.4110    113.7388   7.5244093136e+01   4.8228224102e+01    0.4614975    0.3865221  -1.56 0.0008785517    1.307    0.235
        51 -10.6252     64.5488    115.8712   7.0383570994e+01   4.5684884948e+01    0.5284913    0.4404304 -64.09  0.002203286    1.231    0.188
        52 -10.8893     57.4045    113.7840   7.2258537599e+01   4.7130297990e+01    0.8277857    0.6494542 -34.68  0.004485503    1.223    0.183
        53 -10.3663     22.7653    114.0075   8.3810308026e+01   5.0630784331e+01    0.8488482    0.2782907 -49.50  0.003464848    2.418    0.586
        54 -10.2412     20.4785    111.5017   8.4113384071e+01   5.1401343721e+01    0.6698114    0.2619522 -39.21  0.002784519    2.648    0.622
        55  -9.9752    164.4032    112.9895   4.1324697623e+01   2.6834251839e+01    0.6430212     0.287223 -47.13  0.002325335    2.249    0.555
        56  -9.1617    175.2284    112.9897   3.8959886180e+01   2.4371848295e+01    0.4821173    0.2929843 -37.97  0.001097898    1.684    0.406
        57  -8.5503    169.9942    112.2165   3.9891502275e+01   2.5719831551e+01     0.394879    0.2177571  60.65  0.001233073    2.155    0.536
        58  -8.8917    135.0000    110.5227   4.7832153038e+01   3.3972180756e+01     0.881231    0.1523896 -42.64    0.0019157    6.142    0.837
        59  -8.2367    134.4305    105.2434   4.6564272373e+01   3.5221137037e+01    0.4809322    0.2122027 -39.34  0.001700613    2.392    0.582
        60  -7.7276     98.2728    113.3254   5.9019706034e+01   4.0832607982e+01    0.2082517    0.1388261  45.04 0.0006059826    1.582    0.368
        61  -8.9856    193.3621     93.7486   3.0701807914e+01   2.3955729081e+01    0.2996212    0.2657768 -64.16 0.0003373511    1.062    0.058
        62  -8.6062    187.1160     90.0987   3.0941365155e+01   2.6048274156e+01    0.3450211    0.2735817  78.17  0.001092096    1.321    0.243
        63 -10.4999    189.0551    100.8118   3.3198613158e+01   2.3620818863e+01    0.7127033    0.4797768 -31.09  0.002755603    1.682    0.406
        64  -9.4662    189.0921     95.1726   3.1819963588e+01   2.4667466529e+01    0.4165987    0.2657211 -48.96  0.001156612    1.523    0.343
        65  -9.2509    187.2556    111.6502   3.6172611067e+01   2.1925964595e+01    0.3252628    0.2782545 -74.70  0.001330774    1.227    0.185
        66  -9.5190    182.7930    111.6134   3.7054675744e+01   2.2937044409e+01    0.3973855    0.2942166  45.41  0.001210609    1.425    0.298
        67  -7.7587    156.5573    108.5060   4.1970556556e+01   2.9552104774e+01    0.1534529    0.1510153 -69.80 5.982218e-05    1.011    0.011
        68  -8.7987    152.1083    106.2741   4.2433921362e+01   3.1027915273e+01    0.2646535    0.2372857 -57.67 0.0003205921    1.131    0.116
        69  -9.8512    165.4632    104.0217   3.8799009037e+01   2.8415091620e+01    0.4397252      0.33433 -57.06 0.0009771757    1.370    0.270
        70  -8.7051    155.3857    112.3329   4.3235670835e+01   2.9022424342e+01    0.3937772    0.1454367  52.04  0.001244643    2.936    0.659
        71  -9.9644    195.5078    102.4186   3.2391467187e+01   2.1861933224e+01    0.4333846    0.2728285 -31.12 0.0009897078    1.826    0.452
        72  -8.4324    183.4470     96.0268   3.3089445386e+01   2.5804051003e+01    0.2235873    0.1426699 -41.74 0.0004536565    1.546    0.353
        73  -8.7153    171.5658     91.1385   3.4195916431e+01   2.9473466094e+01    0.6822599    0.2148963 -34.19  0.001919623    4.320    0.769
        74  -7.6961    126.5352     92.5459   4.5131621184e+01   3.9553120337e+01    0.1516696     0.145438  18.34 0.0008075026    1.040    0.039
        75  -8.5799    119.9399     88.9743   4.5901432844e+01   4.1686376345e+01    0.2180372    0.2105712  11.98  0.001197128    1.016    0.015
        76  -8.7150    184.1066     78.3077   2.8569485388e+01   2.8814759575e+01    0.2997629    0.2336226 -41.31 0.0008135803    1.315    0.239
        77  -7.0845    160.2983     78.3047   3.3136027859e+01   3.4427753396e+01    0.1442282    0.1161456  20.17 0.0005601952    1.587    0.370
        78  -8.7355    207.8214     77.0355   2.4404828795e+01   2.3601954987e+01    0.2248164    0.1900731  73.77  0.000360923    1.167    0.143
        79  -8.6074     91.6950     75.0546   5.0095555249e+01   5.0034099462e+01    0.2427673    0.1931105  30.11 0.0003170594    1.210    0.174
        80  -7.2238    159.9814     71.9549   3.1491549340e+01   3.5578104774e+01    0.1684778    0.1594995  78.35 -0.002661949    1.012    0.012
        81 -10.2823    203.7995     64.6129   2.2146120706e+01   2.6496152413e+01    0.6340391    0.3761379  72.90  0.003090817    1.736    0.424
        82  -7.9666    143.9643     58.5361   3.1094146877e+01   4.1481818092e+01    0.2656355     0.204682  -6.07 0.0009854633    1.697    0.411
        83  -7.0755     89.7154     59.2444   4.5605931185e+01   5.3134753046e+01    0.1210823    0.1085364  71.10            0    1.460    0.315
        84  -8.0077    177.7602     58.3644   2.4660429342e+01   3.3490302739e+01    0.2481955    0.1632875  54.17 0.0006684493    1.480    0.324
        85  -8.1451    141.2763     54.5730   3.0526169288e+01   4.2694693105e+01    0.2159014    0.1918849 -31.81 0.0004524056    1.239    0.193
        86  -9.3094    195.4817     44.1507   1.8572061843e+01   3.1361783122e+01    0.4923321    0.2258626 -38.56  0.001969449    2.216    0.549
        87 -12.5737    247.7525    124.5765   2.8770627704e+01   7.1186617918e+00     0.670485    0.4953973 -59.78  0.002024641    1.336    0.252
        88  -8.9276    221.9893     38.3196   1.4153216034e+01   2.6227880529e+01    0.1815978    0.1422395  88.40   0.00115632    1.110    0.099
        89  -8.5068    231.2404    185.9330   4.4072292803e+01  -1.3732878268e+00    0.2251192    0.1963867  45.20 0.0006366279    1.392    0.282
        90  -8.5631    179.2491     35.0194   1.8618067768e+01   3.6311629801e+01    0.2106198    0.1653947  73.84 0.0004534988    1.113    0.101
        91  -7.0557    248.6602     34.6837   1.0908458268e+01   2.1203479959e+01    0.1030865   0.09111948  48.57 0.0007048389    1.705    0.414
        92  -7.6090    130.6100     30.2171   2.5533121465e+01   4.8282817257e+01    0.1663665    0.1273891  -4.67 0.0009417629    1.631    0.387
        93  -7.5533    203.4657     22.5706   1.2790753544e+01   3.2243578613e+01    0.1237884    0.1016348  88.33 1.784223e-05    1.052    0.049
        94  -9.5484    210.8012    177.5803   4.6294950325e+01   3.7010343619e+00    0.4383667    0.2903142 -22.56  0.001621497    1.686    0.407
        95  -8.1137    205.0015     17.4811   1.1545668950e+01   3.2478136423e+01    0.1879664    0.1021061  72.87 0.0007036354    1.581    0.368
        96  -8.3862     80.9709     14.1955   3.2099141768e+01   6.0494409611e+01    0.1680833    0.1348204  32.09 0.0003955802    1.013    0.012
        97  -7.6849     96.2888    239.7620   8.2781195534e+01   1.0781523909e+01    0.2695965    0.1221221 -70.19  0.001108176    2.812    0.644
