#   1 NUMBER                 Running object number                                     
#   2 MAG_AUTO               Kron-like elliptical aperture magnitude                    [mag]
#   3 X_IMAGE                Object position along x                                    [pixel]
#   4 Y_IMAGE                Object position along y                                    [pixel]
#   5 X_WORLD                Barycenter position along world x axis                     [deg]
#   6 Y_WORLD                Barycenter position along world y axis                     [deg]
#   7 A_WORLD                Profile RMS along major axis (world units)                 [deg]
#   8 B_WORLD                Profile RMS along minor axis (world units)                 [deg]
#   9 THETA_WORLD            Position angle (CCW/world-x)                               [deg]
#  10 FWHM_WORLD             FWHM assuming a gaussian core                              [deg]
#  11 ELONGATION             A_IMAGE/B_IMAGE                                           
#  12 ELLIPTICITY            1 - B_IMAGE/A_IMAGE                                       
         1 -12.9362      3.3069     62.1411   1.0065730155e+02   6.5780364374e+01     1.440754    0.4337281 -78.41  0.003026749    2.930    0.659
         2 -12.1184     26.6104     50.4214   8.4179617666e+01   6.7136881218e+01     1.829141    0.9255995  89.99  0.006338112    3.655    0.726
         3 -13.1251     38.2072     49.5425   7.7016742569e+01   6.5954057529e+01     1.336408    0.9365827 -65.00  0.006665572    1.460    0.315
         4 -12.5226     57.6101     34.0216   5.9568318595e+01   6.6071292088e+01     0.383183    0.3278182 -17.08 0.0004670852    1.241    0.194
         5 -11.9128    112.9792     26.3468   3.7105836191e+01   5.3897052807e+01    0.5722466     0.528143  21.33   0.00312816    1.199    0.166
         6 -11.9230    128.6942     11.3253   2.7978514095e+01   5.1364358896e+01    0.5016445    0.3035365 -60.64  0.002271276    1.748    0.428
         7 -11.2894    130.6590     19.9273   3.1130705698e+01   4.9912675006e+01    0.5090958    0.5012435  21.62  0.002952671    1.127    0.113
         8 -12.5499      4.3328     18.0581   8.9422311486e+01   7.6770161742e+01    0.5890303    0.3905916  68.91  0.001955457    2.060    0.515
         9 -12.0064      7.1324     10.2242   8.2672384379e+01   7.8329179291e+01    0.5715753    0.3387878  -8.36  0.001278328    1.941    0.485
        10 -10.7338     10.0157     15.6601   8.2757093359e+01   7.6905666930e+01    0.4267583     0.218474 -27.41  0.001633669    2.254    0.556
        11 -11.5744     18.8657     16.2486   7.4910468919e+01   7.5885663942e+01    0.6970629    0.3708375 -18.53   0.00285971    2.937    0.660
        12 -12.2523    160.1239     21.7004   2.7754590620e+01   4.1866373090e+01     0.575464    0.4321897  42.90   0.00195901    1.555    0.357
        13 -10.5267     94.2999     19.8724   3.8578378780e+01   5.9677353264e+01    0.4933526    0.2361237 -21.25  0.001199398    2.426    0.588
        14 -11.2792     61.5891     12.9187   4.5505832813e+01   6.8687989816e+01    0.6251883    0.4896938  52.66  0.003385286    1.234    0.190
        15 -10.4401     39.2996     10.2173   5.5151645320e+01   7.3804655854e+01     0.852934    0.5933614 -53.37  0.004393693    1.806    0.446
        16 -10.4359     50.7036     16.6876   5.3073650617e+01   7.0522242679e+01    0.6939689      0.27788 -42.69  0.002678333    2.640    0.621
        17 -11.6706     55.2573     12.7496   4.8211307715e+01   7.0139603922e+01    0.3510327    0.2670842 -25.77 0.0009088981    1.340    0.254
        18 -11.4382     34.4613     15.4198   6.2080314462e+01   7.3800084410e+01    0.9980628    0.5565196   5.03   0.00328013    4.630    0.784
        19 -11.2612     30.9291     12.9425   6.2894967915e+01   7.4830023539e+01    0.4176435     0.223416 -37.43 0.0004162891    1.842    0.457
        20 -12.2385    237.8641     17.5053   2.0404963804e+01   2.4436589769e+01    0.3723078    0.2186941 -65.29 0.0004925988    1.644    0.392
        21 -12.0396    233.7939      5.8220   1.7847148732e+01   2.6371262436e+01     0.268939    0.2230615  -4.47  0.001107998    1.501    0.334
        22 -11.2581    164.9087     14.0421   2.4700499407e+01   4.1444960026e+01    0.3995557    0.2045868 -40.34   0.00139096    1.740    0.425
        23 -10.2712     74.3951      2.2953   3.4298527073e+01   6.6770448780e+01    0.3471449    0.2120795 -72.19  0.001517968    2.253    0.556
        24 -10.1755     73.9580      6.8873   3.7247852393e+01   6.6420921743e+01     0.254375    0.2024317  -1.82 0.0004174327    1.377    0.274
        25 -11.1103     71.3020     12.8371   4.1723406714e+01   6.6390474815e+01    0.5242835    0.3366604  -4.16  0.001879501    1.989    0.497
        26 -11.4467     78.0401     10.5516   3.8174547797e+01   6.4986508741e+01    0.4943843    0.2226693  54.74 0.0007257416    1.997    0.499
        27 -11.7209    234.7052     10.4823   1.8908827619e+01   2.5748521420e+01    0.2686089    0.1945273 -31.13 0.0006186134    1.223    0.183
        28  -9.8449    225.5263     14.1860   2.0277268175e+01   2.7254702159e+01    0.2745588    0.1495637  38.12  0.001300949    3.021    0.669
        29 -11.3382    117.9872     10.6320   2.9316682633e+01   5.4352487272e+01    0.6738096      0.29156 -13.21   0.00245333    2.964    0.663
        30 -11.0619    155.5234     11.1424   2.4663396575e+01   4.4178217446e+01    0.5053479    0.2148896 -31.28  0.001979975    2.135    0.532
        31  -9.3076    123.6451     13.8726   2.9787906473e+01   5.2479575416e+01     0.277825    0.1443536  -9.76  0.001089296    2.518    0.603
        32  -9.9714     83.8644     13.6953   3.8227234590e+01   6.3137114228e+01    0.2215558    0.1959585  -0.87 0.0003215411    1.218    0.179
        33 -10.5851     15.0674     13.5361   7.6696653626e+01   7.6877556034e+01    0.2244254    0.1674659 -42.65 0.0005207782    1.213    0.176
        34 -10.6401    138.2683     10.8949   2.6529746267e+01   4.8808894994e+01    0.3461052    0.2015567 -44.58  0.001116038    1.647    0.393
        35 -11.8700    145.6228      7.8590   2.4537563982e+01   4.7120836073e+01    0.4313123    0.2932374 -12.89  0.001150078    1.683    0.406
        36  -9.9015    108.0724     10.0171   3.0759881494e+01   5.7112333477e+01    0.3403867    0.2065742  -3.88  0.001047475    2.095    0.523
        37  -9.6165    109.4660      5.5006   2.8411645951e+01   5.7163571681e+01    0.1436141    0.1333892  72.28 9.161711e-05    1.034    0.033
        38 -11.4846    241.3428      9.0586   1.8270872921e+01   2.4580477472e+01    0.2135556     0.146612 -68.17 0.0005236912    1.372    0.271
        39 -12.2902    214.1492      5.9476   1.8812494108e+01   3.0470051108e+01    0.5362366    0.3511914 -45.90   0.00193629    1.227    0.185
        40 -11.0584    209.7977      1.6058   1.7904405716e+01   3.1825890423e+01    0.2559519    0.1608502 -89.51 0.0008134951    1.597    0.374
        41 -11.2365     27.6261      3.0455   5.7648838323e+01   7.7038468513e+01    0.3223128    0.2621544  87.61  0.001785129    2.012    0.503
        42 -10.5088     32.0662      1.1485   5.2654188241e+01   7.6516527257e+01    0.4637722    0.1199947  48.50  0.001235298    3.771    0.735
        43 -11.9781     10.7548      3.2114   7.3867540944e+01   7.9423440847e+01    0.2582501    0.2283683 -10.88 0.0003795469    1.049    0.047
        44 -10.9227     24.0327      7.5386   6.4336425303e+01   7.6874691528e+01     0.403654    0.2413544  58.87  0.001584424    2.972    0.663
        45 -11.8044     18.7577      3.8724   6.6114069722e+01   7.8293809591e+01    0.6675638    0.4003581  29.05  0.003542297    1.699    0.411
        46 -10.8409    164.8059      6.4497   2.2217812091e+01   4.2207641893e+01    0.4048785    0.1847605 -24.20  0.001744754    2.153    0.536
        47  -9.7044    113.3671      8.6029   2.9179866950e+01   5.5810860611e+01    0.3709004    0.1091803  64.89  0.001249678    2.839    0.648
        48  -9.3357     98.2231      3.0161   2.9197226833e+01   6.0432899301e+01    0.2153083    0.1712036  23.31  0.000715278    1.406    0.289
        49 -10.5086     92.3305      6.5279   3.2223388615e+01   6.1689743360e+01    0.4260218    0.1706512  55.84  0.001556555    2.195    0.544
        50 -10.0906    150.8967      5.7238   2.3227680509e+01   4.5911669414e+01    0.1940785    0.1614917 -82.71 0.0003378667    1.105    0.095
        51 -10.1190    131.1210      5.4331   2.5279381581e+01   5.1259531471e+01    0.2087487    0.1951418  21.88 0.0003544667    1.220    0.180
        52  -9.9372     68.8203      5.3886   3.7957953460e+01   6.7861783971e+01    0.2273098    0.1781425 -35.05 0.0005941217    1.345    0.257
        53 -11.0801     41.8908     18.6725   5.9378795283e+01   7.1911504426e+01    0.5308904    0.3001012  52.40   0.00241109    2.065    0.516
        54 -11.2265    243.3310      2.6478   1.6722985565e+01   2.4792101507e+01    0.2994531    0.1177517 -44.21  0.001399129    1.803    0.445
        55 -10.0928    201.1848      3.8416   1.8947979997e+01   3.3566273081e+01    0.1552217    0.1496514  23.59 0.0002633414    1.307    0.235
        56 -10.3555    178.4442      3.3916   2.0215414865e+01   3.9038183497e+01    0.2619987    0.1542384  87.41  0.001014577    1.658    0.397
        57  -9.9343    125.8960      2.7940   2.4849671032e+01   5.2912886323e+01    0.2158998    0.1789134  51.78 0.0005945222    1.254    0.203
        58 -10.8383    190.1255      5.8747   2.0177224401e+01   3.5968219647e+01    0.3634254     0.284777 -53.20  0.002179929    1.083    0.076
        59 -10.4129    100.2497      6.7116   3.0662018415e+01   5.9550643462e+01    0.2469188    0.2070994  19.61 0.0003253982    1.332    0.249
        60 -10.5501    148.7059      1.8740   2.2059499978e+01   4.6831146482e+01    0.2319512    0.1778499  69.80 0.0004614149    1.278    0.217
        61  -9.2679     90.8160      2.0023   3.0136033782e+01   6.2507095469e+01    0.1754157    0.1097848 -19.25 -0.0006383859    1.716    0.417
        62  -9.3255      1.2073      4.3628   8.6006974670e+01   8.0019197761e+01    0.1297129   0.07220367 -42.04 0.0002706806    1.557    0.358
        63  -9.4312     53.5478      1.3613   4.0926464276e+01   7.1947439392e+01    0.1315488    0.1235092  51.17  0.000198874    1.085    0.078
        64 -10.4026      5.0705    168.4774   1.0707133137e+02   3.8474454127e+01    0.1812571    0.1115932  26.20  0.001032166    1.593    0.372
        65 -10.7245    247.5071    250.1565   6.4395320347e+01  -3.5410714345e+00      0.21328    0.1009135  21.59  0.001546292    1.628    0.386
        66 -10.7902    250.1090    246.3081   6.3513624518e+01  -3.4498933176e+00    0.2208219     0.108968  -2.65  0.001211291    1.856    0.461
        67 -12.9261    226.5079    245.3779   6.6872606256e+01  -1.0711503278e+00    0.6815347     0.380332  16.84  0.005047336    1.347    0.257
        68 -11.9508     28.7783    246.5916   1.0427878887e+02   2.0939614729e+01    0.4654613    0.2236851  69.05  0.002885125    2.070    0.517
        69 -12.1734     19.0260    237.0555   1.0595609942e+02   2.3455109372e+01    0.5136926    0.2429643  38.90   0.00321689    1.454    0.312
        70 -12.6937      6.1479    245.6049   1.0875346300e+02   2.3121128925e+01    0.6282543    0.3555948  64.51  0.003353623    1.482    0.325
        71 -12.7083     15.7275    245.8829   1.0686640607e+02   2.2249150842e+01    0.6939534    0.2155271  47.86  0.002703201    2.036    0.509
        72 -12.1098     52.1237    162.3475   9.3377854675e+01   3.5337660390e+01    0.7137299    0.5550877  63.41  0.004108924    1.178    0.151
        73  -9.1582    210.7820    166.0171   5.6927438535e+01   1.0036290381e+01    0.1532699   0.08767949 -31.37 0.0005869295    1.618    0.382
        74  -9.8045     67.2062    165.3733   8.9437299461e+01   3.2723663224e+01    0.2117598     0.104933  41.07 0.0009540878    1.739    0.425
        75  -9.4659    111.7805    164.0093   7.7286799351e+01   2.6372716518e+01    0.1726033    0.1155105 -55.09 0.0005899005    1.649    0.394
        76  -9.1179    200.6573    162.3049   5.7950812679e+01   1.2073401978e+01    0.1095253    0.1020497 -83.25  0.000403709    1.685    0.406
        77 -12.1994     20.8414    157.2075   1.0207663777e+02   3.9837739712e+01    0.4979839    0.3951956   4.68  0.002968106    1.570    0.363
        78  -8.9823    105.3792    153.3074   7.7147412513e+01   2.9694459007e+01    0.1467873    0.1108518  -5.13 0.0004198568    1.786    0.440
        79 -11.1034     10.2324    152.7068   1.0496578341e+02   4.1798476030e+01    0.3158036    0.1952241  34.57 0.0006110035    1.482    0.325
        80  -9.4404    222.6432    152.1878   5.2406830814e+01   1.0156260284e+01    0.1715932   0.09635093 -22.26 0.0004119252    1.650    0.394
        81  -9.6041    169.9531    152.0000   6.1703607012e+01   1.8707433905e+01    0.2151891    0.0727455  41.34 0.0007949617    2.891    0.654
        82  -9.6638    176.7147    149.9841   5.9953434202e+01   1.7877209672e+01    0.1841984    0.1629589 -13.71 0.0005120387    1.064    0.060
        83  -9.8078     14.8391    147.8840   1.0331863183e+02   4.2614166111e+01    0.1965498    0.1272741  56.50  0.001074885    1.333    0.250
        84 -10.1940    207.0536    146.4993   5.3772831081e+01   1.3352431305e+01    0.1796629    0.1187124  37.14  0.001023933    1.564    0.361
        85 -10.1449      9.0159    145.0098   1.0495860947e+02   4.3770409704e+01    0.2786548    0.1684872  -7.73  0.001372343    2.394    0.582
        86 -10.4827    219.1699    144.5626   5.1441929423e+01   1.1714965103e+01    0.2861163   0.09940102  35.99  0.001163952    3.384    0.704
        87  -9.1515     24.7107    142.2766   9.9840192092e+01   4.3163599136e+01    0.1408283   0.08430646  57.61 0.0006931594    1.518    0.341
        88  -9.3870    204.5375    141.5330   5.3179613767e+01   1.4487600666e+01    0.1275744     0.110381 -10.78 8.953663e-05    1.027    0.026
        89  -9.2182    240.3232    140.3255   4.7525761701e+01   9.1103716798e+00    0.1220338   0.07809527   0.10 0.0004971264    1.687    0.407
        90  -9.6507     13.8167    140.1210   1.0317487700e+02   4.4625195076e+01    0.1676387    0.1475082 -58.50 0.0002900354    1.303    0.232
        91  -9.4455    143.7699    137.0534   6.4284775934e+01   2.6186765505e+01     0.180878    0.1185069 -44.98 0.0004523627    1.572    0.364
        92 -11.1188      9.3109    136.2132   1.0440134047e+02   4.5944632904e+01    0.2295097    0.1919817  66.78 0.0002320849    1.020    0.020
        93 -10.4730    241.0932    134.2201   4.6213874049e+01   9.7700888662e+00    0.1985625    0.1409907 -24.73 0.0006128856    1.149    0.129
        94 -10.1861      2.9790    134.6691   1.0638560574e+02   4.6759589615e+01    0.1819192    0.1569756  58.23 0.0007100054    1.083    0.077
        95  -9.8532     20.9962    134.9482   1.0046837180e+02   4.5349436350e+01    0.2298896     0.129667  60.91 0.0007112693    1.655    0.396
        96 -11.3182     54.8973    132.3120   8.8837736911e+01   4.2368444735e+01    0.6066341    0.2482803  28.17  0.002288319    2.471    0.595
        97  -9.5096     79.7742    132.3843   8.0820804045e+01   3.8737040225e+01    0.1972495    0.1401745  23.82 0.0003833455    1.559    0.358
        98 -11.4092     36.7017    130.3323   9.4717726906e+01   4.5032106545e+01    0.5091316    0.2932138 -52.05  0.002371803    1.895    0.472
        99 -11.0856     73.8228    128.9938   8.2096468015e+01   4.0506865261e+01    0.3348309    0.3188411  58.19  0.001223083    1.044    0.042
       100  -9.3860     56.5417    126.5918   8.7421176649e+01   4.3613840858e+01    0.1441431     0.133201  66.91  2.73666e-05    1.017    0.017
       101 -10.7991     15.6745    125.4525   1.0154129138e+02   4.8228881069e+01    0.4074196    0.1841616  29.33  0.001836562    2.094    0.523
       102 -11.3463     10.5795    122.9269   1.0315217861e+02   4.9257670366e+01    0.3774186    0.2617934 -89.37    0.0018562    1.289    0.224
       103  -9.6571    219.8128    124.1245   4.7109564561e+01   1.4452826954e+01    0.1761635    0.1317906  -6.54 0.0006117199    1.318    0.241
       104  -9.8344    243.5336    122.1006   4.3444260627e+01   1.0942329751e+01    0.1836326    0.0962308 -30.26 0.0006368895    1.547    0.353
       105 -11.0597     19.2688    121.5035   9.9936506682e+01   4.8974418172e+01    0.2470302    0.2126758  78.46 0.0005718426    1.021    0.020
       106 -12.3203     15.6528    114.9830   1.0068727444e+02   5.0972438140e+01    0.5986724    0.4005305  73.37 0.0005936994    1.391    0.281
       107 -11.6008     15.4144    108.1499   1.0015222650e+02   5.2801782159e+01    0.7795619    0.3630735 -11.50  0.002876049    3.698    0.730
       108 -11.0297      1.3775    118.5543   1.0617213658e+02   5.0966323299e+01      0.23694    0.1116416 -84.33 0.0001496431    1.875    0.467
       109 -10.1873     23.6491    117.8752   9.7989573595e+01   4.9559706391e+01    0.2202037    0.1930674   0.05  0.000505485    1.366    0.268
       110 -10.3544     72.5174    116.5558   8.0160658402e+01   4.3832531269e+01    0.3419352    0.2120648 -80.69 0.0008186819    1.980    0.495
       111  -9.4044     32.6123    117.3076   9.4610070109e+01   4.8866005107e+01    0.1600146   0.08971501  57.55 0.0007016237    1.810    0.448
       112  -9.7033    179.3097    116.0112   5.1988311926e+01   2.3098454021e+01    0.2023907    0.1716429 -31.20  0.001144075    1.109    0.099
       113  -9.9842     86.2696    116.0421   7.5482382032e+01   4.1648488092e+01    0.2092496    0.1956542 -72.79 0.0003658961    1.072    0.067
       114 -10.6219     52.2310    114.8494   8.7013948209e+01   4.7233478889e+01     0.487096    0.2025389 -77.17  0.001586939    3.011    0.668
       115 -11.4415     54.9211    109.2519   8.5014549825e+01   4.8337898072e+01    0.3574657    0.2764494 -72.36 0.0003629441    1.259    0.206
       116 -10.6570     51.9695    103.8036   8.5093351087e+01   5.0171594684e+01    0.2977006    0.2148819  44.14 0.0008338988    1.368    0.269
       117 -10.1588    213.9906    115.1330   4.6004364322e+01   1.6731284500e+01    0.1961712     0.167967 -15.40 0.0005018135    1.039    0.038
       118  -9.9282    183.7584    114.4110   5.0792424494e+01   2.2490071787e+01    0.1909676    0.1271329  35.71 0.0009499274    1.625    0.385
       119 -11.0209    249.5420    112.0144   4.0632443438e+01   1.1293909351e+01    0.2417118    0.1693872 -27.94 0.0005174189    1.134    0.118
       120 -10.5482     94.4602    112.3169   7.2020194730e+01   4.1059311946e+01    0.3050228    0.2949963 -23.90  0.001204449    1.123    0.109
       121  -8.9925    207.7142    110.6927   4.5944055314e+01   1.8511045791e+01    0.1305137    0.0956465   1.29 0.0002490822    1.568    0.362
       122  -9.4185     22.3250    110.3046   9.7679310188e+01   5.1682374138e+01    0.1412837    0.0985035 -42.44 0.0005620282    1.643    0.391
       123 -11.3326      2.5438    107.5557   1.0512702521e+02   5.3771461997e+01    0.5356188    0.2970695 -69.70  0.002673147    1.642    0.391
       124  -9.1195    103.9860    109.0000   6.8283937396e+01   4.0001011237e+01    0.2546654   0.08642519  41.04 0.0007972074    2.906    0.656
       125 -10.6880     82.8078    107.4144   7.4659211241e+01   4.4381623027e+01    0.3532674    0.2904479 -31.55  0.001306143    1.418    0.295
       126 -10.2053     35.5491    107.9964   9.2223972889e+01   5.1037486808e+01    0.2159947    0.1317973 -71.46 0.0005405316    1.536    0.349
       127 -10.3914    111.9170    105.9163   6.5163143689e+01   3.9096925415e+01    0.2485798    0.2125449  46.54            0    1.156    0.135
       128 -11.8359     26.3479    103.7963   9.5296117525e+01   5.3070133225e+01    0.5400284    0.5246392   8.71  0.002419014    1.177    0.150
       129  -9.5314     30.5345    103.4742   9.3557235606e+01   5.2760598227e+01    0.2250795    0.2052357 -79.75 0.0001563741    1.055    0.052
       130 -10.0674    119.1256    104.1530   6.2670020181e+01   3.7977539922e+01    0.2359366    0.2130266  -1.50 0.0009034167    1.258    0.205
       131 -10.3625     38.1015    102.8154   9.0400650494e+01   5.2143913878e+01    0.3128933    0.1941658 -67.86 0.0009052024    1.507    0.337
       132  -9.5636     76.3068    101.3559   7.5463724887e+01   4.7032471936e+01    0.1576404    0.1195632 -24.28 0.0007041595    1.722    0.419
       133 -10.9297    144.0185     98.7601   5.4917649545e+01   3.3662882930e+01     0.393896    0.3297312  89.58  0.001517673    1.442    0.307
       134 -11.3816     62.1264     98.5110   8.0044397967e+01   5.0086147825e+01    0.3559253    0.3084234 -35.57 0.0009076319    1.289    0.225
       135 -11.0786     66.9483     97.9684   7.8080280559e+01   4.9463013139e+01    0.2520784    0.2320375  24.72   0.00134333    1.177    0.150
       136  -9.6779     47.8498    100.3605   8.6044843524e+01   5.1625166386e+01    0.1954079    0.1817145  31.87 0.0002504027    1.150    0.130
       137  -9.7231     51.7366     97.8639   8.3984211569e+01   5.1767705706e+01    0.3136083    0.1724787 -25.18 0.0009359704    3.423    0.708
       138  -9.6646    107.8975     99.3344   6.4586832949e+01   4.1410306475e+01    0.2108915    0.1943338  46.71 0.0003806578    1.081    0.075
       139 -10.7394      9.9503     98.8297   1.0148551939e+02   5.5658483936e+01    0.2573785    0.1750246  86.50 0.0007110016    1.335    0.251
       140 -10.0479     95.8353     97.1672   6.7734984548e+01   4.4383331380e+01    0.2185928    0.1881848 -20.16  0.001073093    1.373    0.272
       141 -11.6549     14.1252     96.5797   9.9500865948e+01   5.5986631796e+01     0.326751      0.24589  44.49  0.001806567    1.331    0.249
       142  -9.9441      1.2320     95.9643   1.0490740765e+02   5.6897597199e+01    0.3093134    0.1218092 -77.86 0.0007606464    2.176    0.540
       143  -9.7857      3.1779     92.2311   1.0380252848e+02   5.7795430515e+01    0.3307748    0.1427948 -12.84  0.001282243    3.401    0.706
       144  -9.8565    101.2378     95.6041   6.5588000435e+01   4.3644783884e+01    0.3012452    0.1466053  46.53  0.001126783    2.058    0.514
       145 -12.1435    166.4807     83.5809   4.6023472634e+01   3.1348528552e+01    0.8377752    0.4951438  52.17  0.003413702    1.765    0.433
       146 -11.9214    161.1916     91.2519   4.9169014715e+01   3.1216913823e+01    0.7049375    0.5308476 -77.88  0.003352806    1.765    0.434
       147 -11.5431    156.7306     83.2705   4.7823065809e+01   3.3643844836e+01    0.5477202    0.4898983  19.80  0.002938996    1.246    0.198
       148 -10.6795     65.6515     93.1026   7.7388143585e+01   5.0916152221e+01    0.4786052    0.2020262  31.16  0.001239557    2.594    0.615
       149  -9.4742    227.4627     92.4986   3.9040472951e+01   1.7481587320e+01    0.1284121    0.1063376 -31.13 8.677032e-05    1.034    0.032
       150 -11.3611     47.8606     88.1842   8.3474824671e+01   5.4840588153e+01    0.2602176    0.2287632 -87.83 0.0002621642    1.114    0.102
       151 -10.0739     36.2499     91.4589   8.9177460482e+01   5.5388462614e+01    0.2589157    0.2071164  74.21   0.00070676    1.265    0.209
       152  -9.6286     38.6304     89.2824   8.7716638008e+01   5.5700925731e+01    0.2040435    0.1427868 -89.76  0.000601952    1.507    0.337
       153  -9.6233     31.0469     92.3088   9.1594619155e+01   5.5708398543e+01    0.1944878     0.180343  81.94  0.000525168    1.032    0.031
       154 -10.7174     11.5055     90.9502   1.0002637594e+02   5.7670428560e+01    0.3824234    0.1461937  24.08  0.001559082    2.618    0.618
       155 -10.7905     84.1510     89.0508   6.9419206181e+01   4.8615136838e+01    0.4667132    0.3016737  65.01  0.001907359    2.007    0.502
       156 -10.3170      6.9861     41.4035   9.4581412860e+01   7.0965432796e+01    0.5182466    0.1960619 -59.10  0.002209292    2.111    0.526
       157 -11.4807     22.2363     86.9834   9.4665901439e+01   5.7950687210e+01    0.5775279    0.2743219 -76.66  0.002124167    1.975    0.494
       158 -12.0066     22.2681     76.0196   9.2803850273e+01   6.0887848360e+01    0.7963334    0.4142183 -75.85  0.003268878    1.820    0.451
       159 -11.6546     13.2290     76.7901   9.7437445622e+01   6.1357324396e+01    0.4851614    0.3799281  51.14  0.001466708    1.320    0.242
       160 -12.1145      6.6857     73.0453   1.0023991893e+02   6.2736825115e+01    0.7435313    0.5291483 -20.00  0.004033457    1.630    0.387
       161 -13.9196     16.7079     67.4038   9.4086447484e+01   6.3617334373e+01    0.5125798    0.4284921 -47.85 0.0008830894    1.178    0.151
       162 -10.1536    109.8504    248.6673   8.8031018295e+01   1.1834212874e+01    0.1648118    0.1448679  -5.84 0.0007047064    1.364    0.267
       163 -11.8333     12.4753     50.0956   9.2949299236e+01   6.8427014752e+01    0.5291848    0.4666108 -40.85  0.003218459    1.113    0.102
       164 -10.7881     11.0009     44.3940   9.2529578803e+01   6.9974772737e+01    0.3092567    0.2388607  83.50 0.0007241982    1.398    0.285
       165 -12.0988     10.5893     61.5122   9.6413283230e+01   6.5577202057e+01    0.3536924    0.2769021  48.90 -0.0001761161    1.369    0.270
       166 -11.7418     11.4880     56.7471   9.4996834338e+01   6.6770194452e+01    0.7890849    0.2989472  51.50  0.002094621    3.507    0.715
       167 -10.4282     96.7311     89.1876   6.5188512124e+01   4.6053605783e+01    0.3285449    0.2156966  35.73  0.001377626    1.639    0.390
       168 -10.5791     77.7641     88.0393   7.1442336248e+01   5.0070362000e+01    0.4580473    0.3230998  23.01  0.002035604    1.727    0.421
       169 -10.1448    113.6488     87.4222   5.9488080090e+01   4.2786228431e+01    0.4554579    0.2042779  60.77  0.001368435    3.550    0.718
       170  -9.0335     43.2908     87.6856   8.5342437865e+01   5.5564180370e+01    0.1518206    0.1068944  68.27 0.0005546508    1.592    0.372
       171 -10.2967      9.2782     86.0862   1.0050071745e+02   5.9110141285e+01     0.292933    0.1698471  53.52 0.0009313883    1.754    0.430
       172 -10.5555      7.4445     81.7350   1.0088092237e+02   6.0377965921e+01    0.3536848    0.1924382 -61.67  0.001700056    1.646    0.393
       173 -11.4607     27.0305     84.2628   9.2003545667e+01   5.8257692470e+01    0.2761726    0.2523179 -28.05 0.0002270438    1.214    0.176
       174 -11.4341     30.4581     81.5256   8.9886120748e+01   5.8657128162e+01     0.312839    0.2735996 -61.27 0.0008494136    1.093    0.085
       175  -9.3693    116.7726     83.6165   5.7445528964e+01   4.2885184647e+01    0.2175397    0.1478067  58.63 0.0009413035    1.573    0.364
       176  -9.9192     15.7282     83.4662   9.7172192218e+01   5.9397915766e+01    0.2426058     0.129853  24.82  0.001119796    1.960    0.490
       177 -11.4736     66.4731     85.9219   7.5185738859e+01   5.2598888815e+01    0.6158108    0.3231681 -38.63  0.002307123    2.421    0.587
       178 -10.3214     74.1076     81.7038   7.0984406077e+01   5.2292035658e+01     0.316305    0.2236915 -46.61  0.001454295    1.427    0.299
       179 -10.5033     42.2614     81.6892   8.4446958031e+01   5.7276014773e+01    0.2779311     0.219204 -84.24 0.0008108627    1.288    0.224
       180  -8.9814    146.6615     81.3256   4.9360084234e+01   3.6347255420e+01    0.1593657    0.1176136 -73.92 0.0007051433    1.725    0.420
       181 -10.3173    101.1255     80.8983   6.1250296541e+01   4.6979935554e+01    0.2338723    0.2088347 -87.92            0    1.197    0.164
       182  -9.4807    183.6270     80.6804   4.2263306239e+01   2.7975061817e+01    0.1472422    0.1080521  16.79  6.66848e-05    1.803    0.445
       183 -10.0602     59.5894     79.1400   7.6124706600e+01   5.5444540344e+01    0.3748271    0.2138842  14.89  0.001382671    2.766    0.638
       184  -9.7104    169.4735     77.2529   4.3697149662e+01   3.1714590417e+01    0.2051681    0.1283089 -45.26 0.0003903526    1.540    0.351
       185 -12.6388     44.5894     74.5692   8.1586490226e+01   5.8831867985e+01    0.5551886    0.2962119  51.65 0.0002685235    2.202    0.546
       186 -10.6098    183.9633     73.8529   4.0357065597e+01   2.8953219698e+01     0.496931    0.1589579 -38.71  0.001336621    2.696    0.629
       187 -10.2482     74.9262     74.8170   6.8528234919e+01   5.3792510704e+01    0.4122034    0.2222965  27.32  0.001516694    2.499    0.600
       188  -9.9699    145.5099     74.0305   4.7399409168e+01   3.7936645413e+01    0.2406793    0.1471092 -36.68  0.001036115    1.600    0.375
       189 -10.6217     93.4523     73.2353   6.1254486909e+01   5.0345232699e+01    0.3055794    0.1514956 -42.12   0.00114286    2.075    0.518
       190 -10.6463    207.3882     73.1230   3.6885431556e+01   2.4011741923e+01    0.2061988    0.1912441  87.72 0.0003882283    1.216    0.178
       191 -10.4597    102.5668     72.6998   5.8113649819e+01   4.8426100446e+01    0.2693428    0.1939278  72.20 0.0008565121    1.713    0.416
       192  -9.3442     61.5313     73.4926   7.3612705893e+01   5.6532078199e+01    0.1506945    0.1446612 -80.50  0.000141293    1.022    0.022
       193  -9.7584     47.1318     55.2222   7.4261348251e+01   6.3301180284e+01    0.2544768    0.1981391  14.49  0.001281182    1.476    0.322
       194  -9.9351     56.4459     66.5313   7.3648849598e+01   5.9087673173e+01    0.2500172    0.1471993  36.94  0.000293278    1.739    0.425
       195 -11.9129     50.3350     68.5087   7.7129940391e+01   5.9559592406e+01    0.4807772    0.3379544 -47.39  0.000632247    1.400    0.286
       196 -10.8252     52.0897     62.2820   7.4274641735e+01   6.0825987775e+01    0.3849116    0.2896498 -25.71  0.001297296    1.583    0.368
       197 -10.7087     47.0268     60.2788   7.6093207918e+01   6.2092996904e+01    0.3878996    0.3633742 -19.61 0.0009485727    1.121    0.108
       198 -11.1315    167.7506     69.5958   4.1789021778e+01   3.3352845332e+01    0.2513821    0.2299749 -42.45 0.0002981609    1.030    0.029
       199  -9.9728    122.6805     69.4617   5.1293403641e+01   4.4325015121e+01    0.3133729    0.2239264  31.56  0.001000335    1.708    0.415
       200 -10.6624     77.3817     69.5539   6.5816175858e+01   5.4540414821e+01     0.400454    0.2535346  62.23  0.001260113    2.012    0.503
       201  -9.9813     69.2728     69.8596   6.9167524967e+01   5.6035085863e+01    0.2606097    0.1982854  50.79 0.0006002639    1.362    0.266
       202  -9.1358    194.7033     69.6719   3.7662979019e+01   2.7194922108e+01    0.1362087    0.1058066  10.55 0.0002415549    1.633    0.388
       203  -9.9869    128.4764     67.4886   4.9179777788e+01   4.3278478926e+01    0.3519244    0.2641102 -86.69  0.001587641    1.668    0.400
       204  -9.7881    105.3111     68.3322   5.5768690946e+01   4.8698763299e+01    0.1580359    0.1264378   6.00 0.0007043395    1.674    0.403
       205 -10.6773     42.7974     67.8123   8.0573450659e+01   6.0806088919e+01    0.2708322    0.2434844 -46.81    0.0014965    1.098    0.089
       206 -11.9099     44.4889     38.9678   6.8989088714e+01   6.7438946664e+01    0.5554398     0.383605 -43.97            0    1.398    0.285
       207 -12.0410     36.9949    242.8948   1.0246943487e+02   2.0763509668e+01    0.5015097    0.2471345  73.20  0.002007767    2.209    0.547
       208 -11.5741     28.2424     66.1075   8.7610604804e+01   6.2956530145e+01    0.3236671     0.232785 -50.47 0.0007040146    1.322    0.244
       209 -11.9859     31.0250     62.5877   8.5207637541e+01   6.3577516794e+01    0.8710318    0.4148448  56.36  0.003164896    3.050    0.672
       210 -13.2872     74.5076    238.6112   9.4426271548e+01   1.7486585712e+01    0.6950839    0.6410854  60.27  0.005540735    1.260    0.207
       211 -11.6689     34.9560     42.3020   7.6109624344e+01   6.8106040972e+01    0.6961846    0.4113978  -3.97  0.002360054    2.838    0.648
       212 -10.8009     24.0264     41.3254   8.2741107383e+01   6.9643168938e+01    0.3415902    0.2590481  30.38  0.001077309    1.402    0.287
       213 -12.8886     27.6216     37.8766   7.8992687647e+01   7.0065415264e+01    0.4256999    0.3120723 -46.56 0.0004023042    1.263    0.208
       214 -12.0511     24.5308     34.5204   7.9716597031e+01   7.1203502272e+01    0.2632173    0.2298155 -17.69 9.990473e-05    1.150    0.131
       215  -9.5730    213.2908     67.0239   3.4625673294e+01   2.3629887625e+01    0.1779087    0.1464733 -36.90 0.0002912548    1.040    0.038
       216  -9.7505    148.7914     66.9947   4.4524228075e+01   3.8358638054e+01    0.2072258    0.1877833 -43.71  0.001097133    1.068    0.063
       217 -11.0975    119.1283     65.2915   5.0798759260e+01   4.5983075398e+01     0.500183    0.2556904 -36.22  0.001590491    2.013    0.503
       218 -11.2036    122.9690     63.9928   4.9356885875e+01   4.5280875529e+01    0.4059281    0.2488141 -53.38 0.0003244742    1.784    0.440
       219 -10.0720     98.0117     65.2324   5.6950873364e+01   5.1028521359e+01    0.2118564    0.1293371  49.24 0.0007675705    1.636    0.389
       220  -9.5864     80.5235     65.5248   6.3190085890e+01   5.4809836706e+01    0.1529805    0.1495158 -82.65 0.0008096761    1.011    0.011
       221 -10.3941     69.7475     64.5025   6.7112933314e+01   5.7197821070e+01    0.3439595    0.1047001 -40.84 0.0008993168    4.498    0.778
       222  -9.5682    155.7963     63.8333   4.2181957223e+01   3.7161099283e+01    0.2099398    0.1670952 -63.62 0.0004142338    1.320    0.243
       223 -10.6917    202.0347     62.2395   3.4736185709e+01   2.6641530804e+01    0.2733565    0.1785752 -23.32  0.000867682    1.518    0.341
       224 -10.2478     76.9622     62.3240   6.3393288993e+01   5.6256489086e+01    0.3512898    0.2567734  18.50  0.001169911    1.805    0.446
       225 -11.2268     81.6269     54.8698   5.8713139861e+01   5.6859783880e+01     0.498106    0.3073555 -23.31  0.001129483    2.343    0.573
       226 -10.1625    113.5948     61.0419   5.0783674909e+01   4.8140603871e+01    0.2423814    0.2111157  80.08 0.0004397872    1.208    0.172
       227 -11.8876     96.6739     59.4977   5.5263997832e+01   5.2503706178e+01    0.5573179    0.3491893  59.78   0.00141196    1.736    0.424
       228 -11.3926     85.9540     58.9655   5.8729428818e+01   5.5055621364e+01    0.4716744    0.3464772 -33.35  0.002188592    1.471    0.320
       229  -9.9268    168.9936     59.9511   3.8719847037e+01   3.4551213562e+01    0.2152735    0.2011921 -43.76 0.0003831736    1.035    0.033
       230 -10.2313    127.0504     58.9703   4.6604135377e+01   4.5165946517e+01    0.2241891    0.2176153 -85.58 -0.002661949    1.013    0.012
       231 -10.9518     58.8532     58.8816   6.9860140798e+01   6.0505331502e+01    0.3902909    0.3686503  43.78  0.001414168    1.085    0.078
       232 -10.6609     61.8969     53.5185   6.6385543930e+01   6.1177504233e+01    0.3877968    0.2242978 -42.01 0.0007296446    1.759    0.432
       233 -10.1075    147.0748     56.8582   4.1593453508e+01   4.0456007557e+01    0.2198167    0.2111484 -54.66 0.0004057403    1.031    0.030
       234 -12.7306    105.1909     52.4883   4.9943416772e+01   5.1795189108e+01    0.3749475    0.3702904  22.40 0.0003214132    1.068    0.064
       235 -11.7615     75.3155     54.3757   6.0966403083e+01   5.8319962331e+01    0.6901325    0.4251657 -41.88  0.003011902    1.635    0.388
       236  -9.8903     78.4718     47.0780   5.6661006910e+01   5.9125790928e+01    0.2658377    0.1482388 -36.52 0.0002957851    1.888    0.470
       237  -9.7541    230.4320     54.6915   2.9814133303e+01   2.1778489930e+01    0.1719605    0.1087669 -20.95  0.000938848    1.544    0.352
       238 -10.3227    104.6802     46.8015   4.7824247148e+01   5.2934275413e+01    0.3084742    0.2147233  50.00 0.0007846437    1.428    0.299
       239 -10.8181     88.8266     54.2196   5.5845082176e+01   5.5374116934e+01    0.3501245    0.2379058  73.76 0.0009454979    1.971    0.493
       240  -9.1812     68.6157     55.7188   6.4283885263e+01   5.9397674580e+01    0.1548506    0.1200445   2.32 0.0001591698    1.729    0.422
       241 -11.3271     52.6362     52.3685   7.0370629209e+01   6.3085584224e+01    0.4660698     0.362497 -68.39  0.001977594    1.418    0.295
       242  -9.8577     57.4774     51.0491   6.7461521653e+01   6.2540647893e+01    0.2743204    0.1376634 -45.13 0.0009778494    1.965    0.491
       243 -11.3678    119.8150     52.7307   4.6107349847e+01   4.8081550207e+01    0.2628977    0.2569647  34.27  0.000267171    1.090    0.083
       244 -11.8396    129.5324     49.0708   4.2492523161e+01   4.6195231987e+01    0.5230671    0.3809161 -17.39  0.001871818    1.630    0.386
       245 -10.1020     96.0261     52.0850   5.2580394980e+01   5.4099284959e+01    0.2187407    0.2155897  48.42  0.001178923    1.038    0.037
       246  -9.8639     88.2188     50.3724   5.4488525750e+01   5.6268186325e+01     0.221413    0.1444266  61.73 0.0009466767    1.697    0.411
       247  -9.4485    181.5493     49.4998   3.3793435308e+01   3.3034310432e+01    0.1436847    0.1264109 -51.99 5.884907e-05    1.034    0.033
       248  -9.1809    199.5951     47.4482   3.1050130186e+01   2.9131347578e+01    0.1335483    0.1197587 -37.14 0.0001149178    1.074    0.069
       249  -9.0903     62.3221     47.3053   6.3594545502e+01   6.2450706158e+01    0.1501134    0.1176047  -4.16  0.000509804    1.639    0.390
       250 -10.3458     58.3892     46.4601   6.5082383465e+01   6.3380667632e+01    0.3871655    0.2571019 -89.49  0.001486676    2.886    0.654
       251 -10.3074    143.0204     45.2416   3.8415969750e+01   4.3285221279e+01    0.2527344    0.2075605 -37.81   0.00057116    1.195    0.163
       252 -10.6345     91.5275     43.1339   5.0291579806e+01   5.6823953829e+01    0.6553612    0.2043771 -43.15  0.002026565    3.261    0.693
       253 -11.2997     95.8759     42.4131   4.8597350923e+01   5.5886080824e+01    0.6362942    0.4109263  -6.30  0.002039401    2.529    0.605
       254 -11.0511     85.6772     44.5310   5.2888609701e+01   5.7965424318e+01    0.3383703    0.3249371  18.21 0.0009018226    1.088    0.081
       255 -10.8251     81.4996     42.0087   5.3269207415e+01   5.9403118302e+01    0.2896203    0.2529658  60.77 0.0006965599    1.163    0.140
       256 -11.5230     53.7312     40.5929   6.4746796738e+01   6.5490034624e+01    0.4376193     0.370284 -24.08  0.002347184    1.241    0.194
       257 -11.1590     88.7535    240.9578   9.1640639902e+01   1.5467564514e+01    0.1957713    0.1473976 -42.11  0.001378091    1.785    0.440
       258  -9.6377    187.2216     43.1495   3.1245607218e+01   3.2528479483e+01    0.1951593    0.1443213 -58.48 0.0004630195    1.300    0.231
       259 -11.3966    131.0987     41.6690   3.9432716641e+01   4.6931630581e+01    0.3148378    0.2586435 -56.72 0.0002190155    1.214    0.176
       260  -9.9344     72.9027     42.8301   5.6981128934e+01   6.1179165729e+01    0.2916417    0.1969584 -68.09 0.0009161173    2.086    0.521
       261 -11.1295    148.7434     40.1800   3.5660428157e+01   4.2522752287e+01    0.3928369    0.3058387 -17.11  0.001270122    1.442    0.307
       262 -10.3135    120.9119     41.1447   4.1421841529e+01   4.9684989536e+01    0.2383059     0.199303 -73.95  0.000550012    1.256    0.204
       263 -10.9314     69.9278     37.1714   5.5545291502e+01   6.2901222857e+01    0.5357368    0.3454643  -0.65  0.002031571    2.872    0.652
       264 -11.2498     74.9725     35.2470   5.2558910152e+01   6.2121794475e+01    0.4544705    0.3213406  27.31   0.00115427    1.702    0.413
       265 -10.0249     72.7437     32.3911   5.2014618095e+01   6.3127963686e+01    0.3240497     0.225566  20.77 0.0009047604    1.894    0.472
       266 -10.2024    113.1841     44.6813   4.4679695371e+01   5.1130752406e+01    0.3038189    0.2221671  28.27  0.001070339    1.712    0.416
       267 -10.8426    221.7635     31.8212   2.4917456932e+01   2.6187000073e+01    0.2379163    0.1654001 -41.72 0.0003043981    1.170    0.145
       268 -11.3967    224.8916     37.8086   2.6168544419e+01   2.4868359936e+01    0.3705093    0.2276092 -56.86 0.0005288635    1.548    0.354
       269 -10.8603    226.0702     33.0533   2.4901508671e+01   2.5161871516e+01    0.2004337    0.1643531 -42.63 0.0002934113    1.022    0.022
       270 -10.2075    248.9007     37.1539   2.4275960322e+01   2.0300989003e+01    0.1955638     0.128257 -50.08  0.001232481    1.298    0.230
       271  -9.7108    161.5124     37.2712   3.2735441726e+01   3.9619430810e+01    0.3188122    0.1504194  45.27  0.001216604    2.622    0.619
       272 -10.3272    110.8423     35.2127   4.1386275487e+01   5.3221150855e+01    0.2827132    0.2574564  56.99  0.001067555    1.089    0.082
       273  -9.9510    102.0136     36.3880   4.4184057600e+01   5.5331268427e+01    0.2864043    0.2068253 -61.94  0.001315704    1.591    0.371
       274  -9.7205      1.3636     36.5462   9.7584010313e+01   7.2442365228e+01    0.3198889    0.1174721 -81.02  0.001249395    2.758    0.637
       275 -10.5652     83.2109     35.2631   4.9518326952e+01   6.0190505566e+01    0.5692353    0.3152865  42.62  0.002359412    1.898    0.473
       276  -9.5397    134.6030     34.8328   3.6200073889e+01   4.6981722351e+01    0.2219689    0.1263345 -42.56 0.0009270849    1.705    0.413
       277 -12.2090      8.4289     31.6892   9.0792752670e+01   7.3289136792e+01    0.4230226    0.2779949 -75.30 0.0006965064    1.510    0.338
       278 -10.8529     17.6034     31.0243   8.3358164420e+01   7.2732426053e+01    0.5228159    0.2317917  19.87  0.002250817    2.467    0.595
       279  -9.8242    177.5972     34.2194   2.9720692572e+01   3.5969923708e+01    0.1930214    0.1332807 -15.74 0.0009483647    1.640    0.390
       280 -10.4509    205.9186     32.9934   2.6513894913e+01   2.9470353110e+01    0.2075738    0.1667024 -46.35 0.0006233056    1.055    0.053
       281  -9.8415    193.4806     33.0353   2.7680371031e+01   3.2302941018e+01    0.2877366    0.1384171  36.70  0.001058851    3.662    0.727
       282 -10.2192    121.8995     32.8841   3.7927316413e+01   5.0632467723e+01    0.4731337    0.1662895  56.83  0.001628223    2.602    0.616
       283  -9.4351    114.2613     37.2927   4.1425982161e+01   5.2013692978e+01    0.2070898    0.1418519  75.17 0.0002203471    1.571    0.363
       284 -11.5582     49.8698     30.8060   6.1887133603e+01   6.8184150355e+01    0.3612662    0.2504666 -42.26 0.0003931728    1.420    0.296
       285 -11.0581     49.0723     26.0437   5.9682603686e+01   6.9237966914e+01    0.2610022    0.2106376  43.58  0.001415389    1.259    0.206
       286 -10.3033     79.5989     29.7793   4.8104172985e+01   6.1957788760e+01    0.3138618    0.2240114 -47.51 0.0008403965    1.486    0.327
       287 -10.5499     80.7488     26.5605   4.6059660512e+01   6.2181098472e+01    0.4344728     0.299895  80.18  0.001962838    1.848    0.459
       288 -10.4324    144.5879     28.1821   3.2084282993e+01   4.5192084005e+01     0.417749    0.1741183 -35.74  0.001615094    2.190    0.543
       289 -10.8984    102.1883     29.3085   4.0986751575e+01   5.6345149500e+01    0.3852782    0.2748921 -73.92  0.001470558    1.707    0.414
       290 -11.3068    197.5175     28.0711   2.5908078081e+01   3.1937498839e+01    0.3318248    0.2100924  65.30  0.001633457    1.699    0.411
       291 -11.1466    238.2850     28.1739   2.2888676712e+01   2.3258197705e+01    0.1830267    0.1364799 -17.22 0.0004409602    1.416    0.294
       292 -10.5166     61.7902    242.2034   9.7315394342e+01   1.8313207793e+01     0.373594    0.0784706  44.85  0.001555491    3.254    0.693
       293 -10.4578    107.2786     27.5230   3.8920095876e+01   5.5256079515e+01    0.2514616    0.2421834  38.42 0.0002108095    1.091    0.083
       294  -8.8437    139.2596     44.3881   3.8818727444e+01   4.4390318623e+01    0.1514647    0.1172763  15.77 0.0006971966    1.689    0.408
       295 -10.4766    214.7285     25.3215   2.3783361724e+01   2.8391881611e+01    0.3114563    0.1961279  -1.73  0.001341965    2.237    0.553
       296 -10.8751     22.5310     24.4192   7.6461295107e+01   7.3712590560e+01    0.3984641    0.2539468 -34.00  0.001662979    1.589    0.371
       297 -10.1413     24.5283     21.5037   7.3307191899e+01   7.4091877353e+01    0.2806134    0.2130455 -62.16  0.001461534    1.458    0.314
       298 -10.4033    172.4196     25.9740   2.7754223982e+01   3.8238049733e+01    0.2348181    0.1961211  71.86 0.0003866212    1.235    0.190
       299 -10.1426    195.2112    238.4806   7.1011168925e+01   3.0072949628e+00    0.2135619    0.1312616   1.93  0.001463352    1.514    0.340
       300  -9.8370    128.4671     26.4502   3.4085768471e+01   4.9723652852e+01    0.2256999    0.2219674  84.78 0.0006121516    1.071    0.067
       301  -9.4466    134.7117    237.6405   8.2022583704e+01   1.0382388332e+01    0.1116985    0.0762961   0.45 0.0007024797    1.686    0.407
       302 -10.4954      1.7256     25.4385   9.4453156484e+01   7.5158414878e+01    0.2805465    0.1646156 -71.15  0.001012202    1.554    0.357
       303 -11.6137     22.5116    248.6874   1.0559718210e+02   2.1175941565e+01    0.3342315    0.1787786  47.29  0.001365098    1.299    0.230
       304 -11.9213     89.2120    249.3363   9.2202413533e+01   1.4134285374e+01    0.2991787    0.1842691  30.90 0.0008616851    1.221    0.181
       305 -10.2106    159.9566    235.6961   7.6948487981e+01   7.5237755142e+00    0.1613789    0.1132689  22.35 0.0004117531    1.080    0.074
       306 -11.5385     13.1776     23.4774   8.3697033004e+01   7.4879069183e+01    0.4745278     0.252193 -13.80  0.001130681    2.521    0.603
       307 -10.5872      6.8233     24.7233   8.9734578283e+01   7.5060380647e+01    0.3250999    0.1654675   9.01  0.001555265    2.181    0.541
       308 -11.3679     30.3702    234.0368   1.0348671316e+02   2.2924636958e+01    0.3858292    0.1521294  73.42  0.001963411    2.896    0.655
       309 -11.0413    193.7434     25.6693   2.5566250680e+01   3.3085455019e+01    0.3137603    0.1613161 -37.12 0.0009048469    1.643    0.391
       310  -9.5586    177.3999    234.8044   7.3639689500e+01   5.5163475455e+00    0.1409087   0.09072528 -19.08 0.0009474909    1.658    0.397
       311 -10.5839     66.9054     20.6842   4.8028586914e+01   6.6356386010e+01    0.2550628    0.2414169 -82.94 0.0004409264    1.165    0.142
       312 -10.5285     62.8929     23.6828   5.1463167262e+01   6.6795260132e+01    0.2961845    0.2255677  12.49  0.001475092    1.582    0.368
       313 -11.2243     57.9295     21.6466   5.2551016396e+01   6.8206097834e+01    0.6224245    0.2515255  39.14  0.002229973    2.882    0.653
       314 -10.6053    186.3761     22.5996   2.5338902358e+01   3.5177620665e+01    0.2342263    0.1932566 -49.25 0.0002274694    1.062    0.058
       315 -10.1845    100.2566     21.4940   3.7851773507e+01   5.7906820806e+01    0.5117927    0.2406562 -55.32  0.001638216    2.937    0.659
       316 -10.2827     97.1818     23.3783   3.9530319277e+01   5.8469344605e+01    0.2810252    0.2172281  74.33 0.0006377609    1.313    0.239
       317 -10.1579     72.2906    250.2205   9.5670591041e+01   1.5896004222e+01    0.1838831    0.1193731  25.22 0.0009378107    1.352    0.260
       318 -10.8000     84.2642     21.4864   4.2274424006e+01   6.2041312164e+01    0.3871605    0.2691048  46.46  0.001504057    1.413    0.292
       319 -10.8952     86.6068    232.8680   9.1428315048e+01   1.7014380717e+01    0.2527403     0.104284  43.55  0.001206305    1.942    0.485
       320  -9.6748     38.5012    232.4724   1.0169524732e+02   2.2401020453e+01    0.1147235   0.08471513  44.61 1.125826e-05    1.013    0.013
       321  -9.9954     24.2338    232.1140   1.0471009643e+02   2.3844337286e+01    0.1769963    0.1300662  27.43 0.0005708347    1.334    0.250
       322 -10.2840     46.9799     16.9754   5.5283436611e+01   7.1229140393e+01    0.1962052    0.1900153 -16.70  0.000441837    1.082    0.076
       323  -9.3058     58.5229    229.4879   9.7218390006e+01   2.0818174771e+01    0.1174064   0.08924799  41.84 0.0008100782    1.015    0.014
       324 -10.8833      4.0439    226.6788   1.0881913746e+02   2.6594487842e+01     0.260506    0.1273931  75.68  0.001605599    1.901    0.474
       325  -9.5006    190.5263    226.4864   7.0204296500e+01   4.9367797740e+00    0.1122225    0.0827762  11.43 3.095749e-05    1.023    0.023
       326 -10.5088    120.8275    226.0276   8.3550884058e+01   1.3844455234e+01    0.1760957    0.1238744  63.82 0.0008620177    1.969    0.492
       327  -9.5183    109.8347    242.6298   8.7484762823e+01   1.2709139537e+01    0.1651713     0.075867  38.27 0.0003436101    1.649    0.394
       328 -10.3365    108.6768     17.2961   3.4000133764e+01   5.6166449890e+01    0.2353866    0.2131396 -40.93 0.0002568573    1.135    0.119
       329 -10.7100    194.9920     16.8072   2.2953244383e+01   3.3742777373e+01    0.2083554    0.1659114 -44.02 0.0003281729    1.094    0.086
       330  -9.8853    143.4849     16.5036   2.7971720142e+01   4.6830539648e+01    0.2349977     0.143399  -4.58 0.0006206378    2.165    0.538
       331 -10.7857     15.6913    221.7390   1.0620271915e+02   2.6508019394e+01    0.2819737   0.08997015  39.81  0.001453965    2.001    0.500
       332  -9.8940     75.9598     15.5611   4.1719834316e+01   6.4900645440e+01    0.2745635    0.1538474  50.02  0.001029147    1.684    0.406
       333 -10.9015     21.4209    220.2262   1.0489666657e+02   2.6272954634e+01    0.1960975    0.1218201  72.22  0.001278009    1.502    0.334
       334  -9.5714    126.0098    220.5010   8.1841082200e+01   1.4027729074e+01    0.1768484   0.07686871  47.19  0.000810494    2.560    0.609
       335  -9.1732    120.6894    219.6419   8.2860641189e+01   1.4865235169e+01    0.1195792   0.08486869  -2.18 0.0007042587    1.737    0.424
       336  -9.9834    192.0000    217.9784   6.8744763381e+01   5.7876437576e+00    0.1642982   0.05972702 -38.41 0.0008108853    3.001    0.667
       337  -9.4822    176.0533    218.7787   7.1732610858e+01   7.7015123730e+00    0.1534564   0.07677297  31.88 0.0006175209    1.651    0.394
       338 -10.6303     11.1321    208.0670   1.0681081661e+02   2.9528500317e+01    0.2745916    0.1542158  77.00 0.0008871492    1.659    0.397
       339  -9.6143    175.3437     15.2064   2.4097508835e+01   3.8675516506e+01    0.2002085    0.1065604 -37.37 0.0004318946    1.651    0.394
       340 -11.6555     10.3710    216.8335   1.0722859356e+02   2.7894471587e+01     0.413774    0.2318764  19.22  0.002478208    1.906    0.475
       341  -9.8774     12.5171    212.5154   1.0662817545e+02   2.8538992737e+01    0.1926606    0.1279439  87.25 0.0009193991    1.529    0.346
       342  -9.8375     38.2204    217.3685   1.0101671836e+02   2.5182186177e+01    0.1736328   0.07789744  38.40 0.0007634898    1.621    0.383
       343 -10.9120     29.2253    215.6017   1.0296753342e+02   2.6411859799e+01    0.2259009    0.1792395  47.31  0.001140281    1.064    0.060
       344 -10.2959     23.9156    215.8790   1.0417766556e+02   2.6864298787e+01    0.1590737     0.144687  34.83 0.0004662455    1.284    0.221
       345 -11.6935    236.0153    214.1933   6.1003875446e+01   1.0397428320e+00    0.4094228    0.1919741   3.49  0.002138949    2.849    0.649
       346 -11.1649      1.5361    211.2283   1.0905609734e+02   2.9700272537e+01      0.27583    0.1367429  74.80  0.001103776    1.809    0.447
       347 -12.1695      5.7130    208.7091   1.0806234455e+02   2.9855188372e+01    0.4349205    0.2422382 -86.60  0.002576453    1.845    0.458
       348  -9.6258    110.3881    212.1910   8.4231830020e+01   1.7464722458e+01     0.149551    0.1186961 -84.96 0.0009477086    1.700    0.412
       349 -10.1101     20.2438    211.6190   1.0484658239e+02   2.8026048812e+01    0.2596728    0.1196441  58.35  0.001436833    1.791    0.442
       350 -10.4238    246.9636    204.1794   5.7848451581e+01   8.7874235452e-01    0.3405611    0.1377463 -39.71  0.001795032    3.304    0.697
       351  -9.0590    188.3012    204.7097   6.7427470656e+01   7.9550084718e+00    0.1004893   0.08817615  41.40 0.0003632517    1.565    0.361
       352 -10.6573    175.3338    202.3292   6.9461710597e+01   1.0031279020e+01    0.2074717    0.1685228  22.11 0.0004237255    1.120    0.107
       353 -10.6701     19.9917    200.2179   1.0446211905e+02   3.0326314943e+01    0.4096536    0.1716867 -71.80  0.002082426    2.559    0.609
       354  -9.5854    117.4962    201.5123   8.1357326483e+01   1.8334854594e+01    0.1277458    0.1061454  32.12 0.0008105181    1.013    0.013
       355  -9.5612    136.6277    215.6930   7.9044529805e+01   1.3357379786e+01    0.1246921   0.08281761   4.43  0.000119006    1.766    0.434
       356  -9.7561     58.1481    196.0421   9.4879075942e+01   2.7200843720e+01    0.1923158    0.1347194 -37.14  0.001077522    2.005    0.501
       357 -11.4060     16.2871    193.0033   1.0507300057e+02   3.2156201219e+01    0.3791133    0.2158483  26.00  0.001765075    1.661    0.398
       358 -10.2959    244.6988    188.0278   5.5561396264e+01   2.8663137019e+00    0.1560022    0.1084179 -11.03  0.000460319    1.112    0.101
       359 -10.3604    168.1796    183.6193   6.7858883340e+01   1.3836051987e+01    0.2948569    0.2282603  83.52  0.001556184    2.654    0.623
       360  -9.7426     61.8134    184.8257   9.2959659123e+01   2.9106722786e+01    0.1870942    0.1316229  60.12  0.001062504    1.336    0.251
       361 -11.7316     15.7636    181.7847   1.0474654410e+02   3.4618431619e+01    0.4313766    0.2126172  58.78  0.002033337    1.702    0.412
       362  -9.7168     58.8784    181.8692   9.3445246476e+01   3.0102513298e+01    0.1864844    0.1744714  15.70 0.0006883665    1.247    0.198
       363  -9.5702     23.1148    179.9771   1.0274230531e+02   3.4360514926e+01    0.3868104          nan  43.84    0.0011166    5.248    0.809
       364  -9.7943    244.4984    178.4374   5.3964326064e+01   3.9664172863e+00    0.2062558   0.08425436 -21.33  0.001034386    2.484    0.597
       365  -9.3383      1.6809    179.7264   1.0830140079e+02   3.6204556237e+01    0.1045174   0.09027591 -40.70 0.0002764805    1.569    0.362
       366  -8.8830    222.6800    178.3563   5.7225948500e+01   6.7637129060e+00    0.1003755   0.09148004 -47.94 0.0001611899    1.757    0.431
       367 -10.1767     46.9637    177.1953   9.6195774526e+01   3.2531694392e+01    0.2235811    0.1831722  84.58  0.001286439    1.217    0.179
       368 -10.6687     18.4048    172.8859   1.0363646802e+02   3.6381160282e+01    0.2902067    0.1342232  49.75  0.001185657    1.751    0.429
       369 -10.5592      7.5782    172.7102   1.0654272746e+02   3.7318883989e+01    0.2323019    0.1040438 -78.07  0.001144838    2.188    0.543
       370 -11.0576     35.2875    161.3972   9.8156197806e+01   3.7447294196e+01    0.3792409    0.2441879  20.16 0.0002488536    1.689    0.408
       371 -11.7749     37.0059    165.7008   9.8007761732e+01   3.6252229050e+01    0.5082352    0.3882883  75.49  0.002764728    1.214    0.176
       372 -10.3693     33.4463    166.4384   9.9072749080e+01   3.6447503682e+01    0.2320779    0.1885577  45.73 4.874513e-05    1.099    0.090
       373  -9.4500    177.2620    168.6461   6.3441809541e+01   1.4776122421e+01    0.1136107    0.1036979 -76.69 0.0002590737    1.618    0.382
