#   1 NUMBER                 Running object number                                     
#   2 MAG_AUTO               Kron-like elliptical aperture magnitude                    [mag]
#   3 X_IMAGE                Object position along x                                    [pixel]
#   4 Y_IMAGE                Object position along y                                    [pixel]
#   5 X_WORLD                Barycenter position along world x axis                     [deg]
#   6 Y_WORLD                Barycenter position along world y axis                     [deg]
#   7 A_WORLD                Profile RMS along major axis (world units)                 [deg]
#   8 B_WORLD                Profile RMS along minor axis (world units)                 [deg]
#   9 THETA_WORLD            Position angle (CCW/world-x)                               [deg]
#  10 FWHM_WORLD             FWHM assuming a gaussian core                              [deg]
#  11 ELONGATION             A_IMAGE/B_IMAGE                                           
#  12 ELLIPTICITY            1 - B_IMAGE/A_IMAGE                                       
         1 -13.7056    227.1388     32.0416   3.5537140868e+01   2.6145473762e+01    0.9996227    0.7809748  45.38  0.006561955    1.745    0.427
         2 -10.9303    250.2986      8.3682   2.9257225290e+01   2.4385164526e+01    0.4255897    0.1286554 -32.90  0.001817361    2.940    0.660
         3 -11.5216      2.4020      6.3585   8.8125402529e+01   7.5585755646e+01    0.7044477    0.1533589 -49.83  0.002621487    4.540    0.780
         4  -8.6840     78.5572      4.4920   4.9117946047e+01   6.3103974323e+01    0.1265978    0.1105323  47.73 6.916528e-05    1.055    0.052
         5 -11.2980      7.7764      3.2010   8.2249099722e+01   7.5563102368e+01    0.2684868    0.1827838  28.31  0.001754234    1.545    0.353
         6 -14.2236    110.9009    229.7267   9.9034156184e+01   1.1791917135e+01      4.20719    0.4860655  33.00   0.01073565    6.206    0.839
         7 -13.9093     86.2143    234.9844   1.0523053790e+02   1.4074746688e+01     2.774721    0.9382989  45.05   0.01122658    2.751    0.636
         8 -12.9953     34.2983    249.1304   1.1759742962e+02   1.7373920544e+01     2.258213    0.5799357  25.57  0.008331702    4.327    0.769
         9 -12.2580     59.4914    246.6006   1.1215244733e+02   1.5099090683e+01    0.6839113    0.4971934 -72.43  0.004452793    1.559    0.359
        10 -12.4067     84.2200    246.7797   1.0683761272e+02   1.2088555314e+01    0.8562516    0.3929311  40.51  0.001368242    1.771    0.435
        11 -12.9107     68.8576    247.6288   1.1022928426e+02   1.3806086492e+01    0.9666051    0.8073344  23.99  0.005167132    1.230    0.187
        12 -11.9268     14.9828    248.6731   1.2146310097e+02   1.9361382760e+01    0.8375016     0.416482  75.80   0.00376297    1.957    0.489
        13 -15.1604      3.6462    178.4932   1.2040207800e+02   3.5492278695e+01     8.626052     1.246263 -78.89   0.02341355    6.364    0.843
        14  -9.3467    191.4771    191.9928   7.5379613280e+01   6.8469895954e+00    0.1748817    0.1181293 -63.22 0.0008100373    2.629    0.620
        15 -11.5324     47.3440    179.4004   1.0889158742e+02   3.1226905541e+01     0.398779    0.2887743 -28.23  0.001460623    1.790    0.441
        16 -11.5166     54.4703    173.2358   1.0619426397e+02   3.1918985132e+01    0.3096999    0.2652625 -26.61  0.000705055    1.371    0.270
        17  -8.6617    110.5492    167.5385   8.9692749721e+01   2.5178864018e+01    0.1471934    0.1416975  45.35  0.000109268    1.055    0.052
        18 -10.7415     66.5512    163.4215   1.0139100554e+02   3.2846742190e+01    0.2562866    0.2532758 -57.31 0.0002527539    1.062    0.058
        19 -13.1316     52.1945    159.7441   1.0508893714e+02   3.5584647230e+01    0.5496076    0.3418069 -35.46  0.001535724    1.997    0.499
        20 -12.1260     75.0087    156.4554   9.7798481012e+01   3.3432103662e+01    0.7177112    0.5945848  61.72  0.002224075    1.272    0.214
        21 -13.2046     65.9699    141.5166   9.7991799770e+01   3.8502250389e+01     2.112824     1.095923  74.64  0.006312965    4.499    0.778
        22 -13.8957     23.0434    199.1936   1.1693707166e+02   2.9010198164e+01     1.136848    0.7852876  68.67  0.002596479    1.319    0.242
        23 -11.8978     86.2897    222.6672   1.0388757490e+02   1.6529561272e+01     0.659098    0.4044592  67.01  0.001947561    2.094    0.522
        24 -10.0547     91.2519    143.2097   9.0490829230e+01   3.4254137308e+01    0.2862438    0.2654445  66.00 0.0008000294    1.136    0.120
        25  -9.3623     94.9738    139.9981   8.8714822109e+01   3.4427650508e+01    0.3286514    0.2095381 -18.49  0.001074208    2.416    0.586
        26 -11.8170     78.8210    141.4537   9.3942446335e+01   3.6659521998e+01    0.3333096    0.2824308 -39.45 0.0004906425    1.213    0.175
        27 -11.4874     52.4707    115.6187   9.7617384162e+01   4.6931823838e+01    0.6032255     0.259198 -66.09 0.0006319741    2.465    0.594
        28  -9.8963     91.9886    127.5018   8.6906819187e+01   3.8008626966e+01    0.3321001    0.2536409   4.56 0.0008778737    1.605    0.377
        29 -10.4089    105.6646    131.2059   8.3607217616e+01   3.4681928187e+01    0.4005665    0.3407562   4.23  0.001085823    1.310    0.237
        30  -9.3962    103.8024    119.8496   8.1467032007e+01   3.7725406346e+01    0.2209039    0.2017926 -16.35 0.0003406155    1.135    0.119
        31 -12.7308      2.8566    244.6937   1.2368624411e+02   2.1215093634e+01     1.877773    0.5365449 -76.66   0.00880625    3.366    0.703
        32  -9.0076    204.5296    110.8520   5.6035208137e+01   1.9075771361e+01    0.3020375    0.1460665  36.92  0.001225372    2.824    0.646
        33 -11.5207     33.5391    157.3907   1.1033639311e+02   3.8203109387e+01     0.378382    0.2379476 -84.60  0.001543862    1.587    0.370
        34 -14.6990     27.0153    182.7637   1.1466420147e+02   3.2511718118e+01     5.431056     1.907713  66.18   0.01690935    4.799    0.792
        35 -11.2116     22.4250    223.7297   1.1864954296e+02   2.3658511228e+01    0.3371915     0.164056  71.19  0.001722429    2.089    0.521
        36 -10.0323     77.0733    226.1862   1.0641462577e+02   1.7004032229e+01     0.198385    0.1814836 -89.85  0.000364963    1.187    0.157
        37  -8.7947     24.9017     82.5482   1.0146377530e+02   5.8110645949e+01    0.1817266    0.1328296  12.30 0.0003852292    1.471    0.320
        38  -9.5657    163.2499     84.1620   5.6866271758e+01   3.2431366551e+01    0.2487347     0.161417  14.23 0.0009609857    2.856    0.650
        39 -13.6660     12.5923    206.5593   1.1987803431e+02   2.8283898289e+01    0.8543776     0.517117  18.04  0.003346478    1.935    0.483
        40 -10.1951     13.2736     60.1208   1.0153880100e+02   6.4256896290e+01    0.2224711    0.1784756 -38.82 0.0004457318    1.049    0.047
        41 -11.5186    206.6969     50.1315   4.1570675873e+01   2.8052267273e+01    0.6234246    0.2789323 -54.85  0.002759998    2.357    0.576
        42  -8.7067     91.9950     52.8956   6.4926832388e+01   5.4016791816e+01    0.1666239      0.15752  -1.42 0.0004332738    1.060    0.057
        43  -8.4348    226.6589    205.7314   7.1285908599e+01  -2.3299110696e-01    0.1244348   0.07832343  -2.82   0.00026643    1.604    0.376
        44 -12.4460    212.7832     44.7953   3.9676710193e+01   2.7478547051e+01    0.7718699    0.3754103 -51.16    0.0038424    1.879    0.468
        45 -10.9926     22.1661    245.3861   1.1987024480e+02   1.9307594426e+01     0.352183    0.2541178 -72.97  0.002425868    1.534    0.348
        46 -10.8547      2.1747     38.3585   1.0152774895e+02   6.9657311990e+01    0.3165068    0.1520935 -64.82  0.001573597    2.140    0.533
        47  -9.6082    120.4743     28.5075   4.8616688031e+01   5.0911633521e+01    0.2942961    0.1832165 -70.14  0.000728272    2.293    0.564
        48  -9.5534    189.4137     15.2279   3.4995026239e+01   3.6003312718e+01    0.1728373   0.09859689 -45.36 0.0006433693    1.609    0.378
        49 -12.7333    112.6156    238.1876   9.9678153815e+01   9.9766692569e+00    0.5801403    0.3611436 -51.24  0.003241663    1.854    0.461
        50  -9.3717     49.3050    238.3157   1.1372552382e+02   1.7866766162e+01    0.1097655   0.09201048 -22.69 0.0004621057    1.624    0.384
        51 -10.8589     18.2474    237.6910   1.2029100739e+02   2.1193030794e+01     0.217125    0.1450128 -71.19  0.001410092    1.618    0.382
