#   1 NUMBER                 Running object number                                     
#   2 MAG_AUTO               Kron-like elliptical aperture magnitude                    [mag]
#   3 X_IMAGE                Object position along x                                    [pixel]
#   4 Y_IMAGE                Object position along y                                    [pixel]
#   5 X_WORLD                Barycenter position along world x axis                     [deg]
#   6 Y_WORLD                Barycenter position along world y axis                     [deg]
#   7 A_WORLD                Profile RMS along major axis (world units)                 [deg]
#   8 B_WORLD                Profile RMS along minor axis (world units)                 [deg]
#   9 THETA_WORLD            Position angle (CCW/world-x)                               [deg]
#  10 FWHM_WORLD             FWHM assuming a gaussian core                              [deg]
#  11 ELONGATION             A_IMAGE/B_IMAGE                                           
#  12 ELLIPTICITY            1 - B_IMAGE/A_IMAGE                                       
         1 -13.5960    162.0612     55.9964   7.3787518202e+01   3.7562460269e+01     1.705392     1.428571  27.22  0.005900219    1.456    0.313
         2 -13.6010    175.8436     40.6011   6.7448181221e+01   3.6417216320e+01    0.8611816    0.8492823  52.91  0.003504593    1.223    0.182
         3 -13.7998    193.9942      9.4244   5.7740050546e+01   3.5807254116e+01    0.9529814    0.8432279  79.19  0.004141432    1.192    0.161
         4 -13.1058    218.5046      3.7405   5.4268286028e+01   3.0970931989e+01     1.685142     0.370761  73.84  0.006083187    4.136    0.758
         5  -9.3439    163.0060    235.8533   1.1415562182e+02   7.5561423673e-01    0.2226872    0.1725609 -67.26  0.001093257    1.641    0.391
         6 -11.7908    248.5953    245.2094   9.8966353108e+01  -1.3917460456e+01    0.6289941    0.2715109 -25.38  0.002959149    2.604    0.616
         7 -19.6476     52.3457    161.4247   1.2850498054e+02   3.6024555749e+01     21.00665     5.493355 -66.75   0.06381156    3.957    0.747
         8 -10.8266    204.4714    175.7708   9.4195462868e+01   4.9877980305e+00    0.3725864    0.3667967 -18.40  0.001162127    1.070    0.065
         9  -9.8146    197.0411    176.5952   9.5880588941e+01   6.2460090092e+00    0.2946678    0.2539248  47.39  0.001220408    1.230    0.187
        10  -9.4714    185.0425    169.5167   9.6913121966e+01   1.0096937175e+01    0.2963148     0.208037 -60.35 0.0009400129    1.637    0.389
        11 -10.3093    175.9851    217.4658   1.0828590229e+02   1.9711657617e+00    0.2242908    0.1306339  38.95   0.00103999    1.619    0.382
        12 -10.2166    192.5403    164.6551   9.4281922683e+01   9.6122688418e+00    0.2812824    0.2591942 -33.05 0.0006642845    1.053    0.051
        13 -11.5567     10.1769    206.5088   1.4331672129e+02   2.9825029567e+01    0.3500985    0.2933773  53.49  0.002484571    1.330    0.248
        14 -10.9178    125.2441    162.1164   1.0941925358e+02   2.3967385810e+01    0.2794543    0.2625911  14.36 0.0006393602    1.186    0.157
        15 -11.7181    113.8876    161.0569   1.1212260528e+02   2.6405131786e+01     0.501317    0.3591492 -84.07  0.001396646    1.754    0.430
        16 -11.5302    120.3699    157.3557   1.0966895444e+02   2.6071235667e+01    0.4463641    0.2461074 -46.27  0.001788065    1.832    0.454
        17 -11.2291    193.3251    195.5709   1.0049950203e+02   3.1200709688e+00      1.04724    0.5190899 -64.46  0.002900389    5.757    0.826
        18 -10.0219    129.4894    157.0006   1.0725161490e+02   2.4359519123e+01    0.2379384    0.1532595 -53.95 0.0009503493    1.542    0.352
        19 -10.7858    189.1426    154.8970   9.2857420187e+01   1.2372479047e+01     0.483873    0.4145303  75.18  0.002467659    1.347    0.258
        20 -11.9536    134.0269    146.5520   1.0377546505e+02   2.5929677095e+01     1.462171    0.3604282 -54.61  0.003239695    5.929    0.831
        21 -10.4351    161.1425    199.4759   1.0824197201e+02   8.3695066140e+00    0.2444249     0.205101 -48.08   0.00128571    1.233    0.189
        22 -10.8710    151.0071    150.4913   1.0046510959e+02   2.1444919558e+01    0.3729531    0.2219953  61.85  0.001414771    2.207    0.547
        23 -11.3016    143.5500    145.2666   1.0108946801e+02   2.4238255338e+01    0.4174854    0.2694879 -65.88   0.00168757    1.902    0.474
        24 -11.6125    152.1120    196.9923   1.0982397396e+02   1.0626309607e+01     0.360659    0.3087395 -50.74  0.001185784    1.207    0.171
        25  -9.7869    174.8581    149.0817   9.4627778274e+01   1.6653633319e+01    0.2407584    0.2096779 -79.33 0.0004650284    1.271    0.213
        26 -12.1226    102.4658    136.4309   1.0988902297e+02   3.4548614584e+01    0.4332587    0.3479089 -49.15 0.0004937039    1.203    0.169
        27 -11.7347    105.9688    130.8084   1.0760621506e+02   3.5248870433e+01    0.4751746    0.3908561 -59.12  0.001233619    1.201    0.167
        28 -11.5857    135.3203    125.5107   9.8423724444e+01   3.0544445133e+01     1.364946    0.2143753 -49.27   0.00265405    7.575    0.868
        29 -11.3687    118.1040    128.6072   1.0373219758e+02   3.3410702316e+01    0.3504601    0.3138525 -16.35 0.0008080167    1.251    0.200
        30 -10.8270    106.6567    124.0625   1.0578925919e+02   3.6709983399e+01    0.3320282    0.2607256 -34.80 0.0008101545    1.342    0.255
        31 -10.5389    160.7566    128.1177   9.2873892087e+01   2.4363775868e+01    0.4396367    0.3257452 -84.67  0.001905488    1.800    0.444
        32  -9.8766    112.9668    118.0168   1.0250934547e+02   3.6877404035e+01    0.2273789    0.2264858  83.36 0.0004691652    1.024    0.023
        33 -10.6765    167.7389    112.8472   8.7521092882e+01   2.6030141909e+01    0.4335234    0.3116703 -87.58  0.001558644    1.888    0.470
        34  -9.9941    205.5040    110.1377   7.9421952904e+01   1.7990651489e+01    0.3088835    0.2158163  46.38 0.0008592849    1.581    0.367
        35 -10.7082    152.9049    192.1647   1.0872964401e+02   1.1537619331e+01    0.2903971    0.2275574 -64.37 0.0006019584    1.407    0.289
        36 -10.4380    134.5766    105.0011   9.3316152766e+01   3.5185618066e+01    0.5127159    0.1495124 -44.12   0.00151286    3.429    0.708
        37 -12.1632    149.1410    187.8494   1.0877203324e+02   1.3232075945e+01    0.5293244    0.4150831  77.94  0.001710462    1.573    0.364
        38 -10.6771    154.8362    187.0677   1.0729690611e+02   1.2294561929e+01    0.3427287    0.2770448  85.78 0.0008435566    1.531    0.347
        39  -9.1480    149.2320     81.2048   8.3303386341e+01   3.6481742510e+01    0.2036011    0.1711551 -78.87 0.0005920233    1.324    0.245
        40 -10.0880    167.5709    229.3032   1.1211978525e+02   1.1916651362e+00    0.2321025    0.2215293  56.42 0.0004257725    1.142    0.124
        41  -9.4061    105.0277     73.4657   9.2285694012e+01   4.7568803836e+01    0.2191239    0.1350292  43.28  0.001024399    1.576    0.365
        42  -9.8686    235.3972    249.2182   1.0203811788e+02  -1.2731954112e+01    0.1498543    0.1079574 -39.53 0.0003981213    1.591    0.372
        43  -9.1884    167.9732    248.5452   1.1511244072e+02  -2.3523727208e+00    0.1989676    0.1536839 -44.54 0.0007626256    1.471    0.320
        44 -12.2359    180.0246     33.7673   6.5132766269e+01   3.6297204431e+01    0.3726923      0.33219  47.92 0.0009921928    1.303    0.233
        45  -9.5740     13.3649     59.8300   1.2044635250e+02   6.2741808143e+01    0.1639281    0.1472574 -10.23 0.0004209776    1.230    0.187
        46 -11.4912    140.8608    189.5726   1.1104557550e+02   1.4444199484e+01     0.402864    0.2275516 -59.93  0.001650853    1.988    0.497
        47 -10.9825    197.8788     23.9792   6.0553790834e+01   3.3322915913e+01    0.2711754    0.1825341 -39.34  0.001042843    1.619    0.382
        48 -10.0177     15.4746    237.3909   1.4451845469e+02   2.2571669033e+01    0.1459255   0.04853697  64.90 0.0005720081    3.425    0.708
