#   1 NUMBER                 Running object number                                     
#   2 MAG_AUTO               Kron-like elliptical aperture magnitude                    [mag]
#   3 X_IMAGE                Object position along x                                    [pixel]
#   4 Y_IMAGE                Object position along y                                    [pixel]
#   5 X_WORLD                Barycenter position along world x axis                     [deg]
#   6 Y_WORLD                Barycenter position along world y axis                     [deg]
#   7 A_WORLD                Profile RMS along major axis (world units)                 [deg]
#   8 B_WORLD                Profile RMS along minor axis (world units)                 [deg]
#   9 THETA_WORLD            Position angle (CCW/world-x)                               [deg]
#  10 FWHM_WORLD             FWHM assuming a gaussian core                              [deg]
#  11 ELONGATION             A_IMAGE/B_IMAGE                                           
#  12 ELLIPTICITY            1 - B_IMAGE/A_IMAGE                                       
         1 -10.2514     41.0293     13.7593   3.0138523438e+01   7.2574503788e+01    0.2401843    0.2018927  35.87 0.0002149608    1.111    0.100
         2  -9.8981     97.8455     11.7233   9.4230213202e+00   5.9387086488e+01     0.305337    0.2107397 -11.29  0.000854331    1.796    0.443
         3  -8.6845      3.4148     12.2223   5.8978253759e+01   7.8302321902e+01    0.1587363    0.1153291 -69.82 0.0009442162    1.620    0.383
         4  -8.3328     62.2733      9.6577   1.7933289765e+01   6.8492453342e+01    0.1331042    0.1004404 -64.65 0.0004133673    1.616    0.381
         5  -8.3526     65.1675      4.8533   1.4076702896e+01   6.8309159269e+01     0.181731    0.1401292  38.61   0.00102412    1.293    0.226
         6  -8.5082     52.1713      2.8713   1.7426696883e+01   7.1541981118e+01    0.1810041    0.1376125  33.47 0.0002342449    1.305    0.234
         7  -8.3968      2.9848      3.0456   5.3433565299e+01   8.0091838744e+01    0.1437164    0.1207924   1.56 0.0003243431    1.097    0.089
         8  -9.4725     67.5364      1.3803   1.1291348899e+01   6.8057153042e+01    0.2448253    0.1161386  66.42 0.0001969281    1.894    0.472
         9 -11.0339    106.2584    223.7778   6.1879214993e+01   1.4272078092e+01    0.6415706    0.4310987  39.08  0.003787568    1.235    0.190
        10  -9.4633    214.4548    250.2512   4.4465267826e+01  -2.8314309375e+00    0.1924415    0.1120497  20.40  0.001374774    1.386    0.279
        11  -9.4885    205.3484    249.8766   4.5897328428e+01  -1.8484121945e+00     0.234535    0.1112634  34.45  0.001456609    2.003    0.501
        12 -10.4306    182.1749    226.4556   4.6732684493e+01   3.7593941242e+00    0.8088177    0.3868241  48.93  0.003612197    3.770    0.735
        13 -10.5381    160.7316    246.4909   5.3353397675e+01   3.6187130879e+00    0.4538532    0.2503256 -53.92   0.00265766    2.633    0.620
        14 -10.3842    166.7529    248.3408   5.2456541222e+01   2.6532626492e+00    0.3749723    0.2664342  26.45  0.001585138    1.163    0.140
        15 -11.2545    173.6683    245.1815   5.0792768197e+01   2.2568753011e+00    0.5419225    0.4080464 -39.16  0.003954809    1.611    0.379
        16 -11.3027    166.9348    241.9743   5.1628251037e+01   3.4885330142e+00    0.4227765    0.3307116  26.57  0.001901099    1.171    0.146
        17 -10.5015    169.5511    224.9232   4.8867459096e+01   5.5742713342e+00    0.4654871    0.2555464  42.97  0.001897452    1.992    0.498
        18 -10.9385    169.6509    234.0792   5.0094456840e+01   4.2495085993e+00    0.4661089    0.4300413  56.63  0.002725962    1.583    0.368
        19 -10.9902     53.9841    248.8990   7.5566560616e+01   1.6232386928e+01    0.5117779    0.3024266  13.95  0.002128146    2.128    0.530
        20 -10.1280     34.4894    246.6087   7.9625096023e+01   1.8768399617e+01    0.5637055          nan  45.40  0.001827575    4.863    0.794
        21 -10.5196     26.8376    247.4777   8.1293569157e+01   1.9398255438e+01    0.4108953    0.2344286  71.59  0.002564246    1.687    0.407
        22  -9.3942     12.8124    244.2975   8.4155931337e+01   2.1363440403e+01    0.2562125    0.1444248  42.79 0.0008584837    1.254    0.202
        23 -11.0006      7.5854    242.5382   8.5212191385e+01   2.2181655166e+01    0.6025177    0.2916824  30.64  0.003525699    1.682    0.405
        24 -11.4469     19.1492    247.7690   8.2928870664e+01   2.0110055104e+01    0.8417053    0.3021725  53.01  0.004408143    2.044    0.511
        25 -10.2331     13.1471    250.2327   8.4257955805e+01   2.0236964639e+01    0.3589031    0.1463671  35.87  0.001148636    1.698    0.411
        26 -10.0545      4.5275    248.8545   8.6001579648e+01   2.1287283471e+01    0.3622612    0.1860647  34.98  0.002014818    1.462    0.316
        27 -10.4413    101.3520    233.4435   6.3993962668e+01   1.3200194931e+01    0.4630913    0.2734457  61.66  0.002034262    2.179    0.541
        28 -11.4175     98.7748    225.4106   6.3734777503e+01   1.4980988347e+01    0.4508553    0.4050552  19.98  0.001884309    1.164    0.141
        29 -11.7359     95.2054    217.8128   6.3737335568e+01   1.6887784556e+01    0.5702692    0.3558726  41.94  0.001834858    1.342    0.255
        30  -9.0054    154.3974    249.2122   5.4878793021e+01   4.0065816842e+00    0.1267661    0.1111932 -57.14 0.0009483637    1.641    0.391
        31  -9.2945     87.5183    248.0078   6.8327865576e+01   1.2439808019e+01     0.288912   0.08849137  42.10  0.001276376    2.484    0.597
        32 -10.7553     73.6431    244.4905   7.1026853661e+01   1.4727193600e+01    0.2524128    0.2122254  37.53  0.000595944    1.111    0.100
        33 -10.1000    240.2888    242.3076   3.9417729523e+01  -4.5115811306e+00    0.2930669    0.1333609   8.65   0.00167819    2.621    0.619
        34 -10.8054    236.9055    239.9180   3.9588687650e+01  -3.9341363841e+00    0.4090454    0.1924088  12.01  0.002079716    2.257    0.557
        35 -11.0314     98.0221    241.5641   6.5510552747e+01   1.2225862014e+01    0.4294072      0.25078  30.46  0.001008556    1.378    0.274
        36  -9.7142    250.3290    241.5838   3.7865737105e+01  -5.3687332890e+00    0.1693082    0.1138242 -24.23 0.0007242511    1.404    0.288
        37  -9.5458    221.1607    239.6017   4.1960401266e+01  -2.3234357985e+00     0.189623    0.1408814  -1.09 0.0006085139    1.041    0.040
        38  -9.1774     15.4724    237.3625   8.3368429177e+01   2.2426621931e+01    0.3435123   0.07699648  35.06  0.001510681    2.589    0.614
        39 -10.3475    231.2335    234.5774   3.9695153993e+01  -2.7877119568e+00    0.2469645    0.1784818   0.92 0.0007596478    1.024    0.024
        40 -11.3163    239.0813    230.1807   3.7888888079e+01  -3.0872404240e+00    0.4823884    0.2565347   3.75   0.00230936    1.945    0.486
        41  -9.6527    242.5461    223.9584   3.6474796505e+01  -2.7416157874e+00    0.1702672    0.1225473   2.09   0.00062941    1.087    0.080
        42 -11.7438    126.7102    221.8483   5.7158443920e+01   1.1814401260e+01    0.6083019    0.4336286 -70.70  0.001236941    1.960    0.490
        43  -9.9445    117.5621    227.7258   5.9841236466e+01   1.2046836295e+01    0.3666423    0.2083777  40.98  0.001257904    1.513    0.339
        44  -9.2092    145.0103    227.4059   5.4033571226e+01   8.4162697203e+00    0.2416405     0.156802 -26.71  0.001136431    1.841    0.457
        45  -9.6135    249.4034    226.8958   3.5916692550e+01  -3.7412267998e+00    0.2363041    0.1288568   4.31   0.00159698    1.791    0.442
        46  -9.0213    191.5629    227.0335   4.5131976868e+01   2.5332280996e+00    0.1660873    0.1230563  16.17 0.0002938314    1.116    0.104
        47  -9.5917     66.6111    223.2621   7.0932610373e+01   1.9557622715e+01    0.2955469    0.1813164  73.17  0.001159472    1.863    0.463
        48  -9.3542    157.5910    221.5128   5.0717077077e+01   7.6596865193e+00    0.2204424    0.1758676   9.45 0.0006989346    1.127    0.113
        49  -9.8511    114.7831    220.8160   5.9639835808e+01   1.3640776114e+01    0.2385579     0.211961  35.18 0.0008644105    1.075    0.069
        50  -9.5098    219.0231    219.3617   3.9387091647e+01   3.1265202984e-01    0.3768815    0.1927138  11.54   0.00210761    2.274    0.560
        51  -8.8689    213.4163    220.5250   4.0467541622e+01   8.0557064000e-01    0.2220817   0.09348056  32.73  0.001224598    2.227    0.551
        52 -10.7694    131.1592    215.1893   5.5340979555e+01   1.2349979915e+01    0.4209701    0.3214093 -70.97  0.001579022    1.779    0.438
        53  -8.8029    149.3740    219.7655   5.2129438069e+01   9.0471360827e+00    0.1781754    0.1733352 -25.24 0.0006801784    1.264    0.209
        54  -9.5698    151.7035    215.9588   5.1127061818e+01   9.3426931398e+00    0.3108365    0.1956721   7.08  0.001142061    1.915    0.478
        55 -10.4578     99.9927    217.4728   6.2594751983e+01   1.6297440951e+01     0.334288    0.1988038  41.32 0.0006633226    1.413    0.292
        56  -9.6977     75.1694    219.3132   6.8577070625e+01   1.9256897265e+01    0.2725317    0.1773688  44.00 0.0008763471    1.254    0.202
        57 -10.4972    190.4586    216.3331   4.3766190330e+01   4.1335668295e+00    0.4305546    0.2653117 -29.85  0.002594406    1.607    0.378
        58  -9.9211    176.0552    216.1909   4.6386278360e+01   6.0131524117e+00    0.2557581    0.1621106 -36.72  0.001335197    1.652    0.395
        59  -7.9367    143.6730    217.3270   5.2971215426e+01   1.0231186034e+01    0.1214428   0.09066445  56.35 0.0007050196    1.700    0.412
        60  -9.8763     23.5733    216.6969   8.0708916747e+01   2.5799455897e+01    0.4897335    0.1084742  30.03  0.001877365    3.178    0.685
        61 -10.7576     20.5335    212.4685   8.1243460938e+01   2.7004226198e+01    0.3921541    0.2637403  18.95  0.001613601    1.667    0.400
        62 -10.3589    170.7886    215.1799   4.7238204934e+01   6.8640900408e+00     0.263136    0.2079452  12.25 0.0006778237    1.090    0.083
        63  -9.8774    202.7468    211.4890   4.0882844877e+01   3.2645502799e+00    0.4473022    0.1667317 -41.06  0.002195814    2.747    0.636
        64 -10.7372    121.5130    222.9723   5.8421515760e+01   1.2333879223e+01    0.3242645    0.2760751  62.70  0.002131477    1.378    0.274
        65 -10.4964    113.4739    212.7899   5.8956057982e+01   1.5294099875e+01    0.6328233    0.3893801  11.93  0.003118556    2.086    0.521
        66  -8.9871    228.3446    214.1149   3.7129160222e+01  -8.5282696407e-02    0.1507414    0.1124162 -15.22 0.0007532193    1.119    0.106
        67  -9.2018    212.6233    199.2121   3.7285294399e+01   3.7088258272e+00     0.321642    0.1796181  21.76  0.001717256    1.828    0.453
        68 -10.5888    212.0163    208.0131   3.8787352935e+01   2.5944397866e+00    0.5052419    0.3854627 -23.51  0.003634694    1.219    0.180
        69  -9.5540    211.8232    203.3865   3.8088193826e+01   3.2398221999e+00    0.3940372    0.1653709  33.06  0.002037433    2.327    0.570
        70 -10.0702     64.3916    213.5552   7.0642591499e+01   2.1802922862e+01    0.5135964    0.2160334  43.51  0.002373401    1.893    0.472
        71  -8.1441    148.5361    211.0068   5.1076215656e+01   1.0603843860e+01    0.1496908    0.1126828  89.88 0.0005129211    2.348    0.574
        72  -9.9482    237.7541    210.1754   3.5102376636e+01  -6.4245398832e-01    0.1689527     0.133492  22.53  0.001320969    1.406    0.289
        73  -8.9738     18.5881    188.6755   8.0577898975e+01   3.2547807046e+01    0.2267631    0.1129161 -75.87 0.0005736112    2.012    0.503
        74  -9.8951     12.1942    206.7911   8.3031787269e+01   2.9038452929e+01    0.2903271    0.2499032  -9.30  0.001316367    1.628    0.386
        75 -11.5191     15.6596    197.1042   8.1757059930e+01   3.0877876532e+01    0.6581866    0.3090272 -50.30  0.001546224    3.077    0.675
        76  -9.4135    128.3376    211.7366   5.5496690889e+01   1.3363126337e+01    0.1974637    0.1551384  44.64 0.0002485313    1.241    0.194
        77  -8.2190    224.4302    205.4749   3.6395275006e+01   1.4438256711e+00    0.1096001   0.08652807  -6.95 6.554949e-05    1.035    0.034
        78  -9.0972    129.9706    201.4910   5.3714056726e+01   1.4996339976e+01    0.2743753    0.2143562  50.33  0.001611658    1.337    0.252
        79 -11.9791    179.9210    178.4728   3.9545856089e+01   1.1423561386e+01     1.747027    0.7696395 -31.14  0.007397857    2.742    0.635
        80 -11.0045    175.9635    184.9627   4.1436309902e+01   1.0944627491e+01    0.3865963    0.3116568 -70.34  0.001536522    1.865    0.464
        81 -10.0681    171.4556    201.0280   4.4955759361e+01   8.9802063539e+00    0.2816914    0.2351096 -49.17 0.0008452281    1.461    0.316
        82 -11.3476    178.9306    196.4618   4.2789274884e+01   8.6434582119e+00    0.7306987    0.4207217 -17.07  0.002696876    2.288    0.563
        83 -11.4601    172.7777    195.5141   4.3815906961e+01   9.6801889512e+00    0.5228157    0.3570734 -35.64  0.001112513    1.485    0.327
        84  -7.8076     91.2982    201.6892   6.2840882419e+01   2.0653859998e+01    0.1386573   0.09091224  58.42 0.0003734618    1.599    0.375
        85  -8.1598    250.2643    200.6576   3.1817051251e+01  -8.5664984257e-01   0.09140502    0.0741969 -35.94  0.000248139    1.599    0.374
        86  -8.8378     59.1603    200.3354   7.0775689847e+01   2.5298418308e+01    0.3483765    0.1512683  27.71  0.001497067    2.185    0.542
        87  -8.2135    113.5183    198.5380   5.7082442759e+01   1.8033692879e+01    0.2143386    0.1080383  43.39 0.0009808734    1.806    0.446
        88  -8.9680    112.7228    194.5078   5.6712183306e+01   1.8961220328e+01    0.3227459    0.2210096  -0.54  0.001010203    2.107    0.525
        89  -9.4029    105.3004    197.4646   5.8899440438e+01   1.9480066478e+01    0.2363118    0.2270544  -0.51 0.0008129667    1.159    0.137
        90  -8.6132     44.2150    198.6219   7.4480532109e+01   2.7504508539e+01     0.264621   0.09810016  34.03  0.001122525    2.146    0.534
        91  -9.7129    126.8826    196.5839   5.3700796322e+01   1.6390075210e+01    0.2993421    0.2120567  22.15  0.001206139    1.404    0.288
        92  -9.5290    124.5896    193.2658   5.3739021014e+01   1.7385113738e+01     0.260392    0.2020674 -27.49 0.0008842464    1.508    0.337
        93  -8.8520     51.0422    197.6580   7.2633809256e+01   2.6906443391e+01    0.3037632    0.1105574  29.37  0.001220334    2.441    0.590
        94  -9.0612    131.4581    194.7259   5.2385055404e+01   1.6043873942e+01    0.2152901    0.1348231 -59.33 0.0007834846    1.931    0.482
        95  -8.2328     66.7158    194.9805   6.8310864719e+01   2.5507793874e+01    0.2701931   0.09352721  54.17 0.0009064358    3.487    0.713
        96 -10.6158     93.8766    181.4785   5.9583734979e+01   2.4629713253e+01     0.483912    0.3477457 -38.20  0.001916003    1.721    0.419
        97 -12.0006     98.0826    189.0434   5.9549302295e+01   2.2330051265e+01    0.6181527    0.4023903  64.27  0.001142591    1.825    0.452
        98 -10.2980    104.0636    189.4869   5.8116418706e+01   2.1323441831e+01     0.324023    0.2297685  34.25 0.0009494961    1.270    0.212
        99  -9.0909    185.9501    190.0688   4.0418647597e+01   8.6480039940e+00    0.2178662    0.1572136  19.81 0.0009067718    1.323    0.244
       100  -9.9616    183.3351    185.6952   4.0161384888e+01   9.7246466871e+00    0.2464782    0.2218302 -59.32 0.0009777974    1.468    0.319
       101  -9.4297    203.8992    187.8520   3.6858851446e+01   6.4688137426e+00    0.2545572    0.2121535  48.70  0.001700932    1.616    0.381
       102  -9.0529    198.9480    185.4884   3.7307748975e+01   7.5077577464e+00    0.2583248    0.1119505  37.19   0.00125481    2.320    0.569
       103  -8.3922    128.6821    188.3458   5.2044383164e+01   1.7710514973e+01    0.2073614    0.1543794  64.73 0.0008902031    1.687    0.407
       104  -9.7483      1.4396    162.9723   8.4166693702e+01   4.0284336959e+01    0.8583683    0.6398053 -33.78  0.003710451    1.816    0.449
       105 -11.1761     20.0431    181.2797   7.9773657616e+01   3.4167154240e+01    0.5926951    0.4664266 -47.17  0.003476039    1.634    0.388
       106 -10.7783     10.8395    187.0200   8.2562563978e+01   3.3658011142e+01    0.4757378    0.2328643  49.43  0.001634211    1.619    0.382
       107 -12.1128     12.6557    179.8826   8.1737696638e+01   3.5195458432e+01     1.511926    0.8669533  88.98  0.007920517    1.635    0.388
       108 -10.9095      5.7142    177.0345   8.3526569547e+01   3.6484073345e+01    0.4338194    0.2926369  39.40  0.001440239    1.312    0.238
       109 -11.8411      4.2282    171.7253   8.3722497462e+01   3.7898758974e+01    0.7321479    0.5274273 -88.71  0.004312027    1.296    0.228
       110  -9.2429    165.6660    186.9437   4.3805356622e+01   1.2175827312e+01    0.1744884    0.1600071 -20.87 0.0005164791    1.120    0.107
       111  -8.2823    155.6266    187.1586   4.5906382512e+01   1.3689958790e+01    0.1799116    0.1159921 -33.38 0.0007178927    1.675    0.403
       112 -10.3015     46.9521    182.0510   7.2363262843e+01   3.1034914506e+01    0.6795836    0.2334836 -62.75  0.002595693    2.913    0.657
       113  -9.2137     48.0000    176.9732   7.1592548859e+01   3.2133322968e+01    0.2855822    0.1734969  89.97 0.0009745352    1.732    0.423
       114  -8.8492    250.0190    185.3389   2.9372082654e+01   1.0267889133e+00    0.2547916    0.1324782 -46.51  0.001430075    2.609    0.617
       115 -10.3427    226.5086    183.0333   3.2384712108e+01   4.1630000565e+00    0.2993716    0.2283325  43.90 0.0006798773    1.723    0.420
       116 -10.0057    209.6433    185.0746   3.5419273092e+01   6.0936650360e+00    0.2311283    0.1787464 -23.12  0.001208531    1.144    0.126
       117 -10.0921    214.7778    182.2363   3.4090358264e+01   5.8107541802e+00    0.4106904    0.1696213  40.52  0.001952837    2.625    0.619
       118  -9.8568    109.6850    184.6867   5.6033756253e+01   2.1463580854e+01    0.5089752    0.3008332  29.01  0.002409398    1.662    0.398
       119  -8.7118    139.5006    184.9986   4.9047975793e+01   1.6639281210e+01    0.1914612    0.1085441 -26.77 0.0008106293    2.576    0.612
       120 -10.4320    166.6220    199.1358   4.5605864424e+01   9.9810372766e+00    0.4071352    0.3121528 -14.63  0.001446435    1.338    0.253
       121 -11.6646    204.2152    175.6675   3.4682464200e+01   8.2507864896e+00     0.626904    0.4617237   8.02  0.003879931    1.388    0.280
       122 -11.1186    149.8250    163.8657   4.3037901608e+01   1.9014989267e+01    0.7526575    0.3710364 -36.70  0.003154106    2.332    0.571
       123 -11.1554    150.3187    174.5447   4.4877492151e+01   1.6871093622e+01    0.6158079    0.5267988  22.90  0.002973786    1.117    0.105
       124  -9.7478    104.3035    179.5168   5.6613126219e+01   2.3428658496e+01    0.3330836    0.2226406 -58.38  0.001398394    1.631    0.387
       125  -9.6728    100.9956    177.7808   5.7201605038e+01   2.4337695926e+01    0.2846684      0.15497  26.06  0.001179478    2.008    0.502
       126 -11.3152    207.3865    167.8381   3.2734409886e+01   8.9866349089e+00     0.537051    0.3630106 -22.13  0.003112246    1.414    0.293
       127  -9.4413     70.7856    178.2442   6.5352317902e+01   2.8800932676e+01    0.3001785    0.2547826 -61.16 0.0009393961    1.308    0.236
       128  -8.8660    240.3395    177.7366   2.9440287782e+01   3.1409595005e+00    0.1893407    0.1122046 -32.48  0.000856764    1.420    0.296
       129  -8.4205    219.3916    178.1496   3.2643959500e+01   5.7752809949e+00    0.1550482    0.0984675 -41.71   0.00052758    1.612    0.380
       130  -9.5740    138.3124    179.8103   4.8456528420e+01   1.7835667821e+01     0.285988    0.2532521  72.32  0.001682571    1.340    0.254
       131  -8.8945     89.1678    177.2689   6.0233973300e+01   2.6306044510e+01    0.2679325    0.1714952  73.75   0.00121167    2.000    0.500
       132  -8.7834    118.0695    175.9789   5.2609186254e+01   2.1954764963e+01     0.204228    0.1967973  22.98 0.0004872476    1.063    0.060
       133  -8.3595     77.2937    175.6377   6.3230478426e+01   2.8475470754e+01    0.1535911   0.09816097  64.59  0.000703003    1.706    0.414
       134  -8.3375     31.3168    166.3454   7.5486935380e+01   3.6705738325e+01    0.3469802    0.1976627 -72.91  0.001301249    1.730    0.422
       135  -9.9758     30.8023    172.2648   7.6115391519e+01   3.5277290505e+01    0.4705545    0.2764691 -40.19  0.001267542    2.459    0.593
       136 -10.0683     24.3243    174.3529   7.8134328504e+01   3.5433089743e+01    0.3189101    0.1815985  61.03  0.001308912    1.559    0.359
       137  -9.7805     19.9736    168.0008   7.8972698165e+01   3.7440762786e+01    0.5203077    0.1729269  72.01  0.001709704    3.803    0.737
       138  -9.2591     91.9852    172.4256   5.8779256967e+01   2.6979780271e+01    0.3982633    0.2034742  38.00  0.000907747    1.753    0.429
       139  -8.4073     88.0205    173.0000   5.9934661609e+01   2.7468200088e+01    0.2253435    0.1796869  53.50 0.0008936382    1.164    0.141
       140  -8.2330    223.6611    172.2710   3.0944349922e+01   6.0366404248e+00    0.1003579    0.0927018 -64.97 0.0001921431    1.604    0.376
       141  -9.1302    193.5179    172.3728   3.5945803801e+01   1.0346115723e+01    0.2019345    0.1360894  13.82  0.000711894    1.685    0.407
       142  -8.7948    176.6928    171.3732   3.8885554204e+01   1.3134908721e+01    0.2313131    0.1561533 -52.39 0.0008267525    1.727    0.421
       143  -8.2992    179.6754    169.6852   3.8002869716e+01   1.2947860413e+01    0.2066387    0.1449499   6.99 0.0003797225    1.698    0.411
       144  -9.1466    176.7975    167.4399   3.8138161324e+01   1.3799660886e+01    0.2586561    0.2370247   4.41 0.0006985837    1.031    0.030
       145  -9.2026    112.4942    179.6145   5.4566965465e+01   2.2092524022e+01    0.2789483    0.1632404  32.10  0.001297929    1.625    0.385
       146  -8.7072    121.4084    169.7674   5.0748070057e+01   2.2717738301e+01    0.2681976    0.1989493  89.80  0.001183324    1.833    0.455
       147  -9.6829    199.9309    167.2690   3.3887179401e+01   1.0188202392e+01    0.3233398    0.2065307  -2.59  0.000556927    2.071    0.517
       148  -7.8694     55.3240    169.6746   6.8725493828e+01   3.2993932650e+01    0.1571608   0.09233386  60.07 0.0007048498    1.689    0.408
       149  -9.2718    160.3962    166.5114   4.1263560019e+01   1.6693558228e+01    0.4476655    0.2364089 -59.38  0.001645878    2.792    0.642
       150 -11.4712    249.6348    156.3537   2.4421049582e+01   4.8023295739e+00    0.9255021    0.2274876 -37.79  0.003845048    3.273    0.695
       151  -8.7277    138.7047    164.7708   4.5719156853e+01   2.0774153675e+01    0.2602673    0.1735205 -76.71  0.001058043    2.383    0.580
       152  -9.0141     97.5849    164.7936   5.6080906367e+01   2.7842965301e+01    0.3377531    0.2174602  72.52  0.001465116    2.074    0.518
       153  -9.1318     28.6721    169.6797   7.6536348987e+01   3.6147800058e+01    0.2742637      0.26209  57.86 0.0008558976    1.184    0.155
       154 -10.7611    218.0636    165.3952   3.0569370449e+01   7.8091193198e+00    0.4292625    0.3124666  27.44  0.002221316    1.447    0.309
       155  -7.9038     74.6068    163.2610   6.2296817219e+01   3.1855836908e+01    0.1603049   0.09657724  57.05 0.0006971757    1.703    0.413
       156 -10.4394     99.8592    158.1785   5.4353701977e+01   2.9006877680e+01    0.5983215    0.3008676 -61.13  0.002438942    2.160    0.537
       157 -10.2474     23.0972    159.9658   7.7465861034e+01   3.9177094714e+01    0.3988961    0.3086026  10.58  0.001641235    1.572    0.364
       158  -8.2879     92.4778    160.0039   5.6704417297e+01   2.9815775004e+01    0.2057005    0.1256122  85.03 0.0008084917    2.450    0.592
       159  -8.9505    220.0602    159.0862   2.9094439293e+01   8.4562784270e+00    0.1734594    0.1469161 -65.68  0.001125547    1.704    0.413
       160  -8.5378    156.5132    159.4795   4.0748945937e+01   1.8696173189e+01    0.1347493    0.1314327  12.30 0.0003131646    1.047    0.045
       161 -10.1683    142.7085    158.5534   4.3626346810e+01   2.1331831300e+01    0.6568236    0.2281553  44.98  0.002308793    2.930    0.659
       162  -9.1777    105.0325    157.4886   5.2826660496e+01   2.8276743524e+01    0.2649328    0.2046187 -89.32 0.0006925412    1.528    0.346
       163  -9.1810    225.0441    157.4996   2.8047095999e+01   7.9727621466e+00    0.1591769    0.1155279  36.37 0.0005789506    1.545    0.353
       164  -9.5639    208.3613    156.6565   3.0480820621e+01   1.0572226067e+01    0.2512152    0.2186454 -10.30  0.001095709    1.052    0.049
       165 -11.4595    206.1026    150.1176   2.9583237451e+01   1.1957972849e+01    0.6073527    0.4541507 -55.60  0.003565995    1.629    0.386
       166  -9.8156    206.7811    142.4326   2.7947955730e+01   1.3078696402e+01    0.3003095    0.2357632 -13.80   0.00101273    1.292    0.226
       167  -8.8703    166.3670    156.9278   3.8194352714e+01   1.7451295092e+01    0.3182165    0.1736267  49.55  0.001442551    2.064    0.515
       168  -8.7836    127.6259    156.7811   4.6868114494e+01   2.4419279947e+01    0.2159415    0.1770451 -32.50 0.0005662274    1.349    0.258
       169 -10.2110    134.5924    153.7667   4.4596158182e+01   2.3796298287e+01    0.5405692    0.3604588  63.17  0.001771081    1.942    0.485
       170  -8.8379    133.9835    147.4960   4.3490183635e+01   2.5244888962e+01    0.2433814    0.1825157   0.84  0.001133041    1.859    0.462
       171  -8.5859    119.7102    155.1324   4.8540119638e+01   2.6209633867e+01    0.2467808    0.1546053  75.44 0.0009432448    2.740    0.635
       172  -9.5066     68.6067    154.0629   6.2743962611e+01   3.5052221792e+01    0.4070878    0.2372426  68.26  0.001306871    2.065    0.516
       173  -8.3060     49.7637    155.1514   6.8706133075e+01   3.7396087567e+01    0.2735427    0.1169148  60.48 0.0009533167    2.869    0.651
       174  -8.8037    195.1643    153.8219   3.2151956929e+01   1.3118850289e+01    0.1814523    0.1415315  -9.23 0.0009403483    1.342    0.255
       175  -9.6287    158.0777    177.1570   4.3680376363e+01   1.5110620607e+01    0.3464051     0.248191 -37.87  0.001695895    1.428    0.300
       176  -9.1792     81.8291    154.3394   5.8831709842e+01   3.2931119996e+01    0.2450465    0.1645725  54.47 0.0007313807    1.466    0.318
       177  -9.8929      5.0657    151.8055   8.2546371769e+01   4.2847936441e+01     0.428962    0.1762253  51.64  0.001258817    2.088    0.521
       178 -10.7018    223.1712    148.6376   2.6649184725e+01   9.5535678882e+00    0.4228456    0.3638345 -10.98  0.002182542    1.090    0.082
       179  -8.7781    189.7499    150.5053   3.2451092114e+01   1.4574570003e+01     0.224759    0.1283238  48.25  0.001106568    1.979    0.495
       180 -10.0392    118.5060    144.7300   4.6819297262e+01   2.8770762444e+01     1.033997    0.5911347  66.82  0.003749294    2.891    0.654
       181  -9.3537    108.4816    138.7150   4.8289590639e+01   3.2052924409e+01    0.5070317    0.2899934  66.25  0.001848812    2.675    0.626
       182  -8.8863     27.9173    148.8898   7.5007981869e+01   4.1573271779e+01    0.3854586    0.1500715  66.00  0.001328979    3.126    0.680
       183  -8.4223     82.5296    149.4835   5.7820371236e+01   3.4023242154e+01     0.147951    0.1423446  59.81 6.875811e-05    1.076    0.071
       184  -8.7632     77.0682    147.3931   5.9116809859e+01   3.5433866955e+01    0.2509128    0.2087263 -56.93  0.001238316    1.275    0.216
       185  -9.8226     70.0481    143.4116   6.0638491068e+01   3.7557968925e+01    0.7393639    0.3669489 -54.37  0.002984547    2.078    0.519
       186  -9.3340     39.5133    147.3369   7.1061041895e+01   4.0703820839e+01    0.4523882     0.181746  60.40  0.001555162    3.026    0.669
       187  -9.5273    244.4842    146.5012   2.3291774762e+01   6.8154517838e+00    0.2031909    0.1283357 -27.54 0.0007800545    1.309    0.236
       188  -9.8635    244.6706    142.7587   2.2569673778e+01   7.3058219123e+00    0.2329094    0.2204748  -7.28   0.00180474    1.251    0.201
       189  -8.5416    195.3966    146.1505   3.0586852366e+01   1.4359768540e+01    0.1849654    0.1123933 -48.21 0.0004606209    1.705    0.414
       190  -9.5218    148.8527    144.9545   3.9507045385e+01   2.2967825858e+01    0.4496242    0.3000539  85.09  0.001796856    2.861    0.650
       191  -9.3010    106.8592    144.7764   4.9957321542e+01   3.0924597458e+01    0.4574701    0.2694612  77.18  0.001580033    3.211    0.689
       192  -9.7606     55.8419    145.0608   6.5444176723e+01   3.9213349868e+01     0.498285    0.2220615  51.97  0.001809168    2.325    0.570
       193  -9.0879     61.9976    145.0000   6.3451849983e+01   3.8355936700e+01    0.4330553    0.1465454  30.98  0.001449821    2.888    0.654
       194  -8.0720     13.4859    146.4470   7.9520235433e+01   4.3569015268e+01    0.1426886    0.1152547  65.71 4.561249e-05    1.065    0.061
       195  -9.0191    189.3965    145.0851   3.1420481450e+01   1.5563369628e+01    0.2674695    0.1891062  65.59  0.001378277    2.039    0.509
       196  -9.0495    125.1712    142.9868   4.4745484047e+01   2.7900017043e+01    0.3789517     0.232994 -77.59  0.001442075    2.707    0.631
       197  -8.4903     87.8645    143.7054   5.5209677954e+01   3.4566521107e+01    0.2904153    0.1889722  79.31 0.0007431426    2.039    0.509
       198  -8.9371      3.1524    142.8674   8.2688651702e+01   4.5308195484e+01    0.2214661     0.150753  61.18  0.001084849    1.276    0.216
       199  -9.8441    192.7970    133.8223   2.8484162585e+01   1.6900986087e+01    0.2386786    0.1951262  60.82  0.001390699    1.468    0.319
       200 -10.7854    197.6163    136.3916   2.8209544957e+01   1.5616775553e+01    0.5054913    0.3664533   8.79  0.002722146    1.789    0.441
       201  -9.4580    202.6760    136.2926   2.7357181700e+01   1.4762305285e+01     0.222189    0.2034469   4.73 0.0004704395    1.138    0.121
       202  -9.1242     23.7450    138.4552   7.5414090930e+01   4.4762305763e+01    0.4322724    0.1582084  60.16  0.001476169    3.145    0.682
       203 -10.2442    246.1471    135.9843   2.1105455622e+01   8.0365990241e+00    0.3310932    0.2475043 -19.41  0.002263544    1.209    0.173
       204  -8.5555    161.7850    137.6240   3.5158225600e+01   2.1962997820e+01    0.2741606    0.1691007 -33.85  0.001263841    1.725    0.420
       205 -10.3064     41.5649    134.8959   6.8828137443e+01   4.3775612159e+01    0.6893597    0.4059616 -73.70  0.002310943    1.640    0.390
       206 -10.7278     45.4873    130.7816   6.6875302272e+01   4.4393860024e+01    0.9648557    0.4496597  89.85   0.00336987    2.911    0.656
       207  -9.0980    234.5472    136.4132   2.2686581606e+01   9.6546292584e+00    0.2167228    0.1674287 -32.17 0.0006599918    1.067    0.063
       208  -8.5607     90.8434    135.9751   5.2840827974e+01   3.5967357390e+01     0.305844    0.1992827  10.13    0.0011781    2.547    0.607
       209  -9.9109     16.7215    134.7118   7.7509773830e+01   4.6408468401e+01    0.2451481    0.1978775  70.02 0.0002293043    1.093    0.085
       210  -9.7221     13.3526    129.7936   7.8285305434e+01   4.8010701037e+01    0.4686486    0.1719925  54.57  0.001747238    2.713    0.631
       211  -8.2662      4.3696    134.3053   8.1784879551e+01   4.7477578574e+01    0.1388192   0.09434864 -44.17 0.0007034147    1.754    0.430
       212  -8.7512    121.8946    112.1938   3.8542328004e+01   3.5483192753e+01    0.2755332    0.2630889   7.03 0.0007092766    1.198    0.165
       213  -9.9931    118.9219    118.1128   4.0801192322e+01   3.4774189103e+01    0.6097237    0.2679327 -46.14  0.002191252    2.319    0.569
       214  -9.9820    117.5954    125.2937   4.2858825600e+01   3.3401849437e+01    0.8065754    0.4171232  36.16  0.002851765    2.129    0.530
       215  -9.6342    110.4115    131.7076   4.6267414771e+01   3.3336104101e+01    0.5899737    0.5097379  41.15  0.003039208    1.159    0.137
       216  -9.2580    113.8166    121.1065   4.2911842291e+01   3.5139955711e+01      0.34723    0.2905698 -82.51  0.001035328    1.291    0.226
       217 -11.1871    107.3043    113.7566   4.2976832548e+01   3.8201949100e+01     1.159395    0.7748035 -43.88  0.005112465    1.589    0.371
       218  -9.8417    104.6778    123.5097   4.6064390848e+01   3.6411153735e+01    0.4011188    0.2715127  35.06  0.001134291    1.569    0.363
       219  -9.4964    109.4447    120.9936   4.4110504350e+01   3.6055953468e+01    0.4540296    0.2525398 -54.03 0.0008919217    1.824    0.452
       220  -9.5235     83.6319    131.9544   5.4265165441e+01   3.8254350333e+01    0.4273363    0.2508891  66.29   0.00142445    2.257    0.557
       221  -9.3928    131.7291    130.8214   4.0470003995e+01   2.9300494242e+01    0.4220413    0.2637644 -69.92  0.001515028    2.231    0.552
       222  -9.8706     24.1807    128.5195   7.4242430716e+01   4.7397798871e+01    0.6547664    0.2617476 -51.22  0.002452608    2.776    0.640
       223  -8.9549     31.4725    113.5518   6.9565171487e+01   5.0732537878e+01    0.2695713    0.2099069 -24.91   0.00136358    1.602    0.376
       224  -9.9897     28.4321    122.7993   7.2000047074e+01   4.8529579326e+01    0.5765271    0.3314892  67.43  0.002548711    1.827    0.453
       225  -8.7542     28.5090    117.5162   7.1284519487e+01   4.9962290354e+01     0.221508    0.1212582 -62.00 0.0008629413    1.723    0.420
       226  -8.2055    143.2835    131.6253   3.7887452667e+01   2.6804409960e+01     0.151763    0.1160005 -83.24 0.0007014732    1.711    0.416
       227  -9.3961    246.9327    128.8462   1.9645280690e+01   8.9139890088e+00    0.3144254    0.1418097 -52.71  0.001378619    3.341    0.701
       228  -9.5527     99.4990    128.2742   4.8648332132e+01   3.6264894080e+01    0.4971918    0.2989922  88.07  0.001725184    3.000    0.667
       229  -8.6396    153.2148    129.2230   3.5118467642e+01   2.5305052963e+01    0.2033384    0.1695367 -75.52  0.000587481    1.385    0.278
       230  -9.5493    209.5768    131.8174   2.5343252098e+01   1.4317147417e+01     0.225775     0.222126 -38.14  0.001037639    1.166    0.142
       231  -9.7586    230.3049    126.3242   2.1258361930e+01   1.1780061578e+01    0.2565344    0.2068229  33.56 0.0006456328    1.462    0.316
       232 -10.7465    226.6945    124.3501   2.1342155715e+01   1.2649204231e+01    0.6374553    0.4099013  83.10  0.003040223    3.304    0.697
       233  -9.4694    193.0249    126.5745   2.6890080825e+01   1.8102425643e+01    0.2796068    0.1705989  29.28  0.001320987    2.189    0.543
       234  -8.5036    241.9830    125.9751   1.9693520315e+01   1.0041569199e+01     0.144807    0.1155827 -31.14 0.0005699842    1.001    0.001
       235  -9.6868     60.0046    124.4785   6.0708218228e+01   4.4065670174e+01    0.6637789    0.3226534  69.76  0.002069458    3.603    0.722
       236  -8.1069    197.8083    125.3595   2.5835955417e+01   1.7436846975e+01    0.1668676    0.1220135  34.28   0.00035689    1.574    0.365
       237  -9.4087    134.0795    124.4617   3.8430898136e+01   3.0206573645e+01    0.4070203    0.2501936  21.63  0.001489697    2.680    0.627
       238  -9.9197     44.4055    123.2950   6.6124086573e+01   4.6554826246e+01     0.653832    0.3036431  63.90  0.002076277    2.915    0.657
       239  -8.7656    179.6862    123.4444   2.8530708982e+01   2.1171021308e+01    0.2909906    0.1662548 -38.72   0.00135718    1.643    0.391
       240  -9.0419    150.5938    124.1368   3.4522707180e+01   2.6867006684e+01    0.2621624    0.2016519  59.41 0.0008094746    1.403    0.287
       241  -8.5128     84.0081    122.0146   5.2079778870e+01   4.0712753073e+01     0.234363    0.1932063 -17.67 0.0005970171    1.604    0.377
       242  -8.0869    189.3163    121.3181   2.6360182475e+01   1.9702268401e+01    0.1355829    0.1048399  -1.47 0.0007039266    1.654    0.395
       243  -8.1616    158.5212    121.5113   3.2210619673e+01   2.5765306825e+01    0.1464972    0.1361413 -70.08 0.0001364141    1.099    0.090
       244  -9.2217    142.2558    119.5278   3.5314065015e+01   2.9552749273e+01    0.3699845     0.248995 -73.78  0.001419345    2.074    0.518
       245 -11.1228     15.4152    113.8926   7.5988860487e+01   5.2151642737e+01      0.88438    0.4540846 -70.46  0.003291909    1.751    0.429
       246  -9.5700     35.3498    101.6078   6.6017395293e+01   5.3548923697e+01    0.3042389    0.2436146  62.91 0.0009494239    1.245    0.197
       247 -10.0472     22.3523    110.0170   7.2733692442e+01   5.2609597818e+01    0.4870772    0.2636831  88.49  0.001822147    1.918    0.479
       248 -12.1956     19.2545    103.6200   7.3172214879e+01   5.4629485052e+01     1.124895    0.6776534  27.18  0.002835893    1.719    0.418
       249  -8.6337    181.7829    119.1863   2.7189018050e+01   2.1529694841e+01    0.1941737    0.1615413 -11.76  0.001070424    1.371    0.271
       250  -8.8723    130.9763    118.4756   3.7768780506e+01   3.2158119884e+01    0.3158464    0.1890545 -80.98  0.001028427    3.507    0.715
       251  -9.4145      2.4858    116.2798   8.1273679808e+01   5.2416805053e+01     0.536647    0.1932643  71.38  0.001917103    3.061    0.673
       252 -10.0292    185.0231    113.9379   2.5419741882e+01   2.1825791895e+01    0.3563276    0.2959715  75.02  0.001607856    1.413    0.292
       253  -9.4474     92.8169    112.6584   4.7100379615e+01   4.1391902334e+01     0.465265    0.2952125  89.15  0.001459824    2.452    0.592
       254  -9.3122     79.0103    112.1130   5.1514638483e+01   4.4143155513e+01    0.4961587    0.2907794  88.85  0.001718412    2.886    0.654
       255  -8.5735     67.0054    110.8549   5.5457500491e+01   4.6560974090e+01    0.2719311    0.1584106  59.98 0.0006714813    2.035    0.509
       256  -9.1746    185.0869    109.0670   2.4276188769e+01   2.2669526067e+01    0.5905004    0.1978576  44.36  0.002043676    3.633    0.725
       257  -9.5199    133.5807    107.9251   3.4485186916e+01   3.3875902269e+01    0.4852449    0.1812224 -41.75   0.00160362    2.803    0.643
       258 -11.1659    133.4443    101.7697   3.2902997485e+01   3.5210888381e+01    0.8568336    0.4402671  34.04  0.003000445    2.879    0.653
       259 -10.3630     28.9177     99.5878   6.8411183974e+01   5.4806184339e+01    0.6535914    0.2867014  56.34  0.002369392    2.806    0.644
       260 -10.8601    250.0011    103.6095   1.4344119285e+01   1.1947891943e+01    0.7293521    0.1730127 -32.74  0.002595691    3.915    0.745
       261  -8.1018     59.3067    109.6357   5.8038680555e+01   4.8121477207e+01     0.166377    0.1115904  71.26 0.0003324511    1.743    0.426
       262  -9.6776     61.8151    105.9561   5.6287120603e+01   4.8696343798e+01     0.269543    0.2197652  40.62 0.0006862537    1.232    0.188
       263 -10.0902     45.8765    102.2244   6.1759586866e+01   5.2056789043e+01    0.8379513    0.3598757  61.99  0.002426729    4.262    0.765
       264  -8.7378    150.3641    103.7084   2.9561368933e+01   3.1034638735e+01    0.2932695    0.1320095 -47.92 0.0008752908    2.187    0.543
       265  -8.3568    139.7758    104.5910   3.2148600872e+01   3.3206217943e+01       0.2124    0.1435539  64.08 0.0006269313    1.658    0.397
       266  -8.7017     93.8037    103.4269   4.4450950442e+01   4.3448600640e+01    0.3638878    0.1544977  33.51  0.001145072    3.097    0.677
       267 -11.1424     23.5419     92.4932   6.9593663756e+01   5.7259429033e+01    0.5809166    0.4473566 -89.78  0.001837393    1.259    0.206
       268  -9.8092    108.7725     98.3908   3.8520567520e+01   4.1456775649e+01    0.5998023    0.3928674  83.48  0.001908929    2.338    0.572
       269  -8.5452     95.0226     96.9191   4.2300304688e+01   4.4754232992e+01    0.2516478    0.1866305  84.02 0.0005770766    1.658    0.397
       270  -9.4889     64.0773     96.1057   5.3061405912e+01   5.0884887126e+01    0.4902333    0.2701196  67.99  0.001690252    2.923    0.658
       271  -8.6764     40.6771    108.1687   6.5010422138e+01   5.1129090526e+01    0.2989661    0.1354601 -79.48  0.001066662    2.578    0.612
       272  -9.1189    117.9664     93.0000   3.4429769136e+01   4.0596065243e+01    0.4288743   0.08834075  48.39  0.001042639    4.856    0.794
       273  -8.4064     82.2324     99.8160   4.7351749745e+01   4.6636041369e+01    0.2654245    0.1626395  79.42 0.0007553988    2.708    0.631
       274  -9.3873     45.0325     91.6624   5.9814219330e+01   5.4983129576e+01    0.5000052    0.2297202  18.63  0.001734194    3.086    0.676
       275  -9.7026      4.8842     91.5949   7.8061733789e+01   5.8918185425e+01    0.4641604   0.09401909  45.77  0.001293545    5.305    0.811
       276  -8.9148    124.5128     90.8160   3.2087327774e+01   3.9556958918e+01    0.3110301    0.2365356 -87.77  0.000928113    1.560    0.359
       277  -8.0947     57.6810     91.7157   5.4492137642e+01   5.3074944859e+01    0.1498068    0.1194934 -22.51 0.0002383349    1.589    0.371
       278  -9.7141     34.8633     89.4048   6.3832041467e+01   5.6883942535e+01    0.4967361    0.2736833  84.37  0.001931322    2.472    0.595
       279  -9.1976     86.6719     86.5758   4.2080683161e+01   4.8941784148e+01    0.3916333    0.2422326  76.20  0.001194645    2.615    0.618
       280  -9.2786     48.3148     83.9482   5.6466871535e+01   5.6524580896e+01    0.3894249    0.2249413  60.39  0.001386896    2.215    0.549
       281  -9.8073      7.8384     84.1437   7.5750198907e+01   6.0732770792e+01     0.317997    0.2165853 -55.48  0.001302379    1.387    0.279
       282  -9.5756      8.3574     80.7097   7.5013858777e+01   6.1612560169e+01    0.2333667    0.1872773  42.82  0.001004131    1.305    0.234
       283  -8.8735    185.4207     82.9790   1.7862467495e+01   2.7061519618e+01    0.2501221    0.1886851  43.68 0.0007741457    1.591    0.371
       284  -8.8227    116.9124     83.0391   3.1773421852e+01   4.2961460243e+01    0.2298184    0.2172703 -79.65 0.0002966053    1.023    0.023
       285  -8.8664    104.7888     82.9944   3.5181110661e+01   4.5782561741e+01    0.2640614    0.1754765 -75.17 0.0006442537    2.023    0.506
       286  -9.5178     24.5347     80.5812   6.6884554682e+01   6.0342283466e+01    0.4035864    0.2337817  71.07   0.00126519    2.174    0.540
       287  -9.4642     37.0843     80.6952   6.0805397189e+01   5.8904288393e+01    0.4117186    0.2278112   4.00  0.001544869    2.943    0.660
       288  -9.6731    175.7309     78.3104   1.8155679951e+01   2.9984569945e+01    0.4071899    0.2718684 -84.51  0.001262329    1.885    0.469
       289  -8.9596     49.4441     76.8435   5.3993578433e+01   5.8156637998e+01     0.290133    0.2059399   6.00  0.001048429    1.921    0.479
       290  -8.2827    128.3027     75.6451   2.6624668174e+01   4.1724362489e+01    0.1646354    0.1155659 -74.66 0.0007039224    1.709    0.415
       291  -8.1639     13.6931     74.2798   7.1206018116e+01   6.2939504423e+01    0.1768087    0.1160131  17.93 0.0002121516    1.656    0.396
       292  -9.5707     10.0183     74.1018   7.3123981008e+01   6.3246254517e+01    0.2129079    0.1982714 -71.26 0.0003644166    1.023    0.023
       293  -8.9026    195.7642     73.1059   1.3932626457e+01   2.6412620597e+01    0.2360298    0.1797232 -20.27 0.0007412581    1.558    0.358
       294  -9.0104     82.4709     72.4769   3.9059534328e+01   5.3051001395e+01    0.3335677    0.2244519 -89.72 0.0009607239    2.263    0.558
       295  -9.0385    177.5272     71.1280   1.5972855689e+01   3.0761008190e+01    0.2806768    0.2188749  19.27  0.001412575    1.902    0.474
       296  -9.7348     28.0030     71.0001   6.2921776018e+01   6.2473402330e+01    0.4702981    0.2306133 -21.68  0.001550394    3.983    0.749
       297  -9.2030      5.4907     71.9658   7.5209037208e+01   6.4082988250e+01    0.1973332   0.09725696  71.63 0.0008090937    2.466    0.594
       298  -9.1729     51.4719     69.2985   5.0742291417e+01   5.9687868945e+01    0.4560111     0.244381 -80.89     0.001398    3.799    0.737
       299  -8.6501     16.6434     70.2983   6.8839324738e+01   6.3743726729e+01    0.2227755    0.1475865  63.36    0.0010905    1.721    0.419
       300  -8.3086    129.3386     69.3008   2.4396067180e+01   4.2674695065e+01    0.1512317    0.1227875  23.10 0.0007036366    1.666    0.400
       301  -9.1378      1.4675     68.9911   7.6974551690e+01   6.5064284537e+01    0.2068002    0.1180758 -74.70 0.0005598603    1.557    0.358
       302  -8.7938     37.4468     64.1935   5.6034851535e+01   6.3022895774e+01     0.200292    0.1367921 -76.64 0.0007352559    1.670    0.401
       303  -8.0902    110.2994     63.6490   2.7261312768e+01   4.8433245285e+01    0.1631461    0.1163335 -75.89 0.0007036948    1.692    0.409
       304  -8.5624     84.7831     63.4057   3.5043682754e+01   5.4494079559e+01    0.2232697    0.1415578  38.42 0.0008613179    1.742    0.426
       305  -9.8833     18.4187     61.6075   6.5838889438e+01   6.5809169037e+01    0.3260663    0.2265788 -34.26 0.0009723093    1.522    0.343
       306  -8.0085    164.6777     59.6945   1.4766359592e+01   3.5616398998e+01    0.1379723    0.1145648  26.34 0.0003790855    1.639    0.390
       307  -8.2853    111.3223     58.2902   2.5111562775e+01   4.9178172075e+01    0.1498917    0.1212756  25.58 0.0002692821    1.607    0.378
       308  -9.1148     38.9570     57.6304   5.3058279572e+01   6.4384602722e+01     0.258368    0.1878922 -43.84   0.00131294    1.374    0.272
       309  -9.9615      7.6747     57.5476   7.1333286182e+01   6.7648958169e+01    0.2284681    0.1511027  76.56 0.0009192438    1.737    0.424
       310 -10.1743      2.3576     56.2658   7.4383577421e+01   6.8269306534e+01    0.4060808    0.2155773 -75.49   0.00139059    1.740    0.425
       311  -8.6123     63.0049     54.9354   4.0309649577e+01   6.0863712165e+01    0.2338397    0.1803918  89.42 0.0006025917    1.684    0.406
       312  -8.6679     43.8371     55.0154   4.9523622464e+01   6.4255361857e+01    0.2391899    0.1681458  87.10  0.001078694    2.083    0.520
       313  -9.1316     73.4875     59.6658   3.7825979423e+01   5.7728850754e+01    0.3141667    0.2282308 -80.74 0.0008021579    1.833    0.454
       314  -8.1827    100.5154     54.4643   2.6685395809e+01   5.2543548754e+01    0.1519916    0.1440425  77.34  7.72256e-05    1.033    0.032
       315  -8.2524     54.4151     54.1701   4.3916765831e+01   6.2652354444e+01    0.2054024    0.1383197 -63.80 0.0006524743    1.707    0.414
       316  -8.7271     92.5326     50.5723   2.7580389362e+01   5.5188504875e+01    0.2717864    0.1322742 -50.61  0.000894609    2.275    0.560
       317  -8.5515    250.0145     55.0000   4.3812944210e+00   1.8403219411e+01     0.159712   0.06630723  70.14 0.0008036423    2.951    0.661
       318 -11.1949     45.5693     48.8816   4.6197033988e+01   6.5335199527e+01    0.2964674    0.2593286 -44.71 0.0004684193    1.135    0.119
       319  -8.9680     22.6836     46.6824   5.8736507506e+01   6.9008234190e+01    0.2761832    0.1644776   5.38  0.001271743    2.124    0.529
       320  -8.4344     64.8200     46.3906   3.5963196630e+01   6.2228202632e+01    0.2184376    0.1322418  35.92 0.0009511845    1.816    0.449
       321  -8.6021      1.4809     45.9502   7.2859204902e+01   7.0862386876e+01    0.1853535    0.1158966 -69.73 0.0003341929    1.454    0.312
       322  -7.8926    130.5195     45.5308   1.6248452291e+01   4.6428903098e+01    0.1488432    0.1375897 -89.39 0.0003235698    1.048    0.046
       323  -8.3323     81.8429     46.8300   2.9576811030e+01   5.8394027741e+01    0.2005698    0.1700092 -77.88 0.0004071307    1.291    0.225
       324  -9.8667     16.7012     44.1082   6.1793462096e+01   7.0217236604e+01    0.4004795    0.1969224 -81.39  0.001557542    3.101    0.677
       325  -9.9269      5.0135     40.9187   6.9066645726e+01   7.1877403156e+01    0.5730074    0.2316634 -87.44  0.001983999    4.112    0.757
       326  -9.8471      6.7038     33.2577   6.5374501187e+01   7.3546495701e+01    0.3053964    0.1907595 -22.26  0.001430214    1.710    0.415
       327  -8.8953    113.9709     41.1112   1.8143979600e+01   5.1389802633e+01    0.2202561    0.2042073  72.27 0.0003785045    1.075    0.070
       328  -8.1459     69.4501     41.4872   3.1869670943e+01   6.2158727735e+01    0.1457753    0.1361664  85.51 0.0001060198    1.111    0.100
       329  -8.7869    123.5360     40.0430   1.5693809730e+01   4.9069569259e+01    0.2213365    0.1850251  73.41 0.0003600767    1.126    0.112
       330  -8.4418     84.2400     39.5876   2.5663130115e+01   5.9086673138e+01    0.2107485    0.1298194  46.01 0.0007441458    1.632    0.387
       331  -8.4436    106.4832     36.5388   1.8116865739e+01   5.4010562369e+01    0.1478038    0.1371669  71.70 -1.987567e-06    1.060    0.057
       332  -8.8132     26.0902     36.1271   5.2261844166e+01   7.0961276590e+01    0.2046811    0.1625076  73.00  0.001117162    1.677    0.404
       333  -8.3876    119.4826     33.4925   1.4081255961e+01   5.1067523507e+01    0.1504695    0.1317558 -81.39 0.0001384181    1.060    0.057
       334  -8.9275    222.4848     32.4748   1.4399539267e+00   2.6391230990e+01    0.1259698   0.09857335 -54.59  0.000175283    1.020    0.020
       335  -8.0616     60.5404     32.5291   3.1319037722e+01   6.5649303116e+01    0.1393175    0.1332671  73.26 0.0001505419    1.085    0.079
       336  -8.5286     49.3840     32.6924   3.6701492822e+01   6.7876330349e+01    0.1415381    0.1100155  82.48 0.0007020867    1.799    0.444
       337  -8.7517     12.6286     30.8002   5.9739434111e+01   7.3609755665e+01    0.1745609    0.1200733 -73.32 0.0005316137    1.671    0.402
       338  -9.0454    147.9973     28.5011   7.6270082868e+00   4.4276347862e+01    0.2204686    0.1304572  72.15   0.00103385    1.598    0.374
       339  -8.0839     81.6547     27.3490   2.0895162128e+01   6.1597865115e+01    0.1531132     0.107245 -72.99 0.0007042167    1.808    0.447
       340  -8.0303     91.6766     26.3478   1.7534090010e+01   5.9240008199e+01    0.1538039    0.1052917 -69.61 0.0007049468    1.744    0.427
       341  -9.8273     44.4092     25.1336   3.5251564166e+01   7.0143139017e+01    0.2334297    0.1972609  38.80 0.0003524714    1.138    0.121
       342  -8.4128    110.5517     24.2475   1.2244958421e+01   5.4629456445e+01     0.174619    0.1445869  -8.12 0.0003656021    1.500    0.333
       343  -9.2460     67.0368     23.4894   2.3974199955e+01   6.5620491354e+01    0.2046339    0.1303726  55.50 0.0009923353    1.472    0.321
       344  -8.8057      1.5705     27.7242   6.7687056547e+01   7.5128945353e+01     0.205858    0.1177407 -35.84 0.0005827076    1.660    0.398
       345  -8.5891     58.7205     22.0011   2.6512468197e+01   6.7704622859e+01    0.1833909    0.1716396 -14.75 0.0002014911    1.125    0.111
       346  -9.9832     13.1270     21.0798   5.4717629129e+01   7.5608317817e+01    0.2692088    0.2243245   4.75 0.0006441814    1.171    0.146
       347  -8.4722     84.8823     21.1337   1.6954554944e+01   6.1633457109e+01    0.2161777    0.1789336 -77.89 0.0005174047    1.288    0.223
       348  -7.7688     48.2912     21.6642   3.1194430128e+01   6.9949484805e+01    0.1313321    0.1072734 -78.78  0.000361556    1.638    0.390
       349  -9.0494     41.0049     21.0262   3.4752097303e+01   7.1463372703e+01    0.1958033    0.1801135  14.69  0.001208451    1.041    0.039
       350  -9.2743    189.0683     20.1893   8.8736578151e-01   3.5140285990e+01    0.1854819    0.1748262  82.95    0.0012141    1.279    0.218
       351  -8.3381     63.3312     20.6521   2.3868602550e+01   6.6867547876e+01    0.1424831    0.1064007 -74.29  0.000704908    1.765    0.434
       352  -8.3684     73.6776     19.3728   1.9461964476e+01   6.4613497733e+01    0.1479545    0.1036283 -68.85 0.0007031502    1.811    0.448
       353  -9.6089     29.0184     18.4277   4.0734449177e+01   7.3979435861e+01    0.3517262    0.2455198  74.28  0.001657915    2.715    0.632
       354  -8.1964      1.5220     19.5165   6.4523460146e+01   7.6931872668e+01    0.1221514    0.1083496 -32.71 0.0008100107    1.014    0.014
       355  -8.5440    107.2128     17.7565   1.0213645984e+01   5.6279721832e+01    0.2007361    0.1192902  -8.61 0.0003639558    2.403    0.584
       356  -8.8089     50.8378     14.9537   2.5886365689e+01   7.0401557618e+01    0.2092067    0.1676498  27.29 0.0007643593    1.282    0.220
       357 -10.0344    247.3025    248.4079   3.9229377292e+01  -5.7828636816e+00    0.2247348    0.1450946   6.93 0.0009554144    1.164    0.141
       358  -9.9255    195.9774    248.4510   4.7281792758e+01  -6.7915762406e-01    0.2646057    0.1716308  20.83  0.001767024    1.230    0.187
       359 -11.9164    162.2061    227.5418   5.0636847426e+01   6.1367960171e+00    0.6557887      0.54786 -22.35  0.002978909    1.270    0.212
       360  -8.2686     32.0204     11.4853   3.4047157095e+01   7.4594116161e+01     0.189088    0.1189912  42.30 0.0005227694    1.512    0.339
       361  -8.9197    148.3483    248.9603   5.6008445488e+01   4.7728907924e+00    0.2047309    0.1300314  34.78  0.001327977    1.336    0.251
       362 -11.0493    107.3240    242.5128   6.3620681127e+01   1.0889220363e+01    0.8549811    0.3502916 -62.97   0.00410963    3.339    0.701
       363  -8.5657     80.1711     12.3956   1.3888079727e+01   6.3844748558e+01    0.1965757    0.1248652  80.40 0.0003614852    1.685    0.407
       364 -10.6904     78.2092    211.2151   6.7073526511e+01   2.0492574224e+01    0.7948931    0.3299437  31.29  0.002950436    2.066    0.516
       365 -11.7114     89.8906    230.6139   6.6253309601e+01   1.5195683225e+01     1.601003    0.6552698 -76.13  0.006379259    4.371    0.771
