#   1 NUMBER                 Running object number                                     
#   2 MAG_AUTO               Kron-like elliptical aperture magnitude                    [mag]
#   3 X_IMAGE                Object position along x                                    [pixel]
#   4 Y_IMAGE                Object position along y                                    [pixel]
#   5 X_WORLD                Barycenter position along world x axis                     [deg]
#   6 Y_WORLD                Barycenter position along world y axis                     [deg]
#   7 A_WORLD                Profile RMS along major axis (world units)                 [deg]
#   8 B_WORLD                Profile RMS along minor axis (world units)                 [deg]
#   9 THETA_WORLD            Position angle (CCW/world-x)                               [deg]
#  10 FWHM_WORLD             FWHM assuming a gaussian core                              [deg]
#  11 ELONGATION             A_IMAGE/B_IMAGE                                           
#  12 ELLIPTICITY            1 - B_IMAGE/A_IMAGE                                       
         1 -12.3613    174.1010     52.4180   7.2255200722e+01   3.5168391464e+01     0.964354    0.5538116 -41.68  0.003201375    1.790    0.441
         2 -12.0443    160.0692     49.4202   7.3944796661e+01   3.8948876020e+01     1.027638    0.4656359 -43.59  0.004316675    2.336    0.572
         3 -13.0283    131.4352      3.9965   6.6031697141e+01   5.0639706497e+01     1.208114    0.3796526  57.20  0.005237707    2.357    0.576
         4 -12.8802    112.0357     22.5249   7.5751010094e+01   5.3193742973e+01    0.9288722     0.581356 -33.42  0.005146574    1.799    0.444
         5 -12.5219     93.1036      8.1689   7.5331096622e+01   5.8453996986e+01    0.6353565    0.3482053  44.94  0.003582511    1.491    0.329
         6 -13.7260    100.2102      6.5122   7.3043995652e+01   5.7158842630e+01    0.6800171    0.4731843 -39.52    0.0023338    1.790    0.441
         7 -12.5021    112.2368      7.5468   7.0761656244e+01   5.4554881816e+01    0.9962275    0.3318214  63.14  0.003698958    2.882    0.653
         8 -11.2428    117.2080     15.2242   7.2222666705e+01   5.2802023643e+01    0.3168902    0.2101537  75.31 0.0002586197    1.736    0.424
         9 -11.5636     66.3972     21.4762   8.8135270451e+01   6.2038562943e+01    0.6028687    0.3695667  26.12  0.003042318    1.502    0.334
        10 -12.0571     76.1550     31.9014   8.8896086132e+01   5.9141100392e+01    0.8928787    0.5272731   2.43  0.004412274    2.264    0.558
        11 -11.4150    136.4460     30.4760   7.3035994716e+01   4.6909903979e+01    0.5212364    0.3574002  -5.24  0.002736477    1.950    0.487
        12 -11.6064      8.3354     26.0516   1.1348344695e+02   6.8487196189e+01    0.7935224     0.369961   0.46  0.004290061    2.593    0.614
        13 -11.0594      9.3083     19.5525   1.1058281471e+02   6.9366487266e+01    0.3689249    0.2318272  21.98  0.002271584    1.663    0.399
        14 -11.9475     29.7464     25.3373   1.0367828000e+02   6.6620359819e+01     1.060756    0.5434311 -18.12  0.005812315    2.089    0.521
        15 -10.6524     30.4525     13.9907   9.8735145622e+01   6.8006685836e+01    0.5561658    0.2554806 -19.30  0.001777319    2.412    0.585
        16 -11.2783     25.7193      4.6325   9.6693538657e+01   6.9630459996e+01    0.4911503    0.2339915 -24.16  0.002968007    1.944    0.486
        17 -11.6425     18.5909      4.5994   9.9903896839e+01   7.0424596087e+01    0.4339629     0.353502 -26.51  0.003436517    1.560    0.359
        18 -12.0951     18.6098     13.0892   1.0361236537e+02   6.9402038005e+01     0.515215    0.2804179  26.07  0.003363481    1.766    0.434
        19 -12.5116      2.8997     17.6388   1.1289775830e+02   7.0124175232e+01    0.3555931    0.1807819 -32.87 0.0004338368    1.520    0.342
        20 -13.1631      4.2396      8.8666   1.0869380906e+02   7.1226648749e+01    0.5815849    0.2864083 -41.04 0.0003486751    1.916    0.478
        21 -11.1689    183.1015     28.7445   6.4850167591e+01   3.6153254630e+01    0.6110141    0.3093352 -50.93  0.002818112    2.104    0.525
        22 -10.4705    160.5780     23.1633   6.6704404060e+01   4.2106624553e+01    0.5705971    0.4869176 -30.26  0.002941966    1.370    0.270
        23 -11.1580    153.1529     27.2245   6.9024758387e+01   4.3400785632e+01    0.5800806    0.2439595 -31.17  0.002045325    2.645    0.622
        24 -10.8832     89.6218     21.6286   8.1110793405e+01   5.7851975642e+01    0.3366978    0.2084068   8.63  0.001340896    1.971    0.493
        25 -11.3086     49.9182     19.2979   9.3118502917e+01   6.4835619631e+01    0.4205936    0.2657171  50.22  0.001796882    2.206    0.547
        26 -12.0678     42.4625     13.8042   9.3715039977e+01   6.6507223060e+01    0.6055125     0.330249  31.59  0.003693682    1.634    0.388
        27 -12.3597    247.1364     13.5605   5.4934206967e+01   2.3718169828e+01    0.3776157    0.2982887 -77.53 0.0008095169    1.072    0.067
        28 -12.1720    230.7576      9.8252   5.5543904115e+01   2.7570253295e+01    0.7438035    0.4091407  81.85  0.003848473    1.580    0.367
        29 -12.0052    221.1177     12.2065   5.6860833535e+01   2.9385416126e+01     1.200121    0.3396584  65.90  0.005061727    2.931    0.659
        30 -11.2801    202.5134     18.5023   6.0065362964e+01   3.2836720947e+01    0.8140576    0.4104402  57.40  0.004153278    1.926    0.481
        31 -11.9469     13.3707      8.7516   1.0420071615e+02   7.0451584860e+01    0.4148363    0.3135161 -21.87  0.001826127    1.272    0.214
        32 -11.7076    150.1978     15.7853   6.6327561207e+01   4.5299459953e+01    0.6083152    0.3599322  26.36  0.002957928    2.464    0.594
        33  -9.9348    151.7363      9.4165   6.4333498700e+01   4.5549198466e+01    0.2809497    0.1634763  33.68  0.001428562    2.197    0.545
        34 -11.1816    157.5905      4.7229   6.2233910620e+01   4.4619300143e+01    0.3625199    0.2251668 -25.83  0.001368045    1.954    0.488
        35 -10.6559    167.6138      3.0935   6.0503652935e+01   4.2450680749e+01    0.4037643     0.246414 -77.11   0.00220305    1.818    0.450
        36 -10.2265    163.6669      5.6779   6.1664995158e+01   4.3130099575e+01    0.4655389    0.2487394 -69.39   0.00222547    2.458    0.593
        37 -10.9757    170.5475     14.8265   6.3080443745e+01   4.0647265671e+01    0.4609088    0.1550023 -42.49  0.001441882    3.100    0.677
        38 -11.4107    165.3915     11.8021   6.3008566164e+01   4.2152999210e+01    0.4763919    0.2917896 -81.78  0.001620703    1.871    0.465
        39 -10.8360    132.8285     13.1229   6.8516060591e+01   4.9533760985e+01    0.4330803    0.2027366  68.01  0.002020265    2.055    0.513
        40  -9.9528    193.1596      6.6493   5.8414491022e+01   3.6239623128e+01    0.2471918   0.09781153  55.22 0.0008868361    2.448    0.592
        41 -10.2199    187.5474     14.5254   6.0858422663e+01   3.6717901693e+01    0.2138491    0.1768794  85.66  0.001091686    1.003    0.003
        42 -11.0795    188.1276     10.3544   5.9815310792e+01   3.7018432924e+01    0.4116482    0.2133401 -42.34  0.001439899    1.993    0.498
        43 -10.6762    154.3221      4.6584   6.2671375953e+01   4.5378121218e+01     0.252833    0.2066911  87.93  0.001035957    1.164    0.141
        44  -9.9682    141.2582     10.5967   6.6314796264e+01   4.7850058666e+01    0.3662316    0.2067098 -68.19 0.0006385446    2.680    0.627
        45 -11.8630     68.2035      4.2284   8.0704838457e+01   6.3438407852e+01    0.9931875    0.2526992  43.26  0.004170651    3.051    0.672
        46 -11.7597     50.4714      9.9763   8.9048300147e+01   6.5775889407e+01    0.5377269    0.2728449  30.45  0.003096893    1.744    0.427
        47 -10.8764     60.4013      3.1902   8.2748976463e+01   6.4851378910e+01    0.2157497    0.1899813 -14.61 0.0008145379    1.374    0.272
        48 -12.1503     55.1634      2.4546   8.4192903440e+01   6.5764973792e+01     0.284588    0.2456425  12.92 0.0004354867    1.209    0.173
        49 -11.6126    200.2390      5.3758   5.7405906416e+01   3.4761235680e+01    0.5618854    0.2504781 -42.68  0.002287038    2.219    0.549
        50  -9.8377    145.5930      9.2589   6.5234677212e+01   4.6978228566e+01    0.2248102    0.1136511 -33.46  0.001147974    2.227    0.551
        51 -10.5469     82.8184      7.7406   7.7851754189e+01   6.0484151256e+01    0.2659288    0.1757902  20.16  0.001629353    1.484    0.326
        52 -10.3498     81.9867      2.8274   7.6219156669e+01   6.1048810311e+01    0.2309927    0.1914514  68.37  0.001068766    1.500    0.333
        53 -11.2562     77.4274      9.1777   7.9912046839e+01   6.1359392914e+01    0.2770734    0.2220013  -4.04 0.0007846537    1.265    0.209
        54  -9.7559     77.4552      4.4962   7.8097524124e+01   6.1758781602e+01    0.2222126    0.1343104  22.52 0.0009328956    1.623    0.384
        55 -11.3558    207.5221      3.0188   5.6203488869e+01   3.3367583053e+01    0.3835994    0.1953047 -59.01  0.002060354    1.934    0.483
        56  -9.7801    211.7961      3.9700   5.6012483048e+01   3.2322941824e+01    0.1860605    0.1492338  75.89 0.0008619533    1.195    0.163
        57 -10.9965    176.4243      4.4179   5.9761772254e+01   4.0297470661e+01     0.499729    0.1811308  72.70  0.001081255    2.450    0.592
        58 -12.4774    246.9946      2.4423   5.2913112350e+01   2.5015366844e+01    0.3477575    0.1816943  66.09 0.0005433729    1.879    0.468
        59  -9.8192    145.2825      4.4309   6.3930956238e+01   4.7471124490e+01    0.1745785      0.10505  77.14 0.0009439905    1.582    0.368
        60  -9.9625     44.7089      1.6783   8.7606123964e+01   6.7429365437e+01    0.2254079   0.09152687  21.32 0.0007310159    3.577    0.720
        61 -10.4118    224.5766      1.9126   5.4504636341e+01   2.9752241266e+01     0.214272    0.1322644  64.93  0.001183529    1.580    0.367
        62  -9.8068     41.7782      3.0200   8.9316455625e+01   6.7724142366e+01     0.133761   0.07941252 -20.89 0.0005629616    1.628    0.386
        63  -9.8933    229.8521      1.4332   5.3992808661e+01   2.8677709005e+01    0.1684716   0.09397884  80.99 0.0006565336    1.505    0.335
        64  -9.8121    190.9369      1.4306   5.7470079359e+01   3.7254261755e+01    0.2395214    0.1016731  75.98  0.001141814    2.052    0.513
        65  -9.7270    183.2790      1.3515   5.8259838820e+01   3.9007364823e+01      0.15956   0.09596855  81.93 0.0002936129    1.437    0.304
        66 -12.4401    227.0487    112.2036   7.7878231286e+01   1.2827953173e+01    0.6717755    0.4562541  58.18  0.003329663    1.609    0.378
        67 -11.5554    232.0002    111.5037   7.6938584311e+01   1.1931876771e+01    0.3385937    0.3069699 -65.77  0.001105451    1.052    0.050
        68 -11.3498    233.0672     98.6960   7.3968062283e+01   1.4020986524e+01    0.4318511    0.3049306 -86.79  0.002186281    1.704    0.413
        69 -11.1328    245.2030     93.0768   7.1053146810e+01   1.2509387966e+01    0.3516086     0.236597  58.14 0.0004443075    1.647    0.393
        70 -12.5415    245.3255    110.5936   7.4737985376e+01   9.4234623436e+00    0.8210795    0.4075915 -53.25  0.003616887    1.997    0.499
        71 -12.0292    245.0144    104.0347   7.3393747677e+01   1.0645686089e+01     1.216625    0.4407803 -55.52  0.003909034    3.953    0.747
        72 -12.0486    244.5279     96.8942   7.1950439825e+01   1.1988489170e+01    0.7472703    0.4210077  83.70  0.003144647    2.851    0.649
        73 -12.1957    207.5574    112.0592   8.1152215151e+01   1.7043046170e+01    0.8912963    0.4714615 -58.75   0.00270955    2.331    0.571
        74 -11.9318    194.7217    112.6297   8.3663759579e+01   1.9798619878e+01    0.4367169     0.414034  61.32  0.001986207    1.102    0.093
        75 -10.8117    200.4604    112.7414   8.2606769300e+01   1.8486970929e+01    0.3693713    0.2856005  76.20  0.001816537    1.469    0.319
        76 -11.2526    201.4511    108.1859   8.1343061221e+01   1.9147969107e+01      0.40122    0.2369684 -42.63  0.001499632    1.612    0.379
        77 -10.0777     13.0669    117.4632   1.3383576776e+02   5.0115392630e+01    0.1555685    0.1247123  16.23 0.0006290543    1.553    0.356
        78 -11.9116    240.8639     99.9804   7.3118073538e+01   1.2189901952e+01    0.4049542    0.3548169  71.94 0.0005129567    1.235    0.190
        79 -10.2598    215.7154    112.8785   7.9913314611e+01   1.5106818336e+01    0.3424675    0.2052153  52.57  0.001563055    1.783    0.439
        80 -10.5294     37.8150    109.9650   1.2498327907e+02   4.9755088719e+01    0.1983546    0.1836734 -80.00 0.0002246226    1.178    0.151
        81 -10.4377     68.8949    105.1799   1.1409526547e+02   4.7099534831e+01    0.1973052    0.1566815 -22.99 0.0004959585    1.341    0.254
        82 -10.3095     22.7765    107.9536   1.2929742776e+02   5.1563655910e+01    0.2013491    0.1846187 -18.52  0.001228433    1.229    0.187
        83  -9.7848    188.5443    107.0718   8.3510441665e+01   2.2298522204e+01    0.2301929    0.1452552 -42.09   0.00047774    1.543    0.352
        84  -9.4999     74.1944    107.6418   1.1304801164e+02   4.5770198421e+01    0.1921213    0.1352501  19.30 0.0009428432    1.668    0.401
        85 -11.1784    133.8655    103.1625   9.4788511091e+01   3.5583137513e+01    0.4277476    0.2180463 -44.26  0.001572803    1.953    0.488
        86 -10.9007     48.2932    102.6519   1.2007264257e+02   5.0305197352e+01    0.4757101    0.2097109 -32.83  0.001786769    3.183    0.686
        87 -10.0590     47.3435     98.5308   1.1942852882e+02   5.1332215591e+01    0.3894847    0.1771324  17.69  0.001598048    3.074    0.675
        88 -11.0380    184.8643    101.1353   8.2763818956e+01   2.4302048089e+01    0.4222209    0.2968037 -18.92   0.00184966    1.971    0.493
        89  -9.9848     80.5188    101.9896   1.0965667013e+02   4.6057494344e+01     0.226696    0.1872044  32.64 0.0006091773    1.282    0.220
        90  -9.8778     75.8219    101.7974   1.1106996909e+02   4.6832157521e+01    0.1928662    0.1719141  81.86  0.001076915    1.367    0.268
        91 -11.1389      5.4884    119.5003   1.3632080538e+02   5.0153657428e+01     0.250729     0.160478 -83.17  0.001221828    1.506    0.336
        92 -10.9443      4.1654     99.8716   1.3370165953e+02   5.4649721856e+01    0.3404409    0.1852367 -54.93  0.001979209    1.390    0.281
        93 -11.5702    174.5064     96.1752   8.3582929801e+01   2.7673693181e+01    0.4089233    0.3770062  86.76   0.00189357    1.073    0.068
        94 -11.1048    177.7891     99.5819   8.3783041880e+01   2.6249908997e+01    0.2701016    0.2137455 -60.91 0.0007848366    1.299    0.230
        95  -9.8014     34.4739     98.9798   1.2375882581e+02   5.2564457458e+01    0.1983561    0.1114497 -59.11 0.0004607397    1.551    0.355
        96 -11.2324    227.6767     94.9182   7.3935756717e+01   1.5828944117e+01      0.59541    0.3931025 -20.50  0.002706628    2.249    0.555
        97 -11.4979    158.2941     96.3381   8.7095351799e+01   3.1434158696e+01    0.4628619    0.3659303  83.88   0.00221596    1.494    0.330
        98  -9.6288     64.5564     97.4675   1.1354670405e+02   4.9417365030e+01     0.140243    0.1215729 -32.44 -3.519465e-05    1.063    0.060
        99 -11.1063    193.4996     92.2358   7.8937497639e+01   2.3969543875e+01    0.4897496    0.2890163 -40.47  0.002174939    1.671    0.402
       100 -11.8441    200.6576     89.6640   7.7051546382e+01   2.2781175385e+01    0.6090981    0.3265807  62.69   0.00177269    1.998    0.500
       101 -10.4745    188.3633     93.9427   8.0304623498e+01   2.4849856947e+01    0.2838727    0.2187822  52.30 0.0008274124    1.331    0.249
       102 -11.8930     35.4636     91.5502   1.2176328857e+02   5.4099925295e+01    0.4927154     0.328784  19.56  0.002820605    1.712    0.416
       103 -11.1329    213.5264     90.3555   7.5086082651e+01   1.9734902892e+01    0.4571528    0.3959808  32.36  0.001952417    1.458    0.314
       104 -10.5270     87.8796     90.3627   1.0421823375e+02   4.7321128467e+01    0.2579075    0.1872779 -53.21 0.0008415426    1.441    0.306
       105  -9.5755    187.0570     89.7223   7.9497032679e+01   2.5933657838e+01    0.2041172    0.1885083  82.35 0.0005295939    1.050    0.048
       106 -10.8679     52.1980     87.5588   1.1508405150e+02   5.3138890810e+01    0.4213558    0.2489974 -56.71  0.001849445    1.677    0.404
       107 -10.0854     47.7658     88.4413   1.1682041095e+02   5.3473120864e+01      0.25027     0.174194 -11.99  0.001185609    1.660    0.398
       108 -10.9535     57.5410     85.0312   1.1259414869e+02   5.2998475355e+01    0.5465816    0.3160262 -10.70  0.002324217    2.751    0.637
       109 -11.6867     14.6107     88.6373   1.2820934511e+02   5.6440487696e+01     0.397139    0.3154049 -12.15  0.002682269    1.376    0.273
       110 -10.5018      2.5110     89.5056   1.3243096400e+02   5.6993855433e+01    0.3601731    0.1465411 -24.43  0.001599409    3.407    0.707
       111 -10.6408      2.3139     83.9699   1.3146625495e+02   5.8179513636e+01    0.3563942    0.2487815  69.73  0.002090603    2.098    0.523
       112 -11.8940      6.2405     79.8961   1.2929855592e+02   5.8813239166e+01    0.3312403    0.1938492 -53.27  0.002020083    1.301    0.231
       113 -11.0199    234.2697     72.6684   6.8147387895e+01   1.8181898042e+01    0.4708992    0.2101105 -44.24  0.001800083    1.992    0.498
       114  -9.8214    230.3482     87.8524   7.1982932638e+01   1.6489884291e+01    0.2287132    0.1780528  83.79 0.0006431264    1.340    0.254
       115 -11.8301    223.2871     85.7469   7.2538297681e+01   1.8379440496e+01    0.5561487    0.4218137 -78.18  0.002988277    1.364    0.267
       116 -10.3814    229.4894     83.0613   7.1050382109e+01   1.7491022108e+01    0.2841755    0.2389646 -38.95   0.00123492    1.266    0.210
       117 -11.8859    217.4449     82.0965   7.2579370673e+01   2.0296744888e+01      0.69195    0.3733425 -38.83  0.002548806    1.823    0.451
       118 -10.7244    223.2186     74.4251   7.0011698580e+01   2.0298453168e+01    0.3230586    0.2209895 -76.94 0.0003787493    1.582    0.368
       119 -11.0010    219.7041     74.3329   7.0485290693e+01   2.1093722748e+01    0.2836823    0.1931084 -66.12 0.0009594407    1.486    0.327
       120 -11.0200    106.3015     87.2099   9.7809252737e+01   4.4565913529e+01    0.5172722    0.3262666 -13.03  0.002065701    2.544    0.607
       121 -11.0936    102.5565     80.9410   9.7055888199e+01   4.6511239034e+01    0.4733968    0.3010088 -22.87  0.001836503    1.942    0.485
       122 -10.8255     28.7237     76.9596   1.2058838530e+02   5.7785182797e+01    0.2075591    0.1946666 -14.76 0.0008281466    1.192    0.161
       123 -11.5486     17.7280     81.4448   1.2558901952e+02   5.7742620309e+01    0.2478858    0.1971766 -18.48 0.0004179283    1.273    0.214
       124 -12.3466     24.3492     83.0726   1.2362964837e+02   5.6892465335e+01    0.6751431    0.4453202 -86.12   0.00354144    2.370    0.578
       125 -10.6879     29.9009     82.0955   1.2144131488e+02   5.6623160437e+01    0.2808786    0.2325161  11.78 0.0008984787    1.344    0.256
       126 -10.6952    153.3876     87.3654   8.5784375649e+01   3.4293744258e+01    0.3819979    0.2053253  51.58  0.001570311    1.826    0.452
       127 -10.3484    146.5077     86.6402   8.7163030733e+01   3.6022573806e+01    0.3222127    0.2415418   5.46  0.001146416    1.915    0.478
       128 -10.0391     81.9314     86.8749   1.0508927689e+02   4.9035083249e+01    0.2125646    0.1757286 -18.41            0    1.219    0.180
       129 -10.3331    220.2995     91.3955   7.4263911846e+01   1.8049618740e+01    0.3647951    0.2150212 -69.60  0.001549837    2.233    0.552
       130 -11.0270    249.0640     84.1671   6.8691870074e+01   1.3232702493e+01    0.3456447    0.2137953 -64.72  0.001345413    1.655    0.396
       131 -10.4492    205.1836     85.7117   7.5346681014e+01   2.2444456997e+01    0.4564151    0.2413332 -63.94  0.001749557    2.600    0.615
       132 -10.7073    202.7691     78.4203   7.4001842799e+01   2.4261463459e+01    0.7684959    0.4277933  80.06  0.002064896    2.509    0.601
       133 -10.0504    186.5110     84.4880   7.8286445709e+01   2.7006473352e+01    0.2494743    0.2041838 -80.38  0.001015668    1.278    0.218
       134 -11.4568    189.6363     80.8028   7.6802373472e+01   2.6919205113e+01    0.8097862    0.4983474  60.65  0.003738346    1.621    0.383
       135 -10.3309    188.5819     74.7565   7.5477801169e+01   2.8204154300e+01    0.3451838    0.2409401 -83.92  0.001426456    1.714    0.416
       136 -10.4159    192.1732     72.2970   7.4254314812e+01   2.7766825897e+01    0.4475863    0.3577357 -76.57  0.002389366    1.269    0.212
       137 -10.3462    166.0869     85.9179   8.2645613987e+01   3.1579609870e+01    0.2569692    0.2121078 -53.68 0.0005540724    1.220    0.180
       138 -10.2601    118.9200     86.1729   9.3985187986e+01   4.2207525173e+01    0.3622187    0.1925196  38.72  0.001483986    1.974    0.493
       139 -10.1686     74.3471     85.3208   1.0708150240e+02   5.0558580942e+01    0.1462523    0.1021782 -12.74 0.0007049278    1.735    0.424
       140 -10.1234    140.0946     84.0829   8.7970514407e+01   3.7966599041e+01    0.2375846    0.1838964 -80.84 0.0006710201    1.670    0.401
       141  -9.8744    181.9759     83.3286   7.8833121762e+01   2.8283798562e+01    0.2087015    0.1795162  69.83 0.0004677822    1.137    0.121
       142 -10.7090    161.1070     80.7953   8.2318369792e+01   3.3682989233e+01    0.4313232    0.2682471  46.91  0.001274698    1.618    0.382
       143 -10.3493     41.1387     81.8589   1.1742005483e+02   5.5578819801e+01    0.1858181    0.1293867 -31.36 0.0005908688    1.325    0.245
       144 -10.7670    135.4890     79.9674   8.7919896905e+01   3.9764545181e+01    0.2776296    0.2202911 -15.79  0.000904645    1.491    0.329
       145 -10.5226    138.3243     77.0476   8.6395737423e+01   3.9648516403e+01    0.2278006    0.1997274  21.11 0.0003880975    1.248    0.199
       146  -9.9147     63.6197     79.9457   1.0910802525e+02   5.3215620274e+01    0.2530248    0.1690574  49.83 0.0009798959    1.951    0.487
       147 -11.1656    170.5205     70.4878   7.7666008047e+01   3.3218193103e+01    0.3809085    0.2470693  77.15  0.001551963    1.832    0.454
       148 -10.5548    176.6061     77.7824   7.8420021321e+01   3.0531303855e+01     0.298535    0.2528731 -62.94  0.001047922    1.180    0.153
       149 -10.7081    175.3759     74.2110   7.7723881917e+01   3.1435657063e+01    0.4666826    0.3004563 -69.70  0.001631655    2.012    0.503
       150 -11.4268    168.3158     76.4483   7.9677653634e+01   3.2735614478e+01    0.6079798    0.4172451 -80.84   0.00270556    1.950    0.487
       151 -10.6421     98.2775     77.1800   9.7190231090e+01   4.8037439813e+01     0.263458    0.2330969  62.19 0.0009738163    1.329    0.248
       152  -9.1304     55.6465     78.7316   1.1149652390e+02   5.4523756126e+01    0.1350365   0.09279165 -14.76 0.0006991915    1.630    0.386
       153  -9.7541     43.4880     78.4701   1.1569236567e+02   5.6019292862e+01    0.1299314    0.1090543 -31.34 6.729986e-05    1.012    0.012
       154 -12.0012    223.3387     45.4464   6.3620605932e+01   2.4693274755e+01    0.9352213    0.5831782 -61.18  0.005040499    1.511    0.338
       155 -11.1717    222.0972     56.6695   6.6219855845e+01   2.3338448031e+01     0.580444    0.3716212 -80.62  0.002891363    1.685    0.407
       156 -10.2568    233.2770     45.4827   6.2506940674e+01   2.2510615052e+01    0.6330853    0.3535744 -46.15  0.002760862    1.628    0.386
       157 -12.2084    250.1736     67.7242   6.5191351565e+01   1.5652424756e+01     1.064266    0.2599108 -35.82  0.003202942    5.122    0.805
       158 -11.5759    215.9593     59.9689   6.7756144699e+01   2.4217771557e+01    0.3729057    0.2164877  66.40  0.000594364    1.688    0.408
       159 -11.6368    212.9863     55.5485   6.7151789638e+01   2.5561228932e+01    0.6639613    0.3518803 -73.94  0.002523815    2.627    0.619
       160 -12.9366    244.3110     55.4374   6.3350361694e+01   1.8727251496e+01     1.059112    0.5434365 -82.14  0.003825353    2.655    0.623
       161 -12.2729    235.1676     56.7682   6.4655253492e+01   2.0462685376e+01     0.544638    0.3114769  62.79  0.001459745    1.772    0.436
       162  -9.4204     58.3418     77.2921   1.1015188785e+02   5.4459669997e+01    0.1374525   0.09359127 -15.41 0.0007027182    1.653    0.395
       163 -11.4415     68.2407     76.0758   1.0641362162e+02   5.3313468750e+01    0.3598245      0.29024 -35.81 0.0008501575    1.145    0.127
       164 -11.8050     82.1057     74.8067   1.0146893638e+02   5.1368614746e+01    0.2373188    0.2191327  -6.33 0.0002564219    1.022    0.022
       165  -9.6050     15.0389     75.4549   1.2518173179e+02   5.9168540570e+01    0.1503897      0.11293   3.75 -3.388792e-05    1.482    0.325
       166 -12.0107    240.7411     84.5131   6.9834902447e+01   1.4870818831e+01    0.7347553    0.5537995 -67.87  0.003169284    1.247    0.198
       167 -11.1886    214.2903     71.6946   7.0661712078e+01   2.2742755263e+01    0.4483164    0.3252056  44.40  0.002085758    1.687    0.407
       168 -10.1921    207.2474     60.6843   6.9126628305e+01   2.6099836314e+01    0.4173535    0.2100425 -44.94  0.001895915    1.890    0.471
       169 -10.6958    205.2282     65.5026   7.0551115559e+01   2.5814319988e+01    0.3327657    0.2363265  81.51 0.0009683431    1.436    0.304
       170 -10.4221    198.6507     70.4206   7.2737847167e+01   2.6554028867e+01    0.2785646    0.2293019  49.01 0.0008129442    1.350    0.259
       171 -11.2501    202.8469     71.9003   7.2431868677e+01   2.5333931580e+01    0.3473412    0.2350793 -56.22 0.0003754972    1.448    0.309
       172 -11.1441    206.5741     70.8199   7.1602353392e+01   2.4648761742e+01    0.4178137    0.2561665 -57.58  0.001140565    1.657    0.396
       173 -12.0685     58.9230     69.5697   1.0766110764e+02   5.5870823840e+01    0.4313968    0.3770566  -4.33  0.001448765    1.074    0.069
       174 -10.4560    238.0745     76.1757   6.8408599785e+01   1.6806035412e+01    0.2833487    0.2098359 -42.94  0.001165703    1.303    0.232
       175 -10.8192     51.8629     71.3638   1.1069985284e+02   5.6445139322e+01    0.2709103    0.2364061  -9.88  0.001737936    1.075    0.070
       176 -10.7314    226.2013     68.9348   6.8389402353e+01   2.0529807453e+01    0.4581544    0.1549633 -42.43  0.001766069    2.638    0.621
       177 -10.4494     32.5828     70.3716   1.1744196245e+02   5.8748216160e+01    0.3320756    0.1761849 -34.09  0.001176937    1.748    0.428
       178 -10.9785    180.6011     68.9064   7.5396129374e+01   3.1071200372e+01    0.6168455    0.2803131  62.25  0.002437056    2.242    0.554
       179 -11.5230    116.0869     69.0340   8.9657121746e+01   4.5929466944e+01    0.4237627    0.2808636 -46.90  0.002047054    1.640    0.390
       180 -10.5673    100.9734     66.7540   9.3176881100e+01   4.9387297717e+01    0.2455899    0.1970266 -44.86  0.001341319    1.341    0.254
       181 -10.8008     76.5029     69.8913   1.0177181959e+02   5.3201882688e+01    0.4456585    0.1829389  33.60  0.001788598    2.629    0.620
       182 -10.2970     47.1537     67.9717   1.1139291582e+02   5.7661355676e+01    0.2345797    0.1910356 -23.88  0.001468794    1.056    0.053
       183 -10.8266     35.8689     56.1247   1.1201368371e+02   6.1089413285e+01    0.4055285    0.2710127  21.46  0.002483994    1.559    0.359
       184 -10.3229     42.0635     68.9241   1.1353482877e+02   5.8058687423e+01    0.4743364    0.4190027  65.22   0.00293594    1.639    0.390
       185 -11.6417     36.1897     63.5172   1.1414098830e+02   5.9706012463e+01    0.4559745    0.3040934  25.59  0.002588607    1.622    0.384
       186 -10.4536     33.7261     60.2916   1.1411899350e+02   6.0553177596e+01    0.1751066    0.1543638 -23.64 0.0001763956    1.131    0.116
       187 -10.8308    178.2468     59.7237   7.3443317862e+01   3.3087020628e+01    0.4286666    0.3128665   2.20  0.001936018    2.214    0.548
       188 -10.4114    109.2224    249.5947   1.2870300238e+02   7.3681913361e+00    0.1851207    0.1129318  32.88 0.0009589086    1.734    0.423
       189 -12.7447    185.5490     47.4983   6.9148773521e+01   3.3137730153e+01     0.691745    0.6429456 -11.54  0.003608073    1.350    0.259
       190 -12.1177    181.0249     39.0902   6.7724376348e+01   3.5350930662e+01    0.6018318    0.3262735 -71.28  0.002527945    2.617    0.618
       191 -10.4078    187.1284     38.1488   6.6600524859e+01   3.4027187134e+01    0.2796577    0.1933042  63.62  0.001007045    1.323    0.244
       192 -12.4627    166.2945     58.0786   7.5146755456e+01   3.6197350848e+01     1.195797    0.7584782 -23.01  0.005538275    2.034    0.508
       193 -10.4114     51.3839    247.1598   1.3962539358e+02   1.6321603478e+01    0.1729389   0.09589577 -89.36 0.0009532532    1.778    0.437
       194 -11.3860    133.2492     67.8331   8.4932063531e+01   4.2383186749e+01    0.4305152    0.3091465  56.98  0.002146533    1.385    0.278
       195 -11.9430    148.4832     64.4930   8.0491143222e+01   3.9422372738e+01    0.6431054     0.433522  86.28  0.001956868    2.088    0.521
       196 -11.0193    145.0176     62.0598   8.0546236336e+01   4.0618201863e+01    0.5412481    0.2912762  70.19 0.0007767794    2.516    0.603
       197 -10.3825    234.0585     64.1418   6.6349016886e+01   1.9576703339e+01     0.347393    0.2317569 -51.83   0.00138899    1.331    0.248
       198 -10.0498    189.9732     65.0364   7.2819075838e+01   2.9464863599e+01    0.2153291    0.1726996  28.56  0.001009175    1.661    0.398
       199 -10.9161    185.1324     62.0011   7.2858394614e+01   3.1091884940e+01    0.5309374    0.2099749 -39.90  0.001906101    2.501    0.600
       200 -11.0690     67.3804     62.0636   1.0235582842e+02   5.6023867643e+01      0.33222    0.2220024 -23.68  0.001788466    1.507    0.336
       201 -11.0396     10.8176     62.7923   1.2367655732e+02   6.1961730474e+01    0.3870054    0.2034972 -43.72  0.002281387    1.459    0.315
       202 -10.7682     15.3171     61.3045   1.2154336159e+02   6.1938052865e+01    0.2415507    0.1645774 -23.62 0.0009235537    1.326    0.246
       203 -12.4820     20.0297     57.6073   1.1867117825e+02   6.2274838387e+01    0.3994238    0.2107668 -48.75 0.0007186023    1.578    0.366
       204 -10.4377     26.3638     64.9113   1.1827209852e+02   6.0372204122e+01    0.3676994      0.15744 -34.48   0.00174195    2.265    0.558
       205 -12.1813    125.1222     69.0096   8.7291612777e+01   4.3991791459e+01    0.6648117    0.4791952  72.62  0.003175234    1.790    0.441
       206 -10.2817     54.1446     62.6643   1.0722447997e+02   5.7775761305e+01    0.2294892    0.2084494 -71.55  0.001267468    1.538    0.350
       207 -10.4103     56.4848     59.6568   1.0541795088e+02   5.8000177555e+01    0.2770479    0.2323291  52.18  0.001700138    1.640    0.390
       208 -10.5587    195.8046     46.9422   6.7503118565e+01   3.0791348699e+01    0.3645653    0.2916298 -19.34  0.002047471    1.646    0.393
       209 -10.6114    200.0914     58.6344   6.9682302321e+01   2.8076181647e+01    0.9080583    0.5478159 -29.81  0.004307215    1.989    0.497
       210 -10.8730    200.7022     44.9762   6.6357929945e+01   2.9919477785e+01    0.7026176    0.2123935 -41.10  0.002642685    3.067    0.674
       211 -11.9757    205.0630     43.8676   6.5520671960e+01   2.9060439439e+01    0.5635934    0.3377388 -79.44  0.002723209    1.917    0.478
       212 -11.0114    207.6751     40.7114   6.4463881492e+01   2.8889492936e+01    0.2692597    0.1988805  76.79 0.0005930489    1.227    0.185
       213 -10.1315     78.7994     60.7311   9.8089348232e+01   5.4436128211e+01    0.2906195    0.1656583  46.31  0.001388745    1.936    0.483
       214 -11.1139    191.9397     57.4224   7.0623198314e+01   3.0177465712e+01    0.5014724    0.3073115 -30.96  0.002215226    1.892    0.472
       215 -10.1960    138.0669     59.2414   8.1269845654e+01   4.2664395324e+01    0.3009124    0.1730597  42.69  0.001352389    1.748    0.428
       216 -11.5308     87.9509     56.1123   9.3651470827e+01   5.3596539146e+01    0.6083861    0.2961086  48.79  0.001581897    2.219    0.549
       217 -11.3715     86.0692     51.9128   9.2829544013e+01   5.4593285131e+01    0.8326472    0.4424956 -28.48  0.003823405    2.024    0.506
       218 -10.6283    114.4725     52.5508   8.4938377363e+01   4.8899233117e+01    0.2413231    0.2045597 -24.20 0.0005359594    1.239    0.193
       219  -9.8492    116.2743     49.3864   8.3468322333e+01   4.8974253737e+01    0.3673465    0.2623649 -50.89  0.001573415    1.687    0.407
       220 -10.5020    123.0553     54.5172   8.3385982930e+01   4.6754300611e+01     0.229983    0.2099903 -26.50  0.000638655    1.159    0.137
       221 -11.1252    119.5976     53.7645   8.4012216094e+01   4.7620352156e+01    0.3614088    0.2317923 -43.89  0.001621347    1.723    0.420
       222 -10.4130      3.2705     57.3963   1.2525353681e+02   6.3447032348e+01    0.2301326    0.1833573  78.15  0.001212648    2.017    0.504
       223 -10.5298    134.6242     51.8965   7.9860943222e+01   4.4548573455e+01    0.4371917    0.2616813  29.42  0.001920899    2.191    0.544
       224 -11.8045    141.0419     51.0086   7.8188848310e+01   4.3201222059e+01     0.806362    0.5552399 -83.83  0.003558731    2.092    0.522
       225 -12.2909    146.1550     48.1817   7.6297139936e+01   4.2409318445e+01    0.8763987    0.5112265 -63.75  0.002317611    2.592    0.614
       226 -10.4996     12.1839     56.1550   1.2138070978e+02   6.3125269038e+01    0.2685843    0.1474061  23.11  0.001525427    2.052    0.513
       227 -10.9737     99.4666     53.9944   8.9510424325e+01   5.1750980337e+01    0.2586797    0.2177209  35.08 0.0006158677    1.114    0.103
       228 -10.2089    104.6085     53.5578   8.7913280602e+01   5.0793315377e+01    0.2507827    0.2145834 -11.61  0.001465402    1.193    0.162
       229 -10.2054     71.3563     53.4874   9.8152114479e+01   5.6847371979e+01    0.2473628    0.1493655 -39.92 0.0009102868    1.664    0.399
       230 -10.5721     60.7727     52.5466   1.0151740238e+02   5.8606695684e+01    0.4013515    0.1997711 -46.25  0.001929324    2.177    0.541
       231 -11.6930     25.8062     52.8141   1.1494735691e+02   6.2654655427e+01    0.3018452    0.1908474 -12.08 0.0005756819    1.600    0.375
       232  -9.7819     29.3166     48.7396   1.1224640476e+02   6.3037323959e+01    0.1553794    0.1314338  -1.05  0.000502661    1.177    0.150
       233 -10.7303     76.4780     52.0311   9.5944387190e+01   5.6242021360e+01    0.1984831    0.1878409  47.42   0.00123556    1.323    0.244
       234 -11.4793     42.4143     49.6493   1.0737029527e+02   6.1483150549e+01    0.5913149    0.2140669  30.78  0.002362928    2.857    0.650
       235 -10.2061      6.7083     48.8901   1.2157373440e+02   6.4809646709e+01    0.2147293    0.1420951 -26.11 0.0008057027    1.259    0.206
       236 -10.5917    152.9329     44.3793   7.3878761473e+01   4.1334954777e+01    0.4076047    0.2086693 -26.69  0.001740052    2.386    0.581
       237  -9.3776    129.5371     46.5097   7.9378190176e+01   4.6459386366e+01    0.1372047    0.1255953  45.56 7.103758e-05    1.007    0.007
       238 -10.2753     56.0302     45.8129   1.0090377900e+02   6.0353291647e+01    0.4040409    0.1359819  35.78  0.001683054    2.972    0.664
       239 -10.6809    142.2009     43.6327   7.5778567547e+01   4.3949598338e+01    0.3210346    0.2783624  34.89  0.001755983    1.193    0.162
       240 -10.9728     99.2793     39.0850   8.4569865356e+01   5.3898789666e+01    0.5538609     0.310559  -6.92   0.00239544    2.778    0.640
       241 -10.8715     38.4019     43.8095   1.0694423918e+02   6.2900718890e+01    0.3139896    0.2515148 -45.46  0.002094548    1.480    0.324
       242 -11.0381    249.1788     43.5508   6.0475997225e+01   1.9432017583e+01    0.3491215    0.1869053  67.88  0.001889623    1.853    0.460
       243  -9.7772    249.7973     39.1109   5.9551810107e+01   1.9918750474e+01    0.2515195    0.1286005 -57.12 0.0007018363    1.719    0.418
       244 -10.5575    118.1695     41.8593   8.0594383983e+01   4.9597236760e+01    0.4540388    0.2180299 -40.77   0.00202291    2.322    0.569
       245  -9.8153     66.9907     43.4976   9.6171091375e+01   5.9076978487e+01    0.1831608    0.1517404 -18.14 0.0003692548    1.140    0.123
       246 -11.0449     31.9951     43.3455   1.0935975388e+02   6.3669785790e+01    0.2925605    0.2249433  44.22  0.001315727    1.906    0.475
       247 -10.2559    213.9725     42.5491   6.4100194664e+01   2.7200227674e+01    0.2028169    0.1910866 -13.74 0.0007099045    1.439    0.305
       248 -10.9151     87.3730     41.2355   8.8756503016e+01   5.5903442738e+01    0.3964115    0.2515271 -44.18    0.0020918    1.889    0.471
       249  -9.3755      9.3331     42.3186   1.1851306744e+02   6.5789055890e+01    0.1620162   0.09529985   3.67 0.0007895324    1.762    0.432
       250 -10.1334     13.3540     40.3181   1.1615396005e+02   6.5837087160e+01    0.2493906     0.123945 -29.03   0.00143006    1.773    0.436
       251  -9.8901     21.8269     41.5667   1.1296336325e+02   6.4935505227e+01    0.3715188    0.2563634 -70.68  0.002047293    2.912    0.657
       252 -11.0741     17.3395     38.8460   1.1395613623e+02   6.5765370059e+01    0.4415446    0.2063731 -44.69  0.002323937    1.806    0.446
       253 -10.0817    191.8324     26.9301   6.3262319999e+01   3.4322022714e+01    0.2933692    0.1908505 -19.51  0.001533615    2.167    0.539
       254 -11.1668    194.3176     38.6804   6.5731261263e+01   3.2264414979e+01    0.4875123    0.3031642 -63.91  0.002070719    1.707    0.414
       255 -11.0496    194.5016     31.6881   6.4046379091e+01   3.3117956506e+01    0.4989183    0.2832574 -33.36   0.00178879    1.974    0.493
       256 -10.8468    161.5615     39.1068   7.0855647686e+01   3.9981562645e+01    0.4340849    0.2703016 -28.17  0.001927353    1.876    0.467
       257  -9.7728    242.7054     40.5080   6.0511256030e+01   2.1196416214e+01     0.161324    0.1023601 -86.70 0.0009054416    1.507    0.337
       258  -9.6989    142.7129     38.3558   7.4128182082e+01   4.4513780165e+01    0.1976679    0.1753205 -89.42  0.000556243    1.194    0.163
       259 -10.9623    150.9903     36.0156   7.1877100246e+01   4.2870510448e+01    0.2798488    0.2590864 -64.92 0.0009343416    1.158    0.136
       260 -11.1709    145.5249     34.7929   7.2546090013e+01   4.4300054046e+01     0.630173    0.2016584  53.53  0.002396909    2.615    0.618
       261 -11.5598     54.0204     36.6043   9.8313926643e+01   6.2006392288e+01    0.6451667     0.313788  40.58  0.003318073    2.164    0.538
       262 -10.5451    202.6649     37.7024   6.4406459588e+01   3.0447336669e+01    0.2338358    0.2187687  74.71 0.0006817302    1.208    0.172
       263 -10.9213    200.6270     35.1666   6.4078285958e+01   3.1250541062e+01     0.443816    0.2873625 -63.23  0.002388665    1.546    0.353
       264  -9.9027    172.7960     38.6214   6.8870096224e+01   3.7369701142e+01     0.195274    0.1185979  75.40 0.0009449562    1.652    0.395
       265  -9.7270    136.9901     38.4353   7.5309885466e+01   4.5825658696e+01    0.2107068    0.1201577  56.62 0.0008297837    1.567    0.362
       266 -10.8024    123.9867     36.4815   7.7523900494e+01   4.9005867663e+01      0.29616    0.2565626 -89.29  0.001617171    1.361    0.265
       267 -12.1534    120.0231     33.5735   7.7505654680e+01   5.0232193434e+01    0.4002085     0.263307  55.30 0.0001813792    1.379    0.275
       268 -10.2865    109.8897     36.6614   8.0952877737e+01   5.2032225787e+01    0.4055602    0.2092343 -31.10  0.001420527    2.097    0.523
       269 -10.0991    103.8238    245.6212   1.2931212069e+02   8.9928810678e+00    0.1979931   0.09893271  49.08  0.000955575    1.739    0.425
       270 -11.5896    107.2437     29.0967   7.9092733083e+01   5.3489821855e+01    0.8723043    0.3830661  66.89  0.003135739    3.867    0.741
       271 -10.3908     38.5754    240.7678   1.4146825037e+02   1.9242371864e+01    0.1669402   0.09368564  89.02  0.000948816    1.634    0.388
       272 -11.1528     15.4244    239.6550   1.4553526307e+02   2.2132974674e+01    0.3246524    0.1262683  56.50  0.001703552    2.173    0.540
       273 -11.1560     53.8798    238.0450   1.3836527234e+02   1.7853195569e+01    0.3126856    0.1293868  48.72   0.00143587    2.058    0.514
       274 -10.0396     12.8124    232.3849   1.4552542033e+02   2.3897490601e+01    0.1357913     0.106235  35.66  0.000953515    1.668    0.401
       275 -10.4347     46.0200     36.9569   1.0148563739e+02   6.3033052486e+01    0.2709307    0.1473014 -29.90 0.0007881465    1.708    0.415
       276  -9.1658    245.6822     37.7310   5.9672322019e+01   2.0954576680e+01    0.1071861   0.09356979  53.61 0.0004587465    1.558    0.358
       277 -10.9767    222.3381     36.3820   6.1787776430e+01   2.6155050032e+01    0.3586529    0.2356731  88.29  0.001888972    1.426    0.299
       278 -10.4400     49.9767    227.9993   1.3820492609e+02   2.0486315594e+01    0.1572129    0.1249718  76.08  0.001017161    1.004    0.004
       279 -10.9283     73.1579     17.1942   8.4289202302e+01   6.1349518691e+01    0.4174636    0.1887845  47.83  0.001729387    2.019    0.505
       280  -9.8443    110.4083    224.7839   1.2527720916e+02   1.2159276009e+01     0.185272    0.1254622 -49.42 0.0009537258    1.687    0.407
       281 -10.6037     81.4054     33.4669   8.7817543236e+01   5.8014223647e+01    0.3170754    0.2068958  63.03 0.0009305934    2.284    0.562
       282  -9.5113      9.6082    221.1589   1.4535741709e+02   2.6578604389e+01    0.1552227   0.08520415 -69.52 0.0006580676    1.641    0.390
       283 -12.5407     64.1493     30.8297   9.2498099206e+01   6.1272808080e+01    0.8393153    0.3514524  39.09  0.004034582    2.217    0.549
       284 -10.8917     70.8061     30.4146   9.0084089027e+01   6.0240991547e+01    0.2699373    0.1846914  15.88 0.0008618299    1.429    0.300
       285  -9.8701    217.2124     22.0512   5.9283415049e+01   2.9106072163e+01    0.3626589    0.2251643  80.17  0.002074048    1.423    0.297
       286 -11.9948    217.5910     28.9342   6.0710307765e+01   2.8176501952e+01    0.5093224    0.2969152 -76.56  0.002659344    1.768    0.434
       287 -10.6499    201.2031     25.4395   6.1775440680e+01   3.2327751144e+01      0.28895    0.1752969 -63.06  0.001046623    1.664    0.399
       288 -11.6114    211.3199     32.6752   6.2222726130e+01   2.9115084720e+01    0.4074526    0.3195644 -86.72  0.001807922    1.096    0.088
       289 -11.7326    207.0199     28.7808   6.1852622418e+01   3.0586200276e+01    0.7457274    0.2503271  56.23  0.002085458    2.872    0.652
       290 -10.6055     88.3812     33.7152   8.5804363596e+01   5.6697085541e+01    0.2712373    0.2097049  -5.06  0.001643138    1.318    0.241
       291  -9.6168    164.5488     33.5270   6.8849683703e+01   3.9970313095e+01    0.2187397    0.1117072 -46.05  0.001006129    2.124    0.529
       292 -10.2832    160.7379     32.8383   6.9291614606e+01   4.0957197077e+01     0.254651    0.1568812  52.49 0.0008000309    1.503    0.335
       293 -11.2880    132.1694     19.5196   7.0567347989e+01   4.9065187679e+01    0.4196086    0.2123227  60.96  0.001036772    1.712    0.416
       294 -10.2418    126.4866    216.2951   1.2052560582e+02   1.1204046235e+01    0.2413755      0.19033  82.55 0.0005730392    1.424    0.298
       295 -10.4159    136.5673     24.3023   7.1166629951e+01   4.7568466337e+01    0.3520351    0.1826902 -19.19  0.001545325    2.512    0.602
       296 -10.2847    125.0143     20.9852   7.2433771088e+01   5.0521648337e+01    0.3821676    0.1759136  32.30  0.001448419    3.046    0.672
       297  -9.9652    121.3569     19.5517   7.2738532765e+01   5.1475383054e+01    0.3740787    0.2069959 -18.59  0.001816239    2.212    0.548
       298 -10.9386     26.6147    212.8068   1.4147665303e+02   2.6609675827e+01    0.2954755    0.2798105  27.66  0.002134761    1.515    0.340
       299 -10.3269    247.9859    203.6953   9.3311180364e+01  -7.5338332185e+00    0.1825972    0.1563405  -3.05  0.000896584    1.062    0.058
       300 -10.3709    234.4846    200.9804   9.5227156408e+01  -4.9881440812e+00    0.2066955    0.1201058 -37.88  0.001038482    1.608    0.378
       301 -10.1093     27.5028    197.9951   1.3997393785e+02   2.9852246652e+01    0.1740287   0.07930548 -53.13 0.0006665293    2.470    0.595
       302 -10.4126    248.0110    191.5107   9.0960494184e+01  -5.5232280829e+00    0.1876457    0.1262489  35.27 0.0008465932    1.599    0.375
       303 -10.4177    245.5809    187.2292   9.0546794904e+01  -4.4120799067e+00    0.1888995    0.1118764 -29.35 0.0009113929    1.603    0.376
       304 -10.0606     37.0285    179.7660   1.3595736420e+02   3.3084005311e+01    0.2092291    0.1896578 -13.11  0.001342804    1.531    0.347
       305 -11.4752    246.0104    178.0713   8.8653640873e+01  -2.8930299528e+00    0.3100447    0.1916481  44.26  0.001331856    1.843    0.458
       306  -9.5803      1.7059    178.3465   1.4368900834e+02   3.6784120403e+01     0.125854   0.07153677  74.11   0.00070311    1.669    0.401
       307  -9.8564     12.6695     34.0992   1.1437466152e+02   6.6905607774e+01    0.1749019    0.1297866  16.41  0.000854123    1.456    0.313
       308 -11.7909    236.9829     32.0488   5.9381176296e+01   2.3540114751e+01    0.6670846     0.247106  72.12  0.002941936    2.659    0.624
       309 -11.7309    229.2325     29.1357   5.9550260953e+01   2.5583622543e+01    0.5309582    0.3809965  87.47  0.002766581    1.211    0.174
       310  -9.4793     80.3132    176.3515   1.2504867046e+02   2.8200901522e+01    0.1442874    0.1088984 -33.22  0.000704588    1.727    0.421
       311 -12.1697    170.9169     30.6084   6.7079159424e+01   3.8812105723e+01    0.5136383    0.2514766  72.83  0.001893144    2.062    0.515
       312 -12.0385    246.8512    171.9091   8.7270773071e+01  -1.9466537774e+00    0.3338557    0.2737603 -50.04   0.00143812    1.298    0.230
       313 -10.2757    146.0267     30.2759   7.1148854221e+01   4.4718788798e+01    0.3081232    0.1712579  56.57  0.001525737    1.558    0.358
       314 -12.0417    249.3070    161.9303   8.4833414688e+01  -5.8480074188e-01    0.4852395     0.405147  65.66  0.002853688    1.564    0.361
       315 -10.9335    147.3404     25.0172   6.9406659641e+01   4.5004424097e+01    0.3362055    0.2721915  11.98  0.001268272    1.538    0.350
       316 -10.3693     16.0894     31.2504   1.1186150202e+02   6.7076344354e+01    0.1735554    0.1398186 -27.39 0.0005175123    1.203    0.168
       317 -10.1758     93.2726     31.0385   8.3453224321e+01   5.6086098052e+01    0.2944524    0.1754961  66.18   0.00138841    2.471    0.595
       318 -10.3765     55.0428     29.6944   9.5322361380e+01   6.2804540011e+01    0.2045586    0.1515151 -10.39 0.0003521084    1.211    0.174
       319 -10.0389     51.2614     30.5538   9.7062744732e+01   6.3230132361e+01    0.2260385    0.1590111  -4.16 0.0006227738    1.315    0.239
       320 -10.8175    249.4798     29.4101   5.7717348845e+01   2.1275437464e+01    0.3765267    0.1714256  82.40   0.00150952    2.306    0.566
       321 -10.5434    244.9366     25.7403   5.7412825814e+01   2.2681016238e+01    0.2835905    0.1594387  76.74  0.001624212    1.637    0.389
       322 -11.0179    249.5558    155.6344   8.3505363921e+01   5.0037444007e-01    0.3140334    0.2166903 -50.69  0.001142101    1.439    0.305
       323  -9.7754     40.5698     26.7506   9.9750188511e+01   6.5157542091e+01    0.2163967   0.09767373 -32.05  0.001139054    2.074    0.518
       324 -10.3914     40.7338     21.5072   9.7591445909e+01   6.5817844749e+01    0.2226832    0.1296974 -29.45 0.0008130046    1.608    0.378
       325 -10.3231    176.9111     27.1641   6.5318529888e+01   3.7800616169e+01    0.2495605    0.2068799 -84.27 0.0009750972    1.134    0.118
       326 -10.9416    168.6401     24.2173   6.5760340919e+01   4.0090466547e+01    0.4728412    0.2003394  56.68  0.002126568    2.036    0.509
       327 -10.8267     51.3703     24.9246   9.4828278032e+01   6.3945542363e+01    0.3880567    0.1573169  32.52  0.001142971    2.385    0.581
       328 -10.2631     55.2624     17.5183   9.0426038392e+01   6.4249261549e+01    0.2142788     0.148682 -12.42 0.0007352919    1.352    0.260
       329  -9.9541    229.3111    166.3440   8.9219665814e+01   2.1221384100e+00    0.1451182    0.1056247  -7.96 0.0004541416    1.703    0.413
       330 -11.2665     14.1394    165.1075   1.3965952446e+02   3.8828335362e+01    0.2378086    0.1717229  44.14  0.001253607    1.547    0.354
       331 -11.9605     97.9642     22.0612   7.9031514972e+01   5.6162202410e+01     0.280645    0.2168594  31.62 0.0006247649    1.149    0.130
       332 -10.1886    238.8015    163.7976   8.7001873763e+01   8.9481357507e-01    0.1877148    0.1603969 -62.26 0.0009494815    1.360    0.265
       333 -10.7266    244.5448     20.7976   5.6501979284e+01   2.3379008167e+01    0.2560111    0.1604629 -68.24 0.0008146949    1.350    0.259
       334 -10.5992    240.6417     19.5641   5.6596526521e+01   2.4341786963e+01    0.2228827    0.1580674 -69.46 0.0006828519    1.147    0.128
       335  -9.6047    228.2219     21.5993   5.8111694948e+01   2.6740615531e+01    0.1504905    0.1002899  66.74 0.0002435183    1.466    0.318
       336 -10.7907      8.7828    162.6310   1.4065325386e+02   3.9855927516e+01     0.201042    0.1417991  49.62  0.001122165    1.545    0.353
       337 -10.1111      2.3468    161.6286   1.4204413160e+02   4.0587793414e+01    0.2462894    0.1307076 -48.59  0.001342549    2.039    0.510
       338 -10.4804     33.4048    155.7554   1.3382802028e+02   3.9262249566e+01    0.2042251     0.154518 -25.44 0.0007131431    1.779    0.438
       339 -10.5346    207.5368     16.5129   5.9090915113e+01   3.1921316904e+01    0.2897317    0.1993797  79.29  0.001156776    1.238    0.192
       340 -11.4880    229.5142    153.8926   8.6559524100e+01   4.4375183716e+00    0.3475705    0.2333348 -47.34 0.0006834139    1.410    0.291
       341  -9.8364    176.0330     20.2047   6.3693261027e+01   3.8793640516e+01    0.2173779    0.1284318 -84.52    0.0010671    1.947    0.486
       342 -10.1172    232.5466     18.3983   5.7074651667e+01   2.6194606730e+01    0.2125359    0.1105981 -38.17 0.0009114221    1.984    0.496
       343  -9.7822    226.3213     18.4030   5.7641696274e+01   2.7536129545e+01    0.2386186    0.1398864  55.59  0.001214623    1.938    0.484
       344  -9.6656    185.7616     18.6934   6.2063567679e+01   3.6682744468e+01     0.191655   0.08420591 -44.83 0.0008865229    2.322    0.569
       345 -10.6936     15.8230    151.8512   1.3776530620e+02   4.1824816212e+01    0.2707067    0.1795497  75.26  0.001177597    1.575    0.365
       346 -12.5157     20.3728    147.0459   1.3601543295e+02   4.2584033595e+01    0.5928525    0.3399525 -54.46  0.002941964    1.551    0.355
       347 -12.4689    246.5391    141.8778   8.1145137206e+01   3.5271381597e+00    0.7126363    0.4984898 -61.31  0.003692297    1.644    0.392
       348  -9.8724    141.4062     17.9332   6.8408744050e+01   4.7117378128e+01    0.1733261    0.1280468 -22.50  0.001016003    1.607    0.378
       349 -11.6432    242.2240    129.5531   7.9233116996e+01   6.5876490726e+00    0.4358149    0.2661823  42.46  0.002129921    1.943    0.485
       350 -12.7384    235.4338    135.8313   8.1673650474e+01   6.7234029111e+00    0.7244531    0.5292789   6.36  0.002897275    2.074    0.518
       351 -12.2278    241.9059    147.7005   8.3119270007e+01   3.3015673748e+00    0.4893651    0.3227833 -48.30   0.00209336    1.417    0.294
       352 -12.4790    235.6129    144.4603   8.3490137063e+01   5.0705286930e+00    0.5455446    0.4452558 -76.19  0.002978683    1.504    0.335
       353  -9.6837    137.5198     16.0184   6.8534441120e+01   4.8195255479e+01    0.2064337    0.1572134 -62.84  0.001220519    1.566    0.361
       354 -10.5108    127.4633     14.9949   7.0086862339e+01   5.0563567590e+01    0.4640242     0.138486  57.34  0.001858163    2.601    0.616
       355 -10.9321     39.1918    146.8279   1.3104014012e+02   4.0829936384e+01    0.3140025    0.2261262 -58.76  0.001444339    1.217    0.178
       356 -10.1861     92.5141     15.7975   7.8226867206e+01   5.7877468637e+01    0.2052365    0.1487806  47.60 0.0002352981    1.211    0.174
       357 -10.5106     38.4813    143.0486   1.3065204738e+02   4.1823643969e+01    0.2248918    0.2028238 -81.88 0.0003088569    1.085    0.078
       358  -9.8260    184.0238     14.2600   6.1217296663e+01   3.7563218669e+01    0.2554613    0.1062353  66.22 0.0006575693    2.009    0.502
       359 -10.4137      4.9879    147.3322   1.3993791651e+02   4.3727268616e+01    0.1638074    0.1403706 -77.03 0.0007052682    1.109    0.098
       360 -10.9698      6.6273    142.9882   1.3903277974e+02   4.4626294807e+01    0.3020279    0.1891563  48.23  0.001794274    1.825    0.452
       361  -9.9132    178.4207     14.3192   6.1925252897e+01   3.8860939432e+01    0.1582153    0.1114837 -51.19 0.0009276553    1.488    0.328
       362 -10.0713     66.6948     13.1436   8.4752632597e+01   6.2873785270e+01     0.273284    0.1245561  49.93  0.001359081    2.185    0.542
       363 -11.9067    212.4288    138.0987   8.6223100857e+01   1.0888707919e+01    0.5621415    0.4361273 -10.10  0.002337465    1.658    0.397
       364 -11.0485    222.8960    135.3152   8.3706181130e+01   9.2950511689e+00    0.2666363     0.185912 -50.77  0.001193674    1.369    0.270
       365 -12.1934     13.2398    130.8424   1.3574462145e+02   4.6992656708e+01    0.4852138    0.3541455  74.75  0.001453175    1.516    0.340
       366 -11.4732    249.4312    132.0618   7.8642242180e+01   4.7823804200e+00    0.4424272    0.3002511 -28.13  0.002288085    1.572    0.364
       367 -11.5513    224.0065    129.0059   8.2117680462e+01   1.0284317562e+01    0.4108377    0.2465745  57.50  0.001450617    1.912    0.477
       368 -11.4162    226.6307    125.5528   8.0906524342e+01   1.0408264154e+01    0.4192595    0.3035727 -73.72  0.001063903    1.724    0.420
       369 -11.1858     24.8131    128.5698   1.3218582781e+02   4.6601618194e+01    0.2950256    0.2282067  18.59  0.001015515    1.599    0.375
       370  -9.6351     72.9479    128.7836   1.1826345218e+02   4.0998756236e+01    0.1817277     0.119706  32.32 0.0008667533    1.678    0.404
       371 -10.0671    207.9759    127.0148   8.4538553604e+01   1.4027459595e+01     0.230184    0.1868246   0.31 0.0007484931    1.635    0.388
       372 -10.8828     56.9012    126.2952   1.2245816602e+02   4.3771606202e+01    0.3678073    0.2771151   0.69  0.001946277    1.720    0.419
       373 -10.0314    236.7634    126.4122   7.9428565558e+01   8.2224680056e+00    0.2362965    0.1847645  41.65  0.001171733    1.487    0.327
       374 -10.7577    246.6743    121.9222   7.6933037575e+01   7.1305922307e+00    0.2366555    0.2072329  80.84 0.0008741625    1.286    0.222
       375 -11.2443    217.1679    120.1254   8.1312393421e+01   1.3411897657e+01    0.4488997    0.3001435 -31.64  0.002111511    1.607    0.378
       376 -10.7017     19.2626    120.1112   1.3244350741e+02   4.9042255357e+01    0.3878177    0.1066792 -48.41   0.00148219    3.108    0.678
       377  -9.8156     28.0000    119.9456   1.2984447301e+02   4.8355150074e+01    0.2144874   0.06238409 -63.85 0.0006192875    2.850    0.649
       378 -11.6503      8.3807    109.6630   1.3400115841e+02   5.2209437768e+01    0.5237422    0.1343482 -44.89  0.001980563    3.591    0.722
       379 -11.7367     22.3719     95.8272   1.2708103151e+02   5.4309186964e+01    0.3420749    0.2725223 -39.57  0.001148838    1.125    0.111
       380 -10.8123      5.6139    115.8417   1.3575924947e+02   5.0981589951e+01    0.2249747    0.1716862 -61.64 0.0009263725    1.031    0.030
       381 -11.9157     18.1560    103.8233   1.2998881978e+02   5.2853318208e+01    0.3675767    0.2625039  46.48   0.00177058    1.758    0.431
       382 -12.0190     16.1917     98.4990   1.2962530399e+02   5.4182356494e+01    0.4212002    0.2208494 -28.46  0.002150513    2.223    0.550
       383 -12.0359    230.4507    105.0664   7.5762175741e+01   1.3425821522e+01    0.6089372     0.497303 -27.75  0.003353365    1.384    0.277
       384 -12.4002    238.0189    113.5053   7.6445854166e+01   1.0345917037e+01    0.6822463    0.3888952 -38.72  0.002305604    1.631    0.387
