#   1 NUMBER                 Running object number                                     
#   2 MAG_AUTO               Kron-like elliptical aperture magnitude                    [mag]
#   3 X_IMAGE                Object position along x                                    [pixel]
#   4 Y_IMAGE                Object position along y                                    [pixel]
#   5 X_WORLD                Barycenter position along world x axis                     [deg]
#   6 Y_WORLD                Barycenter position along world y axis                     [deg]
#   7 A_WORLD                Profile RMS along major axis (world units)                 [deg]
#   8 B_WORLD                Profile RMS along minor axis (world units)                 [deg]
#   9 THETA_WORLD            Position angle (CCW/world-x)                               [deg]
#  10 FWHM_WORLD             FWHM assuming a gaussian core                              [deg]
#  11 ELONGATION             A_IMAGE/B_IMAGE                                           
#  12 ELLIPTICITY            1 - B_IMAGE/A_IMAGE                                       
         1 -12.9561    176.8349     39.6678   6.7642185095e+01   3.5496749197e+01     1.058099    0.8674906  19.64  0.004231621    1.552    0.356
         2 -11.3540     73.6487     41.3354   9.1307195861e+01   5.7040934290e+01    0.5245489    0.1140297 -34.26  0.001717007    4.732    0.789
         3 -12.1925    193.6389      8.9595   5.8326977421e+01   3.5045983852e+01    0.7120774    0.4946417 -57.30   0.00443319    1.455    0.313
         4 -11.8581    198.2473      5.1505   5.7036016354e+01   3.4402887282e+01    0.6970027    0.4027555 -60.95  0.004041298    1.791    0.442
         5  -8.6581    152.2957    210.6474   1.1269182079e+02   8.6113146416e+00    0.1399373    0.1120576  78.93 0.0004630396    1.687    0.407
         6  -9.1800    150.1919    250.4341   1.1954649338e+02   1.5446074676e+00    0.1945395    0.1055133  46.54 0.0009565687    1.765    0.433
         7 -19.5373     45.1398    151.6113   1.2852809945e+02   3.8768530382e+01     21.03117     3.709401 -63.50   0.05445245    5.844    0.829
         8  -9.4586    150.9005    183.0760   1.0781357796e+02   1.4597450488e+01    0.2228982    0.2029278  78.12 0.0004970532    1.268    0.211
         9  -9.1834    204.8436    176.9806   9.4913065013e+01   5.6232898865e+00    0.3361636    0.1829693 -46.80  0.001467522    1.892    0.471
        10  -9.9054    193.0279    194.7644   1.0094455871e+02   4.3952719260e+00    0.6508677    0.3038478 -60.22  0.001770222    6.100    0.836
        11  -9.0298      2.8486    176.6726   1.4186122078e+02   3.6903986208e+01    0.1130164   0.06253047 -62.95 0.0002673184    1.505    0.336
        12 -10.5697    126.2356    173.6366   1.1176539615e+02   2.1289662943e+01    0.4900589    0.2868533  65.99      0.00178    2.950    0.661
        13  -8.7750    165.6694    172.9376   1.0236607728e+02   1.3914524166e+01    0.2085373    0.1882922 -42.75 0.0004053479    1.119    0.106
        14  -9.4904    141.6618    170.2990   1.0736923545e+02   1.9142166340e+01    0.2350441    0.1832756  85.14  0.001086284    1.766    0.434
        15  -9.8492    160.0307    197.2068   1.0850997955e+02   9.9366201766e+00     0.237443    0.2171607 -66.19 0.0003179106    1.249    0.199
        16  -9.3672    204.5746    167.0000   9.2857523966e+01   7.5810413532e+00    0.2823105    0.1970816  24.22  0.001363264    1.624    0.384
        17  -9.9289    193.4874    165.9218   9.4864058043e+01   9.9154378323e+00    0.3073067    0.2591579 -36.97 0.0007215122    1.141    0.123
        18  -9.4991    190.2995    161.3249   9.4523571785e+01   1.1453042284e+01    0.3652672    0.2580811  64.58  0.001658111    1.948    0.487
        19  -8.1379    113.2973    160.6447   1.1235015573e+02   2.6614629846e+01    0.1530998    0.1184066  84.98 0.0003549036    1.697    0.411
        20 -10.0087     99.2617    158.2348   1.1546607735e+02   2.9608428545e+01    0.2639407    0.2464718 -25.09  0.000338161    1.119    0.106
        21  -9.9328    189.1316    155.0547   9.3381948154e+01   1.2940833740e+01    0.3761067    0.3384661 -60.56  0.001820127    1.231    0.188
        22 -11.8811     88.7480    152.2576   1.1703070065e+02   3.2729440330e+01    0.4807618    0.3096725 -42.17 0.0008926911    1.567    0.362
        23  -9.5084    164.1885    152.1809   9.8152618511e+01   1.8603456165e+01    0.2103816    0.1848826 -80.82 0.0005914221    1.367    0.269
        24  -9.5728    151.7898    191.6667   1.0929620266e+02   1.2605553397e+01    0.2717088    0.1810729 -59.40  0.001244145    1.765    0.433
        25  -8.4819    174.6913    149.2998   9.5159490033e+01   1.7050696832e+01    0.1482828     0.122395 -86.18 0.0002341078    1.598    0.374
        26  -9.8538    134.1636    146.7522   1.0405693089e+02   2.5852184387e+01    0.5910121      0.18945 -53.01  0.001682136    3.829    0.739
        27 -11.0040    103.5006    151.8203   1.1304141549e+02   3.0389324637e+01    0.6105999    0.4147983 -25.56   0.00177119    1.884    0.469
        28 -11.3016    101.7981    137.4301   1.1035060720e+02   3.4018125193e+01    0.3148081    0.2682608 -30.56 0.0003555203    1.187    0.157
        29 -10.3592    112.5827    137.7406   1.0752904910e+02   3.2012258971e+01    0.4628949    0.2913699 -32.51  0.001987802    1.804    0.446
        30  -9.9367    105.9689    130.8121   1.0768354205e+02   3.4784369076e+01    0.3862549    0.3166592 -59.54  0.001403767    1.286    0.222
        31  -9.1922    117.8992    128.8969   1.0402188600e+02   3.2993816167e+01    0.2392886    0.2029047 -11.33 0.0006615054    1.295    0.228
        32  -9.6240    106.3530    124.6960   1.0610758654e+02   3.6081256994e+01    0.2749351    0.2354077 -13.19 0.0005885872    1.247    0.198
        33  -8.7315    112.9042    118.4830   1.0277466030e+02   3.6219615159e+01    0.2208433    0.1480375  40.40  0.000645499    1.527    0.345
        34  -9.6250    167.9048    112.8711   8.7916650070e+01   2.5859740829e+01    0.4046344    0.2708903 -70.48   0.00139298    2.244    0.554
        35  -8.7323    206.0081    110.0000   7.9802795950e+01   1.8086732960e+01    0.2262614   0.08199327  52.16 0.0006982355    2.907    0.656
        36 -10.9314     84.3270    107.7658   1.0815193741e+02   4.3560873987e+01    0.3449643    0.2793841 -39.31  0.001759224    1.152    0.132
        37  -8.5105     11.9519    205.0811   1.4251488848e+02   2.9857391372e+01    0.2895137     0.149905 -62.82  0.001654507    1.732    0.423
        38  -8.3686    149.6846     81.3120   8.3640302024e+01   3.5687503563e+01    0.1450383    0.1149409 -79.93 0.0007033172    1.638    0.390
        39 -10.0571     85.0916     77.0264   9.9339977162e+01   4.9507531806e+01    0.2140105    0.1907638  -1.66 0.0005349644    1.011    0.011
        40  -8.3043    176.6864     75.2716   7.6633807418e+01   3.0534935621e+01     0.139834    0.1075729 -80.36 0.0001643663    1.554    0.357
        41  -8.7912    153.4949    201.5090   1.1077186412e+02   1.0247797894e+01     0.256075    0.1406015 -59.98  0.001035348    2.413    0.586
        42 -12.4153    163.4451     54.7115   7.3710541758e+01   3.6623006700e+01     0.737997    0.5160728 -41.68  0.001651882    1.508    0.337
        43  -9.8441    142.0198    199.6979   1.1301845157e+02   1.2696605691e+01    0.2052327     0.187077  34.77 0.0006278201    1.057    0.054
        44 -11.0944    249.2718    246.7189   9.9815122852e+01  -1.2699980506e+01    0.4831286    0.1909289 -44.53  0.002132196    3.452    0.710
        45 -11.4743    181.4080     32.3529   6.5193171856e+01   3.5320886749e+01    0.4546556    0.3640857  31.09  0.001422687    1.538    0.350
        46  99.0000     13.1789    245.1553   1.4528057834e+02   2.1498463557e+01    0.3163006    0.1360348 -64.02  0.001790063    2.245    0.554
        47  -9.0914    167.9656    230.9866   1.1284568733e+02   2.0447053243e+00    0.1967512    0.1791437   8.03 0.0004371826    1.055    0.052
