#   1 NUMBER                 Running object number                                     
#   2 MAG_AUTO               Kron-like elliptical aperture magnitude                    [mag]
#   3 X_IMAGE                Object position along x                                    [pixel]
#   4 Y_IMAGE                Object position along y                                    [pixel]
#   5 X_WORLD                Barycenter position along world x axis                     [deg]
#   6 Y_WORLD                Barycenter position along world y axis                     [deg]
#   7 A_WORLD                Profile RMS along major axis (world units)                 [deg]
#   8 B_WORLD                Profile RMS along minor axis (world units)                 [deg]
#   9 THETA_WORLD            Position angle (CCW/world-x)                               [deg]
#  10 FWHM_WORLD             FWHM assuming a gaussian core                              [deg]
#  11 ELONGATION             A_IMAGE/B_IMAGE                                           
#  12 ELLIPTICITY            1 - B_IMAGE/A_IMAGE                                       
         1 -11.9056     77.8258     15.7770   4.8056011193e+01   6.0963600799e+01     1.226488    0.7267854  22.23  0.006578298    1.877    0.467
         2 -12.1393     71.1756      6.8550   4.6505954215e+01   6.3088174173e+01     1.611112      1.20331 -75.59  0.009292321    2.412    0.585
         3 -12.0357     76.9495      4.2057   4.3774967996e+01   6.2163956887e+01     1.679641     0.917774  71.68  0.008214769    2.588    0.614
         4  -8.1609     45.1792      2.6339   5.3717001272e+01   6.8165795909e+01      0.17247   0.08192355  37.04 0.0009444607    1.690    0.408
         5  -8.9399    159.1270    242.1812   8.3228298211e+01   3.5171772121e-01    0.2383235     0.214113  23.54 0.0003159536    1.127    0.113
         6 -11.2985    243.5975    247.8685   6.7281094065e+01  -1.1492392334e+01     1.115173    0.4853073  23.36  0.005883397    2.282    0.562
         7 -13.0387     40.2381    245.6864   1.0999775215e+02   1.6168863144e+01     3.236126       1.1205  30.14   0.01386121    2.858    0.650
         8 -13.3313     11.1347    234.5964   1.1523314501e+02   2.1636820551e+01     4.231591      1.38216  34.62   0.01976757    2.646    0.622
         9  -9.9729    127.4089    229.7004   8.8511184787e+01   7.5818576201e+00    0.2531043    0.2339587 -41.07 0.0005950689    1.170    0.145
        10  -8.9072    185.9791    245.7117   7.8053293979e+01  -4.0785005383e+00    0.1852494    0.1462397  16.38 0.0004595435    1.105    0.095
        11  -7.5589     92.3205    222.3314   9.5807392935e+01   1.4493606064e+01    0.1393622     0.107391 -19.74 0.0007048981    1.695    0.410
        12  -8.4613     79.0253    221.8358   9.8937135404e+01   1.6508039023e+01    0.2181185    0.1908017 -76.79 0.0003507021    1.172    0.147
        13 -10.6864    242.3057    209.4088   6.0878970567e+01  -5.4692474535e+00    0.4854591    0.3648264  23.39  0.002770318    1.436    0.304
        14 -10.7900    249.9259    212.2755   6.0080380706e+01  -6.8588311098e+00    0.7164394    0.3773133 -27.62   0.00389319    1.652    0.395
        15  -9.7449    250.2517    205.6606   5.8843852042e+01  -5.8411109999e+00    0.3658333    0.2632808 -48.36  0.001899512    1.673    0.402
        16  -8.4161    150.9058    216.9035   8.0992875316e+01   6.5346103638e+00    0.2010541    0.1874638   5.10 0.0003877386    1.035    0.034
        17  -8.2263    167.8043    250.5977   8.2640154062e+01  -2.3845959491e+00    0.1816463    0.1067558  38.04 0.0006331269    1.642    0.391
        18  -7.7475    229.8343    206.3506   6.2550531927e+01  -3.3457027343e+00    0.1761516    0.1101657  17.57  0.000595984    1.728    0.421
        19  -8.9366     11.3545    203.0277   1.1308364555e+02   2.8812084400e+01    0.2283574    0.1923361 -51.42 0.0007014259    1.397    0.284
        20  -8.3006    160.0915    237.6823   8.2315498940e+01   1.0381173199e+00    0.1895483     0.184495 -12.03 0.0003491302    1.213    0.176
        21  -7.4790     78.3892    198.1997   9.5999559503e+01   2.2230517780e+01     0.192808    0.1351652 -79.68 0.0003200815    1.551    0.355
        22  -7.7565    188.8521    236.1413   7.5892573614e+01  -2.8478346990e+00    0.1835414    0.1638104  10.36 0.0003715061    1.165    0.141
        23  -9.1745    249.3466    195.7308   5.7194660132e+01  -4.1051031059e+00     0.312998    0.1357001 -48.92  0.001377936    2.669    0.625
        24  -7.7612     59.1968    197.3647   1.0084305434e+02   2.5037548410e+01    0.1999536    0.1186315  42.02 0.0004216625    1.629    0.386
        25  -8.5539     14.6751    187.8461   1.1107843836e+02   3.2206198501e+01    0.1864488    0.1774002  15.89 0.0005608745    1.300    0.231
        26  -7.5402    111.7803    182.9965   8.4733350717e+01   2.0770214125e+01    0.1984677    0.1241054 -55.12 0.0003475726    1.610    0.379
        27  -7.9256    250.3292    182.6970   5.4626677060e+01  -2.0465253335e+00    0.1144298   0.09556909 -61.16 0.0007034291    1.649    0.394
        28  -8.6315    248.4699    178.5001   5.4142204829e+01  -1.0805970858e+00    0.2096343    0.1161132  22.87  0.001041706    2.407    0.584
        29 -10.1413    101.3217    176.3562   8.6343893306e+01   2.4167809116e+01    0.6247281    0.3801545 -39.72  0.001939081    1.824    0.452
        30 -10.0601     97.0048    175.5247   8.7378859731e+01   2.5083600202e+01    0.3587916    0.2164853  39.33  0.001313231    1.647    0.393
        31  -8.5218     89.4619    178.5009   8.9977110892e+01   2.5525997984e+01      0.14868    0.1457314 -68.14  5.20281e-05    1.019    0.019
        32 -10.2424     89.3117    171.8510   8.8862754154e+01   2.7247264746e+01    0.4626088    0.2917894 -25.35  0.001854046    2.269    0.559
        33  -9.4190    160.7154    164.4563   6.8600996191e+01   1.6279991637e+01    0.2638455    0.2426724 -33.84 0.0003268798    1.043    0.041
        34  -8.6753    104.0095    157.9375   8.2041768717e+01   2.8369334424e+01    0.2270912    0.2209509 -34.14 0.0002966928    1.017    0.017
        35 -11.2051     72.3959    159.3494   9.1516269321e+01   3.3029711502e+01    0.9280581    0.3014462 -51.88  0.003072235    2.797    0.642
        36  -9.0497     92.7864    143.1820   8.2227020519e+01   3.4038401198e+01    0.3580417    0.1327061 -61.78   0.00104379    3.477    0.712
        37  -7.9021    111.6270    132.9094   7.4307894356e+01   3.3214292133e+01    0.2242816    0.1954279 -51.06  0.000513115    1.136    0.120
        38  -9.0487     59.1760    131.0038   9.0273389847e+01   4.2210807037e+01    0.2254597     0.164217  54.45  0.001076471    1.625    0.385
        39  -8.2458    244.7989    134.1087   4.6143904233e+01   7.2475040580e+00     0.192743    0.1520059 -54.74 0.0005276766    1.221    0.181
        40  -9.5975     55.1557    121.9662   8.9748942913e+01   4.5024087517e+01     0.334857    0.2579755 -67.61   0.00120304    1.330    0.248
        41  -9.1724    169.8386    118.4912   5.6002561080e+01   2.4453136465e+01     0.407298    0.2906014 -25.94 0.0009516733    1.639    0.390
        42  -7.7814     90.3062    114.4639   7.6255025231e+01   4.1555349872e+01    0.3018562    0.1467573  19.98 0.0009486547    3.410    0.707
        43  -9.9942     74.9129    105.6672   7.9094353835e+01   4.6199407527e+01    0.2715718    0.2417204 -29.39 0.0002739718    1.061    0.057
        44  -8.0092     86.2173    106.1692   7.5424610441e+01   4.4206995591e+01    0.1999047    0.1819661  77.80 0.0003327411    1.321    0.243
        45  -8.4739    147.0263    104.7694   5.7727375058e+01   3.2213545212e+01    0.2042544    0.1988761  38.93   0.00110639    1.046    0.044
        46  -8.3927    158.9826     98.0082   5.3252931459e+01   3.0914823708e+01    0.2700373    0.1646924  75.20  0.001028904    2.588    0.614
        47  -8.2888    163.5141     92.5136   5.0885321155e+01   3.0947588755e+01    0.1465164    0.1397434 -77.48 0.0003359591    1.016    0.016
        48  -9.9450    184.0016     89.5395   4.6216637778e+01   2.6952104105e+01      0.35704    0.2404936 -15.24  0.001567801    2.360    0.576
        49  -7.0651    124.8158     88.4014   5.8871502695e+01   4.0351133338e+01    0.2002177    0.1381498  35.30  0.000394991    1.523    0.343
        50  -8.5806    191.4679     81.5152   4.3042622261e+01   2.6716750655e+01    0.1361338    0.1278081 -68.54 1.803634e-05    1.064    0.060
        51 -10.0257    187.9856     77.5068   4.2662304327e+01   2.8146238612e+01    0.2863329    0.2053605 -44.50 0.0007101576    1.343    0.255
        52  -9.9594    196.2512     73.5092   4.0433950037e+01   2.7000542945e+01    0.2521967    0.2059209  32.80  0.001416265    1.629    0.386
        53  -9.1217    171.6093     72.7856   4.4303761698e+01   3.2579531947e+01    0.2044817    0.1225852 -50.07 0.0005135524    1.683    0.406
        54  -9.3693    192.8443     66.9854   3.9432094087e+01   2.8770523459e+01    0.2065202    0.1628245   0.27  0.001087989    1.996    0.499
        55  -7.7682    149.7729     64.1908   4.6203367407e+01   3.8965275293e+01    0.1881113    0.1614093  33.00  0.000771608    1.304    0.233
        56  -7.9003    142.0448     61.6414   4.7098226284e+01   4.1144381007e+01    0.2013065    0.1641403  58.52 0.0004008078    1.153    0.133
        57  -8.7805    190.7547     58.2172   3.7692873538e+01   3.0554009565e+01    0.2063288   0.08866834  52.73 0.0006901943    2.422    0.587
        58  -8.9894    215.9719     56.8102   3.4119653218e+01   2.5383692498e+01    0.2070599    0.1618908 -54.74 0.0004335034    1.148    0.129
        59  -8.0978    228.3530     52.2415   3.1813850707e+01   2.3540908242e+01    0.1840331    0.1511829  72.11 0.0009369022    1.311    0.237
        60  -8.4277    111.8174     51.9473   5.1306615897e+01   4.9431773397e+01    0.2204882     0.179953  48.58 0.0002446045    1.124    0.111
        61  -8.8964    200.4073     55.2083   3.5692074795e+01   2.8888628654e+01    0.1874689    0.1051332 -50.74 0.0005945312    1.669    0.401
        62  -9.0982    201.8283     42.9947   3.2808673586e+01   3.0269736883e+01    0.1856921    0.1517759  11.65  0.001093449    1.991    0.498
        63  -7.2818    179.5779     38.5710   3.4596921311e+01   3.5743223878e+01    0.1272491    0.1108936  89.31 0.0001494669    1.020    0.019
        64 -10.3428    191.2222    247.7294   7.7295597665e+01  -5.1206758943e+00    0.2508349    0.2136373  -0.60 0.0004759307    1.087    0.080
        65  -8.7592     79.8174    234.9337   1.0028476869e+02   1.3471206066e+01    0.1947836    0.1777273 -32.84 0.0007062203    1.309    0.236
        66  -9.1210    157.7727    246.7748   8.4222899890e+01  -2.8250239081e-01    0.2985082    0.2078125  33.91  0.001064142    1.312    0.238
        67  -8.0198    158.0089     24.0531   3.3980819997e+01   4.2371484140e+01    0.1864348    0.1608842  78.70 0.0003657989    1.017    0.017
