#   1 NUMBER                 Running object number                                     
#   2 MAG_AUTO               Kron-like elliptical aperture magnitude                    [mag]
#   3 X_IMAGE                Object position along x                                    [pixel]
#   4 Y_IMAGE                Object position along y                                    [pixel]
#   5 X_WORLD                Barycenter position along world x axis                     [deg]
#   6 Y_WORLD                Barycenter position along world y axis                     [deg]
#   7 A_WORLD                Profile RMS along major axis (world units)                 [deg]
#   8 B_WORLD                Profile RMS along minor axis (world units)                 [deg]
#   9 THETA_WORLD            Position angle (CCW/world-x)                               [deg]
#  10 FWHM_WORLD             FWHM assuming a gaussian core                              [deg]
#  11 ELONGATION             A_IMAGE/B_IMAGE                                           
#  12 ELLIPTICITY            1 - B_IMAGE/A_IMAGE                                       
         1 -11.7648    202.0166     35.4889   4.2471637266e+01   3.0482998038e+01    0.7858191    0.5117465  24.60  0.002830742    2.672    0.626
         2 -10.8369    205.8928     19.1994   3.8041994884e+01   3.1539977172e+01     1.249627    0.3364952 -39.91  0.003851535    3.128    0.680
         3 -11.0183    190.4568     45.3496   4.6550235392e+01   3.1956148261e+01     3.042179      1.68154 -24.01   0.01224196    2.251    0.556
         4 -13.7892    197.5625     79.6631   5.4372845467e+01   2.4937256189e+01     6.850093     2.756951 -24.47     0.018995    4.998    0.800
         5 -12.3940    214.7248     23.4815   3.8157308684e+01   2.8987680985e+01    0.9804516    0.6905049  26.91  0.002544761    2.314    0.568
         6 -15.5753    219.1541     79.1821   5.0864160516e+01   2.0074367757e+01     9.947451     5.976318 -67.49   0.02929369    2.154    0.536
         7 -12.9420    220.1874     35.0324   4.0277368330e+01   2.6306423459e+01     2.645706    0.7798229 -38.88   0.01033811    2.877    0.652
         8 -14.3383    243.8066     74.5059   4.6510948191e+01   1.5554444639e+01     2.021309      1.03755 -42.29  0.005248509    1.671    0.401
         9 -15.4372    244.0441     51.0419   4.1357106369e+01   1.8942638566e+01     3.559869     2.201401  48.02   0.01623571    2.093    0.522
        10 -13.6013    249.8340     28.6937   3.6110718617e+01   2.0693037052e+01    0.9907468    0.3619867 -35.91  0.001294326    2.462    0.594
        11 -13.4556    231.8238     28.7297   3.7692619474e+01   2.4507365864e+01     1.474962    0.7857772 -69.38  0.003537648    1.986    0.496
        12 -11.8442    119.1750      9.0571   4.7589998301e+01   5.3717374592e+01    0.6660893    0.5590696   8.39  0.002638938    1.323    0.244
        13  -9.3209     90.4461     11.9915   5.5599484629e+01   5.9936174183e+01     0.181437    0.1247141 -16.54 0.0005760132    1.572    0.364
        14  -8.7089    230.1063      8.9778   3.3563836187e+01   2.7184878631e+01    0.1597827    0.1063422 -59.18 0.0004421296    1.284    0.221
        15 -13.6337    247.4005      9.0534   3.2322693824e+01   2.3507672113e+01     1.434386     0.948828   0.36  0.007348602    3.342    0.701
        16  -8.5943    216.5543      7.5087   3.4333381614e+01   3.0358156221e+01    0.1265031    0.1010448 -75.75 0.0002355929    1.034    0.033
        17 -10.1804    230.3850      1.4714   3.1958667496e+01   2.7919873603e+01    0.1828306     0.116399  72.70  0.001110857    1.482    0.325
        18 -11.2592    235.4060      3.0429   3.1932878904e+01   2.6675512861e+01    0.3337219    0.2496172  55.44  0.001093793    1.668    0.400
        19  -9.1209    240.5237      1.4305   3.1259075857e+01   2.5761180027e+01    0.1388144    0.1164419  72.84   0.00011634    1.358    0.263
        20 -10.3197    136.9642      3.8859   4.2610922400e+01   4.9883825931e+01    0.4437285    0.2000369 -18.65   0.00199113    2.720    0.632
        21  -9.2263    148.0064      3.5177   4.0818154387e+01   4.7212152703e+01    0.3690161    0.1802596  -4.26  0.001304725    3.328    0.700
        22  -8.6657    182.0091      3.4672   3.6611486083e+01   3.8886399863e+01     0.214054    0.1815054  20.45  0.001337006    1.561    0.360
        23  -9.0295    159.1325      2.2701   3.8940739065e+01   4.4584125409e+01    0.2412352    0.1746532  16.19  0.001348683    1.853    0.460
        24  -8.6647    159.8124    158.8297   8.1626751819e+01   1.7683337130e+01    0.2069191    0.1838299 -84.58 0.0008680032    1.336    0.251
        25  -8.9676    238.1513    250.1924   8.2549403131e+01  -1.0714022748e+01    0.1419839     0.118053  14.96 0.0003989271    1.293    0.226
        26 -10.8452    231.0189    167.8148   6.8836422239e+01   2.3638187310e+00    0.4067463    0.2427789 -43.89   0.00201545    1.709    0.415
        27 -10.1235    101.0020    176.0017   9.9510086961e+01   2.4826300766e+01     0.200212    0.1885966  69.19   0.00113958    1.012    0.012
        28  -8.5727     50.8326    175.1258   1.1207951914e+02   3.2275220147e+01    0.1579077    0.1462806 -58.75            0    1.240    0.193
        29  -8.6008    200.4127    173.7647   7.5905007488e+01   6.7760980003e+00    0.2085145    0.1277568 -28.05  0.000952996    1.734    0.423
        30  -9.5615    214.5836    169.0759   7.2141471743e+01   5.0343048378e+00    0.4106087     0.201147  46.02  0.001764305    2.226    0.551
        31 -10.8830     24.3666    167.4176   1.1781156311e+02   3.6948086360e+01    0.2878852     0.196004  88.98  0.001687864    1.284    0.221
        32 -10.4258    242.9836    165.6001   6.6301292861e+01   7.2700772544e-01    0.3633931    0.2027829 -44.59  0.001782288    1.847    0.459
        33  -8.3468    207.7929    164.6077   7.2524456191e+01   7.0856890067e+00    0.1949494    0.1339983  52.96 0.0007164644    1.744    0.427
        34  -8.3582    208.7827    239.8027   8.6264401570e+01  -5.3584677780e+00    0.1499316    0.1303787  25.80 0.0003878886    1.268    0.212
        35  -8.1623    238.3481    223.3074   7.8045291613e+01  -7.2860445499e+00    0.1291681   0.07898612   2.76 0.0007043375    1.704    0.413
        36  -8.6813    207.7870    222.5333   8.3600518850e+01  -2.6972849903e+00    0.1767879    0.1738109   9.48 0.0006778446    1.396    0.284
        37  -8.9526    195.7773    216.4193   8.4914871165e+01   1.6082307420e-01    0.1880214    0.1766572 -19.29 0.0006104872    1.242    0.195
        38 -14.2364    175.4845     78.1106   5.7965348767e+01   3.0492915162e+01     3.636859     1.649549  59.73  0.001643174    2.334    0.572
        39 -10.1511    227.3026    215.7582   7.8722091288e+01  -4.6386957849e+00    0.2155009    0.1798205   3.23 0.0003068405    1.054    0.052
        40  -9.0671     36.3393    214.6692   1.1911457964e+02   2.5006553724e+01    0.1341203   0.07041837  64.06 0.0005016701    1.741    0.426
        41 -12.0719     66.8499    143.2880   1.0322980343e+02   3.8047030964e+01      1.42168    0.9974631  38.11   0.00518627    1.487    0.328
        42 -12.2108     37.2630    155.1071   1.1318859649e+02   3.8653159445e+01    0.5114127    0.4648109 -62.91  0.001259931    1.175    0.149
        43 -12.4780     44.6285    151.3896   1.1072480023e+02   3.8778043229e+01    0.8872492    0.6167364 -74.61  0.002680116    1.292    0.226
        44 -12.1148     51.2868    148.8899   1.0853459495e+02   3.8634055702e+01    0.8046842    0.4884731 -80.32  0.001876077    1.672    0.402
        45  -9.9171    204.7549    153.9056   7.0824484528e+01   9.6495150446e+00    0.4355137    0.3224345 -68.60  0.001075104    1.979    0.495
        46 -11.0130     18.5871    154.8654   1.1805102973e+02   4.0462673193e+01    0.2418309    0.2305454 -37.92  0.001683752    1.314    0.239
        47 -10.3874    191.8440    151.8717   7.2993908029e+01   1.2600546877e+01    0.4545833    0.3022262 -68.43  0.001864337    2.461    0.594
        48  -8.8944    154.7773    152.3846   8.1419533833e+01   2.0103534835e+01    0.2408203    0.2082204 -59.34   0.00097463    1.243    0.195
        49  -9.6415    173.3663    150.5363   7.6692103166e+01   1.6654015507e+01    0.3047773    0.1915058 -39.56  0.001038687    1.600    0.375
        50  -9.9531    134.2252    147.0126   8.5342429313e+01   2.5498219644e+01    0.8349771     0.256461 -53.06   0.00239104    3.723    0.731
        51  -9.4619    133.0000    140.5391   8.4209845593e+01   2.7237106630e+01    0.5754024     0.189098 -54.00  0.001651226    3.647    0.726
        52  -8.9427    146.4172    148.2455   8.2538833284e+01   2.2737318230e+01    0.2189961    0.1494185 -59.34 0.0008813551    1.661    0.398
        53 -10.1716    147.8179    144.4587   8.1340215330e+01   2.3292693649e+01    0.4362032     0.288886 -85.74  0.001584702    2.841    0.648
        54  -9.1949    222.6216    145.1744   6.5544462503e+01   7.8137695975e+00    0.2002993    0.1951976  73.54 0.0003767496    1.219    0.179
        55 -10.7691    179.5633    143.7345   7.3776458663e+01   1.6761266010e+01    0.4685165    0.2808213 -41.58  0.001525366    1.646    0.393
        56  -9.8700    196.2803    143.0643   7.0103336594e+01   1.3416596059e+01    0.3816743    0.2670602  66.95 0.0003766044    1.986    0.496
        57  -9.6834    158.9847    142.7145   7.8233429464e+01   2.1329541340e+01    0.2867474    0.2241871 -73.61  0.001315181    1.630    0.386
        58  -9.4564    201.2661    139.9619   6.8399788171e+01   1.2992458829e+01    0.2122103    0.1936474 -30.76  0.001163548    1.043    0.041
        59  -8.9904    192.1114    144.0942   7.1191042238e+01   1.4073293727e+01    0.2364365    0.2121758  40.82  0.000400655    1.150    0.130
        60 -10.1798    210.9334    136.3300   6.5715394205e+01   1.1711830441e+01    0.2955952    0.2043471 -31.80 0.0008331914    1.399    0.285
        61  -8.6709    166.8141    134.4037   7.4449031287e+01   2.1429557803e+01    0.2132141    0.1466221  33.81 0.0003555055    1.565    0.361
        62 -10.3731    160.5505    128.1677   7.4398829650e+01   2.4125732542e+01    0.3765444    0.3145341 -47.36  0.001615234    1.201    0.167
        63  -9.7259    139.8194    131.0652   8.0220274490e+01   2.7982919661e+01    0.4200436    0.2619363 -71.35   0.00149432    2.557    0.609
        64  -9.8002    135.2745    132.9942   8.1859885441e+01   2.8500829895e+01    0.3292763    0.2599085 -46.81   0.00156349    1.269    0.212
        65 -10.1163    136.1379    127.5731   8.0326089972e+01   2.9552969123e+01    0.6128145    0.1964837 -49.27  0.001822504    3.244    0.692
        66  -9.5602    171.9003    124.6442   7.0925908668e+01   2.2351676471e+01     0.538864    0.1913658 -38.16  0.001687426    3.009    0.668
        67  -9.1603    142.6076    122.7913   7.7467651667e+01   2.9235028683e+01    0.2292293    0.1488729 -55.97  0.000948569    1.695    0.410
        68  -9.0433    196.9419    212.0199   8.3912594595e+01   6.8845664261e-01     0.197505    0.1696304  11.94 0.0003083875    1.005    0.005
        69  -9.3017    135.2140    120.0328   7.8688082163e+01   3.1449840419e+01      0.33296    0.1850533 -46.75 0.0009942687    1.799    0.444
        70 -12.1061    227.9178     34.3449   3.9318467746e+01   2.4658787230e+01    0.5419556    0.2669951 -45.89 0.0006853868    1.794    0.442
        71 -10.4005    168.9091    115.4427   6.9287496054e+01   2.4917090859e+01    0.4161104    0.3229097 -59.29  0.001372696    1.418    0.295
        72 -10.3337    164.5417    116.3783   7.0516324299e+01   2.5717207049e+01    0.3791443     0.244051  62.52  0.001560596    1.888    0.470
        73 -10.7603    135.9013    110.0089   7.5897856709e+01   3.3517666466e+01    0.9682903    0.6737902   3.27  0.003810378    2.314    0.568
        74  -9.4573    134.6249    104.1755   7.4659235815e+01   3.5061438022e+01    0.4559774    0.2201298 -34.63   0.00152224    2.439    0.590
        75 -10.2031    135.0342     99.2518   7.3189158725e+01   3.6015133158e+01    0.4649246    0.3338533  79.39 0.0005147484    2.024    0.506
        76 -11.9473    117.3903     92.1563   7.6023503497e+01   4.1377564850e+01    0.7581825    0.5854449  36.03  0.003647689    1.318    0.241
        77 -12.1361    122.7355    102.8543   7.7534009238e+01   3.7938724589e+01     1.029511    0.7099398 -78.52  0.003552714    2.306    0.566
        78  -7.8530    109.3232    111.2532   8.3644597774e+01   3.8799839476e+01    0.1514037    0.1217852  -0.25 0.0002465734    1.542    0.351
        79  -8.6098    247.1183    211.4755   7.4403380707e+01  -6.8659929250e+00    0.1718508      0.10752  28.56 0.0005748041    1.525    0.344
        80  -8.9019     82.3446    104.7323   9.0317782014e+01   4.5197206773e+01    0.2572878    0.1710656 -41.37 0.0006581635    1.484    0.326
        81  -9.8251    148.9789    103.2641   7.0751721183e+01   3.2003089505e+01    0.3304504    0.2670478  26.93 0.0006685336    1.382    0.276
        82 -13.3539    227.7035     68.4818   4.7165336805e+01   1.9881239041e+01    0.9272251    0.7716365 -63.72  0.001703122    1.102    0.093
        83 -10.3381    206.0638    102.2167   5.8549735095e+01   1.9036094354e+01    0.4115916     0.258887 -65.60  0.001732796    2.169    0.539
        84  -9.1080    197.7803    207.1604   8.2877314152e+01   1.3550222436e+00    0.1897844    0.1741008  21.82 0.0005237079    1.160    0.138
        85 -11.1221    196.7223     98.3691   5.9270985521e+01   2.1839700006e+01    0.5863073    0.3766088 -43.81  0.002695254    1.488    0.328
        86 -10.6658    159.7630     98.3996   6.6869600668e+01   3.0477844687e+01    0.5694323     0.374118  32.70  0.002400667    1.816    0.449
        87 -10.6121    168.6450     96.7798   6.4453688996e+01   2.8698732855e+01     0.714168    0.5210899 -67.33  0.003201609    1.686    0.407
        88 -11.1873    175.7992     91.2327   6.1460938484e+01   2.8050969290e+01    0.7336601    0.4340749  40.80  0.002209141    1.888    0.470
        89 -10.1778    142.7519     93.8370   6.9679249609e+01   3.5369301993e+01    0.3454451    0.3244447  76.92 0.0009082957    1.119    0.106
        90 -11.4403    157.9459     89.5412   6.4838079088e+01   3.2635717693e+01    0.3694495    0.2859649 -33.68  0.000565212    1.338    0.253
        91 -10.0825    126.5025    110.5009   7.8557025132e+01   3.5447162079e+01    0.2502578    0.2445194 -32.51 0.0008140472    1.019    0.019
        92 -10.2999     99.2218     85.7954   7.9625324911e+01   4.6425796734e+01    0.2490793    0.2286124  -0.30 0.0002429239    1.099    0.090
        93  -9.2315    169.3665    202.3898   8.7963563263e+01   7.0897409569e+00    0.2692178    0.2174178  66.49  0.000699704    1.617    0.382
        94  -9.8262    125.3035     58.6560   6.3390903440e+01   4.5944147467e+01    0.3437106    0.1769311 -35.32  0.001280793    2.027    0.507
        95  -8.2101     72.5920     58.4577   7.9887771167e+01   5.6694990775e+01    0.1373928    0.1246967 -11.78 0.0001181227    1.034    0.033
        96 -10.3183    177.7682     51.5669   5.0208439420e+01   3.4193724498e+01    0.6016484     0.403968  49.17  0.002936912    1.532    0.347
        97  -8.4412    103.5157     51.9644   6.7181650676e+01   5.1913797179e+01    0.2046295    0.1404872 -33.45 0.0004262904    1.501    0.334
        98  -9.0454    209.4267     44.6650   4.3820171506e+01   2.7509075974e+01    0.2397972    0.2217816 -49.83  0.000808519    1.155    0.134
        99 -11.0926    118.6751     39.6592   5.8630728371e+01   5.0365231080e+01    0.5614648    0.2390613 -37.43  0.002249539    2.476    0.596
       100  -9.9547    108.9943     39.6719   6.1187154967e+01   5.2573483116e+01    0.2555975    0.2037814 -60.80  0.001349053    1.617    0.382
       101  -9.9100    123.4310     38.7462   5.7138016821e+01   4.9374615798e+01    0.2670783    0.1323556 -36.27  0.001139877    2.135    0.532
       102  -9.8426    159.4305     25.2619   4.5649298385e+01   4.2207217996e+01    0.3813059    0.2846364  23.43  0.001324318    1.709    0.415
       103 -11.0222    162.5486     33.7828   4.7662281061e+01   4.0406994163e+01    0.5036096    0.3948235 -57.14  0.001777323    1.343    0.255
       104  -7.7095     78.6604     37.3051   6.9751615398e+01   5.9179102362e+01    0.1246906    0.1104578 -89.27 0.0007040759    1.678    0.404
       105  -9.2188    162.7675     27.9707   4.5917952852e+01   4.1059337357e+01    0.2687323    0.1901429 -20.49   0.00100922    1.684    0.406
       106 -10.5629    145.5640     28.7429   4.9108363436e+01   4.5255792341e+01    0.3547853    0.2139923  48.13  0.001710791    1.575    0.365
       107 -10.5105    127.6041     27.1818   5.2191888916e+01   4.9834115854e+01    0.3086047    0.1977939 -41.32  0.001026452    1.742    0.426
       108  -9.2951    171.4330     25.5436   4.3907949001e+01   3.9182727759e+01    0.2828825    0.2168243 -19.63  0.001488463    1.566    0.362
       109 -10.1952    179.1778     23.8696   4.2370245253e+01   3.7456704608e+01     0.438778    0.3380263  74.07  0.002435734    1.166    0.142
       110 -12.5322    233.1559     44.6818   4.1095272642e+01   2.2139149358e+01    0.4007829    0.2822653 -34.50 0.0004008895    1.458    0.314
       111  -9.3949    188.5729     22.6657   4.0851520249e+01   3.5290867920e+01    0.2264927    0.1464779 -33.14 0.0006968308    1.655    0.396
       112  -8.9969    144.6417     23.2661   4.7537672462e+01   4.6111642860e+01    0.1932445    0.1644393  82.45 0.0006656648    1.161    0.139
       113  -8.5899    144.2389     19.9875   4.6566482055e+01   4.6567073897e+01    0.2684806    0.1118393 -41.48 0.0004510294    2.631    0.620
       114  -9.7503     92.3011     21.6716   5.9032097630e+01   5.8508780458e+01    0.2705246    0.2126774 -21.60 0.0008313285    1.352    0.261
       115  -9.7548     78.9657     21.8153   6.3269164520e+01   6.1208976813e+01    0.2968586    0.1856947 -30.82 0.0008887705    1.692    0.409
       116  -9.0475    164.9610     19.2308   4.3043810989e+01   4.1497899681e+01     0.275587    0.1523133 -27.88  0.001321987    2.027    0.507
       117  -8.2741    148.5969     17.7677   4.5128429299e+01   4.5720897791e+01    0.1671689    0.1248248 -43.62 0.0003737366    1.462    0.316
       118  -8.6670    213.4757     14.9221   3.6292757614e+01   3.0258812241e+01    0.1710871    0.1230455 -31.19  0.000686172    1.562    0.360
       119 -10.2952    164.8527    201.6805   8.8820565751e+01   8.0223902074e+00    0.3574831    0.2310493 -44.16 0.0004693608    1.676    0.403
       120  -8.7525    186.8502    187.0958   8.1379405969e+01   6.7984317647e+00    0.1981664    0.1850051  45.22 0.0003918494    1.208    0.172
       121 -10.3820    192.3344    193.6720   8.1495143177e+01   4.6193063818e+00    0.7779142    0.3883155 -61.18  0.002323809    5.695    0.824
       122  -7.5871    228.6671    199.3069   7.5461561708e+01  -2.3647761914e+00    0.1135774    0.1069561  86.56 0.0007040098    1.666    0.400
       123  -7.7689    116.6448    199.5017   9.9416026861e+01   1.6917058235e+01    0.1361215    0.1268016  63.49 -0.0001827382    1.047    0.044
       124  -8.8726     49.0370    190.7810   1.1422377473e+02   2.8817219635e+01    0.1750346    0.1633694 -61.08 0.0005338622    1.290    0.225
       125 -10.4899    210.5207    186.9362   7.6532657537e+01   2.6285657096e+00    0.5536847    0.3306138  47.60  0.002666103    1.928    0.481
       126  -8.8011    220.4452    184.4540   7.4136007239e+01   1.3605496263e+00    0.1906148    0.1215453 -43.76 7.983999e-05    1.678    0.404
       127 -10.4067    216.9536    182.0063   7.4314518100e+01   2.3669585471e+00    0.2981516    0.2618502  72.92  0.001161051    1.671    0.402
       128 -10.3181    229.1363    176.1967   7.0879022236e+01   1.2794884490e+00    0.2379625    0.1902984  35.02  0.000527421    1.326    0.246
       129 -10.6770    225.0326    175.2436   7.1438690230e+01   2.1328063841e+00    0.3296501    0.2308615  19.26  0.001753615    1.511    0.338
       130 -12.8828      5.5034    169.6969   1.2250122140e+02   3.8021286192e+01    0.8780532    0.5514285 -80.43  0.004401695    1.294    0.227
       131 -10.8707    236.3085    174.6979   6.9293661138e+01   3.3875336273e-01    0.4911723    0.3394847  58.17  0.001962044    2.204    0.546
