#   1 NUMBER                 Running object number                                     
#   2 MAG_AUTO               Kron-like elliptical aperture magnitude                    [mag]
#   3 X_IMAGE                Object position along x                                    [pixel]
#   4 Y_IMAGE                Object position along y                                    [pixel]
#   5 X_WORLD                Barycenter position along world x axis                     [deg]
#   6 Y_WORLD                Barycenter position along world y axis                     [deg]
#   7 A_WORLD                Profile RMS along major axis (world units)                 [deg]
#   8 B_WORLD                Profile RMS along minor axis (world units)                 [deg]
#   9 THETA_WORLD            Position angle (CCW/world-x)                               [deg]
#  10 FWHM_WORLD             FWHM assuming a gaussian core                              [deg]
#  11 ELONGATION             A_IMAGE/B_IMAGE                                           
#  12 ELLIPTICITY            1 - B_IMAGE/A_IMAGE                                       
         1 -14.9654     11.5978    156.1866   1.4691372339e+02   4.1616214985e+01     6.067674     1.767458 -87.05   0.02328094    3.947    0.747
         2 -14.6822     45.2681    227.6656   1.4545121115e+02   2.3948556495e+01     4.844944     1.256365  38.28   0.00627991    3.565    0.720
         3 -12.7366      2.6033     43.4763   1.3447622182e+02   6.6707286640e+01     1.441692    0.1763913 -65.20   0.00418316    6.636    0.849
         4 -12.5607      2.7930     17.4099   1.2668941006e+02   7.1694318226e+01    0.9070415    0.2484497 -57.05  0.004163317    2.911    0.657
         5 -12.2925      3.4003      4.9323   1.2130602948e+02   7.3805625560e+01    0.6466156    0.3991962 -30.29  0.004577886    1.257    0.205
         6 -13.5863    191.8554     27.3870   7.1836922186e+01   3.4010572573e+01     1.429796     1.257794  68.05  0.006143256    1.091    0.083
         7 -13.7961    205.8803      8.7227   6.4801175840e+01   3.2424210885e+01     1.597796     1.084458  43.00  0.008142055    1.710    0.415
         8  -9.4611     82.3271    242.9149   1.4022029548e+02   1.6535640929e+01    0.1776215    0.1098377  73.46 0.0009153141    1.480    0.324
         9 -10.6073    248.4412    249.5417   1.1259777717e+02  -9.9157539270e+00    0.2141665    0.1412419  46.34  0.001442992    1.791    0.442
        10 -11.3975    139.7471    249.9228   1.3097668052e+02   6.8724834044e+00    0.4212445     0.140176  44.43  0.001999386    2.240    0.554
        11  -8.8803     67.4468    250.5722   1.4326607142e+02   1.7294670321e+01    0.1097591   0.07437278  62.66 0.0001684759    1.042    0.041
        12 -10.1176     34.6082    249.1477   1.4841058350e+02   2.1522980985e+01    0.3403715    0.1352172  58.07   0.00212869    1.804    0.446
        13 -10.3452     35.9001    243.6244   1.4792433096e+02   2.2288442768e+01    0.2489726    0.1818381  34.63   0.00155319    1.899    0.473
        14  -9.8034     29.2005    248.8328   1.4923051711e+02   2.2178473282e+01     0.229153    0.1116854 -71.95  0.001572654    2.147    0.534
        15 -10.5874      3.2065    249.2811   1.5313827188e+02   2.4794850723e+01    0.3201991    0.1499658  54.79  0.002389405    1.459    0.314
        16  -8.5503     73.6217    242.3067   1.4165137560e+02   1.7824351367e+01    0.1222031   0.05957326  63.29 0.0007027088    1.781    0.439
        17 -10.5914      1.8929    240.2394   1.5302070264e+02   2.6405720789e+01     0.318622    0.1002064 -77.19  0.001889889    2.784    0.641
        18  -9.8887     12.7954    240.7086   1.5138915991e+02   2.5258484825e+01    0.1934695    0.1345831  70.36  0.001315193    1.090    0.083
        19 -13.7845      9.0574    204.4275   1.5036590099e+02   3.2097219169e+01     2.776956    0.7904759 -87.47    0.0113902    3.467    0.712
        20 -11.5374     64.7157    200.1388   1.3974391721e+02   2.6665502504e+01    0.2737704    0.2159758 -56.87 0.0006377663    1.645    0.392
        21 -11.7658     19.8493    199.6904   1.4819165692e+02   3.1959989938e+01    0.4276637    0.1470565  54.06  0.001501548    2.317    0.568
        22 -11.0152    238.0947    247.4952   1.1395328394e+02  -8.2343886656e+00    0.3371078    0.1419021 -35.83  0.001867054    2.946    0.661
        23  -9.7814    191.9699    192.9755   1.1324899158e+02   6.3627871375e+00    0.3962005    0.2417189 -71.95  0.001453542    4.532    0.779
        24  -8.4970     51.6066    197.2546   1.4204292102e+02   2.8910197254e+01    0.1261524   0.06570171  63.09  0.000695941    1.690    0.408
        25 -10.5070    172.9864    221.9184   1.2147749747e+02   5.4086126156e+00    0.2524989    0.2010038  40.41  0.001153163    1.023    0.022
        26 -11.8758     70.5365    191.8876   1.3777008398e+02   2.7527534481e+01    0.2458758    0.2195034 -74.40 0.0005157581    1.334    0.251
        27  -8.9865    103.7775    179.8534   1.2929061530e+02   2.4968291722e+01    0.1814582     0.132845  72.23 0.0003261899    1.329    0.247
        28 -10.8977     80.1114    178.9817   1.3430219123e+02   2.8835248201e+01    0.2272102    0.1945694  89.03 0.0003437996    1.103    0.094
        29 -13.3084     67.1789    176.9955   1.3685747671e+02   3.1072640212e+01     0.460407     0.269673 -48.08   0.00177156    2.300    0.565
        30 -11.9362     87.4640    169.1374   1.3139216128e+02   2.9829829345e+01    0.6549657    0.5724027  63.01  0.004137224    1.113    0.101
        31  -8.7432    250.7120    171.6992   9.8635773106e+01  -1.3538016397e+00    0.1305295   0.08835042   8.62 0.0002148585    1.560    0.359
        32 -10.3681    123.9955    249.7625   1.3368030426e+02   9.3451749674e+00    0.2480266   0.07342219  47.05 0.0007619897    2.517    0.603
        33  -8.6636    191.0309    154.5152   1.0594225481e+02   1.2984686489e+01    0.1986786    0.1270628  69.89 0.0007213404    2.425    0.588
        34 -10.1615     99.3713    153.1384   1.2617065962e+02   3.1419599901e+01    0.3064825    0.2509196 -70.26 0.0008521345    1.185    0.156
        35  -9.3582    102.0211    148.9557   1.2481226997e+02   3.1899855146e+01    0.2361725    0.1891845 -39.88   0.00091387    1.522    0.343
        36 -12.0779     88.0727    152.5258   1.2878025395e+02   3.3385183647e+01    0.2701325    0.2401589 -50.91 0.0005354058    1.314    0.239
        37 -12.5706     67.1517    143.8981   1.3256728010e+02   3.8385599918e+01    0.7234438    0.4516729  69.61  0.003181446    1.744    0.427
        38 -11.7486     57.0999    132.2150   1.3336664077e+02   4.2362733460e+01    0.6553759     0.354299 -85.16  0.003055845    2.129    0.530
        39  -9.4768    177.4301    227.2364   1.2142662505e+02   3.8811059293e+00    0.1407295    0.1196917 -68.50 0.0007624057    1.588    0.370
        40  -8.4436    192.2682    144.2964   1.0346004664e+02   1.4546361145e+01    0.1436761    0.1129396   8.37 0.0002440616    1.517    0.341
        41  -9.8153    110.5222    137.6690   1.2060260972e+02   3.2918483842e+01    0.3410787     0.241367 -20.14  0.001452788    2.377    0.579
        42  -9.6473     86.2355    136.2558   1.2649035642e+02   3.7359600840e+01    0.2367712    0.1816138  77.20 0.0005964922    1.343    0.255
        43 -10.7094     97.7176    135.1630   1.2334680519e+02   3.5737656964e+01    0.2492217    0.2448857  20.41 0.0005309569    1.214    0.176
        44  -9.1786    152.5068    213.0210   1.2405915590e+02   1.0369066591e+01    0.1572302    0.1286144 -55.22 0.0003102456    1.466    0.318
        45  -8.4130    164.3587    128.6708   1.0576115347e+02   2.3726026205e+01    0.1605134    0.1214176 -89.96 0.0007042891    1.790    0.441
        46 -12.7226     39.3337    235.0551   1.4689721581e+02   2.3349896477e+01    0.2689254    0.2040652 -83.42 0.0007619493    1.406    0.289
        47 -10.9945    149.4204    229.6117   1.2686838370e+02   8.2833893852e+00    0.4019173    0.0976708  39.77  0.001386024    3.856    0.741
        48  -9.5118    107.3386    124.2685   1.1862731198e+02   3.6514587925e+01    0.2068859    0.1869725  39.03 0.0004083897    1.200    0.167
        49 -10.3083    167.9696    113.0724   1.0109562572e+02   2.5996244427e+01    0.3500181    0.2838325 -85.43 0.0007953458    1.515    0.340
        50  -9.6033    203.7925    111.4544   9.3356773588e+01   1.7821839910e+01     0.282581    0.1939522   9.95  0.001072751    2.134    0.531
        51  -8.6653     73.4710     86.4844   1.1940061407e+02   5.0683158215e+01    0.2825021   0.09824073  51.44 0.0008077955    5.401    0.815
        52 -11.2918      8.5759     63.5820   1.3647006799e+02   6.2217617487e+01     0.413643    0.1626257  33.04  0.001941567    3.055    0.673
        53 -10.6174     28.8575     60.6905   1.2822144957e+02   6.1428289535e+01    0.2626494     0.194663  43.30 0.0007297561    1.688    0.408
        54  -9.5001     20.2210     57.3962   1.3071354304e+02   6.2791495025e+01     0.144987    0.1068868  38.35 0.0009478918    1.702    0.412
        55 -10.4856     98.6882    249.1338   1.3795301611e+02   1.3221860786e+01    0.1848889    0.1364051  56.31 0.0006919936    1.045    0.043
        56 -10.1544     81.4603    248.5909   1.4081068160e+02   1.5738193261e+01    0.2501509    0.1256715  69.05   0.00146774    1.983    0.496
        57  -8.8463     47.2652    249.6520   1.4645276247e+02   1.9966403247e+01    0.1090829   0.05411429  67.53 0.0004439084    1.612    0.380
        58  -9.0608     25.0703    247.0490   1.4978208605e+02   2.2921792038e+01    0.1649399   0.07520083  64.10  0.000530518    1.591    0.371
