#   1 NUMBER                 Running object number                                     
#   2 MAG_AUTO               Kron-like elliptical aperture magnitude                    [mag]
#   3 X_IMAGE                Object position along x                                    [pixel]
#   4 Y_IMAGE                Object position along y                                    [pixel]
#   5 X_WORLD                Barycenter position along world x axis                     [deg]
#   6 Y_WORLD                Barycenter position along world y axis                     [deg]
#   7 A_WORLD                Profile RMS along major axis (world units)                 [deg]
#   8 B_WORLD                Profile RMS along minor axis (world units)                 [deg]
#   9 THETA_WORLD            Position angle (CCW/world-x)                               [deg]
#  10 FWHM_WORLD             FWHM assuming a gaussian core                              [deg]
#  11 ELONGATION             A_IMAGE/B_IMAGE                                           
#  12 ELLIPTICITY            1 - B_IMAGE/A_IMAGE                                       
         1 -13.3877     42.1737     45.6636   9.4341113461e+01   6.3086013659e+01    0.8671746    0.6497152  48.10 0.0005930091    1.867    0.464
         2 -12.1628    124.9633     27.8027   5.9622511693e+01   5.0663137261e+01    0.7921607    0.5219573  39.55  0.002083357    1.471    0.320
         3 -11.5090    120.4877     57.7472   7.1645797648e+01   4.7261550141e+01     1.909334     1.305989 -75.10  0.007748954    2.545    0.607
         4 -12.8063    116.4676     42.1943   6.7136686437e+01   5.0691338715e+01     1.028714    0.7609711 -82.60  0.004742283    2.117    0.528
         5 -12.7901    119.5675     37.9734   6.4750134383e+01   5.0591848992e+01    0.8897935    0.6661832 -76.39  0.003760285    1.969    0.492
         6  99.0000      4.1848     44.5724   1.1051768193e+02   6.6360679004e+01     2.338643          nan -52.28   0.00723738    5.277    0.811
         7 -10.7395     22.4017      5.0585   8.6163143196e+01   7.2010906401e+01    0.2413364    0.1653762 -36.87 0.0004983981    1.460    0.315
         8 -11.6061     26.2898     27.9695   9.4754584397e+01   6.7977383112e+01    0.6185825    0.4670272 -28.75   0.00418475    1.032    0.031
         9 -11.4427     14.1595     23.5983   9.8987779929e+01   6.9772689392e+01    0.3579195    0.1833301 -28.46 0.0002391177    1.758    0.431
        10 -10.6256     11.0148     19.9230   9.9143657875e+01   7.0648772205e+01     0.697925    0.2591592 -32.85  0.002035313    2.496    0.599
        11 -11.4207     20.0430     22.4925   9.5572338652e+01   6.9493039307e+01    0.6171973    0.2522553 -45.95  0.002453403    1.984    0.496
        12 -12.2445     22.2397     11.8343   8.9662212101e+01   7.1028516052e+01    0.5463004    0.3684434 -16.90  0.002441706    1.226    0.184
        13 -12.3760     17.0479     13.3788   9.3126605239e+01   7.1268199370e+01    0.4824317    0.3900749 -59.27 0.0006134776    1.866    0.464
        14 -10.6214    122.8827     20.0707   5.7180128851e+01   5.2070748076e+01    0.7350178    0.4380896  78.54  0.003185715    2.307    0.567
        15 -12.2076    132.1188     14.6954   5.3217109123e+01   5.0387840236e+01      1.64532    0.5376907  65.10  0.005690789    3.068    0.674
        16 -12.7744    162.8020     28.3940   5.2289454964e+01   4.1050371312e+01    0.7817217    0.4987982  43.79 0.0008613547    1.614    0.380
        17 -11.5802    154.9500     23.7656   5.2132161144e+01   4.3628096478e+01     1.412318    0.5558633  55.15  0.005481613    2.214    0.548
        18 -11.7270    137.7451     22.4634   5.4903777834e+01   4.8153416807e+01     1.101633    0.4182099  57.04  0.002626984    2.282    0.562
        19 -10.2768    145.5948     16.6096   5.1365028482e+01   4.6808165576e+01    0.3414862    0.2836992 -65.50 0.0004376307    1.354    0.261
        20 -10.6472     80.6545     40.0159   7.7267405708e+01   5.8415246685e+01     1.107438    0.6547251 -10.74  0.004864574    2.289    0.563
        21 -11.6641    105.9546     20.4465   6.1458223681e+01   5.5963722239e+01    0.4330051    0.3071641 -19.86 0.0005075361    1.451    0.311
        22 -11.0750    198.6431     28.7473   4.7105134211e+01   3.1732473401e+01    0.6172263    0.4106484 -15.56  0.002507184    1.858    0.462
        23 -10.8664    178.4043     21.6088   4.7770635658e+01   3.7791980299e+01    0.6252422    0.3836241  28.13  0.002758052    2.259    0.557
        24 -10.8693    214.5293     23.2857   4.3771622647e+01   2.8409918582e+01     0.457754    0.3593061   5.34  0.002480736    1.749    0.428
        25 -10.4769     87.0294      7.5713   6.1165357046e+01   6.1417092686e+01    0.5671822    0.3102251  53.84  0.002511395    1.757    0.431
        26 -11.2759     90.9055     20.8201   6.5878210527e+01   5.9157398975e+01    0.6494215    0.4019156 -22.45  0.002376123    1.623    0.384
        27 -11.1197     85.3658     14.8616   6.4959600178e+01   6.0985092914e+01    0.8380367     0.454232  13.26  0.003660634    2.503    0.601
        28 -11.3054    165.0128     17.8884   4.8588415257e+01   4.1678193219e+01    0.4948466    0.2923748  35.24  0.001773021    2.030    0.507
        29  -9.7452     47.1310     19.0902   8.1221264900e+01   6.6991545280e+01    0.4325449    0.3131874   9.28  0.001425971    1.291    0.225
        30 -12.3522     48.5884     12.9562   7.7622153552e+01   6.7641537320e+01    0.7673594    0.3105728  37.45  0.003656308    2.468    0.595
        31 -11.7161     35.6398     18.5028   8.6175364421e+01   6.8553279617e+01    0.6144992    0.3688906 -36.98    0.0030202    1.479    0.324
        32 -12.0120     33.0032     12.8126   8.4713220793e+01   6.9717700704e+01    0.2233818    0.1985222  16.65 0.0004528264    1.412    0.292
        33 -11.8716     68.1752     18.0353   7.2243322766e+01   6.3837239338e+01    0.4772731    0.4023219   3.01  0.001761254    1.023    0.022
        34 -12.1140    238.0607     15.7370   3.9661666604e+01   2.3681235586e+01    0.6089735    0.4138873  64.62  0.002132921    1.524    0.344
        35 -10.2146    225.9263     15.4405   4.0664624187e+01   2.6558153109e+01    0.3645236    0.2041959 -38.94  0.001382808    1.656    0.396
        36  -8.9940    194.2911      1.3173   4.0085715905e+01   3.5816397708e+01    0.1311961   0.09472592  42.93 0.0001989546    1.599    0.374
        37  -9.4293    191.2294     16.9617   4.4741490064e+01   3.5002751361e+01    0.3319543    0.2354848   6.86   0.00159449    1.969    0.492
        38 -11.2236    192.3132      8.0486   4.2131176827e+01   3.5663131106e+01     0.611672    0.4026222  14.44  0.001993331    2.264    0.558
        39 -10.5539    185.8507     14.8368   4.4799047193e+01   3.6613100124e+01    0.4454055    0.2586904 -87.71  0.001939952    1.930    0.482
        40 -12.2988    104.6558     12.8118   5.8646781756e+01   5.7086771950e+01    0.5211023    0.4722761 -34.17  0.001915551    1.272    0.214
        41 -11.3843    109.2964      2.6487   5.3337929975e+01   5.6970396088e+01     1.129269    0.4040985  66.50  0.004206858    3.080    0.675
        42 -11.6258    211.9176      9.8005   4.0579633815e+01   3.0574213148e+01    0.4509192    0.3165724   7.61 0.0006811798    2.144    0.534
        43  -9.6566     94.9009     11.9656   6.0877358552e+01   5.9316417933e+01    0.2961913    0.1720987  35.99  0.001433384    1.606    0.377
        44  -9.1301     61.9721     11.9678   7.1681613780e+01   6.5660573661e+01    0.1550329      0.11671 -13.86 0.0005250312    1.198    0.165
        45  -8.4449      4.0626     12.0857   9.9648154268e+01   7.2461319063e+01    0.2128481    0.1691811 -32.62  0.001624159    1.159    0.137
        46 -11.8828    246.9809      6.7214   3.6920894085e+01   2.2676659446e+01    0.5995394    0.4248424  38.35   0.00341574    2.072    0.517
        47 -10.7345    242.4391      3.8091   3.6603664138e+01   2.4007706063e+01    0.3247497    0.2036013  89.87  0.001845556    1.482    0.325
        48  -9.9998    168.9940      9.7254   4.5470744168e+01   4.1484109012e+01    0.3731439    0.1685269  48.24  0.001554084    2.221    0.550
        49  -9.2594    163.2892      9.6844   4.6251760019e+01   4.2960375956e+01    0.1923112    0.1805882 -21.54 0.0006160287    1.190    0.160
        50  -9.4785    162.9673      6.0267   4.5144721739e+01   4.3387484488e+01    0.3302465    0.2075435  31.98  0.001347002    1.904    0.475
        51  -9.9242     66.3010     10.1274   6.9164323479e+01   6.5129736708e+01    0.2936379    0.1957504  47.10 0.0009308935    1.593    0.372
        52  -9.7596     62.4765      7.0654   6.9065454710e+01   6.6143556502e+01    0.3140428    0.1984407   9.18  0.001589644    1.603    0.376
        53 -11.1304    233.7798      7.0695   3.8001202470e+01   2.5637100384e+01    0.5818803    0.2789335  63.71  0.002521025    2.043    0.510
        54 -10.3061    228.1404      3.4264   3.7598228599e+01   2.7339533044e+01    0.3206658    0.2386701 -36.01   0.00150254    1.379    0.275
        55 -10.9663    218.8686      3.3604   3.8343797996e+01   2.9552288415e+01     0.333491    0.3117889 -55.69  0.001186819    1.179    0.152
        56 -10.4142    223.7280      2.0015   3.7613535315e+01   2.8528586334e+01    0.3156566    0.2165681  79.29  0.001078305    1.332    0.249
        57 -11.2892     40.8276      5.6915   7.7357964711e+01   6.9682181090e+01    0.4695413    0.2326062 -12.45  0.002273145    2.446    0.591
        58  -9.3598      1.1204      7.3733   9.9263975462e+01   7.3429046166e+01    0.1878784   0.05028724 -49.14 0.0006288997    2.768    0.639
        59 -10.2608    183.3596      4.8779   4.2243867191e+01   3.8255215391e+01    0.3666209    0.2221814 -34.96  0.001439076    1.706    0.414
        60  -9.4862    154.5377      7.0053   4.6669417540e+01   4.5462366681e+01    0.3792236    0.1800561  73.51  0.001603762    2.072    0.517
        61 -10.6677     77.0541      5.5324   6.3263054060e+01   6.3620649888e+01     0.499088    0.4282319 -30.25  0.003221897    1.387    0.279
        62 -10.3862     73.0024      2.7486   6.3228796627e+01   6.4672799427e+01    0.5217919    0.2033045  31.44  0.002105856    2.968    0.663
        63 -10.2525     50.1879      6.2528   7.3534590778e+01   6.8245998159e+01    0.2026378    0.1597612  20.68 0.0004614021    1.170    0.145
        64 -10.6106    176.4311      5.4306   4.3220789421e+01   3.9978947458e+01      0.47782    0.2389558  82.15  0.001134765    2.073    0.518
        65  -9.2769    170.3652      3.5806   4.3417939372e+01   4.1707749339e+01     0.306657    0.1561771 -70.80  0.001241415    2.638    0.621
        66 -11.7020    133.5511      2.7962   4.8612716909e+01   5.1129651110e+01    0.4325206    0.2706119  55.28  0.001447774    1.375    0.273
        67 -10.4923    142.2518      3.1347   4.7273895663e+01   4.8925835955e+01     0.407284    0.2642468  52.45  0.001549797    1.362    0.266
        68  -9.5700    158.6977      2.1939   4.4517104674e+01   4.4823707555e+01    0.4859169    0.1590259  49.27  0.001790415    2.873    0.652
        69 -11.1049      3.2256      1.7864   9.5365459373e+01   7.4177955180e+01    0.3971175    0.1685473  10.67  0.002163905    2.758    0.637
        70 -10.2804     12.8761      1.8342   8.9720510823e+01   7.3397966984e+01    0.2399416    0.1386277  12.73  0.001105131    1.732    0.422
        71 -10.1102    206.4062      2.7063   3.9284868460e+01   3.2659330729e+01    0.4988261    0.2179082  87.36    0.0020582    2.501    0.600
        72  -9.4576    122.5619      1.2016   5.0027078394e+01   5.3950408074e+01    0.4349755   0.09441612  64.70  0.001334482    4.066    0.754
        73 -10.1054     82.2023      1.3080   5.9681105839e+01   6.2991515469e+01      0.19475    0.1034398  51.94 0.0003267127    1.717    0.418
        74 -10.8061     39.3505    137.8808   1.1592205470e+02   4.2420247968e+01    0.2898721    0.2397817 -43.97  0.001504634    1.415    0.294
        75 -10.1780    142.9443    249.5322   1.0743148846e+02   4.3667752889e+00    0.1705794     0.155046  53.12  0.001252255    1.173    0.147
        76  -9.8594     81.8637    135.3753   1.0408174350e+02   3.7571212037e+01    0.2588856    0.1522041  28.87  0.001154909    2.065    0.516
        77 -10.1830     47.5124    135.7368   1.1345620515e+02   4.2050812938e+01    0.4555172    0.1632248 -62.62  0.001459835    2.304    0.566
        78  -9.2864    192.1746    136.2157   7.7174134355e+01   1.5221366175e+01    0.2063196    0.1845805 -73.51 0.0006926665    1.324    0.245
        79 -10.0779     67.5158    135.6410   1.0803346940e+02   3.9586336420e+01    0.3833243    0.2071974 -43.87  0.001472149    2.140    0.533
        80  -9.1770    216.6249    135.2079   7.2146675544e+01   1.0128530792e+01    0.2050464    0.1332371 -25.48 0.0005800543    1.586    0.370
        81 -10.7614     92.8609    129.3864   9.9874891644e+01   3.7243634720e+01    0.4561501    0.3142456 -71.40   0.00197933    1.552    0.356
        82  -9.5571    244.6822    134.3430   6.7060766332e+01   4.6096693605e+00    0.1380779    0.1063138 -60.77 0.0007049037    1.717    0.418
        83 -10.4186     74.1583    132.3866   1.0563292536e+02   3.9440755996e+01     0.303664    0.2075883 -37.98  0.001487219    1.755    0.430
        84 -10.0006     61.8864    131.9769   1.0894648656e+02   4.1220293363e+01    0.3233828    0.2504462  -9.84  0.001723095    1.873    0.466
        85  -9.3884    103.8230    130.5424   9.7126852919e+01   3.5061355654e+01    0.2140737     0.147236  40.94 0.0005940178    1.504    0.335
        86  -9.3841     79.2381    137.9917   1.0527742416e+02   3.7339975620e+01    0.2776932    0.1859378 -72.63  0.001363124    1.491    0.329
        87 -10.8962     10.7228    127.0682   1.2213403466e+02   4.7469818762e+01    0.5488376    0.1868535 -57.54  0.001871875    2.405    0.584
        88 -10.3151     81.9089    125.8446   1.0219656833e+02   3.9861282651e+01    0.4145992    0.2846391 -23.88    0.0017662    2.152    0.535
        89  -9.2003    223.9847    126.9289   6.8856150605e+01   1.0028290777e+01    0.2219137    0.1735829 -63.86 0.0005131344    1.628    0.386
        90 -10.0161     23.0052    126.9569   1.1885631816e+02   4.6547623773e+01    0.1832607    0.1470041 -81.47  0.001195194    1.029    0.028
        91  -9.8869      2.6240    126.2295   1.2415155817e+02   4.8207099234e+01    0.2924981     0.158885  72.87  0.001634998    1.890    0.471
        92 -10.7550     55.9902    123.5424   1.0913889205e+02   4.4002607556e+01    0.5260847     0.390932   8.32  0.002044282    1.863    0.463
        93  -9.7165     43.9906    115.9982   1.1130971147e+02   4.7189444200e+01    0.2891295    0.2027205  55.47  0.001281839    1.605    0.377
        94  -9.3279     50.1753    122.6085   1.1064189607e+02   4.4914654259e+01    0.2858283    0.1933817  -0.94  0.001127578    2.337    0.572
        95 -11.0356     45.5808    120.3571   1.1158368080e+02   4.5969485825e+01    0.4476913    0.2528255  63.58  0.002085141    2.296    0.564
        96 -10.0640     18.7693    124.4485   1.1969167655e+02   4.7482209163e+01    0.2991001    0.1290979 -64.65  0.001311175    1.796    0.443
        97  -9.8755    239.3253    125.6548   6.5944535320e+01   7.0823577572e+00    0.1435315    0.1080592 -62.68 0.0007050371    1.742    0.426
        98 -11.9515    104.1897    122.1533   9.5142741752e+01   3.6976037177e+01    0.4543287    0.4325964  -5.20  0.001053074    1.174    0.148
        99  -9.5177     67.2156    124.2829   1.0606357242e+02   4.2376408303e+01    0.3083833    0.2068532  -2.61  0.001380647    2.563    0.610
       100  -8.6806     94.3130    123.3032   9.8160537594e+01   3.8451159748e+01    0.1462207    0.1155722 -21.72 0.0003398191    1.614    0.381
       101 -10.5681      4.5900    120.3950   1.2304832028e+02   4.9428248004e+01    0.7862977    0.1111637 -56.97  0.002754364    4.277    0.766
       102 -11.4460      2.2946    112.1334   1.2278286863e+02   5.1474134676e+01    0.4070206    0.2828356  83.17  0.001558061    1.347    0.257
       103 -11.5825      3.6375    105.4791   1.2162979523e+02   5.2931629020e+01    0.4124468    0.3489548 -83.97  0.001792322    1.129    0.114
       104 -10.9693     42.3114     94.0122   1.0764825624e+02   5.2598238515e+01    0.3981883    0.3136176 -89.87  0.001520915    1.419    0.295
       105 -11.4545     17.2086    100.8632   1.1693265679e+02   5.3142254855e+01    0.4997703    0.2836156  27.36 0.0004134136    2.136    0.532
       106  -9.5856     26.0899     87.1876   1.1168875537e+02   5.5659055453e+01    0.8758731    0.4810641 -74.08  0.004441705    1.783    0.439
       107 -12.2177     42.0352     85.4215   1.0584761411e+02   5.4621534356e+01    0.9356605    0.4745644  15.50  0.003998889    2.745    0.636
       108 -11.6465      9.7015     97.0508   1.1869032429e+02   5.4521509088e+01     1.049111    0.5044005 -86.34  0.005101613    2.248    0.555
       109 -12.1247      7.6286     89.1114   1.1816452527e+02   5.6468907044e+01    0.5473865    0.4356617  40.32  0.001451072    1.558    0.358
       110 -11.3881     35.0302     93.0157   1.0984836393e+02   5.3538648227e+01     1.546151    0.6674682 -72.36  0.006440285    2.554    0.608
       111 -11.7078     22.0408     95.0007   1.1446043842e+02   5.4159254582e+01    0.5637819    0.4574077   3.84  0.003704191    1.562    0.360
       112 -12.2315     18.3970     89.7498   1.1473970437e+02   5.5641588108e+01    0.5393487    0.2387313 -55.86  0.001374209    1.729    0.422
       113 -11.2699     22.4042    114.0546   1.1731376879e+02   4.9649500465e+01    0.3999763    0.2707472  -9.32  0.001644996    2.170    0.539
       114 -12.0909     28.5192    113.0136   1.1538003616e+02   4.9389384930e+01    0.9226781    0.4773178  78.63   0.00406177    2.766    0.638
       115 -12.5508     25.5809    107.6026   1.1541995355e+02   5.0920107623e+01    0.9586481    0.5959761 -22.02  0.005089086    2.299    0.565
       116 -12.0502     18.7621    106.1135   1.1724469548e+02   5.1800339198e+01    0.2717205    0.2185462 -46.94 0.0002732746    1.280    0.219
       117  -9.1864    221.2084    120.3963   6.7780301783e+01   1.1760876921e+01    0.1933315    0.1448133  63.82 0.0005530721    1.603    0.376
       118  -9.4408    148.4109    119.8620   8.2969771245e+01   2.8406680414e+01    0.2897591    0.2079945   4.73 0.0008221901    2.126    0.530
       119  -9.3361     71.9906    120.0870   1.0386403406e+02   4.2726085633e+01    0.2267643    0.1630798 -30.27   0.00111825    1.745    0.427
       120  -9.5843    185.3308    119.0147   7.4357065348e+01   2.0103318008e+01    0.2753985    0.1787439  48.64  0.001193319    1.564    0.361
       121  -8.4911     13.6752    118.7340   1.2039173615e+02   4.9205513366e+01    0.1179708   0.07781243 -47.91 0.0001971581    1.566    0.362
       122 -10.0269    113.3324    115.9707   9.1127666204e+01   3.6688264193e+01    0.2696567    0.2267249  31.80 0.0002524132    1.284    0.221
       123 -10.6885    107.7306    112.0749   9.1715910949e+01   3.8670413781e+01    0.6122999    0.3758538 -68.92  0.002453444    2.170    0.539
       124 -10.8889    102.0165    109.6659   9.2738787921e+01   4.0299856158e+01    0.6584221    0.5033126 -27.49  0.003170975    1.524    0.344
       125  -9.2523     67.7337    114.1629   1.0390006821e+02   4.4750412614e+01    0.3881791    0.2554729  74.81  0.001789603    2.084    0.520
       126  -9.7400     67.0178    110.5202   1.0334610568e+02   4.5723674268e+01    0.3078953    0.2193463  38.10  0.001614485    1.547    0.354
       127  -9.3093    126.9557    113.6953   8.6858020164e+01   3.4438431296e+01    0.2217238    0.2063002  46.29  0.001128611    1.095    0.086
       128  -9.7388     48.6361    112.4158   1.0928820431e+02   4.7546201370e+01    0.2297084    0.2159671 -86.69  0.001469043    1.117    0.105
       129 -11.2527    170.5600    110.3851   7.5300259903e+01   2.5276602309e+01    0.4935935    0.4387667  10.05  0.001429707    1.241    0.194
       130  -9.8544     94.8184    111.9644   9.5391637233e+01   4.1052734107e+01    0.3639767    0.2385044  34.40  0.001677315    1.677    0.404
       131 -11.3538     79.5416    108.3479   9.9063498978e+01   4.4420771311e+01    0.6811246    0.4031962  37.33  0.002272364    1.831    0.454
       132 -10.4872     90.7593    104.0632   9.4634612850e+01   4.3604295345e+01    0.4698583      0.32124  19.03   0.00170677    1.929    0.482
       133 -10.2223     85.9209    103.8755   9.6049274879e+01   4.4459182472e+01    0.4027351    0.2590831 -28.61  0.001247164    2.012    0.503
       134  -9.8134    130.1574    110.3203   8.5124911358e+01   3.4510376690e+01    0.3246057    0.1415072  38.06  0.001096276    2.609    0.617
       135 -10.1815    120.5051    109.3531   8.7462378083e+01   3.6758801725e+01    0.3698524    0.2757608 -25.13  0.001679184    1.601    0.375
       136  -9.4522     58.4743    108.5203   1.0553348269e+02   4.7319845027e+01    0.2436885    0.1255685 -71.67  0.001025517    2.173    0.540
       137 -10.6934    157.4672    106.4260   7.7234716837e+01   2.9172110169e+01    0.4488752    0.3367549  -2.22  0.001449394    1.829    0.453
       138 -10.6031    143.2976    105.9892   8.0567688215e+01   3.2543410750e+01    0.3525841    0.2943469  73.15  0.001291141    1.377    0.274
       139 -12.0192    145.5077    100.4806   7.8486369748e+01   3.3199223467e+01    0.6457335     0.578014  25.35  0.003121172    1.188    0.158
       140 -10.9451     51.0249     95.9587   1.0520836889e+02   5.1196311698e+01     1.035126     0.456446 -68.67  0.004105945    2.593    0.614
       141 -10.9093     89.8144     89.4590   9.1007414557e+01   4.7102434843e+01     0.860528    0.4506863 -31.02  0.003241389    2.578    0.612
       142  -9.9677     57.5218    102.9163   1.0464561898e+02   4.8776346606e+01    0.3518903     0.170774 -62.04  0.001304921    1.881    0.468
       143 -10.2332     58.3114     97.8620   1.0327082818e+02   4.9874505206e+01    0.4666308    0.2456919  30.90   0.00216529    2.170    0.539
       144 -10.1561     77.3285     96.9665   9.6969372773e+01   4.7435327760e+01    0.5083558    0.2558524  46.10  0.002129528    2.288    0.563
       145 -10.5068     64.7733     99.3436   1.0154096320e+02   4.8686436672e+01    0.2619811     0.214997  16.11 0.0009785735    1.440    0.306
       146 -10.7476     68.0198     95.2936   9.9524118186e+01   4.9189888112e+01    0.5640457    0.3234144  35.47  0.002658129    1.927    0.481
       147 -10.3945     82.5543     93.3727   9.4375847927e+01   4.7438517286e+01     0.385748    0.3213514  26.89 0.0009558774    1.323    0.244
       148 -10.6331     76.7471     93.0041   9.6128442035e+01   4.8439282115e+01    0.5422865     0.390154 -16.04  0.002227871    1.822    0.451
       149  -9.7269     82.7132    101.9042   9.6537311190e+01   4.5440639430e+01    0.4153208    0.1894974 -35.67  0.001429762    3.102    0.678
       150  -9.4835    120.7792    101.1899   8.5180649253e+01   3.8522989164e+01     0.219437    0.1861772 -11.01  0.001007742    1.366    0.268
       151 -10.0383    210.5911     97.7965   6.3994678321e+01   1.8137662299e+01    0.3263396     0.281026  37.10  0.001046185    1.246    0.197
       152  -9.9567     45.9771    105.4218   1.0877924829e+02   4.9513371753e+01    0.3313891    0.1546034 -46.40  0.001478814    2.071    0.517
       153 -10.1477    117.4392     93.0480   8.3803319351e+01   4.1000169792e+01    0.4090973    0.3274392  19.48  0.001568818    1.455    0.313
       154 -11.3493    121.1829     86.8722   8.0925736421e+01   4.1515269870e+01    0.8541528    0.4556669 -50.53  0.003340097    1.999    0.500
       155 -10.2836    125.9784     93.4955   8.1567902800e+01   3.9077707317e+01    0.3752063    0.3153549  27.27  0.001077381    1.286    0.222
       156 -10.1541    122.4775     93.5179   8.2533646747e+01   3.9830985600e+01    0.2979135    0.2448073 -21.25 0.0007876923    1.340    0.254
       157  -9.5276    160.7435     93.8267   7.2952089598e+01   3.0934451298e+01    0.4055147    0.2531982  75.27  0.001482304    2.512    0.602
       158 -10.7916    152.4777     91.4877   7.4211280028e+01   3.3391126251e+01    0.5381804    0.4474268  67.10  0.002229686    1.315    0.240
       159  -9.2674    138.1078     93.1179   7.8249328619e+01   3.6437687160e+01    0.3474953    0.2376047   7.79  0.001336986    2.366    0.577
       160 -11.6912    102.0155     89.8753   8.7376863891e+01   4.4782065543e+01    0.7805256    0.6318591 -17.70  0.002577082    1.398    0.285
       161 -10.3663    104.2632     77.6911   8.3004262595e+01   4.6937168089e+01    0.5690348    0.3977478 -20.82  0.002586707    1.705    0.413
       162 -11.1883    113.2621     84.6761   8.2508078282e+01   4.3654001328e+01    0.6631278    0.3710683 -35.76  0.001471654    1.861    0.463
       163  -9.8742     66.9047     88.5062   9.8162355037e+01   5.0912113795e+01    0.3523947    0.2334321 -22.50  0.001201621    1.950    0.487
       164 -10.4258     91.0102     47.9140   7.6862580059e+01   5.5165832471e+01    0.3779202    0.2081692 -37.08  0.001248628    1.757    0.431
       165 -10.0407     99.0242     61.6186   7.9283571866e+01   5.1145152460e+01    0.3774327    0.2260806 -26.15 0.0006897002    1.872    0.466
       166 -10.2024     93.8767     76.3402   8.5797624181e+01   4.9210497803e+01    0.5791034    0.3531143  32.04  0.002493565    1.829    0.453
       167 -12.4192     74.8171     50.9245   8.3545168574e+01   5.7545020193e+01     1.290938    0.7332903 -48.40  0.006039659    1.879    0.468
       168 -10.5513     67.2921     81.9651   9.6266035275e+01   5.2335835518e+01    0.4081077    0.3535574  -2.59  0.002363197    1.268    0.211
       169 -11.7331     85.4562     73.7531   8.7704642987e+01   5.1257045208e+01    0.6865178    0.4781248  39.03  0.003021352    1.531    0.347
       170 -11.2423     79.7995     67.5218   8.7594179519e+01   5.3503248315e+01    0.5597305      0.48134  72.81  0.001959336    1.549    0.354
       171 -12.2091     89.4954     59.4013   8.1564965550e+01   5.3390865518e+01    0.9140449    0.8499799 -29.99  0.005318217    1.091    0.083
       172 -11.0346     79.0111     83.0369   9.2642801971e+01   5.0331708251e+01    0.6323298    0.5237672 -75.36  0.002377397    1.440    0.305
       173 -11.5797     73.6294     77.7886   9.2908214150e+01   5.2323469995e+01    0.7130384    0.4656344 -24.89  0.003362433    1.822    0.451
       174  -9.9232    183.8725     87.5059   6.6214088605e+01   2.6444713634e+01    0.4298443    0.3569436 -80.34  0.002077025    1.400    0.286
       175 -10.0544    182.7521     82.7606   6.5098684681e+01   2.7580461208e+01    0.4033059    0.3018312 -71.11   0.00181297    1.647    0.393
       176 -10.4901    165.6534     83.5151   6.8864255534e+01   3.1708401515e+01    0.4637647    0.3726798 -55.37   0.00139992    1.321    0.243
       177 -11.2989    143.1369     83.9259   7.4242201187e+01   3.7117630137e+01    0.3679154    0.3289654 -66.78 0.0006288717    1.220    0.180
       178 -10.2937    127.4341     82.7898   7.7966156763e+01   4.0976297967e+01    0.4498875    0.2816002 -46.51  0.001811473    1.615    0.381
       179 -10.2708    127.3468     77.3303   7.6285761915e+01   4.2082353754e+01    0.4265766    0.2802892 -55.73  0.001344024    1.793    0.442
       180  -9.7437    124.0713     73.0000   7.5788534420e+01   4.3662580008e+01    0.3505092    0.2276841  63.38  0.001127624    1.933    0.483
       181 -11.3271    123.9828     67.9985   7.4174924224e+01   4.4627969639e+01    0.7512994    0.4965721  25.89  0.003092632    1.878    0.468
       182 -10.5433    120.0376     69.0000   7.5591410241e+01   4.5326608289e+01    0.3311765     0.268306  64.32 0.0008900686    1.422    0.297
       183 -13.1323     52.4585     73.4455   9.9098076763e+01   5.6162869333e+01    0.5430071    0.2992799 -57.76 0.0008721075    1.712    0.416
       184 -11.3064     57.9836     77.8543   9.8350103100e+01   5.4505342580e+01    0.6931939    0.3651174 -70.05 0.0003958428    2.887    0.654
       185 -10.8646    109.3172     80.5309   8.2384391048e+01   4.5331228128e+01    0.3700659     0.330151 -10.18  0.001031699    1.167    0.143
       186 -10.5159    232.2641     76.6613   5.5168332606e+01   1.6638508599e+01    0.6384045    0.2848746 -49.37   0.00247035    2.363    0.577
       187  -9.0624     20.1754     71.5818   1.1054640975e+02   5.9639639378e+01    0.1571304    0.1089843 -14.98 0.0008947816    1.700    0.412
       188  -9.7850      8.9821     76.2760   1.1555274736e+02   5.9300265475e+01    0.2257955    0.1257125 -46.41 0.0002250612    1.530    0.346
       189 -11.7574     14.1473     74.7796   1.1342164876e+02   5.9328563669e+01    0.4693839    0.2967013 -63.25  0.001555291    1.254    0.202
       190 -10.1632     14.2050     67.2660   1.1183940302e+02   6.0990836610e+01    0.3276784    0.2594275   4.09  0.002084286    1.526    0.345
       191  -9.4033    170.8236     77.8709   6.6100882267e+01   3.1449030869e+01    0.2387919    0.2153632  17.07 0.0006571505    1.217    0.178
       192 -11.7887      1.8905     71.1885   1.1717312830e+02   6.0796886113e+01    0.5787268    0.1528234 -67.10  0.002432887    2.755    0.637
       193 -12.3564      6.1570     62.3408   1.1386970106e+02   6.2523160610e+01    0.6573164    0.3868543 -30.32  0.002801326    1.743    0.426
       194  -9.6536    139.0346     77.2899   7.3227278359e+01   3.9377487868e+01    0.2202629    0.2006097  48.36 0.0003390641    1.103    0.094
       195  -9.7914    192.5840     65.6080   5.8409562383e+01   2.8023241677e+01    0.2922879    0.2511343 -71.57 0.0008048742    1.213    0.175
       196 -12.1656    186.6176     70.5876   6.0889300644e+01   2.8717377024e+01     1.020435    0.6689546 -37.77  0.003407269    1.492    0.330
       197  -9.3226     63.5244     76.4165   9.5996194779e+01   5.4088618166e+01    0.2598299    0.1767534 -31.11 6.017688e-05    1.514    0.340
       198  -9.5099     66.3839     74.1856   9.4339790608e+01   5.4174731591e+01    0.2069565    0.1855971 -67.05 0.0009047918    1.247    0.198
       199  -9.4099    114.1531     75.0443   7.9234734992e+01   4.5435715312e+01    0.5016665    0.1708043  39.56  0.001539536    3.419    0.708
       200  -9.7947    184.4006     61.7379   5.8729714881e+01   3.0729203306e+01    0.3009612    0.2586168  -1.54  0.001365023    1.358    0.264
       201  -9.4712    151.8977     73.4851   6.8931256635e+01   3.6969560641e+01    0.4165891    0.1988747  37.34  0.001415165    2.680    0.627
       202 -10.3168     15.9521     44.1172   1.0519052403e+02   6.5756551563e+01    0.8374333    0.2441851 -34.79  0.003030608    4.252    0.765
       203 -10.2231     53.1970     49.2876   9.1134906097e+01   6.1054967465e+01    0.4443041    0.3534897 -86.52  0.002423835    2.144    0.534
       204 -11.7864     40.9385     70.6979   1.0258303759e+02   5.8045206505e+01    0.8175653    0.2535005 -49.87  0.003260998    2.508    0.601
       205 -11.4161     32.3973     71.9974   1.0609994783e+02   5.8573341971e+01    0.5211926    0.2778961  25.96  0.002362363    2.199    0.545
       206  -9.4353    175.2072    246.7926   1.0114553378e+02  -3.7945438047e-01    0.1708248    0.1247902  21.46  0.001089897    1.348    0.258
       207 -11.9106     21.3987     46.9072   1.0364667233e+02   6.4800452711e+01    0.5598699    0.4395452 -26.85  0.001967195    1.162    0.139
       208 -10.9388     20.2554     54.9934   1.0645443351e+02   6.3221504625e+01    0.3364363     0.308542  26.81  0.001089207    1.374    0.272
       209 -11.1888     41.0170     57.0985   9.8622705234e+01   6.0934350474e+01    0.4214714    0.3493196  61.33  0.001678128    1.707    0.414
       210 -11.9033     33.1302     58.6753   1.0225233264e+02   6.1387155637e+01    0.6656927    0.3406044   4.05 0.0002692718    2.934    0.659
       211 -11.7872     28.2455     54.3236   1.0296825694e+02   6.2729548347e+01    0.9386166    0.5117183  -4.53  0.004657245    2.561    0.609
       212 -11.3514     51.0142     61.3468   9.6043284135e+01   5.8920991119e+01    0.3211877    0.3054339  84.64  0.001010268    1.342    0.255
       213 -11.4330     46.1999     58.5204   9.7018125772e+01   6.0071484563e+01    0.4316134    0.2804847 -41.79  0.001115818    1.301    0.231
       214  -9.9753    162.1462     70.8507   6.5831614539e+01   3.4880864557e+01    0.3286074    0.2766986  83.43 0.0009786214    1.334    0.251
       215  -9.9193    172.3271     68.3384   6.2961728345e+01   3.2731880079e+01    0.3636187     0.271954  28.98 0.0009471307    1.588    0.370
       216  -9.9152    172.1937     65.5663   6.2155901936e+01   3.3231652815e+01    0.4616645    0.4101013  79.40   0.00237906    1.169    0.144
       217 -10.7446     46.8981     74.2253   1.0133304238e+02   5.6633066843e+01    0.3269995    0.1676794 -55.16  0.001570349    1.679    0.404
       218 -11.4531    219.7874     66.4208   5.4340526982e+01   2.1163575551e+01    0.6525892    0.3841419  58.87  0.002271484    1.756    0.430
       219  -9.3376    207.8077     68.5287   5.6708325283e+01   2.3746152629e+01    0.2792618    0.1387407  54.90  0.001125369    2.034    0.508
       220  -9.7136    199.8237     87.9300   6.3308184214e+01   2.2446535171e+01    0.2503057    0.2240365  58.17 0.0004310443    1.154    0.134
       221  -8.9064     69.6502     67.1472   9.1009005244e+01   5.5188025689e+01     0.202067    0.1129669 -38.48 0.0003731327    1.677    0.404
       222  -8.7720     64.3409     62.4687   9.1405062678e+01   5.6928353574e+01    0.2939561    0.2012312  52.75  0.001299102    1.985    0.496
       223 -10.6964     59.4951     63.9575   9.3673972994e+01   5.7295196887e+01    0.4742824    0.2170028 -48.27  0.001773237    1.927    0.481
       224  -9.9760     57.3220     61.2905   9.3629006712e+01   5.8134525368e+01    0.2474622    0.2019104 -13.08 0.0006056141    1.234    0.189
       225 -10.3619     21.2613     65.4998   1.0873553846e+02   6.0900519489e+01    0.2382951    0.2065026  80.12 0.0005802114    1.448    0.309
       226  -9.6565     25.9319     65.4462   1.0691872019e+02   6.0556335320e+01     0.182451    0.1360189 -52.55 0.0004275424    1.084    0.078
       227  -9.2905     53.0710     65.8505   9.6656464818e+01   5.7725928773e+01    0.2612855    0.1716511  42.52    0.0013787    1.844    0.458
       228  -9.8324    198.2762     62.6207   5.6616138809e+01   2.7059765645e+01    0.3313131    0.2404307 -76.55  0.001040766    1.633    0.388
       229 -10.4324    105.8501     63.9021   7.7979444798e+01   4.9333445693e+01     0.450377    0.3258463 -36.48  0.002207244    1.344    0.256
       230 -10.0027    105.7385     56.9466   7.5580674509e+01   5.0627626488e+01     0.560498    0.2256644 -50.23  0.001798167    3.572    0.720
       231 -11.3643    234.1253     61.1863   5.1063979398e+01   1.8581966285e+01    0.6015745    0.4376099  72.87  0.002779305    1.471    0.320
       232 -10.3500    158.9951     62.1900   6.3821504194e+01   3.7158581656e+01    0.5439411    0.2668761  42.37   0.00201787    2.247    0.555
       233  -9.0813    199.0684    244.5161   9.6471427129e+01  -3.8496044932e+00    0.1895498   0.09578355  39.52  0.001031502    1.603    0.376
       234 -11.1393    128.3942    241.8812   1.0923905783e+02   7.8545426367e+00    0.4033096     0.322544  35.72  0.002712987    1.234    0.190
       235 -11.2578    113.0337     50.0009   7.0955012803e+01   5.0239463812e+01    0.7008677    0.4251617  25.41  0.002951495    2.099    0.524
       236  -9.4527     68.0160    240.4934   1.2020426276e+02   1.6971581964e+01    0.1712347   0.09127433  44.48  0.001022146    1.558    0.358
       237 -10.8703    148.4990    237.7539   1.0493591032e+02   5.2708831037e+00    0.4405776    0.2154716  46.78   0.00226363    1.714    0.417
       238  -9.4522    147.8954     60.6870   6.5788090318e+01   4.0202420642e+01    0.4702069    0.1498709  59.06  0.001351602    3.673    0.728
       239 -10.4447    139.2120     44.2399   6.2255134822e+01   4.4953321170e+01    0.4909578    0.2790745  38.28  0.002050485    1.916    0.478
       240 -10.6891    136.6715     56.3473   6.6994676476e+01   4.3687789506e+01    0.6606874    0.4607273  -5.29  0.002321546    1.872    0.466
       241 -11.6802    145.8428     47.1810   6.1780488286e+01   4.2861297894e+01     1.124982    0.4905695 -24.55  0.003977533    2.775    0.640
       242 -10.8335    134.7610     50.5362   6.5472863379e+01   4.5089337789e+01    0.3987398    0.2863326  76.37  0.001816436    1.765    0.433
       243 -11.1527    157.5070     55.2578   6.1937275214e+01   3.8661914612e+01    0.6468413    0.5446181  81.93  0.003267725    1.298    0.229
       244 -10.7858    155.5017     49.9600   6.0646379720e+01   3.9993790537e+01    0.4038139    0.2726759 -14.72 0.0007097143    1.794    0.443
       245  -8.6493    219.6724     57.2892   5.1980401381e+01   2.2577959496e+01    0.1506715    0.1029728 -66.74 0.0004326078    1.616    0.381
       246  -9.6270    187.8505     55.5042   5.6318177116e+01   3.0816131791e+01    0.2592455    0.2420406  25.93 0.0007001319    1.183    0.154
       247 -10.0718     67.0297     54.6874   8.7752734784e+01   5.8074135202e+01    0.3176435    0.1864603 -46.97 0.0009579384    1.637    0.389
       248 -10.9816    244.7067     50.9969   4.7326341185e+01   1.7645222710e+01    0.5758551    0.2678638  81.64  0.002252252    3.080    0.675
       249  -9.9109    237.2762     54.0171   4.8908760062e+01   1.8902164985e+01    0.2930738    0.2069824 -67.13 0.0006542554    1.468    0.319
       250 -10.7538    240.4542     50.4748   4.7678242888e+01   1.8678295681e+01    0.3831343    0.3225736 -42.01  0.001335358    1.116    0.104
       251  -9.6878     59.5081     24.0306   7.8330546483e+01   6.4446101790e+01    0.2834586    0.1678463 -30.17 0.0004072986    1.549    0.355
       252  -9.8292     60.6952     20.2690   7.6135282274e+01   6.4793258705e+01    0.3320315    0.2517492 -63.90  0.001499122    2.521    0.603
       253 -10.8552     57.0906     30.9607   8.2355489969e+01   6.3750096449e+01     0.464149    0.3025227   2.23  0.002202585    1.750    0.429
       254 -11.7516     49.1620     29.8294   8.5167352224e+01   6.5050047262e+01    0.5519289    0.3101367  23.61  0.001394197    1.925    0.481
       255 -11.6022     60.4596     36.2484   8.3223707852e+01   6.2382900948e+01    0.3776139    0.2522566 -28.76 0.0005799477    1.348    0.258
       256 -12.1422     61.0988     45.9619   8.6803152476e+01   6.0588650004e+01    0.9735098    0.4774541 -44.69  0.004539854    1.911    0.477
       257 -10.0260     63.4504     40.4706   8.3761753289e+01   6.1213285948e+01    0.2192252    0.1695412 -37.42 0.0005163809    1.253    0.202
       258 -11.2998    201.7634     48.1299   5.2047806076e+01   2.8354002792e+01    0.9140168    0.4616854 -42.70  0.003851325    1.899    0.474
       259  -9.9685    176.4172     43.2968   5.4628270724e+01   3.5559080834e+01     0.460935    0.2243214  57.72  0.001865882    1.927    0.481
       260  -9.4078    161.7732     47.8849   5.8721123968e+01   3.8694541282e+01    0.4457391    0.2223329  75.08  0.001230896    2.890    0.654
       261 -10.7632    197.4930    232.0042   9.4864533079e+01  -1.9479965901e+00    0.4453933    0.1540219  35.17  0.001860917    2.618    0.618
       262  -9.7392      5.6718     35.8581   1.0739038280e+02   6.8023888090e+01    0.3641105    0.3326505  42.86  0.002798002    1.531    0.347
       263 -10.2679    247.3424    231.5537   8.5911116791e+01  -9.5339796256e+00    0.2058636    0.1297552 -20.31  0.001059459    1.552    0.356
       264  -9.5904     23.3962    231.6724   1.2738493488e+02   2.3943399587e+01    0.1870949   0.09102412  51.33 0.0007018163    1.590    0.371
       265  -9.5479    108.3798    230.1961   1.1172226236e+02   1.2977699902e+01    0.1580708    0.1105801 -83.41 0.0007745868    1.646    0.392
       266  -9.7034     15.1473    233.7186   1.2886581981e+02   2.4430775390e+01    0.1899206     0.121465 -84.88  0.000992176    1.391    0.281
       267  -9.8887    234.1516    223.0858   8.6751049007e+01  -6.5801674552e+00    0.1968932    0.1367214  12.13 0.0006881454    1.272    0.214
       268  -9.8595     10.2783    217.3341   1.2888077456e+02   2.7982870920e+01    0.2177113    0.1343247 -62.02  0.001475396    1.973    0.493
       269 -10.3925    165.2079    212.4228   9.8017281041e+01   6.5328023201e+00    0.3041613    0.1831776  53.67  0.001212556    1.767    0.434
       270  -8.9874    209.2891     47.3748   5.0778376037e+01   2.6570271123e+01    0.1976575    0.1339408  80.15 0.0007499985    1.573    0.364
       271 -11.0143    173.7675     48.0911   5.6549949649e+01   3.5560959569e+01    0.6189912    0.4309238  75.13  0.002878941    1.541    0.351
       272  -9.4314    234.1220     44.8224   4.7020108681e+01   2.0922195656e+01     0.235149    0.1953845 -36.76 0.0005456565    1.191    0.160
       273 -10.3981    231.5592     39.4519   4.5984878567e+01   2.2249781415e+01    0.6481714    0.3065519 -68.10  0.002029343    3.065    0.674
       274  -8.7077    219.3174     45.6390   4.8999147152e+01   2.4340790937e+01    0.1567262   0.09634467 -62.08 0.0007042604    1.763    0.433
       275  -9.2096    132.1985     45.5732   6.4360555405e+01   4.6475481521e+01    0.2162334     0.129748  43.60    0.0006985    1.637    0.389
       276  -9.8412    162.7015     43.8052   5.7241895544e+01   3.9045825404e+01    0.3631369    0.2195346  61.87  0.001600938    1.604    0.377
       277  -9.2447    204.4882    208.5159   8.9645002432e+01   2.4222406784e-01    0.1319037    0.1112035  20.35 0.0008103616    1.001    0.001
       278  -9.6528    153.0688    207.8456   9.9763306621e+01   9.4817653430e+00    0.2089755    0.1693327  58.19 0.0009067329    1.251    0.201
       279  -9.7601     61.0092    206.9612   1.1865991893e+02   2.4301442620e+01    0.1877812    0.1453484  70.82 0.0004695889    1.035    0.034
       280  -9.5355    238.5065    204.5745   8.2679833447e+01  -4.8598560144e+00    0.2514411    0.1150902 -33.27   0.00122084    2.201    0.546
       281 -10.0559      4.4010    204.6041   1.2926997091e+02   3.1022711933e+01    0.2075579    0.1027043 -78.84  0.001300504    1.677    0.404
       282 -10.8176    245.5116    200.5695   8.0708934055e+01  -5.4315184142e+00    0.2302352    0.1855032   3.72 0.0007157106    1.013    0.013
       283 -11.3203    155.9234     41.9452   5.7947428182e+01   4.1055815489e+01    0.4107799    0.3843064  45.40   0.00102081    1.050    0.048
       284 -11.5849    153.1308     36.0447   5.6545977420e+01   4.2578105882e+01    0.3195309    0.2846887 -53.02 0.0004435956    1.191    0.160
       285  -8.9710    101.4883     44.4970   7.2271890456e+01   5.3619261857e+01    0.2545344    0.1939625 -69.88 0.0009283564    2.002    0.500
       286 -10.2188     97.6874     41.3406   7.2215776484e+01   5.4905950273e+01    0.2879984     0.244976 -78.90 0.0009143259    1.673    0.402
       287 -10.7910     92.9685     41.3646   7.3704344259e+01   5.5857028437e+01    0.5304235    0.2894875  42.76  0.002351932    1.809    0.447
       288 -10.3315    189.2097     40.7016   5.1808676935e+01   3.2602648805e+01    0.6478852    0.2428472 -24.80  0.001992813    3.241    0.691
       289  -8.6369    207.2832    201.3377   8.7821218345e+01   8.3996678923e-01    0.1351287   0.09378508   5.20  0.000440879    1.626    0.385
       290 -10.6100     77.6939     34.4236   7.6020235224e+01   5.9832788595e+01    0.4103349    0.2599614  38.23  0.001616465    1.570    0.363
       291  -9.9865     81.6349     31.3746   7.3378879715e+01   5.9567164146e+01     0.513665    0.4077685  48.30  0.002758533    1.415    0.293
       292  -9.1684    193.6814     39.0070   5.0661334314e+01   3.1680841393e+01    0.1934461    0.1762469 -41.70   0.00027706    1.124    0.111
       293 -11.2956    176.9245     36.3007   5.2421729655e+01   3.6376969210e+01     0.445001      0.36683 -11.42  0.002338775    1.398    0.285
       294  -9.9882    172.1768     33.2044   5.2243578134e+01   3.8013748088e+01    0.3461308    0.2582574  77.28  0.001491572    1.348    0.258
       295 -10.6055     21.8219     36.6203   1.0010245603e+02   6.6783300853e+01    0.4725775    0.2330258  40.01  0.002406591    2.916    0.657
       296  -9.7524    207.1005     36.9445   4.8258280738e+01   2.8545219660e+01    0.2486212    0.2060403  57.53  0.001135896    1.252    0.201
       297  -9.6218    133.0378     36.7123   6.1016334811e+01   4.7542470618e+01    0.3299947    0.2167433 -59.48  0.001453891    2.063    0.515
       298 -10.9689    139.1558     32.8961   5.8309375493e+01   4.6534102385e+01    0.5343669    0.4590395  45.07  0.001869089    1.097    0.089
       299 -10.3716    234.4156    196.9373   8.1974166343e+01  -3.1472337655e+00    0.4147254    0.2585124  17.21    0.0016012    1.655    0.396
       300 -12.1692    106.1777     32.6765   6.6312504161e+01   5.4367120721e+01    0.5637318    0.3337853  17.41  0.001836034    2.306    0.566
       301 -12.5839    113.7872     25.1475   6.1316782533e+01   5.3624424212e+01    0.8251615    0.3618694  51.50 0.0009041309    2.053    0.513
       302 -10.3519    239.7272     32.8613   4.3533813827e+01   2.1212651548e+01    0.4503269     0.264988  77.64  0.002275019    1.756    0.431
       303  -9.3539    216.2065     32.8151   4.6049130567e+01   2.6817948030e+01    0.3236397    0.1970382   6.68  0.001280801    3.200    0.688
       304  -8.7557     83.6319    195.8250   1.1278482173e+02   2.3458308934e+01    0.1707199    0.1124351 -82.83 0.0004755637    1.562    0.360
       305  -9.9027     68.4579     33.0392   7.8801118982e+01   6.1641615350e+01    0.3983065    0.3307653  34.32  0.002426922    1.297    0.229
       306  -9.4375     66.5027     28.1569   7.7441892106e+01   6.2712150131e+01    0.2803279    0.1537381  24.45  0.001328887    2.078    0.519
       307  -9.7633    187.6410     31.6943   4.9429434103e+01   3.4189435863e+01    0.2719629    0.1822595  47.86 0.0005591531    1.567    0.362
       308 -10.2736    189.5229     27.4973   4.7956367654e+01   3.4223137230e+01    0.3980994    0.2751827  29.91  0.001369336    1.880    0.468
       309  -9.4520     94.4748     36.0373   7.1115064393e+01   5.6369727080e+01    0.2492274    0.1954925  65.55  0.001167394    1.656    0.396
       310 -12.2383      4.9501    185.1275   1.2809381434e+02   3.4957832665e+01    0.7459996    0.3917849  84.32   0.00402329    1.528    0.345
       311 -10.7606    177.0281     29.9776   5.0490411355e+01   3.7156823299e+01    0.4604514    0.2463515  53.61   0.00147599    1.779    0.438
       312 -11.2700    182.6631     25.3909   4.8293081126e+01   3.6248913522e+01    0.6319148     0.315915  51.49  0.002704911    1.975    0.494
       313  -9.3602    221.8000     29.6028   4.4595803330e+01   2.5859125392e+01     0.217925    0.1803047 -26.42 0.0005210055    1.337    0.252
       314  -9.5603     99.6524     30.3028   6.7233161774e+01   5.6104335593e+01    0.2664298     0.199211  75.94  0.001331545    1.934    0.483
       315 -10.7410     98.3940     26.7836   6.6162267751e+01   5.6839324180e+01    0.2788558    0.2572684  56.78 0.0004370016    1.250    0.200
       316 -10.2856    230.6158     27.1993   4.3078376498e+01   2.4048493931e+01    0.4076093     0.200412 -41.61  0.001261867    1.811    0.448
       317  -9.1261     41.1949     28.2693   8.7977851959e+01   6.6324149787e+01    0.3148659    0.1147688 -32.32  0.001274044    2.919    0.657
       318  -9.6141    250.5497     26.6014   4.1078522307e+01   1.9564451847e+01    0.2583425    0.1138056 -33.10 0.0007417224    2.093    0.522
       319  -9.8624    169.7255    191.4969   9.3547579476e+01   9.3594138798e+00    0.3643878    0.1767027  33.65  0.001178549    2.147    0.534
       320  -9.5124     86.1606     23.8414   6.8664011473e+01   5.9735028812e+01    0.1973533    0.1656828  12.47  0.001173299    1.063    0.060
       321  -9.9805    239.6943    184.7412   7.8667268524e+01  -2.2851251821e+00    0.2498685    0.1759816   9.11 0.0007178667    1.406    0.289
       322 -10.1194    250.1256    178.9947   7.5714456158e+01  -3.1975482741e+00    0.3707553    0.1461232 -27.99  0.001544281    2.594    0.614
       323  -9.5556    213.6875    180.6496   8.2624216319e+01   2.9415575218e+00    0.1454501   0.09955985   4.49 0.0007045877    1.722    0.419
       324  -9.4135    157.6535    179.6869   9.3961335887e+01   1.3893205724e+01    0.1465932    0.1117552   6.68 0.0007046762    1.714    0.417
       325  -9.0524     44.9801     24.0845   8.4463453363e+01   6.6524490801e+01    0.1655056     0.153556 -57.00 0.0007706812    1.616    0.381
       326  -9.7383     28.1371    176.1213   1.2270094123e+02   3.4740010750e+01    0.2171329    0.1665218  82.96  0.001257554    1.021    0.020
       327  -9.9902     51.9252    173.5871   1.1720284833e+02   3.2655677260e+01    0.3719893    0.1687042 -85.98  0.001591634    2.608    0.617
       328  -9.6607    231.4959    175.3975   7.8245311371e+01   5.3383482437e-01    0.3779497    0.1213639  42.24  0.001399895    3.061    0.673
       329  -8.8762     57.4062    174.8159   1.1609873381e+02   3.1695121154e+01    0.1673771    0.1070137 -62.43  0.000474406    1.524    0.344
       330  -9.2520    223.4077     22.0824   4.2541181644e+01   2.6389593649e+01    0.2055176    0.1636949  83.23  0.000617012    1.185    0.156
       331  -9.8021    247.7425    173.9238   7.5090759028e+01  -2.0680819959e+00    0.4466219     0.155173  31.19  0.001484074    4.281    0.766
       332  -9.8490     74.1314     19.5337   7.0790361376e+01   6.2580767184e+01     0.252287    0.1911073  25.16 0.0006988975    1.204    0.169
       333  -9.5694     39.5026    173.5057   1.1998037740e+02   3.4118764172e+01    0.1751405    0.0993363 -65.14 0.0006852642    1.622    0.384
       334  -9.3087    211.3350     18.8768   4.2973335095e+01   2.9715184939e+01    0.1811401    0.1643141 -57.47 0.0003917031    1.100    0.091
       335  -8.6051    194.6312     19.2969   4.4981903379e+01   3.3872871008e+01    0.1512782   0.09527929 -68.34 0.0005379802    1.730    0.422
       336 -10.5338     35.5338    170.4286   1.2056274882e+02   3.5242413278e+01    0.4256533     0.214509  85.38  0.002113042    2.041    0.510
       337  -8.9771    205.0792     17.4723   4.3280175879e+01   3.1434108599e+01    0.2063563    0.1251244  72.27 0.0005482193    1.542    0.351
       338 -10.1976      8.9051    156.7397   1.2531291172e+02   4.0807280651e+01    0.3306232     0.153154 -63.41   0.00166555    1.883    0.469
       339 -11.7525      9.6495    166.6307   1.2590703999e+02   3.8545330516e+01    0.5427395    0.3554483 -84.73  0.002374086    1.187    0.158
       340 -11.0475     13.9062    159.0999   1.2438389566e+02   3.9866212113e+01    0.3663755    0.2151714 -85.63  0.001343398    1.368    0.269
       341  -8.9635    228.3209    169.3137   7.7561015670e+01   2.0615865225e+00    0.1433097    0.0985811   5.76 0.0007039207    1.654    0.395
       342  -8.9403    174.2364     15.6391   4.6556507103e+01   3.9527100093e+01     0.193542    0.1150941  59.09 0.0004165164    1.529    0.346
       343  -8.9973    197.8377    167.8592   8.3108893672e+01   8.1546832937e+00    0.1862166    0.1744998 -68.76   0.00101629    1.310    0.237
       344 -10.0106    188.5749    165.4456   8.4496174588e+01   1.0450965101e+01     0.539665     0.237533 -28.67  0.001819218    3.341    0.701
       345  -8.7557    156.4936    166.4720   9.1658693136e+01   1.6762312885e+01    0.1472785     0.139537  38.55   0.00068335    1.011    0.011
       346 -10.0837     18.8274    164.8902   1.2377301599e+02   3.8134397273e+01    0.2356199    0.2250915  10.85  0.001766505    1.505    0.335
       347 -10.0968    205.0981    162.9937   8.0626370955e+01   7.5716971906e+00    0.2650789     0.199583  30.56 0.0005657155    1.300    0.231
       348  -9.6236     40.1434    162.5753   1.1870320704e+02   3.6534817077e+01    0.3586085    0.1521421 -82.63  0.001550022    2.499    0.600
       349 -10.1723     28.0096    162.0210   1.2145062907e+02   3.7918375624e+01     0.351494    0.1705463 -67.81    0.0018619    1.738    0.425
       350  -9.5623     79.2784    160.4242   1.0900219579e+02   3.2001780680e+01    0.2447894    0.1577742  89.15  0.001180149    1.764    0.433
       351  -9.4553    215.2755    158.3611   7.7649506809e+01   6.3581112884e+00    0.2713933    0.1657783 -24.79 0.0009142082    1.745    0.427
       352  -9.3898    223.5364    156.5157   7.5698542981e+01   5.0539434500e+00    0.1428087    0.1269713  -2.58 6.609524e-05    1.021    0.021
       353 -10.5695    104.4274    154.2457   1.0170724861e+02   2.9384918284e+01    0.3963745     0.285781 -66.15  0.001985622    1.394    0.283
       354 -10.2329     21.7007    155.6663   1.2229961068e+02   3.9963859615e+01    0.3541551    0.1583852  33.33  0.001836713    2.442    0.590
       355 -11.9746     22.7615    149.2398   1.2142133311e+02   4.1347406096e+01       0.5563    0.3075291 -40.32   0.00282895    2.619    0.618
       356 -10.6334     15.3445    147.8012   1.2305487039e+02   4.2316205569e+01    0.3141965    0.2192867  56.08  0.001078903    1.437    0.304
       357 -11.7558     12.5377    139.4900   1.2294110442e+02   4.4454369677e+01    0.8334097     0.413283 -84.19    0.0044444    1.723    0.420
       358 -10.7448     31.6756    153.3109   1.1970524354e+02   3.9561840205e+01    0.4444969    0.2864324  88.06  0.002584281    1.383    0.277
       359  -9.1828     74.8779    153.3584   1.0900988996e+02   3.4307867130e+01    0.2615464    0.1791833 -67.88 0.0008732789    1.355    0.262
       360  -9.4033     70.9036    151.5089   1.0972989344e+02   3.5311430852e+01    0.2963993    0.1326013  36.02  0.001265303    2.360    0.576
       361 -11.9007      4.1541    147.7765   1.2567664634e+02   4.3186871182e+01    0.7128749    0.3705227 -84.44  0.003807965    1.528    0.345
       362 -10.7235      5.1720    141.8316   1.2494239471e+02   4.4462353195e+01    0.2605086    0.2183649 -76.02  0.000964342    1.180    0.152
       363 -12.4677      3.7725    137.1580   1.2487219894e+02   4.5626264423e+01    0.3355875     0.189075 -65.06 0.0003411869    1.478    0.323
       364 -11.1243     47.0603    147.9576   1.1527350661e+02   3.9182674847e+01     0.752334    0.2904531 -65.92   0.00326746    2.203    0.546
       365  -9.8542    214.8002    150.9858   7.6109433627e+01   7.7289690338e+00    0.2497395    0.2257648  56.86  0.001126326    1.292    0.226
       366  -9.5412    234.3482    150.3450   7.2395205853e+01   3.9920433845e+00    0.2268417    0.1586694   3.90  0.001118381    1.679    0.404
       367 -10.1229    239.6879    146.6119   7.0644590846e+01   3.5825810818e+00    0.2468589    0.2017546 -16.20 0.0006646785    1.115    0.103
       368 -10.8879    249.5588    142.7451   6.8145557661e+01   2.3544443379e+00     0.642588     0.239597 -34.04  0.002536677    2.421    0.587
       369  -9.3030    107.6744    145.9811   9.9311356779e+01   3.0734396422e+01    0.2069851    0.1826167 -70.09 0.0004605703    1.102    0.092
       370 -10.7380     33.0849    144.4852   1.1836257528e+02   4.1487775687e+01    0.3986754    0.2654661  46.37  0.001959033    1.579    0.367
       371 -10.4447    133.3851    141.0719   9.1766529624e+01   2.6924649495e+01    0.3753786    0.3117515 -68.57  0.001621041    1.288    0.223
       372  -9.7846     26.8493    139.6271   1.1937086776e+02   4.3222445124e+01    0.3407833    0.2017242  45.44  0.001313929    1.786    0.440
       373 -11.6801     23.5866    135.1346   1.1968706109e+02   4.4568971030e+01    0.9006683     0.342863  39.96  0.004256976    2.707    0.631
       374 -11.9120     29.9626    132.8156   1.1773576605e+02   4.4547186664e+01    0.4584233    0.3100502  87.77 0.0003973604    1.384    0.277
       375 -10.9059     62.8442    150.4176   1.1161413593e+02   3.6663900531e+01    0.3935568    0.3836582 -22.73  0.001980503    1.297    0.229
