#   1 NUMBER                 Running object number                                     
#   2 MAG_AUTO               Kron-like elliptical aperture magnitude                    [mag]
#   3 X_IMAGE                Object position along x                                    [pixel]
#   4 Y_IMAGE                Object position along y                                    [pixel]
#   5 X_WORLD                Barycenter position along world x axis                     [deg]
#   6 Y_WORLD                Barycenter position along world y axis                     [deg]
#   7 A_WORLD                Profile RMS along major axis (world units)                 [deg]
#   8 B_WORLD                Profile RMS along minor axis (world units)                 [deg]
#   9 THETA_WORLD            Position angle (CCW/world-x)                               [deg]
#  10 FWHM_WORLD             FWHM assuming a gaussian core                              [deg]
#  11 ELONGATION             A_IMAGE/B_IMAGE                                           
#  12 ELLIPTICITY            1 - B_IMAGE/A_IMAGE                                       
         1 -14.2501    201.2992     15.5839   6.4134431791e+01   3.2910269037e+01     2.788459     1.753368  27.40   0.01114591    2.379    0.580
         2 -13.5253    206.3591      9.2875   6.1912641280e+01   3.2298304260e+01     1.389808    0.7153913  50.93  0.001391186    2.127    0.530
         3 -13.0442      8.6330     11.4822   1.1770322868e+02   7.2699537862e+01     1.223395    0.2819108 -44.61  0.005414483    2.997    0.666
         4 -12.5521      2.2436     12.2485   1.2163444881e+02   7.2994985673e+01     2.082737    0.1107765 -54.40  0.005013208   10.877    0.908
         5 -12.8600     13.7724     12.4740   1.1531143632e+02   7.2140849683e+01    0.5135671    0.4021516 -55.81  0.003650427    1.649    0.394
         6 -10.7181     68.8619    234.7921   1.3963353833e+02   1.8944214345e+01    0.2586653    0.2051141  69.80  0.001730189    1.095    0.086
         7 -10.4645    249.1943    249.6366   1.0917645535e+02  -1.0777505237e+01    0.2488685    0.1330707  33.16  0.001584479    1.485    0.327
         8 -12.5451    139.5444    248.2109   1.2809271436e+02   6.1851042214e+00    0.6427429    0.4203455  65.50  0.003913014    1.723    0.420
         9 -12.4574    127.8402    244.8314   1.2984134948e+02   8.5476486547e+00    0.4540425     0.304625  42.41  0.002899643    1.225    0.184
        10 -11.0976    110.7483    248.8831   1.3335077225e+02   1.0542439032e+01    0.3113296      0.17059  68.63  0.001290733    2.162    0.538
        11 -11.5353    105.9828    246.9590   1.3401834381e+02   1.1566342375e+01    0.2817555    0.1720734  65.51 0.0009317382    1.581    0.368
        12 -12.4180     99.4096    248.7696   1.3536040986e+02   1.2246375615e+01    0.6669847    0.2274312  46.59  0.003252723    2.186    0.543
        13 -11.8810     80.7328    248.1879   1.3859899509e+02   1.5006007136e+01    0.4165762    0.2478164  78.51  0.002632726    1.716    0.417
        14 -11.3232     85.6345    247.7597   1.3770558446e+02   1.4392677565e+01    0.2439443    0.1939334  82.42  0.001811873    1.241    0.194
        15 -11.8182     41.3415    206.4910   1.4255740893e+02   2.7808067260e+01    0.7275522     0.304874 -66.27 0.0002534701    2.304    0.566
        16 -14.6807     31.9284    247.0757   1.4676541696e+02   2.1345343555e+01     10.47041     3.400154  29.78   0.03168895   10.083    0.901
        17  -8.8824    152.5459    213.0253   1.2103914556e+02   9.6286416330e+00    0.1618202    0.1310639 -53.01 0.0003556283    1.454    0.312
        18 -10.4570    193.6008    196.1112   1.1015318272e+02   4.9847718227e+00    0.6599837    0.3390015 -62.40  0.002049809    6.008    0.834
        19 -11.5509     67.5353    195.9861   1.3636715379e+02   2.6642775837e+01    0.3430725    0.2483477 -47.73   0.00124556    1.895    0.472
        20 -11.6456     72.8092    188.6095   1.3444814303e+02   2.7464111106e+01    0.2709402    0.2267405 -59.42 0.0007939879    1.416    0.294
        21 -14.7757     49.4700    220.0104   1.4203651512e+02   2.4184810413e+01     1.876397     1.577474  69.15  0.009830108    1.208    0.172
        22  -9.3580    120.3973    188.1017   1.2399839409e+02   1.9987373087e+01    0.2544545    0.1817291  26.48  0.001307661    1.736    0.424
        23  -9.2307    125.2174    186.3135   1.2266926081e+02   1.9494928463e+01    0.2788364    0.1196763  34.94  0.001069894    2.645    0.622
        24 -10.9713     81.7268    176.3766   1.3096318966e+02   2.8818101116e+01    0.2361002    0.2068378  86.48 0.0003032196    1.070    0.065
        25 -13.2017     69.1897    173.9977   1.3351702274e+02   3.1152643475e+01    0.4801734    0.2834513 -45.45  0.001697875    2.299    0.565
        26 -12.2889     88.4529    167.3210   1.2812730534e+02   2.9800425900e+01     1.354629    0.5771463  53.70  0.005443226    2.534    0.605
        27 -12.8554     67.3420    144.2583   1.2983540159e+02   3.8235801686e+01     1.128213     0.623791  86.52  0.004151952    2.448    0.592
        28 -12.5219     58.0762    132.3195   1.3040131105e+02   4.2278004345e+01     1.847858    0.6728314 -78.52   0.00486186    6.295    0.841
        29 -12.0956     33.0151    156.1178   1.3988632728e+02   3.9560947578e+01    0.5213972    0.1849517 -72.61  0.002230883    2.413    0.585
        30 -12.0874     32.6662    148.9639   1.3920894703e+02   4.1231534458e+01    0.4525129    0.2404862  82.81  0.002295381    1.954    0.488
        31  -9.3555    103.3359    147.2813   1.2112450894e+02   3.1893571861e+01    0.2752698    0.2189941 -21.28 0.0007253745    1.783    0.439
        32 -11.9770     89.4566    150.5483   1.2521165734e+02   3.3470932292e+01    0.2760965    0.2542786 -44.21 0.0005355512    1.280    0.219
        33 -10.0106    100.8208    151.1221   1.2246094068e+02   3.1448732863e+01    0.2818728    0.2448872 -53.78 0.0008429222    1.226    0.184
        34  -9.3175    134.3804    148.2491   1.1365898421e+02   2.5806906670e+01    0.2104199    0.1406944 -61.89 0.0007666965    1.646    0.392
        35  -8.6853    192.3317    144.2205   9.9878942900e+01   1.4291456077e+01    0.1949375    0.1350444 -46.42 0.0003051299    1.517    0.341
        36  -9.7520    111.2222    136.5842   1.1698984574e+02   3.2926930374e+01    0.3385062    0.2438881 -25.23  0.001364799    1.992    0.498
        37 -10.4110     98.8072    133.7692   1.1966042601e+02   3.5818157584e+01    0.2634153    0.2252051 -29.93 0.0007082455    1.418    0.295
        38 -11.0964     50.2050    130.0306   1.3218740641e+02   4.3772979322e+01    0.2809941     0.214137  82.29 0.0006432221    1.281    0.219
        39 -13.6772     44.4511    229.4041   1.4360449348e+02   2.3031907914e+01    0.9308181    0.3548142  45.08   0.00193899    2.053    0.513
        40  -9.5450    107.9821    123.5463   1.1500219600e+02   3.6535913623e+01    0.2074556    0.1914971 -66.93 0.0003328305    1.043    0.041
        41 -11.1116    168.1514    113.2555   9.7487904180e+01   2.5792921806e+01    0.3657891    0.3128862 -73.42  0.000700111    1.316    0.240
        42  -9.0953    203.6581    111.6611   8.9835042314e+01   1.7738515936e+01    0.1591641    0.1184302  12.10 0.0007049612    1.770    0.435
        43 -10.8503     52.8718    109.9487   1.2797006733e+02   4.8225828094e+01    0.3185705    0.1696942 -70.92  0.001482598    1.850    0.459
        44 -10.8220     44.0934    109.7700   1.3058712031e+02   4.9253812108e+01    0.2631859    0.1888458  16.57  0.001377343    1.813    0.448
        45 -15.8051      6.9071    216.7314   1.4945033191e+02   2.9447235936e+01     9.304009     1.330564 -75.48   0.03554678    5.190    0.807
        46 -11.0893     75.6164    242.4976   1.3904243642e+02   1.6675085636e+01    0.2402333    0.1426764  68.49 0.0007814338    1.489    0.329
        47 -12.6922    119.2393    239.8136   1.3087415747e+02   1.0698043711e+01    0.4531294    0.3801693  32.01  0.003141808    1.377    0.274
        48  -9.1728    180.3016    232.6529   1.1859256509e+02   1.7976033288e+00    0.1172002   0.09042912  65.99  0.000703885    1.688    0.407
