#   1 NUMBER                 Running object number                                     
#   2 MAG_AUTO               Kron-like elliptical aperture magnitude                    [mag]
#   3 X_IMAGE                Object position along x                                    [pixel]
#   4 Y_IMAGE                Object position along y                                    [pixel]
#   5 X_WORLD                Barycenter position along world x axis                     [deg]
#   6 Y_WORLD                Barycenter position along world y axis                     [deg]
#   7 A_WORLD                Profile RMS along major axis (world units)                 [deg]
#   8 B_WORLD                Profile RMS along minor axis (world units)                 [deg]
#   9 THETA_WORLD            Position angle (CCW/world-x)                               [deg]
#  10 FWHM_WORLD             FWHM assuming a gaussian core                              [deg]
#  11 ELONGATION             A_IMAGE/B_IMAGE                                           
#  12 ELLIPTICITY            1 - B_IMAGE/A_IMAGE                                       
         1  -7.8077     83.6050     10.7984   3.1249888696e+01   6.2747886610e+01     0.180938    0.1217383 -36.47  0.000432354    1.596    0.373
         2  -8.5031     55.7815      9.8380   4.0443787774e+01   6.8870005669e+01      0.21872    0.1695383 -45.09  0.000675071    1.549    0.354
         3  -7.7292     47.9607     10.0048   4.4046498392e+01   7.0330961544e+01    0.1535781    0.1343922   9.94 0.0003499278    1.008    0.008
         4  -7.9907     90.8261      8.6001   2.8221804459e+01   6.1259843720e+01    0.1856881     0.127034  77.00 0.0007093033    1.625    0.385
         5  -8.2038      5.5372      7.5499   6.9555811542e+01   7.6514857844e+01    0.1160861    0.0962813 -26.53  0.000144784    1.050    0.048
         6  -8.1252     70.4835      6.0190   3.2758251407e+01   6.6226845509e+01    0.1886505    0.1261346 -24.57 0.0009861204    1.544    0.352
         7  -8.5868     33.4363      4.7905   4.8327522857e+01   7.3511238822e+01    0.2804557    0.1846948 -55.68  0.001438109    2.565    0.610
         8  -8.3098     79.4344      3.8002   2.8838036505e+01   6.4416260520e+01    0.2369378     0.121169 -27.93  0.001111129    2.020    0.505
         9  -7.8930     44.5114      3.0055   4.1293108200e+01   7.1832283869e+01    0.1598809    0.1009388 -49.67 0.0006225143    2.297    0.565
        10  -8.1746     62.6487      1.4130   3.2789986406e+01   6.8386698145e+01     0.214581    0.1222309  62.27  0.001063598    1.856    0.461
        11  -8.4062    218.4135    247.5369   6.2202424772e+01  -3.9985836195e+00    0.2120277   0.09725068 -39.35  0.001237597    2.723    0.633
        12  -8.3264     94.2195    249.4058   8.5204704527e+01   1.2398995826e+01    0.2572175    0.1023704  55.33  0.001184982    2.866    0.651
        13  -9.2090    224.4920    245.5062   6.0921067196e+01  -4.5212043322e+00    0.2162553    0.1547778  -6.98  0.001140981    1.254    0.203
        14  -9.5118    223.6703    242.3498   6.0604193781e+01  -4.0828894285e+00    0.1981651    0.1778427  35.03  0.001257446    1.706    0.414
        15  -9.4013    210.8905    246.2855   6.3280326877e+01  -2.9284352993e+00    0.1875315    0.1505554 -43.88 0.0009568719    1.936    0.483
        16  -9.4493    146.9088    245.6370   7.4682448529e+01   5.7454623021e+00    0.2728596    0.1735403  60.53  0.001307976    2.268    0.559
        17  -9.3484    120.0799    245.2288   7.9788244157e+01   9.5478244813e+00    0.3211125    0.2049351  80.75  0.001660318    2.627    0.619
        18  -8.8500     67.6973    244.6326   8.9987874019e+01   1.6587103728e+01    0.2983154    0.1560862  82.22  0.001657089    2.438    0.590
        19  -9.6182     78.2747    243.3600   8.7819428475e+01   1.5467366394e+01    0.4148782    0.1456926  55.73  0.001783366    3.211    0.689
        20  -8.9071    201.8882    243.0385   6.4361848517e+01  -1.4064247407e+00    0.2070366    0.1507628 -44.64 0.0008689955    1.982    0.496
        21  -7.8775    139.5024    244.5227   7.5962918005e+01   6.9412541668e+00    0.1183179   0.09129065  37.25 0.0001205172    1.056    0.053
        22  -8.4255      9.6071    243.4151   1.0096004244e+02   2.3216953375e+01    0.2049428   0.06301748  77.19 0.0009512929    3.459    0.711
        23  -8.8128    168.9280    243.0767   7.0251719738e+01   3.0284597678e+00    0.1749099    0.1388412  27.30 0.0005392424    1.053    0.051
        24  -7.6923     34.3596    243.6746   9.6357148270e+01   2.0639403467e+01    0.1245575   0.05435661  56.52 0.0007043143    1.781    0.439
        25  -9.1141    194.5108    240.0081   6.5226304747e+01  -7.0557380535e-02    0.3053129    0.1946888 -43.83  0.001392463    2.086    0.521
        26  -9.7449    183.2879    239.6578   6.7179436762e+01   1.4934359674e+00    0.3501823    0.3405818  74.28  0.002334942    1.566    0.361
        27  -9.4135    160.0405    240.0974   7.1526098124e+01   4.6746541783e+00    0.2766256    0.2129736 -80.91  0.001200607    2.309    0.567
        28  -8.1454    153.4677    241.9453   7.2997609898e+01   5.3442252383e+00    0.1357787    0.1013469  83.44 0.0008077133    2.421    0.587
        29  -9.1036    146.6582    240.1037   7.4070907528e+01   6.5710059881e+00    0.3116889    0.1969347  63.91  0.001686867    2.556    0.609
        30  -8.0841     88.1356    242.1472   8.5772346050e+01   1.4385133865e+01    0.1591996    0.1098272  59.29 0.0005268358    1.333    0.250
        31  -8.2960    213.8642    241.1165   6.2052755214e+01  -2.7241047642e+00    0.1576686    0.1306925  21.81 0.0007408367    1.292    0.226
        32  -8.8988    241.6041    237.9443   5.7091757485e+01  -5.7651012728e+00    0.4188435    0.1806995 -10.78  0.001935533    3.742    0.733
        33  -9.1798    135.6092    238.6371   7.6035773517e+01   8.3634085781e+00    0.2180016    0.1401032  59.24 0.0006846846    1.942    0.485
        34  -9.3575    230.8608    236.5018   5.8582169543e+01  -4.3294378536e+00    0.2750983    0.1993578 -41.80  0.001366492    2.097    0.523
        35  -8.3492     26.1795    237.5496   9.7631688076e+01   2.2602839163e+01    0.2547865   0.06925844  65.49 0.0009677653    4.503    0.778
        36  -8.8286    217.3203    235.6911   6.0687390405e+01  -2.5475685266e+00    0.1952039    0.1601822  22.60 0.0006687068    1.286    0.222
        37  -9.4753    213.6454    231.6066   6.0702946518e+01  -1.5970897744e+00    0.2585807    0.2345938 -75.09    0.0015059    2.166    0.538
        38  -9.0337    203.2629    234.5341   6.2917405795e+01  -5.7396045709e-01    0.2298488    0.1749804 -45.66 0.0009119749    1.907    0.476
        39  -9.8453    175.7059    233.1926   6.7681539754e+01   3.4015073892e+00    0.3928864    0.2279443 -54.64  0.002176317    2.715    0.632
        40  -9.3754    123.2811    233.6593   7.7902497816e+01   1.0907897970e+01    0.3757945    0.2180763 -70.71  0.002029676    2.623    0.619
        41  -9.1108    108.8560    234.2426   8.0870668595e+01   1.2869227178e+01     0.341316    0.1793566  56.02  0.001382869    2.059    0.514
        42  -8.8014     78.8187    234.5014   8.6990646338e+01   1.6922580808e+01    0.2606159    0.1405323  78.64  0.001121123    2.506    0.601
        43  -8.2550     99.7226    234.1546   8.2712205979e+01   1.4160948462e+01     0.187157    0.1284979  65.89  0.001156288    1.570    0.363
        44  -9.8040     68.7421    232.0658   8.8843995913e+01   1.8657771108e+01    0.5059378    0.2244027  67.39  0.002326786    2.966    0.663
        45  -8.5755    144.7814    233.0269   7.3563751165e+01   7.8877491054e+00    0.2498901    0.1180414  51.80  0.001163472    2.622    0.619
        46  -8.6729     92.7025    231.8423   8.3920087443e+01   1.5525931574e+01    0.2608359    0.1586047  72.27  0.001458416    2.038    0.509
        47  -9.3950    186.3213    230.4022   6.5337067966e+01   2.2736029577e+00    0.2590087    0.2105056 -67.12  0.001163114    2.155    0.536
        48  -8.5604    157.9785    232.0021   7.0870285212e+01   6.1181091269e+00    0.1770448    0.1351457  59.45 0.0008583812    1.707    0.414
        49  -8.4627    132.4363    232.2764   7.5911467364e+01   9.8020466279e+00    0.1396621    0.1167193 -86.46 0.0006821133    1.594    0.373
        50  -8.8983    236.0075    230.4487   5.6846190385e+01  -4.3001825226e+00    0.2115112    0.1355039 -24.02 0.0004991983    1.516    0.341
        51  -9.3052    151.3168    228.9739   7.1764132741e+01   7.5414458689e+00    0.3145085    0.2209679  77.90  0.001480339    2.664    0.625
        52  -9.3714    148.8185    224.4961   7.1663801134e+01   8.5976265641e+00    0.3186469    0.2174688  62.22  0.001342696    2.036    0.509
        53  -8.7357      1.7101    230.5852   1.0203251700e+02   2.6267894819e+01    0.1945047    0.0856725  66.25  0.001097268    1.762    0.433
        54  -9.5843    246.7548    228.4829   5.4858144721e+01  -5.3813978550e+00    0.3746619    0.1631051 -25.14  0.001909564    2.220    0.550
        55  -8.5034    139.8585    229.9979   7.4155850587e+01   9.0725300807e+00    0.1817282    0.1395728  50.93 0.0005429717    1.322    0.243
        56  -8.0053    229.5168    228.5320   5.7598703429e+01  -3.2821496854e+00    0.1105319   0.08442441   9.23 0.0003470897    1.046    0.044
        57  -8.9950    162.4660    227.7686   6.9437494149e+01   6.0781369256e+00    0.2902781    0.1753821  53.19   0.00157667    2.097    0.523
        58  -8.6546    127.8561    226.9825   7.6197750907e+01   1.1323367994e+01    0.2726429     0.167932  59.89  0.001147336    2.007    0.502
        59  -9.4826      8.1554    227.3021   1.0069623539e+02   2.6284689346e+01    0.2509969   0.07388032  70.69   0.00109983    3.405    0.706
        60  -9.4297    225.1579    221.4759   5.7219732854e+01  -1.9069571154e+00    0.2643339    0.1605691 -25.42  0.001331492    1.610    0.379
        61  -8.7411    206.0375    226.0128   6.1172446173e+01   1.0052910809e-01    0.2000043    0.1487448 -26.51 0.0006420247    1.440    0.306
        62  -8.2971    170.3387    235.2617   6.8962429049e+01   3.8818668766e+00    0.1366663    0.1109883 -51.99 0.0006614832    1.695    0.410
        63  -8.2189    110.4920    227.5007   7.9815139030e+01   1.3771995576e+01    0.1236208    0.1001027  42.07 0.0001239806    1.014    0.013
        64  -8.1876    200.2057    226.1566   6.2218990033e+01   8.8459014036e-01    0.1401313    0.1299559  19.82 0.0004497571    1.369    0.269
        65  -7.9457     49.2942    226.6271   9.2434675309e+01   2.2048550895e+01    0.1280793   0.06560063  61.10 0.0007025711    1.733    0.423
        66  -8.8015    180.6442    224.0582   6.5464437631e+01   3.9450446051e+00    0.2340125    0.1778899  52.68 0.0008892947    1.702    0.413
        67  -8.7630     94.0121    224.0741   8.2885525358e+01   1.6719120056e+01    0.3493687    0.1583867  56.35  0.001432594    2.456    0.593
        68  -8.1406     38.7287    225.1110   9.4504923715e+01   2.3551102006e+01     0.217674   0.07204944  58.84 0.0009536713    2.886    0.654
        69  -9.3655    238.9640    221.5293   5.4990270800e+01  -3.6776269583e+00    0.2739536    0.1373462 -29.30  0.001061503    1.927    0.481
        70  -8.7427    173.1744    222.6886   6.6671636982e+01   5.2343550098e+00    0.2507568    0.1911924 -60.33 0.0008157032    1.972    0.493
        71  -7.9310    113.6215    223.7372   7.8744224278e+01   1.3963999868e+01     0.148002     0.116226 -85.21  0.000557742    1.585    0.369
        72  -8.8443    104.8466    223.5849   8.0559782394e+01   1.5265630436e+01    0.2660856    0.1798988  79.07  0.001345364    1.918    0.479
        73  -8.8179    216.4383    223.4595   5.8991546261e+01  -9.9085001905e-01     0.195087    0.1861162 -13.73 0.0008252244    1.541    0.351
        74  -8.2119    164.3260    223.6468   6.8505782638e+01   6.4080535058e+00    0.2117515    0.1446427  47.68  0.001031943    1.544    0.352
        75  -9.0300    159.6019    220.4880   6.8980648478e+01   7.5909882065e+00    0.3756338    0.1796176  50.98  0.001705174    2.668    0.625
        76  -8.5709    194.0928    232.5513   6.4245440753e+01   9.1444356418e-01    0.1678628    0.1508003 -15.17 0.0005055492    1.339    0.253
        77  -9.3312    192.5575    221.2599   6.2852661954e+01   2.6050419665e+00    0.2836583    0.2457732  68.17  0.001172101    1.880    0.468
        78  -7.9989    140.4765    222.5031   7.3072654510e+01   1.0166947348e+01    0.1251813    0.1021628  40.23 0.0002255439    1.086    0.079
        79  -8.1494     73.5920    220.7670   8.6894061577e+01   2.0114922204e+01    0.2549702    0.1243053  74.41  0.001030785    2.945    0.660
        80  -7.8120     27.5609    221.2059   9.6572657884e+01   2.5515260139e+01    0.1439615   0.09638747 -70.59 0.0009442904    1.683    0.406
        81  -8.1027    202.7792    219.8333   6.0798781202e+01   1.3400022553e+00    0.1421116    0.1291055  19.83 0.0004255808    1.311    0.237
        82  -9.1928    120.3793    218.9158   7.6760017582e+01   1.3796869155e+01    0.4464959    0.2259436  60.37  0.001934063    2.975    0.664
        83  -8.4655    210.3121    219.0527   5.9356190786e+01   3.8888378253e-01    0.1794094    0.1515675  42.24 0.0006724941    1.554    0.357
        84  -9.0411    249.0109    217.9948   5.2859268298e+01  -4.5210310987e+00    0.2251769     0.173223  58.53  0.001398946    3.022    0.669
        85  -7.8544    151.4707    218.5020   7.0315678603e+01   9.1358577147e+00    0.1253931    0.1039793  28.25 0.0008098489    1.023    0.023
        86  -9.4091    132.8855    215.8255   7.3750861765e+01   1.2427656016e+01    0.4450079    0.2724114  71.91  0.002037479    3.022    0.669
        87  -9.0691     51.9639    217.3631   9.1230948746e+01   2.3507170883e+01    0.2694475    0.1506507  67.53  0.001092131    1.709    0.415
        88  -8.2291    179.3582    217.2282   6.4689985459e+01   5.1006052295e+00    0.1468169    0.1147508 -50.15 0.0003987466    1.697    0.411
        89  -8.6999    169.3353    215.9707   6.6422408047e+01   6.7978959975e+00     0.251348    0.2031243 -86.23 0.0009750354    2.105    0.525
        90  -8.8277    143.0258    216.3882   7.1733488893e+01   1.0772991912e+01    0.2662413    0.1978599  83.35  0.001437151    2.118    0.528
        91  -8.4438     82.6627    220.1692   8.4905299039e+01   1.9008046935e+01    0.1965752    0.1305636  67.03  0.001157833    1.529    0.346
        92  -7.8931    242.7718    212.0219   5.2857971251e+01  -3.0749439232e+00    0.1990322    0.0759005 -34.84  0.000351368    2.591    0.614
        93  -8.4083    232.1651    214.5921   5.4970662182e+01  -2.0081819138e+00    0.1763223    0.1361043 -25.52 0.0005814949    1.398    0.285
        94  -8.1008    154.7254    215.1551   6.9188404594e+01   9.1664712644e+00    0.1946021    0.1270695  67.36 0.0009415334    2.714    0.632
        95  -8.0164     18.7532    215.2685   9.8091065013e+01   2.7580034410e+01    0.1664975   0.07411019 -67.56 0.0008982258    2.408    0.585
        96  -8.2676    185.6622    214.1714   6.3035577973e+01   4.5964425875e+00    0.2006955    0.1472824  40.28 0.0009725458    1.364    0.267
        97  -8.8801     93.0760    213.8432   8.2015660082e+01   1.8739495826e+01    0.3465979    0.1452354  53.25  0.001504274    2.502    0.600
        98  -8.0027     77.6422    214.3355   8.5429668959e+01   2.0801381320e+01    0.2793799   0.09759974  48.02  0.001195811    2.448    0.592
        99  -8.9139     72.3778    211.1338   8.6280141750e+01   2.2136350904e+01    0.4388552    0.1890992  64.26  0.001600169    3.173    0.685
       100  -9.3552    213.9500    212.0473   5.7608424946e+01   7.7724608785e-01    0.2898546    0.2203026  48.94  0.001463199    1.826    0.452
       101  -8.8474    161.7418    212.2590   6.7361746458e+01   8.5366200645e+00    0.2207477    0.1951324  88.38 0.0007686562    1.599    0.375
       102  -7.7407    106.5267    212.5174   7.8942015404e+01   1.7019125649e+01    0.1302666    0.1051899  50.45 0.0003920001    1.078    0.073
       103  -9.0349    204.1323    210.7466   5.9118631064e+01   2.3491792842e+00    0.2012146    0.1869807 -35.92 0.0007190344    1.473    0.321
       104  -9.3788    175.4140    209.7419   6.4294548601e+01   6.8041475589e+00    0.3669426    0.2423413  62.92  0.001803986    2.685    0.628
       105  -8.7540    147.8951    210.1303   6.9851018275e+01   1.1049126386e+01     0.273579    0.2129921  88.61  0.001166302    1.955    0.489
       106  -8.8587    116.4770    210.1040   7.6489855942e+01   1.5957824354e+01    0.3547931    0.1912332  60.75  0.001016312    2.495    0.599
       107  -8.2926    192.0933    210.0684   6.1192939033e+01   4.2171979555e+00    0.1651282    0.1501012  65.83 0.0007282809    1.632    0.387
       108  -8.4372     85.6314    209.5825   8.3195292628e+01   2.0617741673e+01    0.2561102    0.1437179  63.41  0.001286342    1.976    0.494
       109  -8.4650     46.6167    209.3331   9.1799968850e+01   2.5744470993e+01    0.2540442    0.1311992  60.18  0.001366125    1.725    0.420
       110  -8.3252     32.3874    210.2161   9.4948220916e+01   2.7175329798e+01    0.1673673   0.09163161  80.35  0.000944777    1.740    0.425
       111  -9.2694    236.5705    207.5677   5.3104477088e+01  -1.7482960882e+00    0.3569181    0.1940838 -40.09  0.001390352    2.198    0.545
       112  -9.2299    246.3929    206.9754   5.1458587017e+01  -2.9517918794e+00    0.2481772    0.1603158 -25.37 0.0004810113    1.427    0.299
       113  -9.2868    250.1955    201.5802   4.9965594146e+01  -2.8087306758e+00    0.3458361    0.1500485 -28.43  0.001421367    2.099    0.524
       114  -9.3820    245.7368    193.6868   4.9288561341e+01  -1.2829115039e+00     0.336589    0.2638509 -64.65  0.001721572    2.948    0.661
       115  -8.3791    138.9677    207.6625   7.1354262690e+01   1.2878861498e+01    0.2267494    0.1709694 -85.25 0.0008009219    1.954    0.488
       116  -8.5206     62.1584    217.0414   8.9023106539e+01   2.2309305861e+01    0.3111282    0.1299471  60.81   0.00139299    2.636    0.621
       117  -9.2502     99.3802    205.8513   7.9719762917e+01   1.9346086371e+01    0.3562773    0.2234862  74.90   0.00126847    2.091    0.522
       118  -8.5578     56.6035    205.6828   8.9301112476e+01   2.5275845587e+01    0.3205565    0.1428053  66.12  0.001324508    2.625    0.619
       119  -9.3332    194.7668    203.5088   5.9630294695e+01   4.7494607713e+00     0.283543    0.2759549 -65.82   0.00122206    1.476    0.323
       120  -9.2110    192.5042    197.0814   5.8969604636e+01   6.0405155029e+00    0.3455857    0.2769901 -61.51  0.001313152    1.911    0.477
       121  -8.9867    183.7803    203.7919   6.1737737008e+01   6.4016571429e+00    0.2757736    0.2188056  61.59  0.001319698    1.827    0.453
       122  -8.8173    131.3303    203.7638   7.2425950817e+01   1.4782686625e+01    0.2958666    0.2022765  68.47  0.001085925    1.996    0.499
       123  -8.8673      5.7884    207.9907   1.0046783891e+02   3.0264594584e+01     0.200141   0.09212319  59.13   0.00091763    1.668    0.401
       124  -7.6221     25.6311    205.3349   9.6123733678e+01   2.8887944367e+01     0.136224   0.06182812  58.62 0.0007029528    1.837    0.456
       125  -9.7336    163.9247    202.9062   6.5488764270e+01   9.6851883197e+00    0.4110503    0.2544124  54.45  0.001241241    2.047    0.511
       126  -8.2453     73.4466    202.9216   8.5242982614e+01   2.3640204331e+01    0.1819191   0.09504706  77.37 0.0008077038    2.602    0.616
       127  -8.9923    243.0947    200.6942   5.0910788622e+01  -1.7823488083e+00    0.2708658    0.1427687 -32.88 0.0009649573    1.827    0.453
       128  -8.5561    210.8999    201.6066   5.6407216152e+01   2.5978714157e+00    0.2081919    0.1557627 -48.97 0.0008631912    1.890    0.471
       129  -8.7826    140.7333    201.1764   7.0032764004e+01   1.3730753244e+01    0.3249655    0.2174361  64.13  0.001286955    2.040    0.510
       130  -8.5838     79.7748    200.7771   8.3575310681e+01   2.3201774682e+01    0.3903765    0.1693274  62.21  0.001509559    3.247    0.692
       131  -8.0233    222.1559    201.1348   5.4390058500e+01   1.0324914152e+00    0.1465742    0.1321296 -17.00 0.0003556984    1.338    0.252
       132  -9.4654    149.6988    198.4672   6.7719671865e+01   1.2742274724e+01    0.4133852    0.2856666  75.50  0.001493952    2.520    0.603
       133  -8.7977    124.1173    199.0953   7.3336481184e+01   1.6796463449e+01    0.3003746    0.2108101  79.51  0.001294927    2.026    0.506
       134  -9.1510    112.8246    198.1942   7.5730700817e+01   1.8766922948e+01    0.3957041    0.2274722  66.11  0.001769716    2.493    0.599
       135  -9.0884    237.1481    198.2991   5.1439774846e+01  -6.9299939094e-01     0.237761    0.1435205 -34.10  0.001017561    1.679    0.405
       136  -8.2187    177.0132    198.7538   6.2215986533e+01   8.2457650289e+00    0.1965924    0.1643535 -58.54 0.0005217634    1.615    0.381
       137  -8.9842     88.5207    198.3058   8.1288360053e+01   2.2450163877e+01    0.3300137    0.2124602  69.59  0.001341353    1.740    0.425
       138  -8.5507    202.3030    197.7729   5.7285220794e+01   4.4216247720e+00     0.200229    0.1912159 -67.61  0.001113108    1.552    0.356
       139  -8.7935     61.4998    197.1094   8.7421083207e+01   2.6436482802e+01    0.4042317    0.1656261  58.98  0.001683303    2.719    0.632
       140  -8.2288     29.3869    197.2792   9.4808126649e+01   3.0180790383e+01    0.1662165   0.09564562  81.90 0.0007478787    1.608    0.378
       141  -8.0165     12.9721    197.5038   9.8481643051e+01   3.1767430649e+01    0.1791852   0.05277903  49.66 0.0008090928    2.488    0.598
       142  -8.7559    216.0606    195.5257   5.4463385847e+01   2.6648979716e+00    0.2168923     0.183531 -54.44  0.000942254    1.802    0.445
       143  -8.2816    133.0504    195.9716   7.0913286634e+01   1.5927133931e+01    0.2043718    0.1526135  68.65 0.0006979124    1.675    0.403
       144  -7.7266     36.3635    196.6820   9.3183162961e+01   2.9552187776e+01    0.1387312   0.06878725  59.15 0.0007040948    1.771    0.436
       145  -8.7137    224.5858    193.6105   5.2678111992e+01   1.6739980491e+00    0.2942949    0.1290205 -41.35  0.001425579    2.580    0.612
       146  -7.8033    209.2047    195.2372   5.5611746124e+01   3.7310385972e+00    0.1745728   0.09003593 -45.23 0.0005543401    2.422    0.587
       147  -8.9714    185.1356    194.6569   5.9951086460e+01   7.5794085388e+00    0.2170169    0.1955535 -74.45 0.0007284622    1.616    0.381
       148  -9.0919    160.8708    194.0822   6.4687151962e+01   1.1649724417e+01     0.295325    0.2402959  80.68  0.001143411    1.807    0.447
       149  -8.9262     44.0413    193.3916   9.1162027567e+01   2.9383704101e+01    0.4242595    0.1697865  60.08  0.001839109    2.574    0.612
       150  -8.0041    231.1268    194.1670   5.1693989661e+01   6.6532861708e-01    0.1458634    0.1324716  -6.32 0.0004812741    1.309    0.236
       151  -8.5804     76.9828    193.7807   8.3458006982e+01   2.5046341697e+01    0.2114026      0.17207  78.34 0.0005786582    1.190    0.160
       152  -8.3769    198.9360    191.4776   5.6805533015e+01   5.8610802667e+00    0.2096714     0.170436 -46.72 0.0006229456    1.557    0.358
       153  -8.4321    172.3207    191.7215   6.1962317473e+01   1.0142180329e+01    0.2212157    0.1976751  83.51 0.0008616867    1.556    0.357
       154  -9.3411    139.7030    190.4741   6.8604143207e+01   1.5839184650e+01    0.3677938    0.2605653  74.58  0.001126056    2.107    0.525
       155  -7.9358    156.5528    207.7736   6.7732020730e+01   1.0069228725e+01    0.1511908    0.1260076 -64.73 0.0007286452    1.590    0.371
       156  -8.5290    179.2057    191.2446   6.0514875000e+01   9.0818098310e+00    0.1607165    0.1535821  68.27 0.0005796995    1.357    0.263
       157 -10.3399     92.5483    188.8568   7.9184084303e+01   2.3802556868e+01    0.9688361    0.2237588  45.56  0.003035205    3.989    0.749
       158  -8.2997     21.3494    191.6690   9.6291307364e+01   3.2206034691e+01    0.1367033    0.0655092  59.68 0.0007048387    1.769    0.435
       159  -8.4590      6.3720    190.2261   9.9609343523e+01   3.3910971949e+01    0.1687709   0.08681383  80.50 0.0009462936    1.668    0.400
       160  -8.3243    237.2778    188.5394   4.9705066798e+01   5.2339126967e-01      0.19565    0.1220807 -36.02 0.0005684936    1.656    0.396
       161  -7.6056    210.3178    189.6177   5.4424557912e+01   4.3563780950e+00    0.1124165    0.1014096 -80.47 0.0007021374    1.825    0.452
       162  -8.3929    148.3265    189.0217   6.6496029082e+01   1.4646932207e+01    0.2315326    0.1751953  61.23 0.0009385174    1.586    0.370
       163  -8.8017    129.2911    188.5669   7.0616289324e+01   1.7949155948e+01    0.2783272    0.2021653  70.36 0.0008603591    1.762    0.432
       164  -8.8070    216.4101    187.5408   5.2988158055e+01   3.7171106111e+00    0.2196303    0.2015768 -48.54 0.0008165335    1.533    0.348
       165  -8.7915    191.6350    187.2140   5.7410404438e+01   7.6795205755e+00    0.2714275    0.1898815 -59.54 0.0009633319    2.250    0.555
       166  -9.2055    155.8904    187.2201   6.4580183404e+01   1.3681378626e+01    0.2852158    0.1983819 -53.85 0.0008224995    1.711    0.416
       167  -9.5692    120.5032    185.8058   7.2193042441e+01   1.9959394513e+01    0.4252656    0.2473421 -71.24  0.001910823    2.445    0.591
       168  -8.9228     54.9190    186.9015   8.8008490158e+01   2.9479761909e+01    0.3940395    0.1831255  66.73  0.001467864    2.533    0.605
       169  -8.8993     34.1334    187.9251   9.3068755058e+01   3.1693995521e+01    0.2934498    0.1228036  60.61  0.001337774    2.306    0.566
       170  -9.2102    249.4625    185.4629   4.7262154737e+01  -7.7138266500e-01    0.2944509    0.1753655 -38.98  0.001322422    1.855    0.461
       171  -8.3306    230.6793    187.1692   5.0523682605e+01   1.6455556674e+00    0.1734412    0.1373223 -34.38 0.0007193623    1.431    0.301
       172  -8.6614    165.0195    186.5575   6.2558420138e+01   1.2239046377e+01    0.2470391    0.2061794  89.24  0.001122137    1.749    0.428
       173  -9.0832    109.6588    185.9231   7.4735895697e+01   2.1719591229e+01     0.375362    0.2397024  72.96  0.001208116    2.154    0.536
       174  -8.6091    202.7856    184.4912   5.4850754782e+01   6.2895879608e+00    0.2228706    0.1629046 -50.98 0.0007727268    1.826    0.452
       175  -8.5603    183.2149    184.8119   5.8597180746e+01   9.4521067102e+00    0.2151212    0.1978697 -84.65 0.0006758585    1.517    0.341
       176  -9.2299    137.5114    184.7244   6.8159535709e+01   1.7291732453e+01    0.2362339    0.2153567  40.27 0.0004660281    1.029    0.028
       177  -9.1667     66.9584    184.6490   8.4852316710e+01   2.8402075809e+01    0.3737916    0.1816776  53.14  0.001196646    1.942    0.485
       178  -8.6352    210.1121    183.9115   5.3430605661e+01   5.2108807862e+00    0.2086037    0.1631273 -26.87 0.0005802748    1.258    0.205
       179  -8.4248    197.1140    183.4349   5.5700952996e+01   7.3680714840e+00    0.2097902    0.1474529 -57.53  0.000633121    2.162    0.537
       180  -8.8899    174.2311    183.5261   6.0146803898e+01   1.1183373252e+01    0.2488598    0.2121672  84.05 0.0008603051    1.715    0.417
       181  -8.3757    224.1930    183.1604   5.0868746902e+01   3.1471805628e+00    0.1836514    0.1418831  -6.48 0.0005512888    1.135    0.119
       182  -8.9576     44.6837    182.2315   9.0066616983e+01   3.1764773657e+01     0.381464    0.1728675  62.73  0.001049219    2.309    0.567
       183  -7.9694      1.8165    183.5559   1.0034998527e+02   3.5739328573e+01    0.1698945   0.07990851  45.12 0.0009445729    1.732    0.423
       184  -9.1792    147.4545    180.4344   6.5235185594e+01   1.6378705171e+01    0.3283981    0.2558772 -85.76  0.001184532    1.838    0.456
       185  -8.4650     19.4286    182.2309   9.6171702628e+01   3.4462997398e+01    0.1792837    0.0935996  80.20 0.0009445857    1.753    0.429
       186  -9.4600     25.8586    179.0078   9.4411708475e+01   3.4551170815e+01    0.5907734     0.204419  74.07  0.002102023    3.993    0.750
       187  -8.8252    137.5952    179.0816   6.7198488607e+01   1.8362871473e+01    0.2937557    0.2253014  82.48  0.001105993    1.788    0.441
       188  -7.6467    240.4606    179.5127   4.7565539650e+01   1.2424780849e+00    0.1211396   0.09602405  -4.31 5.067282e-05    1.025    0.025
       189  -9.3991    191.4488    178.2233   5.5805195844e+01   9.1263691861e+00    0.2530135    0.2352263  67.42 0.0005387503    1.431    0.301
       190  -8.0077    169.5629    178.7202   6.0228900685e+01   1.2811361486e+01    0.1723558    0.1304518 -55.20 0.0009338775    1.622    0.383
       191  -8.9690     36.3969    176.9660   9.1658911071e+01   3.3900817460e+01    0.5011263    0.1871937  72.11  0.001759978    3.940    0.746
       192  -8.5659    250.5800    172.3200   4.4689831316e+01   7.3480714249e-01    0.2342359    0.1521957 -14.68 0.0005456581    1.371    0.270
       193  -9.2281    248.9358    177.1508   4.5831007897e+01   3.4690125630e-01    0.2338132    0.1954258 -41.91 0.0006956282    1.602    0.376
       194  -8.8355    247.3214    173.6970   4.5434335874e+01   1.0190185866e+00    0.1940953    0.1527957 -41.49  0.000335173    1.588    0.370
       195  -8.7248    205.2802    177.5317   5.3112595278e+01   6.9340333731e+00    0.2159115     0.145098 -42.38 0.0005814073    1.644    0.392
       196  -8.5491    129.2976    177.2439   6.8786426113e+01   2.0173837066e+01    0.2650222    0.1867857  75.55  0.000750732    1.994    0.498
       197  -8.8110    231.2210    176.4945   4.8476505797e+01   3.0051548943e+00    0.2592034    0.1440849 -33.47 0.0009166186    1.683    0.406
       198  -8.4714    217.4284    176.9462   5.0863634952e+01   5.0684047836e+00    0.2083246    0.1681777 -39.86 0.0007728995    1.432    0.302
       199  -9.0587    183.0782    175.9969   5.7007630645e+01   1.0921593461e+01     0.271762    0.2120538 -51.28 0.0007058362    1.549    0.354
       200  -8.7364     89.1573    176.4922   7.8353588307e+01   2.6982683059e+01    0.3068225    0.2109691  77.24 0.0009241117    1.672    0.402
       201  -9.8696     57.6078    173.4511   8.5957824887e+01   3.2165441902e+01    0.8479395    0.3556748  74.81  0.002681894    4.688    0.787
       202  -9.2952    158.8698    174.8288   6.1760647776e+01   1.5396643547e+01    0.3791667    0.2757537  78.05  0.001350097    2.265    0.558
       203  -9.3874    104.2320    174.3298   7.4305168183e+01   2.5045912168e+01    0.5387945    0.2615941  60.00  0.001598039    2.967    0.663
       204  -7.8738     97.6670    176.7100   7.6277282771e+01   2.5597318106e+01    0.1317027     0.109315  -6.00 0.0003047141    1.629    0.386
       205 -10.6889     75.8000    169.9396   8.0849024926e+01   3.0465580418e+01      1.21334    0.4801437 -79.43  0.003717632    4.790    0.791
       206  -8.7136     12.6251    176.0755   9.7436707689e+01   3.6472530972e+01    0.2628579    0.1173064  73.63  0.001279272    2.096    0.523
       207  -8.3576    224.4913    174.0404   4.9120614741e+01   4.3773149192e+00    0.1867018     0.111047 -32.44  0.001027377    1.578    0.366
       208  -9.3884    175.7262    172.0820   5.7735600858e+01   1.2877288081e+01    0.3073976    0.2521018 -44.17 0.0008296659    1.337    0.252
       209  -8.2348    143.0480    172.7426   6.4859353712e+01   1.8629504410e+01    0.2369312    0.1847865 -75.02 0.0008649983    1.671    0.402
       210  -7.9501    194.3314    172.2815   5.4136079268e+01   9.5889229347e+00    0.1350126   0.09494933   7.22  0.000453886    1.609    0.378
       211  -8.3837    134.7115    171.3881   6.6522932809e+01   2.0393018616e+01    0.2332465    0.1772243 -69.07 0.0006471765    1.600    0.375
       212  -9.0083     45.0969    170.8716   8.8901549016e+01   3.4311630848e+01    0.3703313       0.1858  75.54  0.001646888    2.283    0.562
       213  -8.9528    230.2543    169.3471   4.7279290090e+01   4.1443067917e+00    0.4099325     0.135766 -38.87  0.001697537    2.923    0.658
       214  -9.5613    121.4264    170.3674   6.9479192489e+01   2.2959310919e+01    0.3472747    0.2558376  77.83 0.0009661158    1.744    0.427
       215  -8.5629    236.9752    169.6132   4.6257918395e+01   3.0797272834e+00    0.2488591     0.183498   3.33  0.001119448    1.278    0.218
       216  -8.1514    205.8452    170.1116   5.1596670634e+01   7.9764891089e+00     0.184444    0.1711026 -41.87 0.0005388148    1.321    0.243
       217  -8.4208    198.3861    169.9798   5.2934037557e+01   9.2622836187e+00    0.2055956    0.1885931  72.45 0.0006817898    1.493    0.330
       218  -8.5286    149.9225    169.4665   6.2721636133e+01   1.8018690516e+01     0.244004    0.2002942 -76.92 0.0008278806    1.571    0.364
       219  -7.6501     68.3865    170.6984   8.2862164527e+01   3.1349768583e+01    0.1515668   0.08796787  61.60  0.000701728    1.789    0.441
       220  -7.7725    244.3855    169.1329   4.5021023869e+01   2.0425072972e+00    0.1622121   0.09837562 -38.13 0.0005426506    1.666    0.400
       221  -9.1759    166.9540    168.4073   5.8841968146e+01   1.5107832318e+01    0.2933878    0.2266409  71.09 0.0008854131    1.828    0.453
       222  -7.9345     88.7831    168.7849   7.7346522185e+01   2.8760862175e+01    0.2033564    0.1478897  64.93 0.0009424318    1.398    0.285
       223  -8.6382    218.8017    168.1487   4.8948714482e+01   6.1336495405e+00    0.1808999     0.164494 -24.58 0.0005652396    1.225    0.183
       224  -7.8723    211.4113    167.9296   5.0183347495e+01   7.3808777305e+00    0.1700017    0.1073297 -55.62 0.0008031942    2.500    0.600
       225  -8.4614    111.4812    167.0367   7.1341230036e+01   2.5400832165e+01     0.311874    0.2137574  79.40  0.001006955    1.974    0.494
       226  -8.8473    191.8960    166.5861   5.3492218697e+01   1.0940975792e+01    0.2424718    0.1854058 -42.15 0.0005117505    1.402    0.287
       227  -8.4287    185.0143    166.3019   5.4766691911e+01   1.2211315156e+01    0.2243912    0.1886311 -66.25 0.0006299224    1.610    0.379
       228  -9.5426    137.1936    164.4962   6.4693393352e+01   2.1334943986e+01    0.6260826    0.2691955  54.77  0.002101903    3.402    0.706
       229 -10.0043     94.9496    162.3132   7.4760007125e+01   2.9238918900e+01    0.9107831    0.5234585  80.23  0.003507969    2.923    0.658
       230  -8.8680     20.5636    166.2201   9.4822411031e+01   3.8004965684e+01    0.3101937    0.1061369  47.32  0.001357748    2.459    0.593
       231  -8.2170    234.0764    164.7095   4.5771934252e+01   4.2015869568e+00    0.2110627    0.1471871 -37.40 0.0007046328    1.457    0.314
       232  -8.6209    159.6338    164.2542   5.9599012970e+01   1.7221633042e+01    0.2698292    0.2215043  86.66   0.00103443    1.680    0.405
       233  -9.3783    246.0786    162.9856   4.3590629439e+01   2.6134368871e+00    0.2318947    0.1442678 -28.81  0.000666937    1.393    0.282
       234  -8.5703    212.9410    163.4306   4.9031491820e+01   7.8108235259e+00    0.2275774    0.1687667 -44.85 0.0004790262    1.536    0.349
       235  -9.4885     33.4204    162.9363   9.1200422663e+01   3.7488022952e+01    0.5834904    0.1877289  51.23   0.00226416    2.963    0.662
       236  -8.5065    204.9430    162.4732   5.0257301702e+01   9.3252648251e+00    0.2319007     0.174289 -46.51   0.00052723    1.528    0.346
       237  -7.7229    199.6562    163.2871   5.1383566959e+01   1.0115728385e+01    0.1225107    0.1083614  86.66 0.0005752598    1.647    0.393
       238  -9.3851      3.3603    162.1137   9.8956727457e+01   4.0437322736e+01    0.4345222    0.1378571  54.63  0.001880314    2.729    0.634
       239  -9.1166    177.4564    160.4366   5.5105529900e+01   1.4607104772e+01    0.2583213    0.2363266 -81.52 0.0008684407    1.392    0.281
       240  -8.7378    151.7872    160.8941   6.0668307201e+01   1.9333675803e+01    0.2476916    0.1994938 -75.07 0.0009845305    1.606    0.377
       241  -8.7591    227.5833    159.0180   4.5693290345e+01   6.0459156423e+00    0.2788227    0.1894251 -46.30  0.001131409    1.739    0.425
       242  -8.5877     60.4905    159.8318   8.3582548595e+01   3.4978740727e+01    0.2821117    0.1706264  77.89  0.001204895    1.861    0.463
       243  -9.8395    250.1904    157.6793   4.1956560629e+01   2.7126399859e+00    0.3194095    0.1707995 -36.23 0.0008630526    1.701    0.412
       244  -9.4658    247.0000    155.0475   4.1907685384e+01   3.5478311028e+00    0.1996579    0.1361629 -17.78 0.0005135181    1.297    0.229
       245  -8.3104    237.1940    158.7791   4.4122800030e+01   4.5465702295e+00    0.1727085    0.1266696  -5.68 0.0004984259    1.296    0.228
       246  -8.2486    128.2212    159.0371   6.5802781757e+01   2.4122602978e+01     0.273976    0.1779495  64.60  0.001204621    2.005    0.501
       247  -9.5092    105.7642    157.7258   7.1187175146e+01   2.8449595582e+01    0.4779778    0.3080055  76.11   0.00120156    2.203    0.546
       248  -8.2589    240.0295    163.9687   4.4698514244e+01   3.3895598380e+00    0.1716557     0.144833 -52.36 0.0005263222    1.662    0.398
       249  -8.5936    196.6390    157.7522   5.0826521989e+01   1.1556176489e+01    0.2373456    0.1982687 -66.38 0.0008821738    1.653    0.395
       250  -8.4480    188.1516    157.6444   5.2418425390e+01   1.3119052011e+01    0.2328258     0.179965 -47.31 0.0006751359    1.432    0.302
       251  -9.1942    167.6520    157.1359   5.6464668378e+01   1.7046563160e+01    0.3092038    0.2439148 -85.80  0.001191993    1.892    0.472
       252  -8.4487    217.9931    156.4368   4.6762432498e+01   8.0236718160e+00    0.2417458     0.163358 -44.64 0.0008020712    1.635    0.388
       253  -8.8638    157.7036    156.2791   5.8434725939e+01   1.9106374127e+01    0.2407202    0.2195125 -87.56 0.0009821666    1.303    0.232
       254  -9.6171     81.5914    155.1856   7.7177267446e+01   3.3030827634e+01    0.4819236    0.3825145  80.91  0.001796953    1.282    0.220
       255  -9.1219    119.4891    155.0640   6.7206363349e+01   2.6586522652e+01    0.3717442    0.2622945  81.73    0.0014112    1.968    0.492
       256  -9.4264     49.8965    155.2559   8.5922807703e+01   3.7441528834e+01    0.4406328     0.198944  58.84  0.001799961    2.488    0.598
       257  -9.6608    241.8750    154.0638   4.2474643176e+01   4.4733940336e+00    0.3353406     0.239411  71.66  0.001761773    2.802    0.643
       258  -7.9760    204.6573    155.2291   4.8840700030e+01   1.0532175002e+01    0.1844194     0.115786 -27.11 0.0004500721    1.580    0.367
       259  -8.6032    144.7006    154.6432   6.1037473380e+01   2.1925135856e+01    0.3188087    0.2378032  69.45  0.001223498    1.722    0.419
       260  -9.5916     68.3094    153.9022   8.0632632299e+01   3.5319131806e+01    0.4442708    0.2411298  64.75   0.00138809    2.226    0.551
       261  -9.5758    132.8127    152.6037   6.3442561806e+01   2.4622893964e+01    0.4523356    0.3212292  74.65  0.001120901    1.956    0.489
       262  -8.8557    133.5830    148.2453   6.2374129158e+01   2.5399766674e+01    0.2780862     0.211429 -48.77 0.0009255109    1.366    0.268
       263  -9.4860     29.7368    150.9894   9.1083396781e+01   4.0742105629e+01    0.4198894    0.1894831  65.61  0.001686895    2.444    0.591
       264  -8.1011     20.1735    152.2322   9.3847883258e+01   4.1360397211e+01    0.1882903    0.1225411  67.32 0.0005938829    1.372    0.271
       265  -8.8110    189.5653    150.0861   5.0572864562e+01   1.4156490028e+01    0.2815522    0.2207098 -62.80  0.000876156    1.693    0.409
       266  -8.1990    182.4352    151.2068   5.2202727829e+01   1.5310582172e+01    0.1916528    0.1300311 -50.97 0.0007839016    1.685    0.407
       267  -8.3079    162.6631    150.5181   5.6161005686e+01   1.9256057393e+01    0.2312215    0.1774243 -68.06 0.0008168647    1.706    0.414
       268  -8.6149     98.1970    150.6154   7.1916387607e+01   3.1384136620e+01     0.301212    0.2120757  82.23 0.0009601836    1.768    0.434
       269  -8.8594      2.8549    149.9429   9.8404105695e+01   4.3329976886e+01    0.2877813    0.1250461  78.67  0.001353527    2.137    0.532
       270  -9.4388    248.9184    149.0636   4.0443061002e+01   4.0707062141e+00    0.2813688    0.1514509 -30.89 0.0007457245    1.586    0.369
       271  -9.2088    243.1654    149.4826   4.1366356248e+01   4.9097266063e+00    0.2532514    0.1535411 -36.04  0.001198266    1.502    0.334
       272  -9.5991    237.2359    150.0208   4.2366405853e+01   5.7800202370e+00    0.2734609     0.176773  28.31  0.001542973    1.668    0.400
       273  -9.5379    233.6475    147.5710   4.2419023581e+01   6.7192398741e+00    0.4955848    0.2089373 -25.10  0.002058826    2.674    0.626
       274  -8.2045    213.1196    149.6796   4.6203892265e+01   9.9140651353e+00    0.2181161    0.1663893 -41.89  0.000597617    1.371    0.271
       275  -8.5220    198.7614    148.7025   4.8550825301e+01   1.2673064425e+01    0.2483444    0.1757312 -47.24 0.0006036898    1.551    0.355
       276 -10.0150     89.3389    146.1410   7.3535261462e+01   3.3932684318e+01    0.6898363    0.3833262  85.84  0.002398512    3.387    0.705
       277 -10.0253     39.9162    147.3683   8.7813670147e+01   4.0543711828e+01    0.6068444    0.3183616  74.13  0.002351732    2.166    0.538
       278 -10.5559     55.2990    144.7437   8.3028732851e+01   3.9330502769e+01    0.9259195    0.4644944  73.72  0.003455207    2.840    0.648
       279  -9.8487     57.7777    134.6243   8.0790886642e+01   4.1521427441e+01    0.3736422    0.2435348  10.78  0.001701969    2.244    0.554
       280  -8.2921    223.1786    146.7568   4.3912247709e+01   8.6082445809e+00    0.1794229    0.1668094 -20.91 0.0004365431    1.152    0.132
       281 -10.3581    148.8330    144.8914   5.8054563853e+01   2.3098050300e+01    0.5582598    0.3897284  89.99  0.001635903    2.445    0.591
       282 -10.1837    106.6102    143.8691   6.8393117850e+01   3.1459148594e+01     0.784859    0.4957623  85.86  0.002419968    2.575    0.612
       283  -8.8817     78.1421    146.9094   7.6801688593e+01   3.5544190722e+01    0.2830971    0.1907403  72.96 0.0009266841    1.701    0.412
       284  -9.3994     13.4849    146.0450   9.5212813016e+01   4.3438591886e+01    0.3598409    0.1711753  56.95  0.001408506    1.975    0.494
       285  -7.9711    206.8444    146.1473   4.6552652705e+01   1.1606500866e+01    0.1939835    0.1751928 -43.83 0.0006113563    1.237    0.192
       286  -8.0108    175.5197    145.9966   5.2485723171e+01   1.7587869986e+01    0.2076274    0.1374363 -43.39 0.0005450729    1.534    0.348
       287  -9.8981    138.9986    144.8234   6.0352007122e+01   2.5064154152e+01    0.3893372    0.2756498 -76.05  0.001290578    1.987    0.497
       288  -8.8590    240.2355    145.2017   4.0934223843e+01   5.9820768748e+00    0.1825308    0.1382277 -26.56 0.0004439651    1.140    0.123
       289  -9.5059    242.9794    142.9852   4.0076360313e+01   5.8527851369e+00    0.4375373    0.1687118 -27.46  0.001828789    2.633    0.620
       290  -8.8269    247.0897    143.6839   3.9623721990e+01   5.0980981421e+00    0.2319338    0.1533131 -23.68  0.000405482    1.309    0.236
       291  -8.6908    165.5937    143.8205   5.4093825401e+01   1.9961141992e+01    0.2620848    0.2215154  86.24 0.0007609992    1.529    0.346
       292  -9.6876    125.0061    142.4109   6.3294430603e+01   2.8325981992e+01    0.5006669    0.3417783 -83.60   0.00146331    2.191    0.544
       293  -7.5615    194.3251    143.6820   4.8298329352e+01   1.4355925503e+01    0.1339269    0.1119187 -77.50 0.0007045081    1.674    0.403
       294 -10.6804     69.2988    140.9077   7.8358646447e+01   3.8341658860e+01    0.6835435    0.4233687  73.10  0.003052854    1.965    0.491
       295  -9.6251     69.8786    133.7728   7.6980653196e+01   4.0020480936e+01     0.487592    0.2948206   6.72  0.001861107    3.145    0.682
       296  -9.3413      2.8128    141.5070   9.7893758217e+01   4.5352335911e+01    0.3838324    0.1786374  72.26  0.001388116    2.013    0.503
       297  -8.2657    182.2616    141.6272   5.0173271274e+01   1.7057414701e+01    0.2503226     0.166646 -50.75 0.0005423777    1.679    0.404
       298  -8.0431    250.4926    140.5206   3.8499989970e+01   4.9992297366e+00    0.1239324    0.1024565 -21.02 2.867948e-05    1.041    0.039
       299 -10.1376     23.2803    137.7310   9.1643433470e+01   4.4626495295e+01    0.5602257    0.2317504  62.66  0.001800266    2.782    0.641
       300  -7.6175    218.5181    138.4936   4.2925852168e+01   1.0705235269e+01    0.1332186    0.1185234 -17.87 0.0001273814    1.025    0.024
       301  -8.2629    207.6536    137.7231   4.4594568197e+01   1.2829440380e+01    0.2565174    0.1478084 -53.06 0.0009281802    2.283    0.562
       302  -8.5508    197.2575    137.1147   4.6315129416e+01   1.4914654919e+01    0.2428122    0.1781956 -52.37 0.0009117569    1.563    0.360
       303  -8.6420    172.2029    137.7580   5.1354318849e+01   1.9781696612e+01    0.2829901    0.2171956 -69.38 0.0007772344    1.738    0.425
       304  -9.1759    139.8420    137.2319   5.8500865527e+01   2.6495787257e+01     0.294314    0.1991951 -19.91  0.001243674    2.125    0.529
       305  -8.5039    246.9575    129.9427   3.6809319802e+01   7.0486416301e+00    0.2532918    0.1534725 -38.41 0.0006268332    1.479    0.324
       306  -8.8834    248.5900    134.8984   3.7613688459e+01   6.0839991981e+00      0.26225    0.1785217 -32.62 0.0008557941    1.259    0.206
       307  -9.0802    250.8116    129.8095   3.6254414064e+01   6.4348439913e+00    0.4560287    0.0990685 -32.65  0.001494036    4.114    0.757
       308  -8.9730    150.5340    135.5791   5.5607914157e+01   2.4650842557e+01     0.281214    0.1824477  18.02  0.001140229    2.295    0.564
       309  -8.6150    125.4734    135.7498   6.1747179627e+01   2.9705065889e+01    0.3609039     0.233359   6.55  0.001136052    3.096    0.677
       310  -9.5490     38.9805    135.6732   8.6675022197e+01   4.3555443998e+01      0.37092    0.2131868  69.64  0.000851279    1.891    0.471
       311  -8.4502     35.6007    132.1926   8.7270679164e+01   4.4795917106e+01    0.1977056    0.1589182 -77.47 0.0004120042    1.122    0.108
       312  -7.8482    187.8627    135.5963   4.7737409705e+01   1.7025158348e+01    0.1850038    0.1362915  58.26 0.0005317715    1.593    0.372
       313 -10.3368     83.4974    132.8610   7.2750551929e+01   3.8103966925e+01     0.580052    0.3243192 -73.86  0.001511712    2.182    0.542
       314  -8.6658     84.1553    123.0371   7.0573685277e+01   4.0397543284e+01    0.4094295    0.2433744 -27.71   0.00151309    2.948    0.661
       315  -8.8661    237.5074    133.4459   3.8894123385e+01   8.1327528923e+00    0.2212666    0.1023977 -42.08 0.0006123364    2.096    0.523
       316  -8.7306    179.5999    133.8112   4.8951507434e+01   1.9011193977e+01    0.2653216    0.2068821 -64.89 0.0007142841    1.619    0.382
       317  -8.8857    112.9583    133.1148   6.4464519856e+01   3.2748271666e+01    0.3654674    0.2458473  78.43  0.001000818    2.177    0.541
       318  -7.9283    231.4656    133.5703   3.9823021787e+01   9.1574099086e+00    0.1293247    0.1127965 -21.07 0.0001282553    1.032    0.031
       319 -10.2567    132.3267    130.9620   5.8934513407e+01   2.9373172961e+01     0.644267    0.3944541 -68.17  0.001745129    2.333    0.571
       320  -9.0833    143.0768    131.5226   5.6429891873e+01   2.7033888020e+01    0.2980855    0.2291517 -78.38 0.0008142616    1.692    0.409
       321  -9.7001     97.9325    128.5362   6.7664038309e+01   3.6639470433e+01    0.5901237    0.2273631 -54.01  0.002080538    2.575    0.612
       322 -10.1926     13.0247    128.8824   9.3902013441e+01   4.7694569641e+01    0.5986798    0.2510347  73.18  0.002128664    2.744    0.636
       323  -7.8651    220.4902    129.9740   4.0752454437e+01   1.1679232870e+01    0.2012029    0.1197939 -34.88 0.0005597752    1.514    0.339
       324  -8.1491    204.5098    130.0207   4.3430921349e+01   1.4702184127e+01    0.2087924    0.1273804 -37.71 0.0006280738    1.534    0.348
       325  -8.1347    193.0059    130.0444   4.5505959032e+01   1.6972649237e+01    0.2110568    0.1703339 -68.47 0.0004915096    1.602    0.376
       326  -8.9530    168.2893    129.2854   5.0229733175e+01   2.2198605257e+01    0.3160408    0.2367411 -61.01 0.0008228627    1.591    0.371
       327  -9.5230    152.9512    128.5999   5.3439404088e+01   2.5566914145e+01    0.4908846    0.2441239 -49.14 0.0008996095    2.119    0.528
       328  -9.6338     73.0781    129.0969   7.5163407925e+01   4.0696533430e+01    0.4069426    0.2615415 -86.23  0.001062355    1.876    0.467
       329 -10.8850     45.2752    123.5947   8.2991375589e+01   4.5886591947e+01     1.263985    0.5693043  73.75  0.003974703    4.308    0.768
       330  -7.9902      1.9627    130.1599   9.7370771344e+01   4.8168390315e+01    0.2153514       0.1016  53.74   0.00106377    2.019    0.505
       331  -8.2964    211.7487    128.9423   4.1952368488e+01   1.3484210122e+01    0.2183988    0.1455926 -56.55 0.0009365358    1.942    0.485
       332 -10.5229     60.1421    125.0914   7.8466296044e+01   4.3595225144e+01    0.7732481    0.4247355  75.21  0.002612601    2.705    0.630
       333  -9.2090     56.6793    117.5429   7.8224331521e+01   4.5976568310e+01    0.6713977    0.3849509 -21.93  0.002415249    3.612    0.723
       334  -9.8299    117.8968    124.9743   6.1301690530e+01   3.3636259060e+01    0.5542266    0.3726454  83.15  0.001137727    2.337    0.572
       335  -7.8908    228.4691    124.9764   3.8413814520e+01   1.0989027179e+01    0.1817102   0.09981602 -51.97 0.0006723154    2.336    0.572
       336  -8.8374    179.2954    124.4925   4.6842575738e+01   2.0786520644e+01    0.2829703    0.2362193 -69.77 0.0007276605    1.450    0.310
       337 -11.0428     28.3691    120.2527   8.8045648821e+01   4.8543788025e+01     1.119662    0.5250965  88.88   0.00394451    2.479    0.597
       338  -7.7044    243.9902    123.9711   3.5956338050e+01   8.3996083089e+00    0.1565315    0.1249538 -26.42 0.0004165298    1.056    0.053
       339  -8.0708    188.4217    124.1323   4.4991433037e+01   1.8947588829e+01    0.2028227    0.1283495 -48.86 0.0008418639    1.676    0.403
       340  -8.1541    162.4909    136.0999   5.3046604553e+01   2.2083698448e+01    0.2172407    0.1435628 -44.32 0.0007951799    1.527    0.345
       341  -7.6587    195.3452    122.1656   4.3250380779e+01   1.7866854767e+01    0.2026611    0.1214466 -45.81 0.0005147367    1.687    0.407
       342  -8.8414    171.9130    121.4212   4.7598446520e+01   2.2928014100e+01    0.2699316      0.19721 -54.15 0.0005225839    1.493    0.330
       343  -9.3030    158.7229    121.3484   5.0398487330e+01   2.5788102640e+01    0.3489208    0.2559731 -77.18 0.0009554941    1.932    0.482
       344  -9.8058     71.0841    119.3097   7.3882504764e+01   4.3442833524e+01     0.472715    0.2877705 -85.46  0.001441607    2.159    0.537
       345  -9.9114    141.6175    118.0585   5.3548146838e+01   3.0175563299e+01    0.5741801    0.3188688 -56.16  0.001925679    2.110    0.526
       346  -9.7632      2.9601    116.8988   9.6026841447e+01   5.1376581295e+01    0.5433649    0.2162852  69.95  0.002238421    2.842    0.648
       347  -7.9251    231.5473    117.4921   3.6303653960e+01   1.1560384246e+01    0.1328047    0.1147361 -27.80 9.926089e-05    1.018    0.018
       348  -9.8142    109.4704    114.1603   6.1037121122e+01   3.7808352794e+01     0.533884    0.3743572 -86.03  0.001475048    2.012    0.503
       349  -9.2199    109.4450    106.9698   5.9215272294e+01   3.9465734597e+01    0.5301433    0.3239932  29.40  0.002140407    2.060    0.514
       350  -8.3082    193.1069    115.0835   4.1968385330e+01   1.9561096830e+01    0.2173088    0.1678961 -64.98 0.0004459773    1.589    0.371
       351  -7.8507    185.7907    115.5956   4.3442324835e+01   2.1024019897e+01     0.186839    0.1415969  64.75 0.0003132958    1.549    0.354
       352 -10.1798    131.1769    118.4537   5.6244836678e+01   3.2336482115e+01    0.6042064    0.4221891 -85.90  0.001947415    2.182    0.542
       353 -10.1910     92.7976    112.3951   6.5532057940e+01   4.1447418675e+01    0.5937164    0.3571964 -70.78   0.00132469    2.096    0.523
       354  -8.8591     92.8074    104.8185   6.3651847702e+01   4.3253483039e+01    0.6889895    0.3758031  16.60  0.002013223    4.584    0.782
       355  -9.9568     78.9047    112.1882   6.9846765187e+01   4.3949424272e+01    0.6101904    0.3947262 -88.88  0.001884704    2.160    0.537
       356  -8.6886     78.1688    105.2205   6.8458594482e+01   4.5783366620e+01     0.377187    0.2581991  -3.56  0.001536829    2.516    0.603
       357  -9.0657    250.5029    114.5050   3.3064032722e+01   8.6342314261e+00    0.4123369    0.2217381 -61.65  0.001624709    3.991    0.749
       358 -10.1869    248.5690    108.5197   3.2019386370e+01   9.8146021341e+00    0.4021605    0.2812666  -7.93  0.002216088    1.640    0.390
       359 -10.7000    248.8038    103.6643   3.0931097997e+01   1.0460621182e+01    0.4565773    0.2554046 -35.09  0.001961021    1.478    0.323
       360  -9.9300    133.6700    108.8759   5.3163999966e+01   3.3861950761e+01    0.6426826    0.3466531 -50.89  0.002437171    1.931    0.482
       361  -9.9823    121.7588    112.2084   5.7141735899e+01   3.5712412758e+01    0.4245435    0.3217653 -84.86 0.0008590304    1.706    0.414
       362  -8.4906    174.8698    111.6188   4.4576575294e+01   2.4122661927e+01    0.2919902    0.1836703 -55.34 0.0006790266    1.849    0.459
       363  -8.5974    159.1847    111.7101   4.7883243861e+01   2.7591778809e+01    0.2609779    0.1973129 -53.14 0.0005588341    1.379    0.275
       364 -10.1391     66.3717    109.9099   7.3463750454e+01   4.6513464832e+01     0.559545    0.3379227 -76.88  0.001720815    1.934    0.483
       365 -10.0478     14.3470    110.6058   9.1582135472e+01   5.2178247172e+01    0.5399205    0.2588772  85.34  0.002143778    2.223    0.550
       366  -7.9653    182.8341    109.0755   4.2388233418e+01   2.2834455386e+01    0.2412409    0.1558669 -59.12 0.0006368157    1.930    0.482
       367  -9.1806     42.5492    108.6225   8.1420744434e+01   5.0015818840e+01    0.3776153    0.2409295  42.25  0.001888856    1.624    0.384
       368  -8.2383    189.1458    107.4065   4.0800925554e+01   2.1751044786e+01    0.2454472    0.1626537 -42.85 0.0006560741    1.443    0.307
       369  -9.4800    108.3399     91.9309   5.5387298155e+01   4.3081679951e+01    0.6211394    0.3140202  31.51  0.002148346    2.798    0.643
       370  -9.6762    118.8398    105.8205   5.6267927343e+01   3.7754283258e+01    0.3688689     0.264085 -72.38  0.001015957    1.758    0.431
       371 -10.8111    109.6437     99.0506   5.7027485023e+01   4.1219544560e+01      0.96878    0.5097129  65.96  0.003050711    3.539    0.717
       372 -10.5706     45.6827    102.0143   7.9059546232e+01   5.1323588466e+01    0.8894407    0.4517707  68.85  0.003198704    3.329    0.700
       373  -9.2556     46.2798     92.1087   7.6751489657e+01   5.3743036584e+01     0.420139    0.2364746  10.33  0.001737997    2.695    0.629
       374 -10.7523     22.9243    102.5629   8.7475255219e+01   5.3529450690e+01    0.7556124    0.3627782  69.07  0.002581816    2.814    0.645
       375  -9.6663    150.7210    103.0946   4.7514560014e+01   3.1214495000e+01     0.512796    0.3057551 -63.58  0.001554175    2.401    0.583
       376  -9.4502    139.8638    103.9232   5.0302328429e+01   3.3519846513e+01    0.5043417    0.3444732 -55.76  0.001865827    1.578    0.366
       377  -8.4504    166.7530    103.8783   4.4236546945e+01   2.7393877585e+01    0.2830992    0.1936801 -55.96 0.0007565722    1.623    0.384
       378  -9.8596    128.5641    102.0093   5.2632248529e+01   3.6461631011e+01    0.3866825    0.3007807 -76.59  0.000971807    1.566    0.361
       379  -9.5338      6.6793    102.6558   9.3378281239e+01   5.4701885099e+01    0.3373588    0.1802094  68.40  0.001123077    2.002    0.501
       380  -7.9781    175.5172    101.9940   4.1982650462e+01   2.5750841648e+01    0.2251655    0.1422732 -39.74  0.000488059    1.518    0.341
       381  -8.4404    159.8642    100.7646   4.4861330460e+01   2.9567458678e+01    0.2899283    0.1885418 -63.31 0.0007443283    1.995    0.499
       382  -9.2917     81.9784     99.7069   6.5822690837e+01   4.6460137227e+01    0.3942199    0.2719117 -86.60  0.001024676    1.976    0.494
       383 -10.2618     64.0160     96.0974   7.1112087055e+01   5.0303748396e+01    0.7000625    0.4185833 -81.12   0.00199666    2.322    0.569
       384  -9.5741     94.9839     96.5377   6.0768828517e+01   4.4778133911e+01    0.4188425    0.2818284 -60.78  0.000901151    1.574    0.365
       385  -8.3653    150.9645     95.5268   4.5385675625e+01   3.2653205858e+01    0.3198031    0.2012969  -1.03  0.001041368    3.588    0.721
       386  -8.2697    164.9116     94.1071   4.1993852344e+01   2.9651602001e+01    0.2369989    0.1986257 -67.31 0.0005291433    1.298    0.230
       387  -8.1954    167.4361    114.2316   4.6754716064e+01   2.5270471835e+01     0.207304    0.1388761 -50.60  0.000461196    1.561    0.359
       388  -7.6502    188.6317     93.2226   3.7272774679e+01   2.4324408701e+01    0.2065087     0.135221 -27.40 0.0007235241    1.596    0.373
       389  -8.0854    176.2536     93.2000   3.9513951317e+01   2.7169056654e+01    0.2073843    0.1679781 -64.86  0.000433858    1.353    0.261
       390  -9.3760    139.0415     91.9106   4.7148480322e+01   3.6163602720e+01    0.4553043    0.3131061 -63.44  0.001283849    1.757    0.431
       391 -10.0389    124.5887     90.6942   5.0469058852e+01   3.9754760089e+01    0.5257196    0.3363435 -56.66  0.001391761    1.734    0.423
       392  -9.4201    120.2304     92.6087   5.2205978035e+01   4.0333074691e+01    0.3864973    0.2412063  45.49  0.001648186    1.619    0.382
       393  -9.2561     22.5641     90.5676   8.5697793494e+01   5.6591586030e+01    0.4991668    0.2609881 -40.23  0.002186875    2.146    0.534
       394  -8.0627    157.8092     91.7434   4.2824678098e+01   3.1768146917e+01    0.2106082     0.176958 -73.71 0.0005010148    1.324    0.245
       395  -9.6300     35.0101     89.9212   8.0660569097e+01   5.5579484822e+01    0.4866166    0.2662332  86.42  0.001612632    2.598    0.615
       396  -8.7484    151.1683     88.8983   4.3464306605e+01   3.3886761686e+01    0.2870379    0.1747909 -47.99 0.0008992916    1.660    0.398
       397 -10.2343     86.6489     85.8508   6.0424413468e+01   4.8856844737e+01    0.7034346    0.4343083 -61.96  0.001680311    1.829    0.453
       398  -9.1775     65.9592     87.0096   6.8060382309e+01   5.2214811923e+01    0.4736637    0.2526006  15.07  0.001620596    3.576    0.720
       399 -10.0153     48.8000     83.4719   7.3711788005e+01   5.5558531765e+01    0.7486432    0.4833208 -68.25  0.002645081    1.551    0.355
       400  -7.5729    164.2585     86.6815   4.0062432950e+01   3.1170961540e+01    0.1530166    0.1146447 -66.05 0.0002397519    1.541    0.351
       401  -7.5574    179.2981     85.6353   3.6903636807e+01   2.7784309410e+01    0.1588123    0.1106264 -64.90 0.0007032874    1.722    0.419
       402  -9.8506    105.0431     83.2640   5.3769324806e+01   4.5680191162e+01    0.4890114    0.3493268 -83.84 0.0009646236    2.032    0.508
       403  -8.7371    158.0232     83.8252   4.0525555735e+01   3.3191034794e+01    0.2729865      0.21057 -42.74 0.0005678455    1.263    0.208
       404  -9.1699    140.9209     82.5630   4.3945312349e+01   3.7557552168e+01    0.3434114     0.215085 -45.25 0.0008767964    1.584    0.369
       405  -8.5433    127.9505     81.5529   4.6833232550e+01   4.0845908831e+01    0.3386725    0.2196618 -43.44 0.0009159623    1.529    0.346
       406  -7.6141    201.2981     82.3099   3.2369319859e+01   2.3262815069e+01    0.1393621    0.1114133  11.13 0.0002629518    1.597    0.374
       407  -8.1962     64.0189     82.3231   6.7485753145e+01   5.3641675571e+01    0.1993815    0.1884632  73.38 0.0006572556    1.113    0.101
       408  -9.5853      5.2561     91.7168   9.2635410045e+01   5.7522043920e+01    0.3583164    0.1684154  54.94  0.001163839    2.443    0.591
       409  -9.6591     24.7863     80.2507   8.2857029272e+01   5.8977156025e+01    0.5091469    0.2874924  83.55  0.001512724    2.370    0.578
       410  -9.5873      9.8512     80.8979   8.9277113149e+01   5.9937964221e+01    0.3530777    0.1939652  59.84  0.001236551    2.188    0.543
       411  -9.1040    249.6115     80.7888   2.5766592090e+01   1.3508366524e+01    0.1975009   0.09376791 -40.86 0.0007177803    1.732    0.423
       412  -8.7535     74.6510     80.2240   6.2926798265e+01   5.2356744232e+01    0.3738297    0.2422696 -72.20  0.001005836    2.034    0.508
       413  -8.1292    150.2301     80.2273   4.1133526736e+01   3.5744262638e+01    0.2209064    0.1763813 -67.01  0.001052672    1.383    0.277
       414  -8.8860    119.3578     79.9120   4.8603573978e+01   4.3180977756e+01    0.2933655    0.2251556 -69.83 0.0007722136    1.545    0.353
       415  -8.1051    166.9283     79.3465   3.7448898185e+01   3.1835816770e+01    0.2048813    0.1946123  62.40 0.0005295807    1.082    0.076
       416  -7.8659    184.2152     77.9712   3.3948117661e+01   2.7915981494e+01     0.199588    0.1142098 -36.06 0.0005558552    1.653    0.395
       417  -8.7062    105.2740     76.8421   5.1667426961e+01   4.6991957431e+01    0.2937233    0.2029744  20.24 0.0009483392    2.056    0.514
       418  -7.5453    189.2474     75.9842   3.2577708306e+01   2.7051387477e+01    0.1940989    0.1181518 -35.74 0.0007828195    1.545    0.353
       419  -8.2441    157.1783     76.1808   3.8458048236e+01   3.4776869315e+01    0.2180122    0.1770577 -72.68 0.0005904993    1.362    0.266
       420  -8.5435    140.6486     75.3894   4.1815077676e+01   3.8981232553e+01    0.3123788    0.2146186 -61.86 0.0007734643    1.716    0.417
       421  -9.3216    128.1058     75.1312   4.4778281555e+01   4.2069219909e+01    0.3809109    0.2607744 -63.32  0.000889457    1.779    0.438
       422  -9.9633     63.2373     73.3026   6.5111913488e+01   5.5875581102e+01    0.5312901    0.2976509 -63.66  0.001411937    2.063    0.515
       423  -9.7221     82.4836     72.2843   5.7605727812e+01   5.2689460130e+01    0.4635808    0.2939388 -66.98  0.001031272    2.115    0.527
       424  -8.1431    163.4896     73.0813   3.6286353226e+01   3.3763134457e+01    0.2328457    0.1448915 -38.59 0.0009866471    1.554    0.357
       425  -8.5439    115.7096     72.4677   4.7211499441e+01   4.5517480543e+01     0.275608    0.1808157 -51.75 0.0005298326    1.604    0.377
       426  -8.3190     42.7347     72.3972   7.3287946712e+01   5.9003213443e+01    0.2518896    0.1650201 -72.90 0.0006692208    1.677    0.404
       427  -8.0989    175.5961     72.1892   3.3807435504e+01   3.0942774577e+01    0.2056646    0.1429297 -22.50 0.0005994837    1.628    0.386
       428  -8.8796    105.9535     71.5526   4.9720639814e+01   4.7927865722e+01    0.2888705    0.2095073 -60.74 0.0006462844    1.568    0.362
       429  -9.3260     95.1660     70.7952   5.2820762616e+01   5.0435098722e+01    0.4697272    0.2440674 -55.80  0.001149279    2.310    0.567
       430  -8.3183     95.2605     64.6976   5.0678308100e+01   5.1658472232e+01     0.261371    0.1786864 -15.90  0.001100336    2.063    0.515
       431  -9.5163     29.9311     69.5454   7.8170753574e+01   6.1111407065e+01    0.4960032    0.2419327 -28.77  0.001958845    3.025    0.669
       432  -9.4406     51.4165     69.3107   6.8691610049e+01   5.8582645575e+01     0.472767     0.261941 -74.18  0.001399621    2.728    0.633
       433  -7.6271    157.2820     69.6669   3.6477755692e+01   3.5888173528e+01    0.1584513    0.1139562 -66.36 0.0002906817    1.613    0.380
       434  -8.9884    147.1325     67.9259   3.8033940819e+01   3.8723367834e+01    0.3781008    0.1989305 -40.45 0.0006786078    1.854    0.461
       435  -8.7865    121.8519     66.1228   4.3432779848e+01   4.5279174135e+01     0.336678    0.2021533 -54.14 0.0008331579    1.901    0.474
       436  -8.5319    138.7455     65.9203   3.9243436917e+01   4.1168788185e+01    0.2945082    0.1961962 -54.77 0.0008383139    1.638    0.389
       437  -8.8774    110.1245     63.4964   4.5734222394e+01   4.8552015874e+01     0.309855     0.222217 -64.61 0.0006699946    1.712    0.416
       438  -8.9870     37.2119     63.9754   7.3333072264e+01   6.1648920149e+01    0.2460486    0.2105294 -84.83 0.0009232917    1.306    0.234
       439  -8.6090     65.0863     62.6819   6.0869635213e+01   5.7942122939e+01    0.2988219    0.1819999   9.47  0.001142988    2.930    0.659
       440  -8.0970    158.1976     61.7871   3.3880329204e+01   3.6976285285e+01    0.1956354    0.1791418  11.24 0.0004851083    1.260    0.206
       441  -9.0361     16.5829     69.6067   8.4261242585e+01   6.2252930452e+01    0.2885596    0.1952797 -86.83  0.001065543    1.566    0.361
       442  -9.2371     97.6678     60.5302   4.8413642920e+01   5.1949972274e+01    0.3055608    0.2514399  61.04 0.0008685844    1.291    0.226
       443  -9.7427     73.3368     59.1823   5.6379083430e+01   5.7207955788e+01    0.4354381    0.2667646 -55.50  0.001202495    1.799    0.444
       444  -8.3795    130.7956     57.5729   3.8294983594e+01   4.4602442679e+01    0.2469304    0.1780556 -44.32 0.0005764472    1.391    0.281
       445  -9.8153     23.5312     56.1093   7.7602073591e+01   6.4889885869e+01    0.4620874    0.2815209  82.77  0.001944871    2.640    0.621
       446  -9.5820      7.4245     56.9384   8.5955340196e+01   6.5890835624e+01    0.2989816    0.2058744  85.89  0.001032704    1.644    0.392
       447  -8.2336    140.0253     55.9537   3.5670627485e+01   4.2543422430e+01    0.2409931    0.1741969 -66.10 0.0005136809    1.608    0.378
       448  -9.3657    119.1600     55.0999   4.0290767309e+01   4.7908762835e+01    0.4581716    0.2362743 -48.74  0.001468276    2.137    0.532
       449  -9.1759     63.0138     54.6029   5.8768190884e+01   6.0006005972e+01    0.3342706    0.2228075 -62.38 0.0007110905    1.834    0.455
       450  -9.2702     54.1539     53.5421   6.2157992338e+01   6.1678953149e+01     0.449944     0.233669 -62.82  0.001368573    2.678    0.627
       451  -8.4799    105.8607     53.1027   4.3186615045e+01   5.1449897983e+01    0.2335096    0.2020913 -75.45 0.0005234635    1.310    0.237
       452  -9.4543     92.4857     50.3763   4.6229498662e+01   5.4988087412e+01    0.4458098     0.245334 -52.18  0.001217177    2.162    0.538
       453  -8.6277     74.4856     51.6092   5.3046426500e+01   5.8504981746e+01    0.2922269    0.1979295  -9.70  0.001172423    2.151    0.535
       454  -8.2525    144.6780     48.8282   3.2316565955e+01   4.2478511678e+01     0.220539    0.1265518 -42.62  0.000589155    1.727    0.421
       455  -8.0658    129.8141     48.8511   3.5474077700e+01   4.6280971933e+01    0.2079118    0.1717048 -65.02 0.0003982222    1.300    0.231
       456  -8.7992     44.1126     54.9115   6.7215882296e+01   6.2841318991e+01    0.4069443    0.2120461 -60.62  0.001720469    2.079    0.519
       457  -8.2936    120.8696     47.1666   3.6971145120e+01   4.8801000312e+01    0.2284976    0.1989792 -67.81 0.0005258133    1.228    0.185
       458  -8.2653    112.2224     46.8181   3.9044405716e+01   5.0992169871e+01    0.2241071    0.1963736 -69.04 0.0006483967    1.244    0.196
       459  -8.8951     82.2624     46.3932   4.8086132348e+01   5.7908088436e+01    0.2688651    0.2242924 -55.83 0.0005607196    1.327    0.246
       460  -8.4374     45.1627     44.6307   6.2847029169e+01   6.4876567983e+01    0.2236373     0.176158 -56.86 0.0006908174    1.347    0.258
       461  -9.2984     16.6282     44.4664   7.7748669429e+01   6.8125625654e+01    0.2710783    0.1823233 -77.22 0.0006421459    1.714    0.417
       462  -8.4585    132.8445     43.1410   3.2770784244e+01   4.6381723556e+01    0.2265272    0.1976674 -68.57 0.0004080633    1.187    0.158
       463  -9.3985     69.7085     41.4663   5.0695696317e+01   6.1326028716e+01    0.3657127    0.2609237 -58.98  0.001378984    1.762    0.432
       464  -9.0635     58.1356     42.4423   5.5944359008e+01   6.3260227844e+01    0.3144602    0.2162788 -65.20  0.001262965    2.053    0.513
       465  -9.9148      5.0030     41.2817   8.3433763520e+01   6.9635844165e+01    0.4462601    0.2296187 -84.36  0.002079046    2.568    0.611
       466  -8.8354    106.0026     41.3763   3.8604742082e+01   5.3369518929e+01    0.2826491    0.1978539 -51.47 0.0007114965    1.583    0.368
       467  -8.5784     92.8417     42.2101   4.2821908384e+01   5.6317990792e+01    0.2052294    0.1698534  12.99 0.0005173958    1.359    0.264
       468  -8.3765     36.9638     40.5212   6.5284040790e+01   6.6835752511e+01    0.2361384    0.1819679 -66.31 0.0006776141    1.551    0.355
       469  -7.9087    160.6290     39.7928   2.6501901713e+01   3.9650427683e+01    0.2179673    0.1212954 -43.03 0.0005700092    1.741    0.426
       470  -8.5114     95.6205     37.8726   4.0156539859e+01   5.6376238981e+01    0.2769906    0.2069918 -62.80 0.0007056343    1.667    0.400
       471  -7.5353    133.3373     36.3055   3.0204410897e+01   4.7232428135e+01    0.1542726    0.1098601  32.23 0.0007040497    1.673    0.402
       472  -8.0044     80.7894     36.5817   4.4416904378e+01   5.9899564521e+01    0.1878344     0.136801  61.22 0.0003192964    1.550    0.355
       473  -9.4460     26.2144     35.1539   6.8934792102e+01   6.9214777341e+01    0.2910478    0.2107659 -65.96 0.0008223907    1.611    0.379
       474  -8.2113    126.0387     35.3085   3.1355776672e+01   4.9254200399e+01     0.203056     0.186913  69.87  0.000416118    1.046    0.044
       475  -8.6469    111.6570     33.9730   3.4159749434e+01   5.3083872440e+01    0.2859992    0.1658256 -45.99   0.00077321    1.869    0.465
       476  -7.5185     88.7051     34.3288   4.0776458372e+01   5.8509652501e+01    0.1423304    0.1123405 -69.52 0.0003116018    1.631    0.387
       477  -8.8870     48.5199     32.9002   5.6088684497e+01   6.6631941728e+01    0.2582011    0.2046855 -52.21   0.00068947    1.411    0.291
       478  -8.5604    119.3352     32.8248   3.1885039257e+01   5.1309178588e+01     0.286229    0.2069248 -56.22  0.001021406    1.544    0.352
       479  -8.7461     60.8636     32.3370   5.0189333462e+01   6.4593353989e+01    0.2808647    0.1851006 -52.00 0.0008531039    1.809    0.447
       480  -8.5277     72.2273     30.9714   4.4966431722e+01   6.2594003082e+01    0.2054553    0.1815683 -58.94 0.0006800972    1.338    0.253
       481  -9.0917     12.9215     29.8673   7.4816254552e+01   7.1569814691e+01    0.3498585    0.1695198 -67.24  0.001236939    2.433    0.589
       482  -7.8894     42.4779     29.9798   5.7712674211e+01   6.8101768360e+01    0.1705173    0.1159343 -67.07 0.0006198742    2.380    0.580
       483  -8.4636    101.4433     28.8755   3.4676626795e+01   5.6302330900e+01    0.2639602     0.132842 -35.53  0.001000779    2.011    0.503
       484  -8.8751     81.6457     27.3442   3.9911957446e+01   6.1125500766e+01    0.2844297    0.2172706 -65.88 0.0008547358    1.750    0.429
       485  -9.3180      3.7062     27.4757   7.9926692405e+01   7.2720055149e+01    0.2631745    0.1540957 -73.67 0.0009075635    1.926    0.481
       486  -7.8058    110.0000     27.0025   3.1719870404e+01   5.4438362384e+01     0.221791   0.08269305 -28.27 0.0004010089    2.812    0.644
       487  -8.7561     91.9092     26.3062   3.6219811125e+01   5.8926960313e+01    0.3005162    0.1842243 -46.08  0.000846197    1.837    0.456
       488  -7.6222    150.3445     25.6603   2.3444415310e+01   4.4144454025e+01    0.1593154    0.1002427 -64.13 0.0007048164    1.779    0.438
       489  -8.2062    104.2168     22.6272   3.1275779018e+01   5.6428980836e+01    0.2038826    0.1217072  52.30 0.0009391575    1.554    0.357
       490  -8.9574     63.7529     20.8632   4.3255041044e+01   6.5826295644e+01    0.3265923    0.1889938 -45.23  0.001102606    2.002    0.501
       491  -8.6280     48.3344     21.4283   5.0393279999e+01   6.8610513026e+01    0.2323956    0.2012969 -45.69 0.0009252781    1.333    0.250
       492  -7.9577    120.6336     20.8038   2.6866525301e+01   5.2485562384e+01     0.197374    0.1246645 -39.88 0.0004673263    1.639    0.390
       493  -8.2001     19.5919     20.8277   6.6482981402e+01   7.2739541819e+01     0.165092    0.1117889 -58.40 0.0008751939    1.678    0.404
       494  -8.8430     74.1408     19.3434   3.8576082523e+01   6.3867650959e+01    0.2559043    0.1882417 -37.64 0.0007089434    1.440    0.306
       495  -8.2332     38.5458     18.0537   5.3582460454e+01   7.0743541999e+01    0.1868907     0.116759 -38.39 0.0004784218    1.538    0.350
       496  -8.4292     87.8318     17.2013   3.3172839792e+01   6.1038711181e+01    0.2035986    0.1833863 -67.23 0.0006759909    1.282    0.220
       497  -8.0751     30.2027     15.9470   5.7171447828e+01   7.2308143867e+01    0.1811004    0.1424714 -65.87 0.0006728483    1.943    0.485
       498  -7.9934     97.3509     15.0950   2.9633740963e+01   5.8995916201e+01    0.1984213    0.1182837 -38.23 0.0005511484    1.780    0.438
       499  -7.8772      7.5498     15.5172   7.2213423703e+01   7.4868225367e+01    0.1187995   0.09896962 -32.28 8.364984e-05    1.040    0.038
       500  -7.7887     17.2384     13.9606   6.4442051586e+01   7.4246035386e+01    0.1556357   0.09101744 -45.71 0.0003836258    1.562    0.360
       501 -10.0843    248.9058    243.0117   5.6712405574e+01  -7.1104756365e+00    0.6285356    0.1517118 -34.18  0.002834074    4.258    0.765
       502  -8.6264    232.7298    247.4150   5.9867427769e+01  -5.6998255296e+00    0.1804038    0.1618383 -39.77 0.0009880605    2.013    0.503
       503  -8.0342    191.7191    249.5728   6.7010760142e+01  -8.4944267568e-01    0.1514729   0.08420394  39.40 0.0006114159    1.641    0.391
       504  -9.5671    175.7128    247.3094   6.9557478240e+01   1.5528266716e+00    0.2597624    0.2353017  75.03  0.001455237    1.741    0.426
       505  -9.2152    156.5678    248.0979   7.3163503505e+01   4.0663552631e+00    0.2693376     0.178263  59.88  0.001119255    2.237    0.553
       506  -9.0042    132.4811    247.8457   7.7676569436e+01   7.4375335694e+00    0.2793665    0.1617246  55.64 0.0008412366    2.032    0.508
       507  -8.4576    113.0281    248.4834   8.1482002672e+01   1.0019207060e+01    0.1959031    0.1476117  77.80  0.001331212    1.676    0.403
       508  -9.3023    103.8102    246.7276   8.3102972544e+01   1.1543314689e+01    0.3737443    0.2160379  89.54  0.002010631    2.888    0.654
       509  -8.8881    242.9437    246.3754   5.8116546019e+01  -6.7708969784e+00    0.2633888    0.1223684 -25.52  0.001615565    2.119    0.528
