#   1 NUMBER                 Running object number                                     
#   2 MAG_AUTO               Kron-like elliptical aperture magnitude                    [mag]
#   3 X_IMAGE                Object position along x                                    [pixel]
#   4 Y_IMAGE                Object position along y                                    [pixel]
#   5 X_WORLD                Barycenter position along world x axis                     [deg]
#   6 Y_WORLD                Barycenter position along world y axis                     [deg]
#   7 A_WORLD                Profile RMS along major axis (world units)                 [deg]
#   8 B_WORLD                Profile RMS along minor axis (world units)                 [deg]
#   9 THETA_WORLD            Position angle (CCW/world-x)                               [deg]
#  10 FWHM_WORLD             FWHM assuming a gaussian core                              [deg]
#  11 ELONGATION             A_IMAGE/B_IMAGE                                           
#  12 ELLIPTICITY            1 - B_IMAGE/A_IMAGE                                       
         1 -14.7881    177.7955    155.2145   8.5365837265e+01   1.4763683107e+01     2.038063     1.205754 -63.23  0.007865055    2.681    0.627
         2 -15.3293    156.1089    155.9364   9.0313432429e+01   1.9111813626e+01     2.540668     1.505232 -64.17   0.01016864    2.366    0.577
         3 -11.9939    237.2761      8.5525   3.8770823628e+01   2.4917622935e+01    0.6093846    0.2003306 -40.12   0.00258711    2.477    0.596
         4 -12.3649    241.9258      3.1662   3.7182885716e+01   2.4440291575e+01    0.7119069    0.4733458  89.50  0.004172479    1.389    0.280
         5 -13.0445    243.4326     25.0105   4.2085545436e+01   2.1588960005e+01     1.233533    0.4058868 -28.57  0.004672307    3.151    0.683
         6 -13.3249    249.3873     14.5690   3.9187198798e+01   2.1499301327e+01     3.475262    0.6033531 -26.98  0.008285798    8.775    0.886
         7 -12.4653    244.3675     13.3799   3.9315816515e+01   2.2759198737e+01    0.7743914    0.4639531 -35.54  0.004228788    1.570    0.363
         8 -12.9325    234.5081     37.5856   4.5988169172e+01   2.2038765532e+01     1.020055    0.3013391 -48.06  0.003471464    3.362    0.703
         9 -12.9615    231.9041     19.0218   4.1717254869e+01   2.4975532655e+01    0.6243457    0.3301752 -35.42  0.003077775    1.762    0.433
        10 -10.0009    160.4522     13.1080   4.8563383440e+01   4.3585317167e+01     0.332625    0.1409969 -58.30 0.0009960046    4.012    0.751
        11  -8.6948     18.6982      9.2718   9.1198556347e+01   7.1740109442e+01   0.09243219   0.08702909 -28.18  0.000178402    1.532    0.347
        12  -9.0270    160.5066      8.5069   4.7068275590e+01   4.4026231834e+01    0.1386051    0.1254028  67.86 4.797945e-05    1.010    0.009
        13 -10.3619    116.3487      5.1073   5.3649231638e+01   5.5292999806e+01    0.1837562    0.1672891   7.51 0.0007342598    1.128    0.113
        14 -10.3497    110.9748      4.9645   5.4769841055e+01   5.6557059863e+01    0.2006476    0.1719831  34.68            0    1.035    0.034
        15  -9.8401    153.5031      3.5147   4.6463055427e+01   4.6274132639e+01    0.2288738    0.1127942 -36.42  0.001025526    2.136    0.532
        16  -9.8012     50.9653      3.2756   7.2605638089e+01   6.8524520067e+01    0.1949102    0.1452234 -11.19 0.0003980085    1.159    0.137
        17 -10.1529    217.4769      2.9967   3.9079817197e+01   3.0183928861e+01    0.1907814    0.1253437 -29.98 0.0007232691    1.605    0.377
        18  -9.7579    158.9314      2.1499   4.5243573896e+01   4.5010681119e+01    0.2137994    0.1753167 -75.88  0.000919804    1.269    0.212
        19  -9.4397    121.5449      2.0112   5.1366172545e+01   5.4326901931e+01    0.1848275    0.1312027 -10.24 0.0004619627    1.539    0.350
        20  -9.8077     14.7351      2.0004   8.9691246010e+01   7.3194014584e+01    0.1566598    0.1097568 -24.13 0.0002126508    1.084    0.077
        21  -9.7091    248.7401    219.0612   8.4295378283e+01  -8.0150768728e+00     0.198064    0.1623642  45.91  0.001323584    1.699    0.411
        22  -9.5259    225.1106    249.2016   9.3241661419e+01  -8.0728498590e+00    0.1707006    0.1565379 -83.99  0.001230052    2.039    0.509
        23  -9.8787    210.9403    249.2272   9.5697593564e+01  -5.9937552761e+00    0.2477843    0.1672403   0.18  0.001583054    1.652    0.395
        24  -9.6024    171.6615    218.3296   9.8297659708e+01   4.6129755739e+00    0.1278816   0.09594469  66.91 0.0007051882    1.736    0.424
        25  -9.8181    178.2913    211.9899   9.5997758096e+01   4.4735646326e+00    0.2430948    0.1723348  57.78  0.001328563    1.652    0.395
        26  -9.2221    241.7716    210.1617   8.3910350241e+01  -5.8628496254e+00     0.170656    0.1406978 -87.15 0.0009425348    2.801    0.643
        27  -8.6884     73.3070    209.7032   1.1686636126e+02   2.2101379956e+01    0.1285555   0.07637232  67.24 0.0003192172    1.589    0.371
        28  -8.9238    247.3133    207.6492   8.2503671143e+01  -6.3903206834e+00    0.1045401    0.1003393 -64.48 0.0007023214    1.726    0.420
        29  -9.4611    156.6676    207.3434   9.9567027308e+01   9.0731449705e+00    0.1354407   0.09903533  70.69 0.0007050675    1.756    0.431
        30 -10.0012    188.1441    204.4521   9.2802726431e+01   3.9426854833e+00    0.2270809    0.1735827  83.31  0.001169865    2.230    0.552
        31  -8.8319    124.2982    205.7373   1.0598028006e+02   1.4999725611e+01    0.1307014   0.09073316  65.38            0    1.511    0.338
        32  -9.3084    235.7699    203.8127   8.3804788406e+01  -4.0823380563e+00    0.1564546     0.147534  19.61     0.001033    1.350    0.259
        33 -11.0553    173.2189    203.7203   9.5636763473e+01   6.7366088904e+00    0.2580591    0.2080772  86.22 0.0009444881    1.764    0.433
        34  -9.8338    164.9431    203.4634   9.7264283387e+01   8.2710232552e+00    0.1932725     0.105217  59.06 0.0008088188    2.520    0.603
        35  -9.1530    131.9919    204.0000   1.0413465621e+02   1.4015586082e+01    0.2215018   0.06787322  40.99 0.0007943418    2.887    0.654
        36  -9.5214    160.3182    202.6486   9.8072969114e+01   9.2470313327e+00     0.135489    0.1020561  73.33 0.0007047466    1.740    0.425
        37  -8.6847    250.3536    201.7184   8.0895981481e+01  -6.0932481718e+00    0.1046004    0.1000395  58.43 0.0006346677    1.657    0.397
        38 -10.9322    176.9550    198.4099   9.3976908630e+01   6.9621908828e+00    0.2404399    0.1997766 -70.45  0.001175494    1.592    0.372
        39  -9.6969    141.3073    198.6340   1.0137468602e+02   1.3396620885e+01    0.1397265    0.1004477  74.63  0.000703726    1.749    0.428
        40 -10.6135    146.6467    194.2843   9.9551210227e+01   1.3260398402e+01    0.2155405    0.1566274  74.04  0.001094324    1.753    0.430
        41 -10.6590    162.4221    193.2812   9.6066167226e+01   1.0546895548e+01    0.2386553    0.1611208  59.41   0.00106246    1.705    0.413
        42 -11.6528    172.7410    191.3683   9.3591500348e+01   8.9706193510e+00    0.3037179    0.2317429 -66.31  0.001607404    1.735    0.424
        43 -10.9078    139.7452    191.8637   1.0062779219e+02   1.4979207491e+01    0.2743661    0.1650373  62.70  0.001239587    2.058    0.514
        44 -12.0844    156.3009    189.0610   9.6621116201e+01   1.2470435122e+01    0.3468966    0.2538629  35.00  0.001839545    1.307    0.235
        45  -9.3120    215.2251    186.7981   8.4334133353e+01   1.8893680202e+00    0.1949211    0.1492522 -87.45 0.0007333596    2.649    0.622
        46 -12.3195    178.4259    183.2625   9.0926114053e+01   9.3495210489e+00    0.6440033    0.4185182 -88.20  0.002296696    4.144    0.759
        47 -13.5220    170.9543    160.6479   8.8004292227e+01   1.5109894479e+01     1.050222     0.704479 -81.08  0.004148844    2.802    0.643
        48 -14.6469    167.2078    174.7071   9.1650651250e+01   1.3119722328e+01      1.33707    0.9812018 -44.86  0.006880485    1.453    0.312
        49  -8.9279    224.3022    174.6232   8.0217218230e+01   2.1631821554e+00     0.128843    0.1098862 -70.41 0.0005456812    1.764    0.433
        50 -12.7704    188.7689    157.3441   8.3514911379e+01   1.2080842294e+01    0.7559694    0.5251697  86.83  0.003040723    2.812    0.644
        51 -12.2491    180.8197    169.8713   8.7803168599e+01   1.1342621410e+01    0.5517355    0.4159954  79.56  0.002616684    2.000    0.500
        52  -8.9496    237.4977    169.9936   7.6891915959e+01   5.1043818043e-01    0.1752403    0.1116715 -54.05 0.0008086098    2.401    0.583
        53 -10.2374    206.2483    170.1487   8.2715928094e+01   6.2899742429e+00    0.2596441    0.1924539  70.71  0.001245364    2.084    0.520
        54 -10.5802    140.6907    186.3493   9.9511988968e+01   1.5893114277e+01    0.2254652     0.161123  72.47  0.001112935    1.738    0.424
        55  -9.8139    218.9913    169.1606   8.0075970221e+01   4.0257336729e+00    0.2128016    0.1669468  73.14 0.0007822154    1.991    0.498
        56 -10.4232    128.4680    168.2969   9.9106283732e+01   2.1904334534e+01    0.2631675    0.1672145  61.13  0.001188507    1.788    0.441
        57 -12.0580    139.3049    164.9391   9.5975284039e+01   2.0566780499e+01    0.3799416    0.2668571  79.94  0.001711631    1.980    0.495
        58 -10.8200    199.9264    165.1538   8.2918317751e+01   8.3976591502e+00    0.3058593     0.212014 -59.53   0.00142619    2.001    0.500
        59 -10.4424    213.0930    163.9339   8.0091455495e+01   6.0250111689e+00    0.2709028    0.2425992 -82.12  0.001517857    1.528    0.346
        60 -12.0673    191.5307    167.2465   8.5049131960e+01   9.6912473747e+00    0.4599204    0.3486155  35.16  0.002163501    1.265    0.210
        61 -12.0642    197.7127    157.8873   8.1806984361e+01   1.0148721220e+01     0.395426    0.3728585   7.90  0.002265154    1.015    0.015
        62  -8.9631      2.7020    159.6918   1.2722135946e+02   4.0554096456e+01    0.1080203   0.07279539 -59.17 0.0002425272    1.594    0.372
        63  -9.3481    243.4903    248.5020   9.0028777281e+01  -1.0583516263e+01    0.1138961   0.08312327  16.11 6.374944e-05    1.008    0.008
        64  -9.3473    216.9223    156.8153   7.7833688832e+01   6.4896602358e+00    0.2209899    0.1724251  78.00  0.001081349    2.002    0.500
        65 -12.4630    150.5706    178.5200   9.5979787090e+01   1.5599217351e+01    0.5233227    0.2880585 -60.90  0.001904862    2.352    0.575
        66 -10.9494    204.4326    152.9535   7.9387454398e+01   9.6706787761e+00    0.4870706    0.3096702  77.20  0.001724069    3.723    0.731
        67 -12.4179    181.2247    141.0057   8.1435460606e+01   1.6829694975e+01    0.7796228    0.4586675 -69.37  0.002561892    3.671    0.728
        68 -12.7326    173.3984    138.3868   8.2522115102e+01   1.9058856247e+01    0.7334276    0.5052013 -82.19  0.002895386    2.519    0.603
        69 -11.7737    191.8427    148.7566   8.0981831954e+01   1.3059052727e+01    0.3280711    0.2786503  83.62   0.00167256    1.531    0.347
        70 -11.2554    205.9280    162.6193   8.1196023393e+01   7.6554228619e+00    0.3276615    0.2725721  76.00  0.001496423    1.671    0.402
        71  -9.5182    211.9945    151.4855   7.7595028934e+01   8.3943898051e+00    0.1891349    0.1313929  73.15 0.0008086539    2.415    0.586
        72  -9.9691    122.0515    151.2243   9.7404658389e+01   2.6886222031e+01     0.251806     0.163915  67.82  0.001081512    1.963    0.490
        73  -9.7628     77.5752    185.7507   1.1334116265e+02   2.6503363347e+01     0.228106    0.1645155  45.25 0.0006366703    1.349    0.259
        74 -11.8062    132.2695    148.3909   9.4334470325e+01   2.5551773609e+01    0.3178891    0.2651649  71.30  0.001183891    1.287    0.223
        75 -11.2287    127.2898    146.6194   9.5183224347e+01   2.6924023277e+01    0.3296959    0.2376488 -87.68  0.001280454    1.832    0.454
        76  -9.9302    235.5131    147.9152   7.2511286103e+01   4.3673644315e+00    0.2485571    0.2253076 -75.88   0.00104966    1.484    0.326
        77 -10.4055    204.1981    184.5427   8.6003954582e+01   4.2623599814e+00    0.2629037     0.196365  61.76  0.001362446    1.807    0.447
        78 -10.3442    207.9997    145.7255   7.7068527407e+01   1.0235900278e+01    0.2087482    0.1916927  30.81  0.001148487    1.098    0.089
        79 -10.3515    200.6567    145.3257   7.8419321063e+01   1.1843044136e+01    0.2685959    0.1856503  57.54  0.001244865    1.690    0.408
        80 -12.7071    150.4485    170.2376   9.4460626740e+01   1.7293440636e+01    0.5460818    0.3313351 -48.41  0.002289962    1.743    0.426
        81 -10.1579    120.4246    144.2194   9.6391042697e+01   2.8788945199e+01    0.2147122    0.1412262 -65.73 0.0009526836    1.681    0.405
        82  -9.3297    214.5010    143.0135   7.5208597771e+01   9.3748283233e+00    0.2035318    0.1211159 -57.23 0.0008096203    2.469    0.595
        83 -11.1754    197.5389    183.2597   8.7059464493e+01   5.7186496709e+00    0.3884172     0.303449  74.85  0.001994766    1.948    0.487
        84 -11.9353    163.1254    135.7298   8.4199877071e+01   2.1852425377e+01    0.3376047    0.2800939 -71.01  0.001111546    1.407    0.289
        85 -10.8826    134.8877    179.7414   9.9665461927e+01   1.8299534996e+01    0.2659444    0.1835061 -89.99  0.001029209    2.045    0.511
        86 -11.0365    124.3943    141.3284   9.4788982055e+01   2.8687001080e+01    0.3537826    0.2187524  73.28  0.001343664    2.591    0.614
        87 -11.2678    193.0341    137.3273   7.8102210838e+01   1.4976124228e+01    0.3331603    0.2616514 -79.82  0.001455073    1.793    0.442
        88 -11.4701    187.3797    140.1942   7.9944561596e+01   1.5653017209e+01    0.3736897    0.1444316 -42.93  0.001163827    2.593    0.614
        89 -10.9706    187.9756    136.5023   7.8952184512e+01   1.6239344978e+01    0.2717571    0.2107464 -49.45 0.0009414545    1.357    0.263
        90  -8.6873    224.3250    140.6453   7.2856698538e+01   7.7808085012e+00    0.1438854    0.1136788 -68.07 0.0007046399    1.767    0.434
        91 -10.0878    209.4875    138.4973   7.5118803911e+01   1.1227199549e+01    0.2598304    0.1451288  59.32   0.00103575    2.356    0.576
        92  -9.7493    234.7907    135.8880   6.9931644800e+01   6.4878538438e+00    0.2344852    0.2207631  89.66 0.0009740224    1.331    0.249
        93  -8.9185    219.3663    178.6893   8.1955619307e+01   2.4186024792e+00     0.127956    0.1112695  86.03 0.0007038087    1.759    0.432
        94 -10.0388    198.1217    177.2377   8.5757760832e+01   6.6355753929e+00    0.2550217    0.1935507  58.41  0.001075373    1.601    0.375
        95 -11.9755    198.9647    139.0732   7.7312709183e+01   1.3363979516e+01    0.5029432    0.3135849 -37.26  0.002262402    1.576    0.366
        96 -11.3473    183.0870    176.8284   8.8721993675e+01   9.6142839852e+00    0.3570012    0.2227322  56.59  0.001623703    1.920    0.479
        97 -11.3533    198.2909    131.8864   7.5745097717e+01   1.4858838868e+01    0.4612159    0.2621198  27.31  0.001755127    2.462    0.594
        98 -11.4502    200.4851    126.6577   7.4045396726e+01   1.5356373934e+01    0.4271562    0.2699183 -63.40  0.001691964    2.393    0.582
        99 -11.6923    179.7406    132.2200   7.9673358919e+01   1.8900815446e+01    0.4137209    0.3389459 -70.82   0.00200283    1.489    0.329
       100 -13.1510    150.8381    135.0624   8.6906091535e+01   2.4656817181e+01     1.863436     0.677513 -58.97  0.003657267    8.740    0.886
       101 -12.2903    190.3966    173.2411   8.6508175877e+01   8.8337021798e+00    0.6107768    0.3541553  50.62  0.002761887    1.834    0.455
       102 -10.5783    205.9585    130.9490   7.4015576738e+01   1.3358495988e+01    0.2376774    0.1887743 -74.07  0.001066603    1.704    0.413
       103 -10.8484    192.4481    129.8058   7.6422817416e+01   1.6545112213e+01     0.300481    0.2522269 -79.94   0.00147879    1.509    0.337
       104 -10.5572    186.4944    129.4609   7.7570198657e+01   1.7939405705e+01    0.3367076    0.2493999 -63.42  0.001083271    1.687    0.407
       105 -11.7009    172.1102    129.2471   8.0618308498e+01   2.1204347667e+01    0.4679998    0.2246712 -44.89  0.001757635    2.095    0.523
       106  -9.2787    212.2920    129.6219   7.2494288852e+01   1.2230267582e+01    0.1519122    0.1154223 -65.81 0.0007020591    1.741    0.426
       107 -11.7206    165.5513    127.0192   8.1544098931e+01   2.3132922000e+01    0.5475953    0.2517368 -53.24  0.001864938    2.678    0.627
       108 -11.2969    179.8233    124.8401   7.7847344678e+01   2.0354885734e+01    0.4113609    0.2941603 -57.90   0.00183988    1.621    0.383
       109 -11.0503    191.0377    179.9240   8.7707256771e+01   7.5262402300e+00    0.4719051    0.3024508  71.81  0.001863806    3.186    0.686
       110  -9.3835    210.6487    176.3456   8.3132749772e+01   4.4106084671e+00    0.1960954    0.1715986 -83.82 0.0008753203    1.664    0.399
       111 -10.5607    188.0387    122.7938   7.5604247447e+01   1.8891614583e+01    0.2948451    0.1960204 -52.81  0.001278995    1.669    0.401
       112 -10.9194    202.8843    121.3284   7.2268711805e+01   1.5814931163e+01    0.2756789     0.207037 -47.34  0.001323572    1.359    0.264
       113 -10.3120    194.1511    120.7686   7.3850867726e+01   1.7892053934e+01    0.3131538    0.1680059 -50.30  0.001208165    2.099    0.524
       114  -9.8060    193.9929    250.1726   9.8817588033e+01  -3.5396885998e+00    0.1881865    0.1176445  54.05  0.001085858    1.984    0.496
       115  -8.8025    224.3641    184.6964   8.2224508919e+01   5.8731246043e-01    0.1229047    0.1090205  82.43 0.0007036604    1.735    0.424
       116  -8.8583    248.3036    119.6524   6.3999792624e+01   6.4738272560e+00    0.1411056    0.1028673 -58.51 0.0005792432    1.693    0.409
       117 -10.7313    140.5540    117.8410   8.5212793712e+01   3.0643305447e+01    0.3955671    0.1511847 -47.89  0.001299248    2.636    0.621
       118 -10.8496    191.3591    115.9587   7.3200097998e+01   1.9450846862e+01    0.4877935    0.1496113 -34.30  0.001369667    3.755    0.734
       119  -9.3375     18.8498    118.8799   1.1941227780e+02   4.8680243346e+01    0.1665236     0.123717  80.55 0.0004172123    1.299    0.230
       120 -10.5381    186.0077    114.5240   7.3928783192e+01   2.0966817142e+01    0.2612968    0.2034536 -38.18  0.001243737    1.255    0.203
       121 -11.3921    184.2136    183.3643   8.9757087742e+01   8.2255901698e+00    0.3402536    0.2671493  77.08  0.001744932    1.840    0.456
       122  -9.7367    173.6152    114.1965   7.6487041290e+01   2.3916084312e+01    0.2255773     0.148746 -30.04 0.0009348635    1.643    0.391
       123  -9.5656    167.0000     99.9830   7.4139618556e+01   2.8325668053e+01    0.2686054   0.08929051 -39.36 0.0008055196    2.964    0.663
       124  -8.9594    202.6761     98.3113   6.6431208455e+01   2.0090086456e+01    0.1571761    0.1185912 -70.51 0.0007039217    1.656    0.396
       125 -10.4080    213.0254     96.8600   6.4205384909e+01   1.7920119010e+01    0.3476145    0.1777899 -57.63  0.001210412    2.890    0.654
       126  -9.3234    195.3049     97.6449   6.7638547149e+01   2.1965814338e+01    0.1624788    0.1188545 -67.68 0.0007040698    1.715    0.417
       127 -11.0182    231.4745     91.0043   5.9720529180e+01   1.4705940525e+01     0.355717    0.2019384 -52.83  0.001019791    1.951    0.487
       128  -9.6522     24.9974     90.4967   1.1323162978e+02   5.4867960696e+01    0.1932539    0.1415291 -62.03 0.0004705934    1.090    0.083
       129 -10.5025    247.2554     85.7912   5.6175172584e+01   1.2101510158e+01    0.3934067    0.1998978 -59.11  0.001519515    2.815    0.645
       130  -9.0249    159.0000     81.9814   7.0775604243e+01   3.3765639561e+01    0.2612165    0.0890708 -37.52 0.0007972798    2.907    0.656
       131 -10.7271    243.6048     76.5609   5.4441362234e+01   1.4327125256e+01    0.2828892    0.1546125 -36.58 0.0008842138    1.616    0.381
       132  -8.8776    157.6888     74.6325   6.8855709049e+01   3.5453873631e+01    0.1644843    0.1235015  11.53 0.0007037297    1.764    0.433
       133 -10.2786    230.0000     70.1203   5.4690837976e+01   1.8392366322e+01    0.4085097   0.07662317 -33.09  0.001052522    4.945    0.798
       134  -8.9483    163.3213     70.3411   6.6313421223e+01   3.4819559202e+01    0.1626361    0.1222082  16.55 0.0005124453    1.721    0.419
       135 -11.1212    249.7367     62.4843   5.0294270946e+01   1.5104965969e+01    0.5118106    0.2527096 -17.43  0.001891148    3.305    0.697
       136 -10.2913    250.5095     56.4498   4.8775741945e+01   1.5808808742e+01     0.284227     0.118055 -34.68  0.001191393    2.109    0.526
       137 -10.6595    192.5828     55.2827   5.6329645269e+01   2.9842912180e+01    0.5160282    0.1399803 -38.88  0.001592985    3.292    0.696
       138 -11.7940    241.2739     55.4482   4.9597031595e+01   1.8006145182e+01    0.4928785     0.267033 -45.57  0.002206191    1.652    0.395
       139 -10.9065    240.3783     50.1965   4.8422238147e+01   1.8957742271e+01     0.294236    0.1870912 -39.14 0.0009592754    1.406    0.289
       140 -11.1305    225.7174     54.5156   5.1288942976e+01   2.1755694070e+01    0.4302248    0.2720411 -71.33  0.001969189    1.899    0.474
       141  -9.7562    178.1535    248.6708   1.0144587831e+02  -8.8489720132e-01    0.2541054   0.08432231  45.58  0.001097386    2.650    0.623
       142 -12.5654    246.6232     32.9456   4.3645427170e+01   1.9869654355e+01     0.717517     0.473259 -41.17  0.003949129    1.343    0.255
       143  -9.0350    232.3574    247.6573   9.1771094350e+01  -8.9396119669e+00    0.1013692   0.08623233  52.64 0.0007036534    1.826    0.452
       144  -9.6912    250.0676    245.2894   8.8435359464e+01  -1.1141895295e+01    0.1575415    0.1130909  21.87 0.0005810342    1.113    0.102
       145  -9.5036    240.7354    240.8480   8.9288461464e+01  -9.3761893184e+00    0.1921671    0.1365825  50.83  0.001190253    2.103    0.524
       146  -8.8283    248.3499    240.6501   8.7980345831e+01  -1.0416296625e+01   0.09699209   0.08886205  47.51  0.000703776    1.825    0.452
       147  -9.9615    193.5596    238.3582   9.7200879245e+01  -1.9463122395e+00    0.3469269    0.1566699  52.18  0.001524159    2.970    0.663
       148  -8.9329    149.3985     34.1656   5.7516403809e+01   4.3961973528e+01    0.1997852    0.1328084 -40.63 0.0004075458    1.572    0.364
       149  -9.1694    126.0000     30.0178   6.1097081284e+01   5.0284045394e+01    0.2307635   0.08133728 -28.19 0.0008032905    2.948    0.661
       150  -8.7616     42.3077     27.6977   8.8122516734e+01   6.6260685788e+01    0.1063851   0.09890773 -65.39  0.000294415    1.601    0.375
       151  -9.4905    136.8700     24.9221   5.6828422881e+01   4.8267157017e+01      0.21823    0.1797642  25.22 0.0004184724    1.258    0.205
       152  -9.4179    172.2903     24.6411   5.0406332407e+01   3.9257037060e+01    0.1519487    0.1019366 -61.97 0.0006738587    1.689    0.408
       153  -8.8993    118.4627     24.4630   6.0787634028e+01   5.2761830910e+01    0.1404362    0.1286627  30.02 9.619505e-05    1.001    0.001
       154  -9.7660    207.8731    237.9465   9.4554837492e+01  -4.1459226466e+00    0.3008947     0.138399  48.28    0.0014512    2.428    0.588
       155  -9.3188    244.2402    236.4752   8.7993226692e+01  -9.3855207489e+00    0.1468359   0.09526297  39.13 0.0006148422    1.564    0.361
       156  -9.0371      8.6859     14.7061   9.9059569141e+01   7.1662798738e+01    0.1175864   0.06361335 -26.87 0.0002485033    1.598    0.374
       157  -8.9214    168.5276     36.5182   5.4737583822e+01   3.8738044855e+01    0.1462186    0.1393619  82.51 0.0001702621    1.017    0.017
       158  -9.5246     29.7555     12.9841   8.7314695731e+01   7.0054621073e+01    0.1640296    0.1220493 -21.56 0.0002313978    1.061    0.058
       159  -9.3917      8.5151     18.5504   1.0072209779e+02   7.1008027347e+01    0.1152681   0.08353756 -32.33 6.412558e-05    1.024    0.024
       160  -9.6228    142.4991     11.5042   5.0969200563e+01   4.8317146401e+01    0.1384872    0.1271586  59.58 0.0001101648    1.021    0.020
       161  -9.9653    218.1367    235.1047   9.2285733189e+01  -5.3743940833e+00    0.3401356    0.1368665  43.14  0.001631858    2.290    0.563
       162  -9.0627    245.4473    230.9673   8.6882927576e+01  -8.9345387603e+00    0.1352568   0.09987579 -51.48   0.00080755    2.512    0.602
       163  -9.3435    230.0186    228.9447   8.9199208435e+01  -6.4251447070e+00    0.1659349    0.1477057  60.31  0.001127098    1.787    0.440
       164  -9.3694    199.7765    227.6067   9.4418878301e+01  -1.4895783559e+00    0.1784098    0.1007368  45.81 0.0009491747    1.705    0.413
       165  -9.3550    248.0049    227.0000   8.5785023950e+01  -8.8442737949e+00    0.1874824   0.05650792  39.19 0.0008034976    2.950    0.661
       166  -9.5829    206.8114    226.3205   9.2921816408e+01  -2.4549745189e+00    0.1919524    0.1405584  46.10  0.001097003    1.447    0.309
       167  -8.8627     23.5029     15.4888   9.1631956460e+01   7.0307528680e+01    0.1184023    0.0896714 -21.88 8.008757e-05    1.004    0.004
       168  -9.0645    218.4862    224.9828   9.0587517832e+01  -4.1422115458e+00     0.140647    0.1095467 -64.01 0.0008079234    2.376    0.579
       169  -9.6786    229.7184    222.3366   8.8145759214e+01  -5.5564838606e+00    0.3704095   0.09894724  42.34  0.001415007    3.495    0.714
       170  -9.5198    194.5459    220.5210   9.4260899983e+01   3.7895955585e-01    0.2369501    0.1041967  48.98  0.001032732    2.475    0.596
