#   1 NUMBER                 Running object number                                     
#   2 MAG_AUTO               Kron-like elliptical aperture magnitude                    [mag]
#   3 X_IMAGE                Object position along x                                    [pixel]
#   4 Y_IMAGE                Object position along y                                    [pixel]
#   5 X_WORLD                Barycenter position along world x axis                     [deg]
#   6 Y_WORLD                Barycenter position along world y axis                     [deg]
#   7 A_WORLD                Profile RMS along major axis (world units)                 [deg]
#   8 B_WORLD                Profile RMS along minor axis (world units)                 [deg]
#   9 THETA_WORLD            Position angle (CCW/world-x)                               [deg]
#  10 FWHM_WORLD             FWHM assuming a gaussian core                              [deg]
#  11 ELONGATION             A_IMAGE/B_IMAGE                                           
#  12 ELLIPTICITY            1 - B_IMAGE/A_IMAGE                                       
         1 -13.4907     38.1206     48.7742   7.4913141448e+01   6.5549982792e+01     2.424469     1.052697  43.59  0.009311228    2.618    0.618
         2 -12.4044     57.0820     34.8200   5.8553644618e+01   6.5468626574e+01    0.7107776    0.4258495 -22.49  0.002947816    2.325    0.570
         3 -10.1393      5.1864     11.8843   8.4957969644e+01   7.7239704694e+01    0.2018118    0.1682892 -36.86  0.001281763    1.045    0.043
         4 -11.4004     11.8435     14.4843   7.9648733223e+01   7.6180236584e+01     0.542735    0.2663029  -6.35  0.002296782    2.751    0.636
         5 -10.8740      9.3975      8.7070   7.8981913436e+01   7.7613875179e+01    0.4026738    0.2832885  26.46  0.002178005    1.473    0.321
         6 -10.5870     18.3496     16.6100   7.4851445065e+01   7.5098918715e+01    0.4867033     0.273687 -18.51  0.002226172    2.243    0.554
         7 -11.8041     27.6127      2.9992   5.7896204404e+01   7.6376446988e+01    0.4762949    0.2816535  35.39   0.00246728    1.606    0.377
         8 -11.5654      2.0223     24.0828   9.2387220401e+01   7.4602809080e+01    0.6993406    0.2749948 -68.39   0.00308066    2.260    0.557
         9 -12.0109      3.3509     16.9469   8.8861607946e+01   7.6205361972e+01    0.4869039    0.3354141  82.57  0.002666184    1.887    0.470
        10 -11.4404     19.3936      3.6783   6.5635950861e+01   7.7494905512e+01    0.8137259    0.4395362  26.77  0.004075195    1.834    0.455
        11 -10.3171     11.4913      4.0414   7.3873760757e+01   7.8364693716e+01    0.2944716    0.2400887  37.48   0.00183314    1.427    0.299
        12 -11.6138    129.0526     10.8966   2.5862922940e+01   5.1042185326e+01    0.4826123    0.3260205 -84.01  0.002369574    1.525    0.344
        13 -12.2366    133.0716     18.8886   2.8268896734e+01   4.9124816456e+01    0.5324515    0.3061005  39.78 0.0003018254    2.095    0.523
        14 -10.7720    129.3132     17.3242   2.8289481027e+01   5.0297647603e+01    0.4019586    0.2562404  12.12  0.001485536    2.299    0.565
        15 -10.9335    186.2693     22.3464   2.2837850832e+01   3.5305508585e+01    0.3438468    0.1891239 -30.35 0.0007231865    1.705    0.413
        16 -13.1386    238.0832     17.6037   1.7862911471e+01   2.4798387890e+01    0.3228128    0.2423988 -54.16 0.0006026697    1.105    0.095
        17  -9.7074     35.2479     14.7617   6.0431407066e+01   7.3124711070e+01     0.402627    0.2436362  -3.60  0.001373859    2.709    0.631
        18 -11.0159     28.7849     19.8543   6.8179860143e+01   7.3147002630e+01    0.3472331    0.2240867 -30.47 0.0003677953    1.614    0.380
        19 -12.0999     30.8740     12.7537   6.2311483885e+01   7.4190944557e+01    0.3774838    0.3183159 -65.86 0.0003959024    1.584    0.369
        20 -11.2290    121.8226     17.1755   2.9524410628e+01   5.2312260589e+01    0.3751888    0.3061619 -87.47  0.002008777    1.210    0.173
        21 -11.4481     70.3573     15.3593   4.2318547042e+01   6.5792826596e+01     0.473967    0.3056822 -15.04  0.001582189    1.864    0.463
        22 -11.7291     77.1638     10.3470   3.7121370544e+01   6.4764068575e+01    0.6145319    0.2574285  54.76  0.002468344    2.071    0.517
        23 -10.9778     50.8124     14.6167   5.0774412564e+01   7.0243919942e+01    0.4051532    0.3377011  66.02  0.002253741    1.437    0.304
        24 -10.2329     55.1878     13.8811   4.8066672327e+01   6.9436530166e+01    0.4011327    0.1419067 -35.85  0.001176317    2.925    0.658
        25 -11.4030     60.6970     13.2962   4.5121586703e+01   6.8308660936e+01    0.4672268    0.4011461  53.91  0.001980735    1.151    0.131
        26 -10.3094    100.0358     13.4299   3.2386714489e+01   5.8526682248e+01    0.2190319    0.1951338  20.21 0.0005112441    1.235    0.190
        27  -9.8576     84.0161     13.5201   3.6678070029e+01   6.2667445092e+01     0.201639    0.1969752 -49.45 0.0005935793    1.108    0.098
        28 -10.9823    155.4776     10.8595   2.2471279783e+01   4.4094693550e+01    0.5006661    0.2377869 -39.07  0.002239486    1.945    0.486
        29 -10.1755    138.6388     11.5828   2.4759042200e+01   4.8422077883e+01      0.32104    0.1755652 -44.95  0.001461504    1.802    0.445
        30 -11.7667    234.7132     10.3998   1.6428151299e+01   2.6145282609e+01     0.282969    0.2178685 -64.88 0.0007769578    1.168    0.144
        31 -11.9490    233.2697      6.1367   1.5538195958e+01   2.6827423486e+01    0.4106318      0.19652 -86.41  0.001657681    2.267    0.559
        32  -9.7882    206.1688     10.7084   1.8149547945e+01   3.1988796237e+01    0.1671688    0.1381831 -76.15 0.0005588112    1.138    0.121
        33 -11.0590    164.5608      6.8546   2.0276767153e+01   4.2167858111e+01    0.6441323    0.1830646 -24.35  0.002297397    3.413    0.707
        34 -11.5410    146.0316      7.5619   2.2410490692e+01   4.6864465955e+01    0.5501158    0.3296754 -16.78  0.002634368    1.923    0.480
        35  -9.8001    150.9746      5.7412   2.1244785070e+01   4.5744613626e+01    0.1897643    0.1577241 -86.29 0.0002640919    1.091    0.083
        36 -11.3008    148.7013      2.0685   2.0228632022e+01   4.6663426860e+01    0.2520464    0.2022375 -79.04 0.0002927525    1.132    0.117
        37 -10.1976    118.9382      9.1104   2.6749707836e+01   5.3930661449e+01     0.367694    0.2946756 -51.58   0.00129303    1.279    0.218
        38 -10.4657    108.5877     10.0272   2.9012519454e+01   5.6615432336e+01    0.2478298    0.2054467   8.82 0.0007811063    1.415    0.293
        39 -11.2469    241.3612      9.1184   1.5817060183e+01   2.5002815676e+01    0.1971526    0.1408211 -71.43 0.0004168994    1.327    0.247
        40 -12.1208    213.3273      5.3977   1.6389257073e+01   3.0952618152e+01    0.6900665    0.3237432 -55.64  0.003565936    1.862    0.463
        41  -9.2599    160.2842      8.6954   2.1268012361e+01   4.3075402503e+01    0.1433448   0.08866979 -59.08  0.000255239    1.560    0.359
        42  -9.3015     65.2640      8.6601   4.0399675526e+01   6.7858298503e+01    0.1353796    0.1070756 -63.54 0.0001905519    1.593    0.372
        43 -10.2777     91.8985      6.6274   3.1031462278e+01   6.1386353923e+01    0.2438937    0.1900663  21.46 0.0005239384    1.454    0.312
        44 -10.3269     90.9775      2.0418   2.8923123559e+01   6.2063942772e+01    0.2080094    0.1977668 -11.96 0.0003093466    1.164    0.141
        45 -10.3521    222.9750      5.2358   1.5837490383e+01   2.8961209580e+01    0.2014965    0.1437376 -36.00 0.0006571884    1.224    0.183
        46  -9.5747     74.4742      6.0005   3.5542834256e+01   6.5921639115e+01    0.2561833    0.1818054   3.39   0.00128372    1.686    0.407
        47  -9.9272     74.7768      2.0155   3.3139308772e+01   6.6253590820e+01    0.3808744    0.2181423  86.89  0.001358816    2.372    0.578
        48  -9.9134     68.6900      5.9148   3.7454397587e+01   6.7356564073e+01    0.1849556    0.1706498 -15.97 0.0003980351    1.165    0.142
        49  -9.6559    171.6988      4.5721   1.8960105691e+01   4.0601056376e+01    0.2413778    0.1228138 -46.46  0.001062858    1.763    0.433
        50 -10.6930     36.2061      7.1385   5.4609686730e+01   7.4233386097e+01    0.5789847    0.3355975  57.50   0.00261811    2.395    0.582
        51 -10.2880     59.9917      5.4759   4.0555078577e+01   6.9476706716e+01    0.3490508     0.128403  57.83  0.001314105    2.549    0.608
        52 -11.6406    243.9870      2.9418   1.4359276572e+01   2.5085796727e+01    0.2909532    0.1667392 -54.56  0.001470085    1.402    0.286
        53  -9.9742    126.2855      2.9105   2.3142539773e+01   5.2530079020e+01    0.1893245    0.1783957 -42.97 0.0006151227    1.146    0.127
        54 -11.2319    236.9316      1.8317   1.4411032086e+01   2.6515862303e+01    0.2503356    0.1360319 -80.72  0.001488843    1.870    0.465
        55 -10.2038    168.0504      1.9395   1.8455617481e+01   4.1740988804e+01    0.1976599    0.1670856 -71.58  0.000316709    1.034    0.033
        56  -8.8528    183.3512      1.3167   1.7147403247e+01   3.8073227726e+01    0.1277551   0.09219894  43.29 0.0007047142    1.735    0.424
        57 -10.3269     22.6346    179.6637   1.0062600617e+02   3.3994253461e+01    0.4035641    0.1408104  44.24  0.001331092    2.218    0.549
        58 -11.1105    247.6404    249.8868   6.0569186025e+01  -3.4117836103e+00    0.1962249    0.1133458   5.98  0.001551046    1.220    0.180
        59 -12.4794    226.2129    246.4950   6.3381290028e+01  -1.0891488043e+00    0.5069034    0.2729506  -8.30  0.003537893    1.666    0.400
        60 -12.3806    232.9701    246.1635   6.2282095139e+01  -1.7089182751e+00    0.4032627     0.231173 -22.69  0.003059563    1.604    0.377
        61 -11.8005     89.3750    249.4159   8.9460661949e+01   1.3724837091e+01    0.3064393    0.1913646  22.84  0.000975293    1.324    0.245
        62  -9.9858     72.1660    250.3508   9.3135308921e+01   1.5454206332e+01    0.1688916    0.1136203  18.38 0.0005855481    1.400    0.286
        63 -12.0724     28.3691    245.2758   1.0208565557e+02   2.0623549212e+01    0.4435718    0.3017015  82.14  0.003215309    1.637    0.389
        64 -11.8111     18.6716    237.0544   1.0386287741e+02   2.2894689004e+01    0.4960728    0.2161562  38.23  0.002949919    1.562    0.360
        65 -12.7270      6.8411    245.4298   1.0652979901e+02   2.2437090019e+01    0.6397122     0.401477  50.17  0.004380961    1.173    0.148
        66 -12.1491     22.3563    248.5546   1.0343890124e+02   2.0609860334e+01    0.4385368    0.1983371  36.27  0.002119542    1.491    0.329
        67 -10.4772     17.3529    247.2760   1.0442827317e+02   2.1255587848e+01    0.1486766    0.1247516 -79.78 0.0004562789    1.538    0.350
        68 -11.6756     14.4239    244.7503   1.0496405211e+02   2.1928881694e+01    0.3305297    0.1730269  80.08  0.001408409    2.034    0.508
        69  -9.6340      1.7867    180.1766   1.0621111926e+02   3.5507399185e+01    0.1460809    0.1397845 -49.35 0.0006961676    1.326    0.246
        70 -10.6550     18.2130    172.5551   1.0147740193e+02   3.5976651392e+01    0.3818777    0.1543645  48.90  0.001763176    2.052    0.513
        71 -10.4245      7.8097    171.8044   1.0432994207e+02   3.6953696856e+01     0.186301    0.1176537  54.75 0.0007406007    1.323    0.244
        72 -11.0530     36.0199    160.8060   9.5548387655e+01   3.7116888810e+01    0.3688995    0.2676792 -10.12 0.0008921738    1.808    0.447
        73 -11.1600     37.2399    165.9896   9.5608759692e+01   3.5767441440e+01    0.4198721     0.235671  73.85  0.002032256    1.917    0.478
        74 -11.5273     33.2637    166.1831   9.6784842389e+01   3.6112864251e+01    0.2440977    0.2161481  52.72 0.0003143377    1.033    0.032
        75 -10.0370     25.4735    169.5399   9.9260625482e+01   3.6050343629e+01    0.1275748    0.1131003  53.37  2.15013e-06    1.053    0.050
        76  -9.4161    177.2643    168.6584   5.9954231191e+01   1.4919787432e+01    0.1122052    0.1051487 -81.12 0.0002752258    1.597    0.374
        77 -10.5422      5.1957    168.2846   1.0492975341e+02   3.7944155758e+01    0.1808154    0.1569833  -6.18 0.0007917229    1.425    0.298
        78 -11.8147     51.6946    162.1128   9.0986529008e+01   3.5125381174e+01    0.6712713    0.4725899  89.54  0.002394855    1.525    0.344
        79  -8.9543     93.3133    166.7006   7.9612247664e+01   2.8551779312e+01    0.1439371   0.09924679  57.48 0.0003787416    1.607    0.378
        80 -10.0033    187.3603    165.6868   5.7443399287e+01   1.3828938561e+01    0.1151749    0.1041322  74.50 0.0007042346    1.750    0.429
        81  -9.7958     67.1922    165.3707   8.6804509315e+01   3.2473567569e+01    0.2177406    0.1049478  39.00 0.0009550698    1.781    0.439
        82  -9.1121    210.7147    166.3147   5.3373587842e+01   1.0285343194e+01    0.1037422   0.09564581 -46.27 0.0006773195    1.582    0.368
        83 -11.5899     21.0077    156.9371   9.9790022509e+01   3.9414969828e+01    0.5350175    0.3748729  -8.28  0.002889266    1.855    0.461
        84  -9.5953    216.2290    154.6091   5.0271136101e+01   1.1112163873e+01    0.1593592    0.1032494  23.96 0.0003097281    1.553    0.356
        85 -10.6674     11.0354    153.0508   1.0259888589e+02   4.1124942786e+01    0.3303683    0.2024864  26.11  0.001787432    1.564    0.361
        86  -9.7384    235.8497    152.9117   4.6936433241e+01   8.5698167814e+00    0.1578764     0.120865 -33.89 0.0007298412    1.379    0.275
        87  -9.8362    176.8276    150.0385   5.6477062965e+01   1.8020426512e+01    0.1862317    0.1841344 -11.81 0.0006221395    1.269    0.212
        88  -9.6771     20.3655    147.1338   9.9349227048e+01   4.1861938210e+01    0.3585103    0.1372993  62.40 0.0009631707    2.817    0.645
        89  -9.5420    207.4773    146.5229   5.0144981163e+01   1.3582969557e+01    0.1270693    0.1054103  -6.99 0.0003089879    1.027    0.027
        90 -10.2512     41.0492    146.0354   9.2613516255e+01   4.0206654387e+01    0.2060796    0.1781379  53.18 -0.001877172    1.048    0.046
        91 -10.7869    217.7139    144.9318   4.8159831771e+01   1.2237402719e+01    0.3154702    0.1458402  32.77  0.001530404    2.406    0.584
        92 -10.4416      7.8155    145.2854   1.0322068134e+02   4.3241128497e+01    0.2817777    0.1150403  14.63   0.00119958    2.654    0.623
        93  -9.7267    187.4859    144.0509   5.3200029643e+01   1.7202168499e+01    0.1938708    0.1612255  22.61 0.0003787266    1.161    0.139
        94 -10.6948     76.3666    142.4105   8.0840049490e+01   3.6628561155e+01    0.2509182    0.2242141  45.69 0.0001329725    1.040    0.039
        95  -9.9906    240.0394    140.0853   4.3914171316e+01   9.6318624043e+00    0.1766889    0.1413065 -16.36 0.0004618487    1.038    0.036
        96 -10.3015     13.3400    139.6871   1.0113929939e+02   4.4252549936e+01    0.2363659    0.1721876  59.42  0.001340019    1.235    0.190
        97  -9.4638    144.1171    137.1852   6.0954566293e+01   2.6143384378e+01    0.1823272     0.171735  82.57  0.000408968    1.280    0.218
        98 -10.4651      9.3312    136.2353   1.0226373934e+02   4.5393547782e+01    0.2013555    0.1818471 -71.63  0.000285854    1.174    0.148
        99 -10.3553      2.9581    134.9175   1.0431431432e+02   4.6115423553e+01    0.2402952    0.1611387  89.60  0.001333843    1.370    0.270
       100 -10.7901    241.3006    134.2863   4.2621471865e+01   1.0195273551e+01     0.203019    0.1644461 -23.35 0.0004547042    1.116    0.104
       101 -10.0414     20.8086    134.3651   9.8266019273e+01   4.5035977798e+01    0.2388018    0.1634033  78.44 0.0007761549    1.404    0.288
       102 -10.8789     54.1118    132.4250   8.6594755488e+01   4.2135584159e+01    0.4726493     0.234815  23.36  0.001231877    2.094    0.523
       103 -10.8526     59.9624    131.5028   8.4464002279e+01   4.1617920753e+01    0.3310515    0.2027099 -29.96  0.001389197    2.301    0.565
       104 -10.1434     79.9115    132.0314   7.7943304704e+01   3.8606489746e+01    0.2222127    0.2088615  31.03 0.0004499017    1.056    0.053
       105 -11.7728     36.8108    130.8072   9.2379849001e+01   4.4504315716e+01    0.4157763    0.2757083 -62.99  0.002093574    1.510    0.338
       106 -11.3560     73.6318    128.9419   7.9440026463e+01   4.0325928770e+01    0.3639911    0.2947455  41.90  0.001887355    1.167    0.143
       107  -9.4808     56.5429    126.6269   8.4885745319e+01   4.3304488855e+01    0.1430948    0.1342738  46.20 1.466382e-05    1.036    0.035
       108 -11.1228     14.8993    125.4642   9.9644888987e+01   4.7764373657e+01    0.4591099     0.226597  23.46  0.002119044    1.994    0.498
       109 -11.3263     10.5561    122.5357   1.0099789806e+02   4.8811031116e+01    0.3424248    0.2442423  85.51  0.001887568    1.300    0.231
       110  -9.2911    219.3726    124.3081   4.3718483544e+01   1.4874886637e+01    0.1301068    0.0876361   5.14 0.0007032592    1.769    0.435
       111  -9.7885     45.4815    124.5534   8.8506976518e+01   4.5187586384e+01    0.1439102    0.1326855  61.98 6.923438e-05    1.021    0.021
       112 -10.6408    243.8003    122.1637   3.9907289912e+01   1.1382378023e+01    0.1745651    0.1347658 -31.86 0.0005326755    1.178    0.151
       113 -10.5429     19.9869    121.5624   9.7478043944e+01   4.8404333471e+01    0.2221623    0.1709702 -83.18  0.001228316    1.230    0.187
       114 -11.2702     52.7432    116.0953   8.4547951934e+01   4.6506977443e+01    0.4830725    0.2824619  78.07  0.001353969    2.292    0.564
       115 -10.2711      1.3866    118.6086   1.0409645761e+02   5.0341289712e+01    0.2394772    0.1151332 -83.87 0.0002758509    1.898    0.473
       116  -9.5005     77.8530    117.9071   7.5903737499e+01   4.2403462742e+01    0.1966256    0.1668617  68.97            0    1.254    0.202
       117 -11.1279     30.3273    117.6432   9.3209310153e+01   4.8560465663e+01    0.3205585    0.2055206 -10.83  0.000714091    2.063    0.515
       118 -10.4365    182.9382    114.0912   4.7504646984e+01   2.2902923276e+01    0.2686604     0.226853   1.47 0.0008582289    1.219    0.180
       119  -9.5179     86.1819    116.1643   7.2727716009e+01   4.1440204360e+01    0.2072706    0.1756338  77.05 0.0005038851    1.316    0.240
       120 -11.8257     15.6877    114.7507   9.8487508130e+01   5.0500600835e+01    0.5143464    0.3465589  66.26 0.0008627075    1.444    0.307
       121 -12.6633     16.4221    108.2693   9.7605084021e+01   5.2157817331e+01    0.7935016     0.543476  23.64   0.00418118    1.506    0.336
       122 -11.0002    249.5729    111.8737   3.7141948343e+01   1.1829194538e+01     0.229399     0.169451 -29.49 0.0005400706    1.104    0.094
       123 -10.7750     94.1620    112.3936   6.9261430568e+01   4.0924500897e+01    0.3465368    0.3179967  17.53  0.001377889    1.133    0.118
       124  -9.1197    121.2936    111.6955   6.0954786180e+01   3.5814472293e+01    0.1492522    0.1213314  82.56 0.0004320641    1.578    0.366
       125 -11.5355     54.7449    108.9736   8.2529534556e+01   4.8097167921e+01     0.454547     0.321616 -59.87 0.0009117489    1.403    0.287
       126 -10.3283     51.6892    103.7866   8.2742248678e+01   4.9850146411e+01    0.2858341    0.2071058  36.22 0.0007692662    1.350    0.259
       127 -11.8650     62.0985     98.9462   7.7614731901e+01   4.9646693909e+01    0.6580904    0.3883668 -33.45  0.002646006    2.235    0.553
       128 -11.1622      2.3462    107.4597   1.0312411859e+02   5.3184335858e+01    0.4579992    0.2551863 -74.16   0.00227206    1.631    0.387
       129  -9.5821     41.9450    108.9514   8.7511880469e+01   4.9670896308e+01    0.2511253    0.1577407  59.59  0.001134181    1.740    0.425
       130 -10.2581     84.5442    107.3380   7.1283230080e+01   4.3868780581e+01    0.3094493    0.2575713 -31.89  0.001541236    1.337    0.252
       131 -11.7202     25.7081    105.6971   9.3570033160e+01   5.2128426015e+01    0.5262091    0.3733556  15.06  0.001006149    1.525    0.344
       132 -10.3687    111.6830    105.7634   6.2207102769e+01   3.9055051944e+01     0.319015    0.1789502  38.66            0    1.764    0.433
       133 -10.0291    119.3178    104.2029   5.9602501722e+01   3.7826447969e+01    0.2376384    0.1933899 -22.85  0.001155899    1.393    0.282
       134  -9.1956     93.7080    103.6971   6.7304277181e+01   4.3061863101e+01    0.1524634    0.1220711 -11.07 0.0001953462    1.571    0.364
       135 -10.5019     37.8652    102.4398   8.8108355626e+01   5.1837486600e+01    0.3165847    0.2342103  83.00  0.001588405    1.431    0.301
       136 -10.6162    107.9142     99.6706   6.1743321879e+01   4.1174995641e+01    0.2586631    0.2215062 -57.20 0.0003206712    1.226    0.184
       137 -11.0088      9.8189     99.5781   9.9502541999e+01   5.4872879150e+01    0.2440887    0.1820275  71.46 0.0003169921    1.295    0.228
       138 -10.5071    144.2443     98.8023   5.1743887842e+01   3.3594530467e+01    0.3074249    0.2559519 -71.74  0.001324542    1.443    0.307
       139 -10.7000     21.5810     98.7563   9.4423081258e+01   5.4308873003e+01    0.2521026    0.1686302 -88.12 0.0007786923    1.475    0.322
       140  -9.4978     41.3337     96.6979   8.5661619110e+01   5.2976073271e+01    0.1554703     0.103573  59.39 0.0004450007    1.657    0.397
       141 -10.7947     72.1378    115.9877   7.7495986589e+01   4.3787626096e+01    0.3711725    0.2582343 -75.44  0.001574651    1.625    0.384
       142 -10.4002    101.4663     95.6898   6.2677124381e+01   4.3385235826e+01    0.2883578    0.1389941  41.56  0.001079328    2.022    0.505
       143 -11.5959    160.5836     90.7270   4.6005641161e+01   3.1494336425e+01    0.6074176    0.4800715 -73.52  0.003057102    1.591    0.371
       144 -10.9388    156.2116     83.6570   4.4970699508e+01   3.3703142372e+01     0.495751    0.4557815  -1.80   0.00274861    1.163    0.140
       145 -10.1607    227.3486     92.9044   3.5848728282e+01   1.7859753063e+01    0.1858065    0.1661059 -53.12 0.0005933029    1.236    0.191
       146 -11.0165     38.1404     88.8882   8.5572704961e+01   5.5394784896e+01    0.6868428    0.1523454 -55.94  0.002090501    3.587    0.721
       147  -9.3718     31.4289     92.5155   8.9223711279e+01   5.5123426923e+01    0.1413821    0.1338451 -80.91 9.872783e-05    1.010    0.010
       148 -10.2269      1.6497     92.2362   1.0241390949e+02   5.7207434367e+01    0.1973326    0.1064276 -70.48 0.0007237706    1.655    0.396
       149  -9.8918     10.5474     90.8926   9.8353202045e+01   5.7135452602e+01    0.1935187     0.180255  13.04  0.000631778    1.172    0.147
       150 -10.7741     83.6486     88.7498   6.6827250205e+01   4.8503400924e+01    0.3535329    0.2840177  60.64    0.0016136    1.353    0.261
       151  -9.9278     73.9448     89.5463   7.0680356917e+01   5.0080234573e+01    0.2716363    0.1997915 -45.04 0.0005861722    1.404    0.288
       152 -11.1977     22.4471     87.1673   9.2445681914e+01   5.7330234697e+01     0.377232    0.2220139 -58.20 0.0005240008    1.579    0.367
       153 -11.0612     95.6235     88.7495   6.2641869335e+01   4.6146757521e+01    0.5625907    0.2516633  48.27  0.002004337    2.326    0.570
       154 -10.2970     47.9245     88.1856   8.1085589916e+01   5.4407450454e+01    0.2359497    0.2025872 -66.70 0.0003158954    1.148    0.129
       155 -10.4316     78.8588     87.4940   6.8248119002e+01   4.9696322107e+01    0.2893128    0.2264673 -54.59  0.001398441    1.300    0.231
       156 -10.8949     65.5449     87.4615   7.3453178016e+01   5.2013242382e+01    0.3234634    0.2911052  42.86 0.0007480201    1.101    0.092
       157 -11.2064     67.1863     84.0247   7.1863358883e+01   5.2594244606e+01    0.4059164    0.2945391   7.87  0.001690228    1.765    0.433
       158  -9.3119     42.4958     87.4912   8.3337486602e+01   5.5263502887e+01    0.1460707    0.1385754  75.15 -0.000203974    1.057    0.054
       159 -10.1094      9.5442     86.0537   9.8301770715e+01   5.8474456627e+01    0.2709941    0.1555629  43.04  0.001239945    1.782    0.439
       160  -9.7940      4.8720     86.1356   1.0047381493e+02   5.8680251948e+01    0.1842813    0.1421045 -48.00 0.0004873954    1.299    0.230
       161 -11.4911    167.3903     83.1503   4.2634887176e+01   3.1279430895e+01    0.4990328    0.3562228  76.90  0.002092584    1.797    0.444
       162 -10.2916    162.6878     83.6866   4.3680498570e+01   3.2238907101e+01    0.2294873    0.2089661  21.44  0.000733702    1.178    0.151
       163  -9.3690    108.6136     83.9480   5.7066109081e+01   4.4451068493e+01    0.3605464    0.1965307  29.30  0.001289578    2.542    0.607
       164 -11.5139     30.8200     82.0671   8.7635141060e+01   5.7951429894e+01    0.4359791    0.3255121  58.60  0.002235219    1.442    0.306
       165  -9.5517    116.9487     83.5402   5.4487259192e+01   4.2685888471e+01    0.2333484    0.1500511  47.79 0.0007067986    1.528    0.346
       166 -10.8192     74.2755     82.4162   6.8568501913e+01   5.1749780102e+01    0.3265355    0.2860327 -34.67 0.0004992388    1.204    0.169
       167 -10.4042     42.1194     81.6790   8.2234036161e+01   5.6825349903e+01     0.257438     0.196127 -84.92 0.0006857043    1.427    0.299
       168 -10.4122     21.6408     81.4925   9.1943989186e+01   5.8901295767e+01    0.3490104     0.144849 -43.22  0.001330662    2.607    0.616
       169 -10.2817      7.3541     81.0998   9.8806318300e+01   5.9897458756e+01     0.341669    0.2260318 -48.89  0.001458407    1.475    0.322
       170 -10.1911      2.8639     78.5209   1.0072617944e+02   6.0772438537e+01    0.3035235    0.1599266 -67.94  0.001368752    1.667    0.400
       171  -9.5442     58.7431     79.3845   7.4150859210e+01   5.5110785317e+01    0.2053448    0.1450926  20.31 0.0004583977    1.564    0.361
       172  -9.4588     89.7020     78.3296   6.1559580968e+01   4.9710211768e+01     0.157026    0.1235943  84.86  0.000266937    1.639    0.390
       173 -10.7073     11.9030     56.9853   9.2887773968e+01   6.5976567526e+01    0.3105673    0.2096091  86.44  0.000697045    1.608    0.378
       174 -11.7638     11.9530     47.2602   9.0821276496e+01   6.8447931925e+01     0.778128      0.41303 -77.36  0.003594244    1.930    0.482
       175 -11.1120     12.7632     75.4144   9.5425799875e+01   6.1114023681e+01    0.4649679      0.29012  66.46  0.001738957    1.767    0.434
       176 -14.3133     16.7334     67.4605   9.2072353318e+01   6.2955843929e+01    0.6761801    0.5320032 -88.57  0.001314853    1.288    0.223
       177 -11.5083     10.9815     61.8914   9.4303758300e+01   6.4759722642e+01    0.3223301     0.231602  57.28 0.0002945306    1.534    0.348
       178 -11.5715      7.7268     73.2691   9.7717513553e+01   6.1946817159e+01    0.4812794    0.4516376 -11.21  0.003005835    1.151    0.131
       179 -12.3099      2.5095     62.8335   9.9240663071e+01   6.4892472040e+01    0.9679464     0.524327 -83.25  0.004097719    1.741    0.426
       180 -11.7677      3.4603     48.4879   9.6621332850e+01   6.8546804799e+01    0.6423791    0.4142027 -79.20  0.003410625    1.475    0.322
       181 -11.2126      7.0915     42.6741   9.3070556719e+01   6.9858792614e+01    0.8979156    0.1993349 -75.18  0.002661624    4.689    0.787
       182 -10.7353     99.9055     76.6031   5.7537722519e+01   4.7921899228e+01    0.2765259    0.2251998 -52.98  0.001346151    1.277    0.217
       183 -10.0258     37.9415     76.9991   8.3142192657e+01   5.8530926836e+01    0.3655978    0.1474058  39.17  0.001373192    2.477    0.596
       184 -10.0034    184.1724     75.9427   3.7818238202e+01   2.8732090581e+01    0.2763675    0.1415456 -40.47  0.001231079    1.798    0.444
       185 -11.8031     44.4150     74.6169   7.9437618522e+01   5.8358434075e+01    0.2823332    0.2754659   0.05   0.00161575    1.046    0.044
       186  -9.7045    107.5637     75.0584   5.4621847477e+01   4.6543353787e+01    0.2368258    0.1526817 -44.44  0.001021723    1.585    0.369
       187  -9.9446     74.8269     74.8521   6.6071566972e+01   5.3439361560e+01    0.3975343    0.2257123  11.65  0.001226378    3.885    0.743
       188 -12.6797     51.0520     68.8415   7.4648477582e+01   5.8891885409e+01    0.6404394    0.5240341  84.27  0.003260663    1.447    0.309
       189  -9.9237    167.7362     69.4602   3.8783339188e+01   3.3411351809e+01    0.2085476    0.1770476  39.83 0.0003801646    1.277    0.217
       190 -11.0073    103.0852     72.3877   5.5148220674e+01   4.8102974350e+01    0.2690467    0.2165692 -30.61 0.0007270627    1.352    0.260
       191  -9.6953     93.6841     73.6596   5.8674213762e+01   4.9900717840e+01    0.1592746    0.1245123  -1.26  0.000704825    1.706    0.414
       192  -9.3805     61.5126     73.5052   7.1244588935e+01   5.6113982840e+01    0.1479098    0.1472574  50.63 5.167993e-05    1.011    0.011
       193  -8.9435    194.6773     69.6998   3.4635513324e+01   2.7392745926e+01    0.1323158    0.1029615  16.42 0.0002734534    1.629    0.386
       194  -9.8657    131.2442     69.0228   4.6198239339e+01   4.2153793328e+01     0.204747    0.1291239 -37.52 0.0008870412    1.608    0.378
       195 -11.4070    122.7384     67.1218   4.7728864970e+01   4.4545909389e+01    0.3902399    0.2460298 -43.55 0.0003279453    1.609    0.379
       196 -10.3781     43.1900     67.7769   7.8197504442e+01   6.0248849477e+01     0.214504    0.1946278  65.53 0.0007856434    1.186    0.157
       197 -10.0728    149.0359     66.9962   4.1597378576e+01   3.8219732782e+01    0.2148706     0.209995 -61.97   0.00029672    1.010    0.010
       198 -11.7718      8.5232     32.1909   8.9372482895e+01   7.2356073725e+01    0.5014874    0.3913636  72.38  0.001889659    1.544    0.352
       199 -10.3561     31.8325     32.9099   7.2519612807e+01   6.9993518377e+01    0.5408682    0.2575124  39.39  0.002317497    2.210    0.548
       200 -11.7079     44.8888     38.1600   6.6716687933e+01   6.6950652739e+01    0.3099229    0.2451053  51.81  0.001628072    1.437    0.304
       201 -12.2788     30.1665     62.5430   8.3635114732e+01   6.3089892210e+01    0.6570039    0.6338371  58.46  0.003914746    1.097    0.089
       202 -11.9941     37.4528    243.4026   1.0009843759e+02   2.0098926201e+01    0.4162213    0.2669709  71.42  0.002101118    1.642    0.391
       203 -11.0540     44.6585     43.7183   6.9221192726e+01   6.5774905769e+01    0.4634188    0.3224603 -85.00  0.001673495    2.288    0.563
       204 -10.6283     18.0864     30.9901   8.1590642893e+01   7.1943234141e+01    0.5661457    0.2489896  23.89  0.002478091    2.262    0.558
       205 -11.1756     27.5812     54.1191   8.2831784458e+01   6.5473459081e+01    0.4697726    0.2255873 -57.86  0.001507611    1.887    0.470
       206 -12.8647     27.5986     37.7195   7.7373992236e+01   6.9422631689e+01    0.2948817    0.2781568 -41.12 0.0004305863    1.066    0.062
       207 -11.4153     24.5070     34.5447   7.8267149327e+01   7.0493842650e+01    0.2826706    0.2291046 -19.10 0.0005310214    1.220    0.180
       208  -9.6187    140.1973     66.1637   4.3218323173e+01   4.0493575229e+01    0.2060665    0.1740371 -85.12  0.000814333    1.317    0.240
       209  -9.5679     93.5225     66.5261   5.6329186035e+01   5.1449433663e+01    0.1536609    0.1495693  37.70 9.704146e-05    1.019    0.019
       210 -11.0950     81.8722     65.2365   6.0113192656e+01   5.4216600128e+01    0.3850868    0.3358788  19.33  0.001213165    1.235    0.190
       211 -10.7435     76.8623     62.0668   6.0953021155e+01   5.5929807082e+01    0.2983326    0.2510321  50.26 0.0002747593    1.195    0.163
       212  -9.3473    130.9831     64.9452   4.4950883588e+01   4.2944454228e+01    0.1809656     0.170737 -44.57 0.0003725125    1.071    0.067
       213  -9.8165     98.6447     65.2655   5.4168984021e+01   5.0562016955e+01    0.1561667    0.1218088  82.06 0.0006986612    1.628    0.386
       214 -11.3258    155.4741     63.3815   3.9239483621e+01   3.7260265793e+01    0.4457776     0.243721  57.28 0.0005172603    1.839    0.456
       215 -12.0025    201.9748     62.5680   3.1851117560e+01   2.6839144879e+01    0.2482976    0.1965602 -36.64  0.000110348    1.127    0.113
       216 -10.9451    167.7178     73.4139   3.9897363607e+01   3.2790479625e+01     0.282714    0.2359908 -45.32 0.0002856359    1.155    0.134
       217 -11.1567     46.5120     60.2716   7.4242698648e+01   6.1645696543e+01    0.3874418    0.3248937 -35.13  0.002063678    1.205    0.170
       218 -10.1857     69.5153     60.0363   6.3274079347e+01   5.7822808105e+01    0.4803101    0.1495936 -49.27  0.001494401    3.272    0.694
       219 -10.1760    120.4125     60.9370   4.6264360608e+01   4.6235619295e+01      0.31053    0.2104799  68.29  0.001363529    1.666    0.400
       220  -9.9370    113.6298     60.9624   4.8111157189e+01   4.7877594764e+01    0.2158209    0.1874698 -49.36 0.0005576119    1.182    0.154
       221 -11.2187     98.1875     59.9171   5.2415591706e+01   5.1730799996e+01    0.3895747    0.2657681  63.95  0.000670458    1.675    0.403
       222 -10.1244    169.0174     60.0135   3.5867518756e+01   3.4554480045e+01    0.2082132    0.1970249 -56.43  0.001212051    1.001    0.001
       223  -9.5419    138.0283     60.2448   4.1808979742e+01   4.2023329292e+01    0.2014436    0.1877268  74.59 0.0002342606    1.062    0.058
       224  -9.8766    127.3949     58.9606   4.3833562189e+01   4.4867091476e+01    0.2244466    0.1936575  58.35  0.000260543    1.135    0.119
       225 -10.7312     85.8035     58.6909   5.6267677728e+01   5.4761783124e+01    0.3192068    0.2399703  39.13  0.001518857    1.323    0.244
       226 -10.9949     58.4464     59.0730   6.7931707598e+01   6.0050175510e+01    0.3903977    0.2158019  32.41  0.001256492    1.854    0.461
       227 -10.4821    133.9494     58.0784   4.2006085726e+01   4.3392881622e+01    0.2692927    0.2050935  60.00 0.0005326142    1.297    0.229
       228 -10.7133     81.0350     55.4044   5.6826462460e+01   5.6466038804e+01    0.4825105    0.3145597  -7.55  0.001805256    2.783    0.641
       229 -10.2589    115.4034     56.4995   4.6050548376e+01   4.8253373338e+01    0.3064023    0.1479268  54.20 0.0007710959    2.015    0.504
       230 -10.1950     78.4739     47.4354   5.4646124534e+01   5.8608875132e+01    0.4322848    0.1494942 -41.00  0.001418191    3.016    0.668
       231 -10.0296     75.4688     54.9891   5.8880558731e+01   5.7724120099e+01    0.5875669    0.2652118 -38.21  0.001564321    2.500    0.600
       232 -10.0561     73.9739     50.7588   5.7829146561e+01   5.8907209130e+01    0.5699017    0.2716914  37.72  0.002161045    2.207    0.547
       233 -10.4221    182.1236     54.8078   3.2415294493e+01   3.2255641542e+01    0.2148231    0.1816182 -34.73 0.0003369636    1.132    0.117
       234 -12.4541    105.2719     52.4333   4.7436271853e+01   5.1453690083e+01    0.4394611    0.3562283  67.92 0.0001508688    1.288    0.223
       235 -10.7498     89.2737     54.1550   5.3292946762e+01   5.4896990765e+01    0.3406776    0.2361063 -86.26  0.001366047    2.374    0.579
       236  -9.7515     88.6831     50.0801   5.1905148035e+01   5.5814469575e+01    0.2296238    0.2083318  84.02 0.0004319145    1.208    0.172
       237 -10.4753    133.9888     52.5373   4.0139432562e+01   4.4287383195e+01    0.3795992    0.2596304  24.74  0.001644086    2.026    0.507
       238 -11.5564    129.4930     49.3454   4.0036919687e+01   4.5930328259e+01    0.5091783    0.4517884 -17.20  0.001525812    1.248    0.199
       239 -10.0533     61.9996     52.7673   6.3915350591e+01   6.0835852866e+01    0.2457181    0.2061136 -49.00 0.0004082085    1.215    0.177
       240 -10.7820     57.8435     50.3799   6.4967489007e+01   6.2111002692e+01    0.4675718    0.2633648 -35.73  0.001583208    2.032    0.508
       241 -11.2376     51.8193     47.3263   6.6793630881e+01   6.3823559996e+01    0.6336694    0.2912853 -53.62  0.002485008    2.280    0.561
       242  -9.4111    169.3636     51.7313   3.3401034700e+01   3.5671291832e+01    0.1474603    0.1023832 -69.85 0.0006994688    1.653    0.395
       243  -9.7981    101.6640     47.6881   4.6699072995e+01   5.3171180443e+01    0.2466586    0.2164299  33.37 0.0009275047    1.188    0.158
       244  -9.6054    104.3360     46.6905   4.5512867179e+01   5.2688213810e+01    0.2134198    0.1971883 -73.68  0.001126788    1.139    0.122
       245  -9.8868     62.0029     47.9581   6.1991429659e+01   6.1869085706e+01    0.2372185    0.1796207  -8.44 0.0007673806    1.676    0.403
       246  -9.4568    230.4778     55.4412   2.7034472176e+01   2.2076627253e+01    0.1235417    0.1006094 -43.45 0.0001533541    1.043    0.041
       247  -9.5359    143.1819     45.7411   3.5978684979e+01   4.3002408634e+01     0.192288    0.1686852  27.96 0.0005381015    1.303    0.233
       248 -10.9565    120.9205     43.5291   3.9923317815e+01   4.9025597731e+01    0.4918676    0.2762964 -27.41  0.002039439    2.000    0.500
       249 -10.4678    112.9102     45.2361   4.2569964023e+01   5.0790670306e+01    0.3171267    0.2533887   0.11  0.001073873    1.578    0.366
       250  -9.4064    110.8101     41.6301   4.1732425676e+01   5.1900450128e+01    0.2075218    0.1737591 -72.33            0    1.319    0.242
       251  -9.5702    171.3492     44.8026   3.1069406383e+01   3.6146646990e+01    0.1848519    0.1303243 -17.79 0.0009153801    1.620    0.383
       252 -10.7362    150.1041     44.0301   3.4160167898e+01   4.1496567525e+01    0.4818733    0.2681568 -72.92  0.001818023    2.743    0.635
       253 -10.2196    148.0739     38.9003   3.2824128102e+01   4.2721889675e+01    0.2718629    0.1832372 -53.93 0.0004528597    1.526    0.345
       254 -11.2316     95.8029     42.5275   4.6443719677e+01   5.5488943502e+01    0.4630045    0.3111428 -15.47 0.0008986129    1.988    0.497
       255  -9.8450     57.0081     44.0035   6.2758491762e+01   6.3630206949e+01    0.2035736     0.195513  -7.04            0    1.020    0.020
       256 -10.3172     61.3924     40.9509   5.9275767388e+01   6.3427451219e+01    0.4833042    0.1942588  38.82  0.001750279    2.519    0.603
       257  -9.8866    125.0298    245.9340   8.1766250073e+01   1.0150852287e+01    0.1390124    0.1043051  24.22 0.0005163641    1.021    0.021
       258 -10.6440     72.7095     42.7781   5.5010475983e+01   6.0752483756e+01    0.3043929    0.2503701 -73.59            0    1.520    0.342
       259 -10.4498    128.7226     41.7625   3.7513322536e+01   4.7289455383e+01    0.5335487    0.1813636  46.56  0.001680298    3.323    0.699
       260 -10.4632     90.2880     41.2762   4.7726104744e+01   5.7032441986e+01    0.3433859    0.2604925  72.75  0.001635017    1.519    0.341
       261 -10.6997     67.0199     41.0075   5.6694943320e+01   6.2287841807e+01    0.2549523    0.2015732 -30.68 0.0006652734    1.332    0.250
       262 -10.9597     68.8194     37.4220   5.4267787880e+01   6.2591405941e+01    0.4539523     0.306193   9.55  0.001731192    2.246    0.555
       263  -9.5912     66.5358     34.5588   5.3929578405e+01   6.3601905802e+01     0.226032    0.2181717  18.75 0.0005708564    1.021    0.021
       264 -11.1034     74.6795     35.9591   5.1128332950e+01   6.1576856006e+01    0.3746278    0.2581482 -51.96 0.0004366596    1.658    0.397
       265 -10.6339     77.2714     33.3524   4.8886175865e+01   6.1439076140e+01     0.302294    0.2733205  41.94 0.0007145722    1.051    0.048
       266 -10.8432    225.0619     37.8611   2.3415592134e+01   2.5173646591e+01    0.2957305    0.1323121 -49.19 0.0009634245    2.005    0.501
       267 -11.5537     82.7504     36.0287   4.8068123715e+01   5.9714102063e+01     0.525295    0.3500189 -22.11  0.002369893    1.804    0.446
       268  -9.4602    160.0335     38.2081   3.0703085431e+01   3.9793543778e+01    0.1845898    0.1105067  66.89 0.0003149246    1.657    0.396
       269 -10.7157    101.2579     36.6824   4.2362969115e+01   5.5092722498e+01    0.3366561    0.2650755  14.15  0.001083175    1.574    0.365
       270 -10.2948    248.1440     36.8191   2.1460852040e+01   2.0963920672e+01    0.1773724    0.1231514 -48.50 0.0004351556    1.189    0.159
       271  -9.3821    114.2548     37.3052   3.9159514307e+01   5.1683752069e+01    0.1534266    0.1416639 -81.73 0.0002112109    1.099    0.090
       272 -10.6672    110.9845     34.4061   3.8816448784e+01   5.2954616077e+01    0.3728496    0.3247872  62.94  0.001087002    1.089    0.082
       273  -9.6829      1.6216     36.9718   9.5785818154e+01   7.1495783823e+01    0.1884598     0.150941 -62.24 0.0008092668    1.117    0.104
       274  -9.4153    171.4737     36.5208   2.8596155404e+01   3.7189511254e+01    0.2410682    0.1119354  55.04 0.0009060595    2.206    0.547
       275  -9.1615    164.2934     36.6372   2.9600201040e+01   3.8936885846e+01    0.1538145   0.09564172 -59.22   0.00070296    1.706    0.414
       276  -9.9672    128.2687     35.9874   3.5503472254e+01   4.8238552096e+01     0.196946    0.1902047 -51.20 0.0003684156    1.075    0.070
       277 -10.0253    193.2034     34.4364   2.5481354711e+01   3.2333005785e+01    0.3054614    0.1160449 -48.26  0.001228156    2.515    0.602
       278 -10.0634    177.7021     34.4371   2.7205982093e+01   3.5945144164e+01    0.2359642    0.1699626   1.18  0.001188873    1.880    0.468
       279  -9.6744    140.3905     34.0690   3.2508062343e+01   4.5346080293e+01    0.2696262    0.1856743 -57.42  0.000965933    1.530    0.347
       280 -10.5742    202.8821     33.6846   2.4327788969e+01   3.0265983659e+01    0.3495895    0.1827456  48.25 0.0006481254    2.372    0.578
       281 -11.1338    221.6256     31.9032   2.2273521723e+01   2.6525047480e+01    0.2345907    0.1744038 -38.85 0.0003107611    1.137    0.121
       282 -10.4636    122.8720     32.7919   3.5434535684e+01   5.0089935794e+01    0.5951302    0.1669723  58.67  0.001893325    3.094    0.677
       283  -9.4251    247.3033     32.6975   2.0624864567e+01   2.1551636727e+01    0.1209435   0.06632872 -52.34 0.0003001885    1.593    0.372
       284 -10.7454    101.8820     29.3003   3.9048284548e+01   5.6033812571e+01    0.4194478    0.2954944 -63.50  0.001946315    1.718    0.418
       285 -10.4488     49.8263     29.3148   5.9660533387e+01   6.7890615337e+01    0.4709771    0.2561018 -35.18  0.002055412    1.990    0.497
       286 -10.8277     73.1719    244.6044   9.2534613078e+01   1.6260256835e+01    0.2826231    0.1597855  24.13  0.001372282    1.475    0.322
       287 -13.0098     75.2679    238.4348   9.1641440139e+01   1.7039178939e+01    0.5651446    0.4759259  20.58   0.00368196    1.200    0.167
       288 -10.1453    195.4904    238.3165   6.7405353862e+01   2.9810501356e+00    0.2133573    0.1390878  -2.00  0.001315946    1.320    0.242
       289 -10.8941     12.9702     23.4368   8.2710819284e+01   7.4106591157e+01    0.7718681    0.3209532  -3.27   0.00275643    3.780    0.735
       290 -10.4659    159.9660    235.6819   7.3631717446e+01   7.4072607098e+00    0.1664939     0.114425  19.92 0.0004266553    1.095    0.087
       291  -9.9344     24.1014    232.1561   1.0253193683e+02   2.3288300011e+01    0.1895993    0.1308823  22.61 0.0006254394    1.385    0.278
       292  -9.6625    177.5032    234.5209   7.0150218192e+01   5.4812664243e+00    0.1142539   0.08348227  13.06 0.0008103165    1.002    0.002
       293 -10.7972     87.4242    233.1272   8.8549833544e+01   1.6541097087e+01    0.2653426    0.1048227  41.18  0.001318509    2.010    0.503
       294 -11.4913     29.9980    233.8676   1.0130874350e+02   2.2448961851e+01    0.3991944    0.1638876  60.95  0.002115591    2.346    0.574
       295 -10.2028    183.9748    230.2733   6.8390068160e+01   5.2530696579e+00    0.2036486   0.09777905  -7.17 0.0009008993    3.566    0.720
       296 -10.7439     79.9194     27.7221   4.5197807361e+01   6.1729173843e+01    0.4558198    0.2185749 -32.37  0.001825159    2.239    0.553
       297 -11.2485    197.5537     28.1795   2.3378064497e+01   3.2071511200e+01    0.2497835    0.2088985  88.20 0.0004509336    1.211    0.174
       298 -10.6534    162.9076     28.3013   2.7193995975e+01   4.0308950388e+01    0.2600476    0.2056605 -55.42 0.0005709359    1.196    0.164
       299 -10.1107     71.4361     28.7409   4.8975616434e+01   6.3537751457e+01    0.1915444    0.1751763  51.34 0.0003799809    1.079    0.073
       300 -10.5357    156.8611     28.1143   2.7939995760e+01   4.1857831732e+01    0.2233795     0.187321  84.29 0.0003090058    1.146    0.127
       301 -10.4589    139.3582     27.5095   3.0377872090e+01   4.6452972284e+01    0.2381241    0.2179769 -77.08  0.001346367    1.039    0.038
       302 -11.2263    112.4361     27.2961   3.5567100416e+01   5.3567027850e+01    0.3549607    0.2704254  45.48 0.0008905404    1.328    0.247
       303 -10.5413    214.9128     25.3214   2.1192745521e+01   2.8621086062e+01    0.2754109    0.2029168  63.62  0.001654073    1.534    0.348
       304  -9.9970    145.0720     26.6544   2.9166143095e+01   4.5066344966e+01    0.3731227    0.1241177  66.26  0.001227468    2.799    0.643
       305 -10.1407    226.4055     23.6016   1.9955717069e+01   2.6456285637e+01    0.3065849    0.1156908 -32.17   0.00146013    2.101    0.524
       306  -9.6567    203.8225     24.4122   2.1842761622e+01   3.1095640795e+01    0.2429823   0.07789842 -30.51 0.0009840748    2.599    0.615
       307 -11.5795    238.5691     26.8932   1.9910084019e+01   2.3760922845e+01    0.3444117    0.2313207 -12.67  0.002097212    1.758    0.431
       308 -11.2581     59.6331     21.7625   5.0518633798e+01   6.7269804627e+01    0.4388282    0.3302838  87.84  0.001110309    2.053    0.513
       309 -10.8277     22.6985     24.1042   7.5071909738e+01   7.3024936934e+01    0.2806711    0.2172551 -33.95 0.0002473147    1.212    0.175
       310  -9.6918     24.2524     20.6246   7.2097636139e+01   7.3581505999e+01    0.2013582    0.1862846 -84.22 0.0006763239    1.357    0.263
       311 -10.1249    198.2750     23.9376   2.2187348870e+01   3.2377476666e+01    0.1841739    0.1513402 -42.54 0.0004266635    1.101    0.092
       312 -11.1979    165.9261     16.1105   2.3029888822e+01   4.0909841100e+01     0.422911    0.1495938  51.49  0.001549642    3.192    0.687
       313  -9.5340    159.3996     17.2704   2.4118201506e+01   4.2435778715e+01    0.2529805     0.191293  71.35  0.001155771    1.278    0.218
       314 -11.2803    159.0293     23.7307   2.6240422428e+01   4.1819097174e+01    0.4911951    0.2822965 -71.35   0.00194054    2.001    0.500
       315 -10.4495    161.5231     20.5143   2.4907067143e+01   4.1547010212e+01    0.2805656    0.2272827  -6.31 0.0008566121    1.487    0.327
       316  -9.7788    151.7795    228.5894   7.4361830272e+01   9.3748875677e+00    0.1659905    0.0873774  35.40 0.0007458513    1.617    0.382
       317 -10.7811      4.1234    225.9352   1.0671317962e+02   2.6089865888e+01    0.2828715    0.1706162 -68.82  0.001848364    2.058    0.514
       318 -11.0337     88.6849    241.1087   8.8943171649e+01   1.5097524976e+01    0.2216183    0.1323231 -52.89  0.001382732    2.161    0.537
       319 -10.3200    120.7933    226.2090   8.0550025956e+01   1.3615704524e+01    0.1938626    0.1059882  55.19  0.000943595    2.750    0.636
       320 -10.4434     94.7077     22.4060   3.7931986796e+01   5.8820760312e+01     0.433294     0.251508  82.60  0.001527281    2.391    0.582
       321  -9.8902     54.0226     23.2730   5.4159936480e+01   6.8180004851e+01    0.2006236    0.1731091  32.26 0.0001752695    1.095    0.087
       322  -9.9650     99.7891     20.8625   3.5860933816e+01   5.7707808919e+01    0.3645906    0.1490967 -49.37   0.00123313    3.226    0.690
       323 -10.6177     83.6026     21.9097   4.1065515459e+01   6.1686913743e+01    0.3929901    0.2001274  52.15  0.001203576    1.789    0.441
       324  -9.6085    113.1959    222.8065   8.1833038198e+01   1.5119751524e+01    0.2079404    0.1066827  55.08 0.0009584007    2.894    0.654
       325  -9.7452     74.2531     21.1572   4.3975606734e+01   6.4059342841e+01    0.1879219    0.1679039 -75.79 0.0004167487    1.299    0.230
       326 -10.6718     67.1708     20.9552   4.6693038177e+01   6.5733979307e+01    0.2775491    0.2075872  60.23 0.0004270386    1.388    0.279
       327 -10.0237     33.9660     19.7114   6.4326988063e+01   7.2414746076e+01    0.2208497    0.1769867 -37.58 0.0002122523    1.235    0.191
       328 -10.1651    109.9196    249.3739   8.5191389608e+01   1.1408474732e+01    0.1851062    0.1650872 -15.51  0.001339038    1.373    0.272
       329 -11.0466     15.5926    221.8867   1.0407591667e+02   2.5912519661e+01    0.2984269    0.1150922  31.87  0.001011997    1.871    0.466
       330 -10.8993     21.7827    220.0755   1.0261337711e+02   2.5721225461e+01    0.2047655    0.1633227  64.58 0.0007964952    1.192    0.161
       331 -10.9177     42.1894     19.0210   5.8466912009e+01   7.1169459881e+01    0.4111106    0.2177119  42.95 0.0009336883    1.859    0.462
       332 -10.7068     24.0273    215.9604   1.0193863168e+02   2.6309132661e+01    0.1807758    0.1680812  88.18 0.0004410708    1.303    0.232
       333  -9.9880    108.6395     17.4953   3.2273616305e+01   5.5788319934e+01    0.2355733    0.1715323  14.53  0.001130515    1.748    0.428
       334 -10.6751    194.7485     16.8383   2.0584148538e+01   3.3925911013e+01    0.2223895    0.1667836 -80.46 0.0003532595    1.280    0.219
       335  -9.7527     76.0655     15.5239   4.0317099605e+01   6.4397108222e+01    0.3393683    0.1783737  51.57 0.0009328432    1.717    0.418
       336  -9.4207    142.3401    220.6810   7.5295096509e+01   1.1723622095e+01       0.1177   0.08322431  48.10 0.0006396618    1.713    0.416
       337  -9.4007    126.3163    220.6324   7.8707285350e+01   1.3797598165e+01    0.1213595    0.0835172  52.33 0.0007037683    1.778    0.438
       338  -9.8478     42.0450    220.4959   9.7966672225e+01   2.3740585288e+01    0.1861417   0.09429142  29.36 0.0008198802    1.574    0.364
       339  -9.6142    211.8329    219.1743   6.1905014198e+01   3.3674025918e+00    0.1564257    0.1004388   0.05 0.0008397752    1.305    0.233
       340  -9.5071    120.7853    219.4189   7.9773065299e+01   1.4705454110e+01    0.1712024   0.09862021  20.45 0.0005775935    1.582    0.368
       341  -9.4193    176.3162    218.7055   6.8220376691e+01   7.6751372387e+00    0.1045798   0.08387555  40.19 0.0003210671    1.603    0.376
       342  -9.8070     38.6583    217.3684   9.8587490045e+01   2.4667850625e+01    0.2401726   0.07951856  31.36 0.0008058204    2.168    0.539
       343 -11.9215     10.3941    216.5739   1.0509705308e+02   2.7351032817e+01    0.4641946    0.2256853  18.93  0.002560613    2.045    0.511
       344 -11.2623     11.5964    209.3245   1.0461109543e+02   2.8667013173e+01    0.4752124    0.1858077  72.19   0.00233714    2.563    0.610
       345 -12.2449      5.6612    208.9171   1.0598817432e+02   2.9217234961e+01     0.481637    0.2775356 -77.56  0.002960387    1.924    0.480
       346 -10.8231      1.4894    211.0007   1.0699877025e+02   2.9124355617e+01      0.26905    0.1306123  88.70  0.001013078    2.102    0.524
       347 -10.9961      1.6518    206.4884   1.0686792500e+02   3.0002632552e+01     0.255746    0.1603323 -72.46   0.00114101    1.843    0.458
       348 -11.0705     29.2340    215.5515   1.0070634292e+02   2.5914877472e+01    0.2330955     0.182666  42.16  0.001054823    1.038    0.036
       349  -9.6812    136.6203    215.7081   7.5869961608e+01   1.3235668721e+01    0.1281667   0.08277581   3.62 0.0007019269    1.745    0.427
       350  -9.1734     67.2691    215.3282   9.1687813163e+01   2.2017476998e+01    0.1114031   0.09026784 -13.96 0.0003186323    1.579    0.367
       351 -10.3198    169.6084    212.7942   6.8674792478e+01   9.3432593071e+00    0.1421695    0.1135282 -43.92 0.0006807079    1.659    0.397
       352 -10.4528    108.9946    211.9405   8.1555841725e+01   1.7496930990e+01    0.4374416     0.103583  37.42  0.001407632    3.160    0.684
       353 -11.2822    237.0865    209.3164   5.6350706607e+01   1.6794508654e+00    0.1837305    0.1116028 -12.33 0.0006879829    1.345    0.257
       354  -9.7598    184.7870    208.4191   6.5111152803e+01   7.9917120629e+00    0.1690138   0.09171383  20.07 0.0009417679    1.664    0.399
       355 -10.0118    247.2610    204.8223   5.4130457554e+01   1.0793067231e+00    0.2790662    0.1046326 -41.50  0.001315036    4.132    0.758
       356 -10.8932     19.8678    200.7858   1.0232014190e+02   2.9699483129e+01    0.4633174    0.1655522 -68.78  0.002156782    3.013    0.668
       357 -10.8285    175.3060    202.3016   6.5994334775e+01   1.0089305870e+01    0.2116504    0.1710487  18.69 0.0004342792    1.121    0.108
       358  -9.0952     53.2616    202.3213   9.4093916158e+01   2.6118525044e+01      0.11211   0.09346459 -23.24 0.0002683998    1.552    0.356
       359  -9.5658    238.5447    200.5264   5.4753569000e+01   2.4951260638e+00    0.1095893   0.07835831  -2.57 0.0002660543    1.012    0.012
       360  -9.9579    215.4921    194.1421   5.7395034063e+01   5.9691805318e+00    0.1613384   0.09691904 -26.99 0.0009237643    1.528    0.345
       361 -11.6167     15.7940    192.9813   1.0302531868e+02   3.1673348066e+01    0.3684743    0.2322668  23.69  0.001424357    1.503    0.335
       362  -9.9165    186.6853    192.6909   6.2281128120e+01   9.9258053788e+00    0.1258406   0.08016366   0.87 0.0002829127    1.630    0.387
       363  -9.1128     38.6806    190.6908   9.7004949323e+01   3.0071629875e+01    0.1180644   0.09486666 -24.41 0.0007033829    1.641    0.391
       364 -10.0514    163.4938    189.0120   6.6274803282e+01   1.3746118572e+01    0.1786896    0.1209952 -37.18   0.00103141    1.585    0.369
       365 -10.0939    244.6667    188.0822   5.1824592264e+01   3.2132008655e+00    0.1555945    0.1072456 -11.36 0.0004890063    1.105    0.095
       366  -9.8155     61.9810    184.7082   9.0337853549e+01   2.8807989961e+01    0.1912628    0.1562537  40.79  0.001155916    1.038    0.037
       367 -12.0244     16.0088    181.6918   1.0250465649e+02   3.4101094454e+01    0.4543586     0.224259  45.50  0.002051873    1.622    0.384
       368  -9.8340    167.7436    182.9830   6.4400331564e+01   1.4080879793e+01    0.1563356     0.105348 -35.68 0.0008861124    1.553    0.356
       369  -9.7395    142.7076    183.6732   6.9914719356e+01   1.7714539873e+01    0.1333164   0.09417039  -3.56 0.0003094833    1.621    0.383
       370  -9.5834    244.3111    178.0683   5.0195503523e+01   4.4108949604e+00    0.1877307   0.07007643 -17.92 0.0007026162    4.487    0.777
