#   1 NUMBER                 Running object number                                     
#   2 MAG_AUTO               Kron-like elliptical aperture magnitude                    [mag]
#   3 X_IMAGE                Object position along x                                    [pixel]
#   4 Y_IMAGE                Object position along y                                    [pixel]
#   5 X_WORLD                Barycenter position along world x axis                     [deg]
#   6 Y_WORLD                Barycenter position along world y axis                     [deg]
#   7 A_WORLD                Profile RMS along major axis (world units)                 [deg]
#   8 B_WORLD                Profile RMS along minor axis (world units)                 [deg]
#   9 THETA_WORLD            Position angle (CCW/world-x)                               [deg]
#  10 FWHM_WORLD             FWHM assuming a gaussian core                              [deg]
#  11 ELONGATION             A_IMAGE/B_IMAGE                                           
#  12 ELLIPTICITY            1 - B_IMAGE/A_IMAGE                                       
         1 -13.9791    117.0488     63.7487   4.3527484132e+01   4.6669350191e+01     1.417903     1.240304  65.74  0.007495618    1.333    0.250
         2 -11.9232     40.3237     24.5203   5.5929457600e+01   6.6374861283e+01     1.084875    0.6600039 -17.41  0.006231944    1.551    0.355
         3  -8.5629     30.2602     20.3048   5.8748566661e+01   6.8167013518e+01    0.9522521    0.3502434 -40.52  0.004581925    2.350    0.574
         4 -13.6349     94.3479     64.7303   5.0735656072e+01   5.1138439752e+01     1.436272     1.187896 -62.54  0.003659672    1.553    0.356
         5 -11.1184     76.4063     11.6023   3.5954470276e+01   6.2423482786e+01    0.5464867    0.3929445  -6.17  0.001773526    1.333    0.250
         6 -12.0149     70.4594      3.5388   3.4272758780e+01   6.4346396691e+01    0.8476328     0.369236  58.46  0.003594643    3.193    0.687
         7 -13.3200     62.1869      7.5999   3.9121223779e+01   6.5400644215e+01     1.602023    0.9387571 -43.99  0.008235642    2.592    0.614
         8 -13.1211     64.2337     35.7373   5.0677672573e+01   6.1324782919e+01    0.9929774    0.6866531  13.60   0.00178573    1.445    0.308
         9 -12.2660     53.3148     33.1418   5.3963152350e+01   6.3339367735e+01     1.395002    0.7452996   9.42  0.006243726    2.664    0.625
        10 -12.4156     58.5509     25.0675   4.8460250398e+01   6.3798207497e+01    0.5599954    0.3969112  17.07  0.001291801    1.299    0.230
        11 -12.6163     52.1182     19.5133   4.8631418277e+01   6.5531701067e+01    0.9769108    0.4695286  30.51   0.00494108    2.040    0.510
        12 -13.0491     72.6081     24.7862   4.3019997587e+01   6.1530388167e+01    0.4616255    0.3351053  32.70 0.0006026529    1.280    0.219
        13 -12.0347     79.5936     21.8890   3.9361077642e+01   6.0635492395e+01    0.6435573    0.3956751  51.03  0.002149803    1.775    0.437
        14 -13.4796     78.9229     41.7309   4.7644384003e+01   5.7942290420e+01      1.33107    0.6347643  35.41  0.004724484    2.107    0.525
        15 -14.0849     10.8181     68.7270   8.2412367975e+01   6.0476856925e+01     2.152448    0.9723419 -36.19   0.01112705    2.106    0.525
        16  99.0000     18.3039     22.7637   6.5572031369e+01   6.8897622476e+01    0.7947775    0.5303745  42.08   0.00486262    2.391    0.582
        17 -14.1750     13.3718     35.5222   7.2558852334e+01   6.7014816790e+01     1.365377     1.049007 -56.56   0.00942603    1.423    0.297
        18  -8.1980    193.6558     17.8247   1.3968727733e+01   3.4072961759e+01    0.8012818     0.410207  34.63  0.003201758    3.079    0.675
        19 -13.1213    200.2772     45.9682   2.0577388726e+01   2.8910201406e+01     1.388639    0.8860377   0.01  0.005813202    2.646    0.622
        20 -12.1770    197.5127     29.7288   1.6637200259e+01   3.1725141492e+01     1.547875    0.9692111  84.70   0.00745231    1.688    0.408
        21 -12.4606    173.3487     44.5644   2.4511100350e+01   3.5940254791e+01      1.10493    0.6765748  55.09  0.004583628    1.524    0.344
        22 -13.4800      5.2001     54.6178   8.1451973082e+01   6.3740260274e+01     0.938826    0.5532757 -44.39  0.002624381    1.294    0.227
        23 -12.9741    234.8340     61.0426   1.9655767272e+01   1.8462677459e+01     1.291476      1.07546 -30.95  0.007426282    1.246    0.198
        24 -12.5776    219.8837     29.8366   1.3939084961e+01   2.6225203099e+01     1.046203    0.4988952  85.15   0.00315971    2.601    0.616
        25 -12.2240    223.4790     12.9210   9.5492613003e+00   2.7354858696e+01    0.5420843    0.3818256  79.59   0.00244708    1.289    0.224
        26 -10.7385    220.9647      7.6930   8.5682413314e+00   2.8509399643e+01    0.2093171    0.1622825 -53.49 0.0005302253    1.221    0.181
        27 -10.6850    246.6068     22.9447   9.6986282274e+00   2.0933515305e+01    0.3261429    0.2229799 -44.83 0.0009120251    1.326    0.246
        28 -11.7588    241.5125     22.9932   1.0164532651e+01   2.2055689376e+01    0.5764334    0.3252485  53.77  0.002365168    2.027    0.507
        29 -12.9510    226.6266     22.3240   1.1433515782e+01   2.5541526395e+01    0.7980096    0.6211515  83.23  0.001383735    1.183    0.155
        30 -12.6526    222.6480     39.3507   1.5934030694e+01   2.4344816163e+01     1.111592    0.7349793 -81.86  0.005630592    1.644    0.392
        31 -10.2144    138.8369     18.2780   2.2600845375e+01   4.7878289019e+01    0.4412705    0.2623855   3.05  0.001975243    2.327    0.570
        32 -11.3459    201.4581     20.3257   1.3682825206e+01   3.1849642724e+01    0.2704966    0.2590199  87.17 0.0005410177    1.123    0.109
        33 -10.5738      2.9783     16.1560   7.0799046556e+01   7.1086652590e+01    0.3033648    0.1474217 -59.54  0.001598521    2.609    0.617
        34 -13.9901    245.6172      9.8720   6.9826570970e+00   2.2665423243e+01     1.399335    0.5782924 -78.17  0.005631923    3.282    0.695
        35 -11.1046    236.1521      2.8234   6.2110785946e+00   2.5526056659e+01     0.153871    0.1349499  69.02 0.0002700996    1.289    0.225
        36 -10.1406    152.3548     13.6053   1.8639350683e+01   4.4970790389e+01    0.5966817     0.304947  68.01  0.002684294    1.806    0.446
        37 -10.0874    100.7800      5.4153   2.6239107287e+01   5.8028209142e+01     0.532526    0.2025124  44.53    0.0022906    2.186    0.543
        38 -10.7774    102.9846     15.0398   2.9534545763e+01   5.6630181042e+01    0.2925118    0.1894407  26.15 0.0007702148    1.535    0.349
        39 -12.4119    101.9095     10.5827   2.8034618506e+01   5.7308244934e+01    0.2503831    0.2329007  20.13 0.0004284355    1.134    0.118
        40  -9.8013    171.7226     15.2503   1.6157201162e+01   3.9893820726e+01    0.2462138    0.1511621  73.03 0.0006910381    1.510    0.338
        41 -10.5034     88.7696     11.5504   3.2062149031e+01   6.0000109254e+01    0.2367353    0.2152924 -52.36 0.0007280809    1.498    0.332
        42 -11.1188     84.5126      6.9414   3.1343900226e+01   6.1314884387e+01    0.3244488    0.1956169 -21.89  0.001266435    1.725    0.420
        43 -11.1577     84.4962      2.4998   2.9405484615e+01   6.1721738971e+01    0.2679887     0.185762  21.51  0.001057546    1.307    0.235
        44 -11.0765     88.0671      1.1875   2.7821878543e+01   6.1101555542e+01    0.2174118    0.1056068  52.34 0.0004921795    1.773    0.436
        45 -10.1504     92.7924     13.3227   3.1636987161e+01   5.8988508205e+01    0.3762249     0.197345  12.85 0.0008618999    2.622    0.619
        46 -11.4083    145.5528      8.3524   1.8087760700e+01   4.7170894523e+01    0.5106865    0.3917197  23.37  0.002083564    1.450    0.310
        47 -11.0234    131.1882     11.2843   2.1689919098e+01   5.0442549677e+01    0.3633089    0.2337305  71.73  0.001177804    1.599    0.375
        48 -10.2103    123.1410     12.1043   2.3630513183e+01   5.2300110708e+01    0.2372574    0.1855175  16.59 0.0005102803    1.339    0.253
        49  -9.4887    124.5361      8.5001   2.2034609963e+01   5.2299645462e+01    0.1666509    0.1266349 -33.27 7.856357e-05    1.504    0.335
        50 -11.9334    116.1443      9.7422   2.4285885845e+01   5.4166039060e+01    0.4075815    0.2906228  -4.08 0.0005968885    1.553    0.356
        51 -11.6594    173.6117      5.1123   1.2991369826e+01   4.0400742580e+01    0.4906441    0.2329146 -18.24   0.00216764    2.645    0.622
        52 -10.0386     45.0405     10.4591   4.7436240065e+01   6.7730013800e+01     0.167833    0.1272725  -8.54   0.00111374    1.090    0.083
        53 -10.5341     27.5719      9.4603   5.5099720586e+01   7.0045222451e+01    0.2033629     0.149978   6.81  0.001416023    1.188    0.158
        54 -12.2877    193.8116      7.8465   1.1329492830e+01   3.5076419373e+01     0.385567    0.2736401  64.83  0.002095193    1.279    0.218
        55 -10.2470     48.7156      7.6055   4.4474402702e+01   6.7546706567e+01    0.3113543    0.1611237 -36.27  0.001223366    2.129    0.530
        56 -10.2461    156.9617      8.0141   1.6161792132e+01   4.4338995266e+01    0.2066507     0.171233  55.44 0.0004159964    1.095    0.087
        57 -10.0656    150.6587      6.7492   1.6741188885e+01   4.6037822811e+01    0.2094967    0.1658612 -41.71 0.0006761635    1.422    0.297
        58 -10.8307      3.2264      6.2412   6.6526794299e+01   7.2665281087e+01    0.2934176    0.1682082  -4.59  0.001670889    1.637    0.389
        59 -10.1553    210.9035      5.7911   9.0538245971e+00   3.1100710820e+01    0.2602943    0.1904172  59.44  0.001523221    1.385    0.278
        60 -10.5038    110.0355      4.1556   2.3531790171e+01   5.6063161935e+01    0.4407495    0.1891194  58.38  0.001903953    2.001    0.500
        61 -10.3028    183.4563      3.0993   1.1243431214e+01   3.8112564387e+01    0.3745858    0.2474862 -77.87  0.001983673    1.570    0.363
        62 -10.8961    218.6937      2.0426   7.4623050715e+00   2.9624346120e+01    0.2318103    0.1905706  47.14  0.001456022    1.478    0.323
        63 -10.3949    135.9812      4.1116   1.8325167755e+01   4.9906313820e+01    0.2068451     0.161865 -57.57  0.000781815    1.533    0.348
        64  -9.3046     93.7929      2.3670   2.6778805709e+01   5.9799742141e+01    0.1136992   0.09316356 -41.21 0.0001352948    1.565    0.361
        65 -11.6117     50.2760      1.3468   4.0716905375e+01   6.8002931419e+01    0.2089512     0.135231  40.01 0.0004705179    1.546    0.353
        66 -10.8882     46.6850      1.6666   4.2373428153e+01   6.8517755517e+01    0.2067302    0.1327196  25.18 0.0006887075    1.334    0.250
        67  -9.1714    155.7220      1.3044   1.4283597604e+01   4.5236028059e+01    0.1299712   0.09499086 -68.84  0.000696375    1.548    0.354
        68 -11.1149     11.8424     97.3777   8.7255523908e+01   5.4047623354e+01    0.2434821    0.1572339 -54.31  0.001053668    1.260    0.206
        69  -9.6667    228.4894     97.4198   2.9352863903e+01   1.4111214000e+01    0.1425354    0.1350537 -33.97 0.0001071141    1.028    0.028
        70 -11.3126     73.2291     96.3588   6.7073368930e+01   4.8032531873e+01    0.2747154    0.2518916 -20.01 0.0008364046    1.099    0.090
        71 -11.5082    232.9946     94.7964   2.8011953036e+01   1.3558582617e+01    0.2624496     0.191623 -34.68   0.00036125    1.279    0.218
        72 -14.8138     56.0228     88.8724   7.0897591920e+01   5.2032691115e+01      1.88341    0.9669949  44.18  0.006859495    2.397    0.583
        73 -14.2944     66.7049     82.6511   6.5601004142e+01   5.2023871074e+01     1.528321     1.032853 -56.66  0.006553331    1.489    0.328
        74 -11.9599     10.8616     81.4538   8.4897677309e+01   5.7692955806e+01    0.4227983    0.2294142 -71.12  0.001300404    1.648    0.393
        75 -10.4596    138.2635    112.5762   5.2288005861e+01   3.2189915488e+01    0.2261382    0.1498986  33.46 0.0009465422    1.641    0.391
        76 -13.7206     32.9268     67.6359   7.3773835160e+01   5.9109576588e+01     1.374083    0.7876016 -71.47  0.006509786    2.296    0.565
        77 -11.0035     96.8827    110.5953   6.3341660285e+01   4.0932168104e+01    0.4160911     0.177449 -35.71  0.001319555    3.363    0.703
        78  -9.5815     40.9870     42.7879   6.2813568731e+01   6.3227851172e+01    0.7552416    0.6480892  63.92  0.004732367    1.911    0.477
        79 -12.6082     24.6043     43.2788   7.0040445940e+01   6.4721112065e+01    0.7593069    0.5470596 -37.78  0.002383063    1.099    0.090
        80 -12.1962     26.2109     35.9437   6.6818890083e+01   6.5938949574e+01    0.3160834    0.2206223 -20.83 0.0006372798    1.228    0.186
        81 -13.2153     38.8146     56.3123   6.8224701108e+01   6.0881749243e+01    0.7685609    0.6285561 -17.59  0.004075508    1.127    0.113
        82 -10.6052    195.7169    107.2049   3.7667362650e+01   1.9887676445e+01    0.3607557    0.2673732 -48.46   0.00169067    1.385    0.278
        83 -13.2771     55.0022     71.7458   6.6650035769e+01   5.5899822971e+01     0.558992    0.2960753 -44.21 0.0005211074    1.641    0.391
        84 -12.7706     48.6162     53.4693   6.3390899599e+01   6.0357035851e+01     0.629455    0.3638178 -29.74  0.002424723    1.663    0.399
        85 -11.2125    189.7464     94.9654   3.5639177420e+01   2.3577785801e+01    0.3059341    0.2245469 -39.74 0.0005995727    1.342    0.255
        86 -10.9594    192.5330     92.4326   3.4417379590e+01   2.3362970233e+01    0.2522005    0.2250148   7.86 0.0005248519    1.248    0.198
        87 -10.1703     89.2104     93.8860   6.1306182022e+01   4.6056661990e+01    0.2076805    0.1915648 -54.68 0.0002421956    1.116    0.104
        88 -11.2972    211.4618     93.0213   3.1099010943e+01   1.8742631463e+01    0.2920781    0.2032027  38.28  0.001042905    1.622    0.383
        89 -11.4169     96.4511     90.5089   5.8091946697e+01   4.5519905559e+01    0.5015172    0.4111516  75.50  0.002504326    1.624    0.384
        90  -9.9794     79.4044     91.1690   6.3701081874e+01   4.8266234195e+01    0.2691221    0.1880988 -25.20 0.0006755209    1.614    0.380
        91 -10.1267    167.8039     90.0752   3.8895663381e+01   2.9842402071e+01    0.3253174    0.2258232  68.27  0.001030355    1.719    0.418
        92 -11.3973    181.1222     83.3833   3.4203621055e+01   2.7783429433e+01    0.3985941     0.325493 -46.85  0.001962966    1.239    0.193
        93  -9.8816    172.6510     91.2904   3.8175461480e+01   2.8427752733e+01    0.3025194    0.1998058  73.78  0.001020396    2.054    0.513
        94 -11.5568    174.7987     86.1332   3.6273898688e+01   2.8852871479e+01    0.8470864    0.4886759  18.50  0.002638057    3.764    0.734
        95 -10.3621     86.5508     89.9899   6.1067812563e+01   4.7366472130e+01    0.3395072    0.2150497  39.93 0.0009172666    1.673    0.402
        96 -12.1138    160.8935     84.7799   3.8933963674e+01   3.2526341004e+01     1.137263    0.4504044  44.38  0.003790434    2.611    0.617
        97 -13.0394    193.0479     85.3482   3.2420541279e+01   2.4497131433e+01     1.037652     0.576775  72.97   0.00379466    2.647    0.622
        98 -13.5905    191.5877     70.8052   2.8733706994e+01   2.7325957309e+01     1.186728     0.625854 -34.54  0.002301048    1.906    0.475
        99 -11.6867    182.3378     61.3454   2.7760314600e+01   3.1169160689e+01      0.45729    0.3157782 -46.77  0.001267329    1.490    0.329
       100 -14.0163    190.1505     57.9222   2.5428162440e+01   2.9720141759e+01     1.766825     1.166627 -62.65  0.007951262    1.798    0.444
       101 -11.1020    168.9064     33.5170   2.1996106012e+01   3.8533900655e+01    0.4187803    0.3102984 -84.95  0.001421882    1.538    0.350
       102 -10.8952    161.7172    107.0531   4.4984171933e+01   2.7979388783e+01    0.2346408     0.210352 -34.35  0.001165616    1.120    0.107
       103 -12.0853    209.6567     46.5611   1.9403669392e+01   2.6504986031e+01    0.7428292    0.4262296 -74.80  0.003086837    2.384    0.581
       104 -10.5840     28.2242    107.1901   8.3756720292e+01   5.0600413065e+01    0.1668438    0.1349289  87.39 0.0003201046    1.306    0.234
       105 -10.7245     15.0928    105.8990   8.7545802976e+01   5.1882404433e+01    0.2112817    0.1435855 -68.53 0.0003845124    1.181    0.153
       106 -11.4821    162.4170     29.6042   2.1922939610e+01   4.0672183329e+01    0.4110998    0.2999019 -60.62  0.001273088    1.580    0.367
       107 -12.7683    189.0055     34.1604   1.9019148420e+01   3.3319801201e+01     1.025142    0.4995797  69.96 0.0008940366    2.042    0.510
       108 -12.4054    161.8678     38.3632   2.4716719694e+01   3.9712758110e+01    0.7684728    0.6077585  89.63   0.00367954    1.408    0.290
       109 -10.1752    210.0515    105.2063   3.4432750582e+01   1.6920100769e+01    0.4281206    0.2077856  59.70  0.001606717    2.455    0.593
       110 -12.0891    174.0819     39.7340   2.2961647354e+01   3.6407383165e+01    0.5513096    0.3966586  37.31  0.000291663    1.540    0.351
       111  -9.6874    183.8632    105.3405   3.9598341707e+01   2.3048485981e+01    0.2415663     0.196121  76.62   0.00112831    1.468    0.319
       112 -12.5293    222.9820     79.2501   2.5751975796e+01   1.8365679065e+01    0.8704056    0.5375702 -73.60  0.003616612    2.398    0.583
       113 -11.7558    237.7594     86.2738   2.5265229970e+01   1.3908990241e+01    0.3379681    0.2783123  89.13 0.0006868995    1.379    0.275
       114 -10.2377    233.5219     85.0237   2.5584061318e+01   1.5042567338e+01    0.2610583    0.1912355 -20.21 0.0007657861    1.533    0.348
       115 -12.8713    214.7166     76.4687   2.6337068661e+01   2.0754817019e+01    0.9040753    0.4102302  41.54  0.003280736    2.890    0.654
       116 -11.5116     38.2323     86.5925   7.6467339762e+01   5.4467785948e+01    0.2566555    0.2189049 -83.12 0.0007839332    1.337    0.252
       117 -11.5937      6.7623     86.6810   8.7186266868e+01   5.6755612594e+01    0.2400419    0.1757568  39.55  0.001580982    1.715    0.417
       118  -9.6836    247.4541     86.0960   2.3864529019e+01   1.1861354610e+01    0.2182555    0.1237549 -35.68 0.0008892898    1.593    0.372
       119 -12.5392     28.0712     81.6474   7.8922079353e+01   5.6467053212e+01    0.4654602    0.4200885  28.76   0.00317929    1.339    0.253
       120 -11.9473    213.5975     83.5613   2.8326883941e+01   1.9851363176e+01    0.3883043    0.2529152  41.32  0.001044373    1.739    0.425
       121 -11.8380    250.3902     81.6889   2.2460632869e+01   1.1934135340e+01    0.3588334    0.2516379 -53.59 0.0002117364    1.380    0.275
       122 -11.5455    250.1898     75.1260   2.0987733456e+01   1.2983260764e+01    0.7074741    0.2422302 -31.80  0.002571137    2.967    0.663
       123 -12.1782    168.8074     80.2088   3.5862629463e+01   3.1408077647e+01    0.4213478    0.4121654  81.85  0.001223984    1.039    0.037
       124 -11.7452    166.0052     76.7752   3.5469959414e+01   3.2715670841e+01       0.5298    0.2660406  46.30   0.00115505    1.985    0.496
       125 -13.0428     58.0022     59.9447   6.1895222163e+01   5.7920043166e+01    0.8965239    0.6151299 -70.46   0.00303489    2.409    0.585
       126  -9.7939    241.3852     81.3476   2.3590244503e+01   1.3904118116e+01    0.1928299    0.1169787 -43.85 0.0006929244    1.495    0.331
       127 -13.2145    200.1816     79.1482   2.9462501690e+01   2.3816942719e+01    0.8348931    0.5328756 -30.77  0.003744034    1.620    0.383
       128 -10.9560    232.5966     78.7131   2.4198281559e+01   1.6259501163e+01    0.3589593      0.24023 -89.95 0.0009345943    1.990    0.497
       129 -13.6932     44.3592     72.1996   7.0697005159e+01   5.7023652236e+01     1.365029      0.83945 -23.72  0.006950359    1.820    0.450
       130 -10.8374    155.2229     76.7533   3.7871039087e+01   3.5388129597e+01    0.3438065    0.2696147  42.37  0.000789325    1.264    0.209
       131 -10.8887    215.5499     42.7221   1.7644751300e+01   2.5595619432e+01    0.3239684    0.2513633 -30.17  0.001316971    1.380    0.275
       132 -13.6875    221.5571     70.4587   2.3775265609e+01   2.0097109606e+01     1.335951    0.8402743  82.59  0.005978196    2.038    0.509
       133 -12.3982    224.0830     61.3706   2.1158408081e+01   2.0895383792e+01    0.5631447    0.4248748  89.18  0.002095515    1.436    0.304
       134 -11.5059    156.2835    105.4361   4.5838632086e+01   2.9586437423e+01    0.3092699    0.1515043  43.78  0.001129605    2.055    0.513
       135  -9.9112    134.6999    105.0337   5.1189785928e+01   3.4601756055e+01    0.2217886    0.1989382 -39.02 0.0003408062    1.111    0.100
       136 -13.9962    202.9709     63.9220   2.4945304080e+01   2.5597000662e+01     1.305646    0.7066725 -35.42  0.003671453    1.821    0.451
       137 -11.9474    209.6958     58.6081   2.2513126497e+01   2.4756119312e+01    0.2977011     0.243388 -47.84 0.0003261398    1.182    0.154
       138 -11.2045    230.0444     49.7830   1.7563606259e+01   2.1183860114e+01    0.4003626    0.2270041 -39.99 0.0009083329    1.632    0.387
       139 -10.4501    102.9336    104.8089   6.0061158927e+01   4.1157285309e+01    0.2225982      0.19589 -10.81 0.0002402513    1.228    0.186
       140 -10.9317    144.8964    102.8351   4.7938150005e+01   3.2767262156e+01    0.4311954    0.3275823  25.15  0.001948694    1.500    0.333
       141 -12.0335     69.5939    102.6390   6.9785781721e+01   4.7105731228e+01     0.346197    0.2217046 -48.98 0.0008944899    1.408    0.290
       142 -10.9439    235.7607    102.2898   2.9369668554e+01   1.1712425087e+01    0.4106322     0.228124  49.30  0.001613793    1.940    0.485
       143 -10.7554    105.6533     74.7022   5.0462752075e+01   4.7024068052e+01    0.4004719    0.3237762  16.49  0.001445198    1.312    0.238
       144 -12.2358    165.7544     65.7556   3.2272206624e+01   3.4660023091e+01    0.9118779    0.5828584  62.67  0.002283809    1.621    0.383
       145 -10.7354    178.5392     73.5131   3.1942188101e+01   3.0143291045e+01    0.2902936    0.2703907  31.62 0.0007335168    1.120    0.107
       146 -10.9698    176.9802     70.7463   3.1459782077e+01   3.1001279881e+01     0.307751    0.2840654 -86.22 0.0007245882    1.127    0.113
       147  -9.9299    243.1246     73.1562   2.1439743052e+01   1.4797478640e+01    0.1973256    0.1877211   2.91 0.0005787577    1.227    0.185
       148 -10.2982    151.1061     72.9122   3.7668662194e+01   3.7083677254e+01    0.2575641    0.2128869 -36.53  0.000468501    1.236    0.191
       149 -12.1360    136.1253     54.9132   3.5547463842e+01   4.3748090375e+01     1.166432    0.7803594 -56.43  0.004201079    1.936    0.483
       150 -10.7269    145.7614     52.7962   3.2591131929e+01   4.1725260075e+01    0.7306094    0.4203334  41.36   0.00242904    1.766    0.434
       151 -12.1919    143.5710     69.2327   3.8331284653e+01   3.9565019810e+01     1.113462    0.7849854 -19.55  0.004201932    1.638    0.389
       152 -11.3982    147.9072     63.2796   3.5434894360e+01   3.9523158430e+01    0.4900357    0.4487932  47.95  0.001444481    1.054    0.051
       153 -12.1267    154.8805     63.5507   3.3937729845e+01   3.7750886646e+01    0.8001086     0.432469 -29.04  0.003214399    2.030    0.507
       154 -11.3871    151.6434     58.9528   3.3227973317e+01   3.9303350798e+01    0.3142765    0.2456411 -57.77  0.001522525    1.476    0.323
       155 -10.6012    230.6483    102.4749   3.0226019266e+01   1.2783548778e+01    0.2396434    0.2196872 -37.78 0.0001781828    1.013    0.012
       156 -10.4854    183.5714     69.2519   2.9769556663e+01   2.9589725628e+01    0.2635105    0.2269337 -71.50   0.00072283    1.246    0.198
       157 -13.1390    217.9480     57.0692   2.0933531149e+01   2.2988740103e+01     1.371217     0.804334  29.93  0.005487191    2.883    0.653
       158 -11.9440    127.0577     59.0062   3.9207193707e+01   4.5225305978e+01    0.5361016    0.3097379  31.75  0.002192306    2.025    0.506
       159 -12.2314     52.5057     43.5297   5.8325763567e+01   6.1702544756e+01     0.508323    0.3495144   6.67  0.001322634    1.516    0.341
       160  -9.9407    248.6803     60.6803   1.7882031013e+01   1.5452605396e+01    0.1775188    0.1250342  81.93 0.0009082886    1.563    0.360
       161 -11.1844    247.8968     56.4636   1.7015666203e+01   1.6228491935e+01    0.3623624    0.2938033 -87.04  0.001704031    1.249    0.199
       162 -10.4541    162.2415     59.2763   3.1052673232e+01   3.6591781649e+01    0.2932764    0.2494066  70.11  0.001019729    1.203    0.169
       163 -11.3022    161.8480     54.6753   2.9732197395e+01   3.7404666835e+01     0.500353    0.3781075 -88.00   0.00167292    1.642    0.391
       164 -10.7168    101.2499     54.3844   4.4979025777e+01   5.1628952367e+01    0.5622413    0.4415442  29.19  0.002712451    1.232    0.188
       165 -10.9546    173.2403     54.2507   2.7385181721e+01   3.4570525422e+01     0.433408    0.3633142  -0.86  0.001817327    1.409    0.290
       166 -12.5455    235.2188     47.1957   1.6334132706e+01   2.0353657480e+01    0.7405995    0.3034085 -57.97  0.001410627    3.278    0.695
       167 -11.0945     90.5782     51.0358   4.7172427778e+01   5.4288870041e+01    0.2357049    0.1894869  30.96 0.0002595587    1.205    0.170
       168  -9.1989    245.2469     50.2946   1.5913177330e+01   1.7676877473e+01    0.1163554    0.1035077   8.33 0.0002308666    1.481    0.325
       169  -9.5657    162.3299     48.5073   2.7748053053e+01   3.8196916716e+01    0.6048156    0.3070578  45.32  0.002444221    1.985    0.496
       170 -11.9209    134.5366     71.3149   4.1251467255e+01   4.1345193478e+01    0.7764127    0.6331591 -70.79  0.002657035    1.558    0.358
       171 -10.8216     98.7514     47.6051   4.3310150551e+01   5.3249213054e+01    0.4748284    0.2924989  34.68  0.001615947    1.602    0.376
       172 -11.3282    150.2117     43.3244   2.8573250013e+01   4.1996562884e+01    0.7962691    0.3335083 -40.59  0.002998188    2.547    0.607
       173 -10.4499    148.2216     38.3055   2.7365145335e+01   4.3176029161e+01    0.4648485    0.1948342  49.83  0.001621451    2.158    0.537
       174  -9.8818    142.8361     46.1370   3.1083249644e+01   4.3436324278e+01    0.4646648    0.2137946  35.63  0.001252658    2.854    0.650
       175 -11.3902    126.7982     45.4337   3.4660341362e+01   4.7410632513e+01    0.4858785    0.3847449  80.70  0.001801849    1.623    0.384
       176 -10.2743    134.4317     44.6621   3.2529303708e+01   4.5701926812e+01     0.647149    0.2889453  33.73  0.002007684    3.197    0.687
       177 -10.9253    132.3475     40.2798   3.1529360139e+01   4.6819871582e+01    0.6736621    0.2808433  43.95  0.002307603    2.333    0.571
       178  -9.7811    120.5193     44.0161   3.5780809606e+01   4.9077383601e+01     0.297543    0.1913265 -83.21  0.001059279    3.635    0.725
       179 -10.4566    105.7040     43.3499   3.9651340306e+01   5.2460965996e+01     0.228785    0.2072961 -16.90 0.0002192315    1.127    0.113
       180 -11.1018    247.1131     42.1436   1.3876596564e+01   1.8379765640e+01    0.4507289    0.2440681 -89.72  0.002085067    2.298    0.565
       181 -10.2143    156.0517     42.5130   2.7125563416e+01   4.0635176830e+01    0.2964819     0.197119 -50.03  0.001374329    1.709    0.415
       182 -10.6927    240.5964     40.7506   1.4244584177e+01   2.0010429680e+01    0.3664565    0.2752166  50.56  0.001388154    1.558    0.358
       183 -11.1842    233.9629     37.1183   1.4119015075e+01   2.1995175912e+01    0.5082592    0.2423431 -65.54  0.001580813    2.739    0.635
       184 -10.1168    100.5152     40.7871   4.0240863640e+01   5.3933960655e+01    0.2686476    0.1884067  42.83  0.001382788    1.357    0.263
       185  -9.8699    249.9428     38.6354   1.2813952582e+01   1.8227880455e+01    0.1810959    0.1467066 -87.08 0.0008914655    1.179    0.152
       186 -10.0660    125.1145     37.0066   3.2132343279e+01   4.8987497855e+01     0.235976    0.1806937  23.52   0.00121618    1.353    0.261
       187 -11.2609    111.1174     34.9721   3.5020173818e+01   5.2469723048e+01    0.4736435    0.2768811  20.98 0.0009292685    2.209    0.547
       188 -11.6058     92.3947     33.1670   3.9811762403e+01   5.6677374853e+01    0.4126922     0.294286  10.40  0.001815179    1.472    0.321
       189 -10.0126    152.3073     33.9183   2.5132845989e+01   4.2712562684e+01    0.2359345    0.1874265 -83.70 0.0006463497    1.474    0.322
       190 -10.6525    131.7897     33.6410   2.9368786610e+01   4.7832442854e+01    0.3157369    0.2123189 -53.95 0.0003980936    1.915    0.478
       191 -10.6164     74.8285     33.5475   4.5862440573e+01   5.9912935026e+01    0.2890848     0.203373  46.57 0.0009433289    1.611    0.379
       192  -9.6190    247.4587     33.0351   1.1823062531e+01   1.9494439633e+01    0.1811426    0.1075561 -44.11 0.0003991802    1.489    0.328
       193  -9.8513    122.4149     32.8415   3.1312390787e+01   5.0166198223e+01    0.1931143    0.1379123 -25.85 0.0006871051    1.484    0.326
       194 -11.1109    239.2049     30.5521   1.2071427238e+01   2.1643903942e+01    0.5160502    0.2181188  68.69  0.002309731    2.322    0.569
       195 -10.2575    104.2103     28.7350   3.4569541250e+01   5.4796975931e+01    0.2958049    0.1774095 -36.85  0.001137383    1.834    0.455
       196 -12.4060    149.1623     28.3536   2.3946284021e+01   4.4183930093e+01    0.3916243     0.287223  74.06 0.0003560638    1.411    0.291
       197 -11.4537    150.5177     22.5417   2.1814791463e+01   4.4504895483e+01    0.5218285    0.2651223  43.19 0.0008343309    1.978    0.494
       198 -10.5769    113.8101     27.2745   3.1435644549e+01   5.2844019588e+01    0.4677618    0.3879183  74.88  0.001976136    1.467    0.318
       199 -11.6955     86.1934     28.2772   3.9835397926e+01   5.8558912755e+01    0.3110975    0.2296587  47.67 0.0006101194    1.420    0.296
       200 -11.8963    147.7859     83.6633   4.1702327629e+01   3.5913550707e+01    0.7474595    0.5352895 -52.36  0.002207235    1.549    0.354
       201 -11.9587    138.4863     26.7663   2.5548655713e+01   4.7032063779e+01    0.3738158    0.2670774 -86.85  0.001805446    1.861    0.463
       202 -10.5182    131.8437     25.1678   2.6408423624e+01   4.8842302758e+01    0.3873858    0.2646256 -52.12  0.001906093    1.837    0.456
       203 -11.7544    130.0148     19.6939   2.4882306100e+01   4.9888589248e+01    0.4952583    0.2951577  63.26  0.001640717    1.607    0.378
       204 -10.3164    128.1091     27.7752   2.8155616055e+01   4.9439881025e+01    0.2222854     0.188625 -42.07 0.0006635346    1.339    0.253
       205 -13.0489    190.7731     40.3708   2.0470458123e+01   3.2064753025e+01    0.7049367    0.6517552 -38.59  0.001013475    1.151    0.131
       206  -9.5426    160.3873     24.2247   2.0614750456e+01   4.1815322746e+01    0.2746874    0.1289842 -32.51  0.001164087    2.236    0.553
       207  -9.9882    123.1090     25.9136   2.8648123002e+01   5.0848815965e+01    0.2870569    0.1616009  26.00  0.001228739    2.195    0.544
       208 -10.7959    176.0755     23.4855   1.7908247661e+01   3.7894427335e+01    0.2988061     0.250383 -14.75 0.0008327942    1.394    0.283
       209 -11.3512    179.4141     20.3638   1.6534794556e+01   3.7392378389e+01    0.2485209    0.2065289  64.02 0.0002886833    1.104    0.094
       210  -9.0217     98.2326     21.9047   3.3579949639e+01   5.6904385275e+01    0.3057265    0.2838983  17.21  0.001917665    1.123    0.109
       211 -10.2856    209.3702     21.5936   1.3091102082e+01   2.9757198297e+01    0.2092445    0.1856937 -56.26 0.0004789876    1.130    0.115
       212  -9.7834    213.1938     20.3797   1.2367703457e+01   2.8967649916e+01    0.1999248    0.1424261 -70.30  0.001094113    1.363    0.266
       213 -10.5304    118.8099     21.2143   2.7946744523e+01   5.2389477042e+01     0.253415    0.2187541 -12.15 0.0007559028    1.232    0.188
       214 -12.8399     86.6606     73.4427   5.6095441125e+01   5.0837850155e+01      1.53288     0.898011 -29.64  0.006774188    1.861    0.463
       215  -9.5600    168.5192     21.3049   1.8413677620e+01   4.0066259295e+01    0.1778338    0.1376777   1.97 0.0009362462    1.613    0.380
       216 -10.1132    162.4780     20.0899   1.9001016271e+01   4.1738392376e+01    0.4130783    0.2437033 -84.85  0.001773027    2.293    0.564
       217 -12.0769      5.8123     38.5287   7.6958808124e+01   6.6903874608e+01    0.3433895    0.2715702 -42.45 0.0005432565    1.103    0.094
       218  -9.4656    122.0000     18.3885   2.6170332203e+01   5.1943386254e+01    0.2789781   0.07883494 -24.69 0.0009289561    3.888    0.743
       219  -9.9433    200.2467     15.9660   1.2701924934e+01   3.2634236464e+01    0.2332591    0.1714053  76.26 0.0006139274    1.225    0.183
       220 -10.5955    112.4150     16.8917   2.7864132334e+01   5.4327032779e+01     0.285933    0.1671649  50.19 0.0007947928    1.482    0.325
       221 -12.0665     64.0340     47.1087   5.5133086782e+01   5.9461975241e+01    0.5298671    0.4800359  77.29            0    1.697    0.411
       222 -14.0563    127.8724     91.8944   4.9305859083e+01   3.8870965484e+01     1.521688     1.195683 -11.79 0.0006664019    1.498    0.332
       223 -14.5595    122.2110     83.4035   4.8340408107e+01   4.1833442450e+01     2.694332     1.437237  43.04   0.01086339    1.874    0.466
       224 -10.4056    157.8680     15.3134   1.8274709521e+01   4.3407528830e+01     0.237088    0.1580003  59.48  0.000370354    1.310    0.236
       225 -13.3155    136.6762     81.6650   4.3903851384e+01   3.8916310747e+01    0.7088283    0.5981997 -23.97  0.001406404    1.226    0.184
       226 -11.1837    113.3705    246.6830   8.2069000809e+01   8.9228962265e+00    0.3052054    0.1768622 -41.25  0.001627235    2.640    0.621
       227 -10.7715     36.4851    248.4897   9.6056924343e+01   1.9082408240e+01    0.2071505   0.09157268 -77.33  0.001221327    2.203    0.546
       228 -10.0057     15.9965    238.2922   9.8898322628e+01   2.3155798435e+01    0.1464243    0.1046599  67.79 0.0003997766    1.053    0.051
       229 -11.1223    153.0118    124.1313   5.1550223300e+01   2.6411303217e+01    0.2439642    0.2247612 -41.42 0.0002697611    1.094    0.086
       230 -10.0796    221.8376    122.8336   3.6610896542e+01   1.1150861792e+01    0.4246494    0.2507769 -57.68  0.001716001    2.359    0.576
       231  -9.8241    206.9935    122.6689   3.9339781777e+01   1.4423895394e+01    0.1994334    0.1862504  40.47  0.000224156    1.106    0.096
       232 -13.1266     79.4397     58.9269   5.3749628996e+01   5.4885741538e+01    0.7267681    0.5809306  31.49  0.003649365    1.279    0.218
       233 -10.2667    140.9498    119.9393   5.3510975348e+01   2.9994536250e+01    0.2347198    0.2315802  40.87  0.000338276    1.020    0.020
       234  -9.7548     35.7883     14.4144   5.3494113121e+01   6.8409811523e+01    0.2365457    0.1044103  34.61   0.00121816    2.354    0.575
       235 -10.3870    203.9617    116.1040   3.8306944473e+01   1.6323369141e+01    0.3900012    0.2303572  66.15  0.001524802    2.356    0.575
       236 -10.4394    181.9219    115.4958   4.2660884773e+01   2.1534531445e+01    0.2946635    0.2375412  73.25  0.001091762    1.494    0.331
       237 -11.5719     49.6388     28.6089   5.3621913384e+01   6.4552837879e+01     0.303673    0.2449104  -8.39 0.0009023904    1.008    0.008
       238  -9.6158     90.7025    115.7168   6.6414121973e+01   4.0799807376e+01    0.1452119    0.1135223 -19.37            0    1.545    0.353
       239 -11.3422    133.8538    112.6088   5.3454845878e+01   3.3147378018e+01    0.3958713    0.2756423 -50.91  0.001752537    1.484    0.326
       240  -9.3869    171.3518    113.3168   4.4429025537e+01   2.4445352934e+01    0.1666393    0.1251252  10.77 0.0007047004    1.737    0.424
       241 -10.3265    143.2328    113.0016   5.1118804017e+01   3.0993976284e+01    0.2692733     0.228173  44.89 0.0004996056    1.178    0.151
       242 -12.8341     81.7230     49.1249   4.9455663542e+01   5.6233038398e+01    0.9085147    0.4708275  26.72  0.003871516    2.290    0.563
       243  -9.9200    210.0983    112.0882   3.6143321270e+01   1.5667834270e+01    0.2637465    0.2034253  57.74 0.0008208103    1.403    0.287
       244 -11.2699    109.2458    102.7545   5.7656181655e+01   4.0414346643e+01     0.277901    0.2395574 -38.84 0.0004261742    1.130    0.115
       245 -11.9577     86.5970     99.0009   6.3502514291e+01   4.5348274913e+01    0.4728108    0.3704333  33.30  0.002004046    1.352    0.261
       246  -9.7962    218.7487     99.9184   3.1576576724e+01   1.5866766033e+01    0.2044138    0.1826647 -46.46 0.0003582391    1.082    0.076
       247 -12.2688    106.3197     97.0840   5.6956223518e+01   4.2233934594e+01     0.499871    0.3126047 -27.94 0.0008694878    1.933    0.483
       248 -12.2569    106.9465     92.1826   5.5377896286e+01   4.3174322291e+01    0.5895488    0.2701546  35.48  0.002168716    2.423    0.587
       249 -12.2208    200.0628     96.4944   3.4052600693e+01   2.0822446339e+01    0.7281182    0.5562862  82.50  0.003400577    1.641    0.391
       250 -10.8009    203.9707     96.2557   3.3265530432e+01   1.9937632957e+01    0.4640574    0.2622193  28.57  0.001372057    2.792    0.642
       251 -11.1721    169.7473     97.3810   4.0502041316e+01   2.7976004895e+01    0.4589607    0.4110651  70.60  0.002099998    1.198    0.165
       252 -11.9908    153.7009     96.0454   4.3853202105e+01   3.2091607664e+01    0.5632289    0.4057173  34.41 0.0006463903    1.485    0.327
       253 -10.0078    149.4568     92.5604   4.3893892506e+01   3.3789560607e+01    0.2818955    0.2485571 -82.56  0.000600674    1.327    0.246
       254 -11.4603     96.5193    100.9087   6.0948713836e+01   4.3208475759e+01     0.368177    0.2403687 -25.43  0.001100121    1.922    0.480
       255 -11.4346    141.4840     97.5311   4.7321289904e+01   3.4646844286e+01    0.4795094     0.293146  58.12  0.001926204    1.892    0.471
       256 -11.2123    140.3373     94.6696   4.6799098200e+01   3.5495169843e+01    0.4346676    0.2997805  56.28  0.000880348    1.568    0.362
