#   1 NUMBER                 Running object number                                     
#   2 MAG_AUTO               Kron-like elliptical aperture magnitude                    [mag]
#   3 X_IMAGE                Object position along x                                    [pixel]
#   4 Y_IMAGE                Object position along y                                    [pixel]
#   5 X_WORLD                Barycenter position along world x axis                     [deg]
#   6 Y_WORLD                Barycenter position along world y axis                     [deg]
#   7 A_WORLD                Profile RMS along major axis (world units)                 [deg]
#   8 B_WORLD                Profile RMS along minor axis (world units)                 [deg]
#   9 THETA_WORLD            Position angle (CCW/world-x)                               [deg]
#  10 FWHM_WORLD             FWHM assuming a gaussian core                              [deg]
#  11 ELONGATION             A_IMAGE/B_IMAGE                                           
#  12 ELLIPTICITY            1 - B_IMAGE/A_IMAGE                                       
         1  -8.2423     11.4275     20.1984   8.8887847580e+01   7.0983472591e+01     0.149187    0.1019397 -50.35 0.0009426245    1.722    0.419
         2  -8.5822     55.6280     10.0614   6.2518023659e+01   6.6545842411e+01    0.2014059    0.1662761  54.83 0.0008777098    1.588    0.370
         3  -8.6493     90.9038      8.8407   5.0680406079e+01   5.9748783482e+01    0.2209157    0.1539608 -52.44 0.0009534956    2.002    0.500
         4  -7.8966    101.3317      7.7095   4.7691658625e+01   5.7557979334e+01    0.1212864   0.09693418 -78.79 0.0003631696    1.628    0.386
         5  -8.5957     33.3043      5.0204   6.9719977000e+01   7.0617859291e+01    0.2532695    0.1663077 -44.36  0.001485031    2.354    0.575
         6  -8.4233     79.1186      3.8322   5.1780077982e+01   6.2658174740e+01    0.2438526    0.1574438 -38.28 0.0009059319    1.938    0.484
         7  -7.8422     16.2892      3.6160   7.8015209389e+01   7.2929447726e+01   0.09490634   0.08835278 -27.95 0.0007013773    1.749    0.428
         8  -8.1970    167.3532      1.8554   3.5160537827e+01   4.2492773630e+01    0.1610651    0.1475872  88.33 0.0003957297    1.108    0.097
         9  -7.6487    115.3694      2.1777   4.2755000507e+01   5.4805179562e+01    0.1618653    0.1123899 -37.16 0.0006096734    1.675    0.403
        10  -8.4291     62.4529      1.4586   5.5893835779e+01   6.6137025039e+01    0.1907164    0.1117792  61.85 0.0006010041    2.125    0.529
        11  -7.2560     39.3247      1.6279   6.5093221931e+01   7.0093617685e+01    0.1007644   0.09432575 -51.84 0.0007031427    1.816    0.449
        12 -10.0543    223.9573    244.1920   8.1189640799e+01  -8.4305984195e+00    0.4344695    0.2240882 -44.40  0.002290193    2.490    0.598
        13  -9.5160    246.4885    229.2231   7.4626148517e+01  -9.2577050580e+00     0.507782     0.202413 -30.67  0.002432025    2.323    0.570
        14  -9.1955    248.0277    234.6925   7.5296822976e+01  -1.0180510763e+01     0.308955    0.1948605 -42.19  0.001862822    2.019    0.505
        15  -8.5412    249.5004    249.5186   7.7508352060e+01  -1.2245715731e+01     0.232871    0.1492118   3.04  0.001438758    1.286    0.222
        16  -9.7533    248.6388    242.6434   7.6527348934e+01  -1.1285462388e+01     0.444448    0.1951089 -39.27  0.001634646    2.456    0.593
        17  -7.8265    184.3643    250.2827   8.9722124602e+01  -3.8704080895e+00    0.1289424   0.08290305   7.17 0.0007017003    1.684    0.406
        18  -8.5198     94.0862    249.6759   1.0806316155e+02   9.5278711145e+00    0.2799122    0.1325451  60.82  0.001127192    2.725    0.633
        19  -9.1548    210.8692    246.6088   8.4023498270e+01  -7.0313541626e+00    0.2094661     0.165362 -34.72 0.0008623911    1.502    0.334
        20  -9.0729    147.2367    246.1384   9.6647904200e+01   2.2891120171e+00    0.3250179    0.2211459  66.86  0.001691011    2.257    0.557
        21  -9.0346    120.2716    245.4296   1.0217228918e+02   6.4878855465e+00    0.3571937     0.222402  68.55  0.001739985    2.290    0.563
        22  -8.8046     67.8664    245.4893   1.1297771845e+02   1.3901621586e+01    0.3049215     0.155385  73.91   0.00146494    2.489    0.598
        23  -9.2054      9.4358    244.3545   1.2405312882e+02   2.0845032004e+01    0.2616719   0.09011184 -87.19  0.001255856    2.867    0.651
        24  -9.4843     77.8291    243.2232   1.1074895717e+02   1.3012448341e+01    0.3093893    0.1726695  71.49  0.001482141    2.156    0.536
        25  -8.2411    169.0443    243.3380   9.1760538865e+01  -5.4382721608e-01    0.1786772    0.1420222  31.33 0.0005559537    1.120    0.107
        26  -9.6573    160.2327    240.3830   9.3136242776e+01   1.2796577197e+00    0.3440572    0.2429796 -74.09  0.001343747    2.435    0.589
        27  -8.3858    153.6293    242.3109   9.4787033500e+01   1.9644481887e+00    0.1899189    0.1421485  59.77  0.001049304    1.704    0.413
        28  -8.5220     88.4292    242.1263   1.0845043361e+02   1.1756700881e+01    0.1700767    0.1206686 -72.98 0.0005389066    1.566    0.361
        29  -8.2240    240.5875    240.2597   7.7537532228e+01  -1.0007273049e+01    0.2551823   0.09845819 -33.06  0.001113568    2.444    0.591
        30  -8.8677    242.5817    236.2378   7.6509821518e+01  -9.7195352523e+00    0.2409422    0.1497752  -1.10  0.001270423    1.497    0.332
        31  -8.7086    214.1673    241.6035   8.2593088293e+01  -6.7717557712e+00    0.1726938   0.09701815  21.14 0.0006277753    1.633    0.388
        32  -9.2504    182.8199    240.0630   8.8467750979e+01  -2.0790338855e+00    0.3174873    0.2308661  53.26  0.001113616    1.867    0.464
        33  -8.3390    146.2059    239.9961   9.6010989551e+01   3.5032564062e+00    0.2764335    0.1694758  65.38  0.001239605    2.850    0.649
        34  -8.2318    209.3354    238.5657   8.3014743632e+01  -5.6706389799e+00    0.1976366    0.1083174 -51.90  0.000796868    2.966    0.663
        35  -9.2800    135.3638    238.9376   9.8155044297e+01   5.3652807969e+00    0.2350522    0.1565711  53.26  0.000930838    1.603    0.376
        36  -8.3978    129.0461    238.9758   9.9502117662e+01   6.3314112131e+00    0.2069012     0.144249  62.09 0.0007995866    1.714    0.416
        37  -9.2878    230.8950    236.5947   7.8660704648e+01  -8.2890937195e+00    0.3657635    0.2093076 -35.74  0.001505649    1.766    0.434
        38  -8.5020     25.2384    236.4231   1.2069348585e+02   2.0799468067e+01    0.2479615   0.07793449  89.63   0.00088327    4.669    0.786
        39  -9.9135    214.7092    233.0509   8.1072044449e+01  -5.6082168811e+00    0.4560314    0.3554247 -83.60  0.002256798    3.554    0.719
        40  -8.8726    203.2925    234.8954   8.3577129692e+01  -4.2706822981e+00    0.2602778    0.2089515 -66.09  0.001074619    2.216    0.549
        41  -9.8176    175.6344    233.3095   8.8867452088e+01   9.9036500250e-02    0.4671689     0.268612 -58.47  0.002195376    2.738    0.635
        42  -9.5526    109.3760    234.7009   1.0316953357e+02   1.0139148749e+01    0.5628689    0.2529218  52.45  0.001698418    2.453    0.592
        43  -9.3490    141.8965    231.5223   9.5717396711e+01   5.6967280987e+00    0.7082538    0.3073624  56.35  0.002184104    5.160    0.806
        44  -8.5768    137.6906    235.0906   9.7128956565e+01   5.7029517718e+00    0.2528538    0.1560872  20.69 0.0005830883    1.819    0.450
        45  -8.1884    122.9852    234.3351   1.0018758080e+02   8.1303598296e+00    0.2459597    0.1567766  79.80 0.0008577126    2.621    0.619
        46  -8.3905     99.8029    234.4812   1.0520366529e+02   1.1610803048e+01    0.2435376    0.1618851  83.24  0.001229712    1.926    0.481
        47  -9.0466     78.6765    234.5825   1.0972268461e+02   1.4611406899e+01    0.2500876    0.1677582  78.27 0.0009765562    1.615    0.381
        48  -8.8843    201.9932    243.4897   8.5224491024e+01  -5.3657166744e+00    0.1982166     0.168901 -45.59 0.0006810434    1.613    0.380
        49  -8.7302     92.5737    232.5528   1.0653795650e+02   1.3053061686e+01    0.3818804    0.2226039 -84.90  0.001662928    2.310    0.567
        50  -9.8502     68.1888    232.3389   1.1171504591e+02   1.6489313193e+01    0.4874281    0.2131335  64.21  0.001995128    3.052    0.672
        51  -8.6057    194.2199    232.6854   8.4999505630e+01  -2.6066571064e+00     0.190007    0.1671895 -29.79 0.0005413539    1.309    0.236
        52  -8.5702    132.5131    232.8720   9.7932794357e+01   6.9232310587e+00    0.1760173    0.1329116 -54.45 0.0006632946    1.522    0.343
        53  -9.2716    186.5194    230.8561   8.6246334831e+01  -1.1594536631e+00    0.2990839    0.2469398 -83.96  0.001151349    2.143    0.533
        54  -9.1178    194.3121    240.3963   8.6231049189e+01  -3.8130096452e+00    0.3217894    0.1919803 -51.11  0.001189139    2.341    0.573
        55  -8.9982    236.0734    230.3723   7.6665672113e+01  -8.0951919440e+00    0.2934156    0.1438358 -34.02   0.00130917    1.917    0.478
        56  -8.8844      1.7676    230.8756   1.2480869679e+02   2.4254572792e+01    0.2174015    0.1103594  72.82 0.0008606335    1.628    0.386
        57  -9.9439    149.5744    226.0853   9.3247505584e+01   5.4762373668e+00    0.6056825    0.3816813 -85.33  0.002358309    3.937    0.746
        58  -8.2698    229.5330    228.9769   7.7610702742e+01  -7.0375658812e+00    0.1739894    0.1078774 -32.69 0.0005294429    1.553    0.356
        59  -8.8462    162.5524    228.0887   9.0776483137e+01   3.0391554629e+00    0.3084362    0.1669677  48.18  0.001322762    2.076    0.518
        60  -8.9330    127.8633    227.3252   9.8171006827e+01   8.7116463254e+00    0.3220083    0.2108021  62.96   0.00107165    1.948    0.487
        61  -8.2830    120.0161    227.7449   9.9954016163e+01   9.8645154873e+00    0.2222381    0.1711076 -88.56 0.0009211089    1.630    0.386
        62  -9.1225      8.4623    228.0166   1.2341501635e+02   2.4214716213e+01     0.170022   0.09318177 -83.72    0.0010285    1.586    0.369
        63  -7.3177    177.6516    227.2935   8.7480437911e+01   7.9796102007e-01    0.1258051    0.1008558  57.38 0.0007030686    1.672    0.402
        64  -7.9580     49.6088    226.7940   1.1511532245e+02   2.0013592973e+01    0.2695937     0.122415  76.41  0.001146943    2.911    0.656
        65  -8.9322    206.1344    225.8115   8.1490664621e+01  -3.2828103321e+00    0.2094778    0.1653386 -40.43 0.0008291799    1.488    0.328
        66  -8.0157    200.1454    226.1823   8.2731759154e+01  -2.4563907902e+00    0.1584932    0.1484557  23.48 0.0004483811    1.316    0.240
        67  -9.2707     94.3747    224.6773   1.0522784931e+02   1.4398791403e+01    0.4720327    0.2335543  60.26  0.001991209    2.580    0.612
        68  -8.7883    216.5097    223.8501   7.9150656923e+01  -4.4799004356e+00    0.2276111    0.2144552 -86.49  0.001106927    1.777    0.437
        69  -7.7931    187.2013    225.3902   8.5199962312e+01  -3.6417996345e-01     0.170692    0.1121705  40.42 6.285759e-05    1.539    0.350
        70  -8.6989    180.4813    224.2805   8.6395485530e+01   8.6833127929e-01    0.2347806    0.2016482  75.55  0.000498243    1.775    0.437
        71  -9.0942    104.7302    223.6858   1.0280434344e+02   1.3046543634e+01    0.3408437    0.2262942  74.86  0.001431311    1.928    0.481
        72  -8.6010    173.0179    223.2818   8.7787709173e+01   2.2212520354e+00    0.2105558    0.1883477  86.91 0.0005334187    1.596    0.374
        73  -8.0317    113.8228    223.9941   1.0081922587e+02   1.1579774978e+01    0.2115107    0.1454071  78.68  0.000782944    1.955    0.488
        74  -9.3355    225.5156    221.9852   7.7130806990e+01  -5.4654178278e+00    0.2759956    0.2199224  29.72  0.001474362    1.371    0.270
        75  -8.0068    140.5511    222.7670   9.4712880750e+01   7.5584357124e+00    0.1689637    0.1338076 -72.68 0.0007536593    1.614    0.380
        76  -9.1285    238.9792    221.5951   7.4613780269e+01  -7.2296502713e+00    0.2516777    0.1804428 -36.24 0.0009477133    1.510    0.338
        77  -9.4529    192.2179    221.2150   8.3468257074e+01  -4.4303896683e-01    0.3102866    0.2669984  76.79  0.001254851    1.890    0.471
        78  -8.8257     82.8679    220.3657   1.0727902548e+02   1.6981938119e+01    0.3694866    0.2053777  85.53  0.001629786    2.567    0.610
        79  -8.1755     73.0386    220.9549   1.0952455368e+02   1.8230733131e+01    0.2152204    0.1324438  66.50 0.0007102258    1.700    0.412
        80  -7.9088     27.5029    221.0052   1.1923808644e+02   2.3773537842e+01    0.1636652   0.08019478 -53.57 0.0008104804    2.556    0.609
        81  -8.2949    202.5273    220.0008   8.1190850585e+01  -1.8194308251e+00    0.1817364    0.1221582 -37.87 0.0005079557    1.541    0.351
        82  -9.2879    120.1364    219.0963   9.8726612431e+01   1.1577950527e+01    0.4388699    0.2430616  60.68  0.001859455    2.497    0.600
        83  -7.9194      5.4970    219.9889   1.2355957319e+02   2.6168036698e+01    0.1742432   0.06803724  73.56 0.0008103984    2.542    0.607
        84  -9.0478    248.4748    217.7326   7.2262439187e+01  -7.9101631688e+00    0.3129664    0.2526664  72.92  0.001705227    3.246    0.692
        85  -8.6954    158.9574    220.5081   9.0334894236e+01   4.9886249826e+00    0.2227362    0.1943326 -82.35 0.0004692689    1.543    0.352
        86  -8.3314    210.1224    219.1503   7.9551886259e+01  -2.8188078344e+00     0.194433    0.1512915  -5.23  0.000443138    1.142    0.124
        87  -8.5865    179.4504    217.5046   8.5461855508e+01   2.2078330458e+00    0.2171877    0.1307867 -55.72 0.0008913308    2.276    0.561
        88  -9.3279    132.8822    216.0545   9.5400943393e+01   1.0129134999e+01    0.4838445    0.3023062  74.87  0.001983831    2.981    0.665
        89  -8.7724     51.7781    217.4114   1.1383043264e+02   2.1768711654e+01    0.2901442    0.1509179  85.31 0.0009626147    2.216    0.549
        90  -8.6996    142.9145    216.4921   9.3218145819e+01   8.3896740551e+00    0.3034899    0.2179949 -87.24  0.001395545    2.214    0.548
        91  -8.2336    111.8003    217.2364   1.0035276911e+02   1.3285398302e+01    0.2342494    0.1305644  65.85 0.0009469848    2.737    0.635
        92  -8.7571    169.4128    216.1748   8.7362324379e+01   4.0759658469e+00    0.2758517    0.2217983 -84.19 0.0007718716    1.964    0.491
        93  -8.3824     18.5169    215.9973   1.2073409187e+02   2.5779860279e+01     0.180085     0.100275 -81.31 0.0007621985    1.586    0.369
        94  -8.9240    232.2285    214.0750   7.4482243648e+01  -5.2065651380e+00    0.3455457     0.189273 -39.81   0.00122973    1.846    0.458
        95  -8.2285    185.6373    214.5043   8.3649387534e+01   1.7412657561e+00    0.1944619    0.1653506 -65.97 0.0006368968    1.673    0.402
        96  -8.2415    154.2363    215.1765   9.0494880247e+01   6.7684862178e+00    0.1820173    0.1607209  67.43  0.000774831    1.379    0.275
        97  -9.2110     93.2101    214.1841   1.0419202833e+02   1.6800123698e+01    0.3804165    0.1970483  57.98  0.001507429    2.242    0.554
        98  -9.4212    214.0641    212.3914   7.7577378527e+01  -2.3219993301e+00     0.365423    0.2730318  51.26  0.001771042    1.909    0.476
        99  -9.5336     72.8248    211.6398   1.0855036323e+02   2.0299188272e+01    0.6456042     0.262128  59.41  0.002314171    3.478    0.712
       100  -8.5243    161.5999    212.4001   8.8412947560e+01   6.0712705581e+00    0.2187606    0.1969802  86.07 0.0006878232    1.452    0.311
       101  -8.1896    106.7067    212.7966   1.0090333342e+02   1.5026098030e+01    0.1925147    0.1481946  65.91   0.00104236    1.375    0.273
       102  -8.8575    204.1351    210.9277   7.9252100685e+01  -5.6842072850e-01    0.2527385    0.2046973 -49.83 0.0006940446    1.576    0.366
       103  -9.2982      8.2334    211.8240   1.2256219445e+02   2.7668155511e+01    0.2564917    0.1008485  71.65  0.001110716    2.613    0.617
       104  -7.6150    242.6839    211.7224   7.2186525900e+01  -6.2812704928e+00    0.1260129   0.08048599  -2.76  0.000395864    1.570    0.363
       105  -8.0527    192.2581    210.5903   8.1586502198e+01   1.3630267463e+00    0.2241954    0.1599406 -50.51 0.0005533575    1.713    0.416
       106  -9.4228    175.3722    209.8940   8.4998061248e+01   4.2452275241e+00    0.3996115    0.2915024  69.46  0.001526722    2.336    0.572
       107 -10.1390    156.0502    209.6964   8.9176581894e+01   7.5229347500e+00     0.292434    0.2250099 -39.68 0.0005184607    1.378    0.274
       108  -8.9835    148.1052    210.5636   9.1096556237e+01   8.6927567074e+00    0.3050774    0.2195141  61.41  0.001386344    1.778    0.438
       109  -9.1697    116.2892    210.3650   9.8339896020e+01   1.4016686777e+01    0.3602764    0.2405924  72.55  0.001213775    2.041    0.510
       110  -8.6771     85.4950    209.3592   1.0536117175e+02   1.9005032344e+01    0.3304078    0.1943489  77.77  0.001110808    2.307    0.566
       111  -8.4031     46.5702    209.4379   1.1424143709e+02   2.4171628606e+01    0.2594297    0.1280416  75.05  0.001154042    2.418    0.586
       112  -8.2699     32.2601    209.5649   1.1738591178e+02   2.5770082214e+01    0.2690015   0.09093633 -88.10 0.0009069908    4.339    0.770
       113  -9.2935    236.3484    207.8211   7.2595235490e+01  -4.8280883635e+00    0.3818949    0.2029575 -36.99   0.00131032    1.754    0.430
       114  -8.5457    139.0218    208.0164   9.2734993235e+01   1.0738586517e+01    0.2800026    0.1942705 -86.83 0.0008593503    2.343    0.573
       115  -9.4728    246.4847    207.2213   7.0701329790e+01  -6.1227720116e+00    0.2740778    0.1891319 -27.45 0.0006063522    1.252    0.201
       116  -9.5714    250.0894    201.9170   6.9103186541e+01  -5.8141453323e+00    0.4164154    0.1682687 -36.04  0.001465732    2.159    0.537
       117  -9.8329    245.8438    193.9588   6.8331363505e+01  -4.0168258219e+00    0.3560411    0.2647285 -64.02  0.001549197    2.595    0.615
       118  -9.0695    108.3307    205.7469   9.9520466917e+01   1.6297024658e+01    0.2416574    0.2288969   5.60 0.0005273022    1.181    0.153
       119  -8.6005     56.3372    205.4357   1.1164717796e+02   2.3881727905e+01    0.2969766    0.1509437  71.06 0.0009192773    2.426    0.588
       120  -9.0012    183.8012    204.0090   8.2147335795e+01   3.9234012125e+00     0.303899    0.2248635  60.60  0.000854034    1.973    0.493
       121  -7.8069     25.2869    205.6397   1.1858580323e+02   2.7386678690e+01    0.1339984    0.0742292  68.10 0.0006665116    1.685    0.406
       122  -9.3470    194.9274    203.4034   7.9723741762e+01   2.1952762951e+00    0.3863209    0.2489449 -32.78  0.001272533    1.530    0.346
       123  -9.2760    192.3672    197.3827   7.9118625028e+01   3.7028799336e+00     0.384249    0.2345687 -49.21  0.001106832    1.875    0.467
       124  -9.5300    163.7270    203.0267   8.6309850016e+01   7.5161335242e+00    0.4028995    0.2686556  57.38  0.001103394    2.002    0.501
       125  -8.6745    131.0947    203.7710   9.3871753238e+01   1.2963683737e+01    0.2995223    0.2139029  78.58  0.001074347    2.025    0.506
       126  -8.4173    211.1091    202.2274   7.6270539289e+01  -1.8944480238e-01    0.2253023    0.1740048 -62.66 0.0006164907    2.050    0.512
       127  -8.7053     80.1972    201.7010   1.0563708207e+02   2.1507873080e+01    0.3688949    0.1936938  70.60  0.001452034    2.824    0.646
       128  -7.6341     66.6317    203.2952   1.0903103701e+02   2.3031339115e+01    0.1463019   0.08800545  62.70  0.000702904    1.724    0.420
       129  -7.9110     41.3300    202.9782   1.1481970294e+02   2.6252906123e+01    0.2194427   0.08646989  83.17 0.0007047374    4.471    0.776
       130  -8.3599     17.3921    203.1986   1.2010439678e+02   2.8720216354e+01    0.1820738    0.0947925  87.07 0.0009544486    1.758    0.431
       131  -9.2251    243.0087    200.7643   7.0106038313e+01  -4.6732605033e+00    0.3121678    0.1610797 -38.43  0.001048301    1.799    0.444
       132  -9.0154    140.1998    200.5647   9.1217757161e+01   1.2081613120e+01    0.4193909    0.2852568 -89.28   0.00134985    2.557    0.609
       133  -8.0371    224.9921    212.9382   7.5607450377e+01  -4.0102110125e+00    0.1743151    0.1575451 -57.10 0.0006965241    1.692    0.409
       134  -8.3532     48.6054    202.3118   1.1310182075e+02   2.5552431450e+01    0.2225394    0.1284368  67.31  0.001111911    1.774    0.436
       135  -8.4010     10.0534    202.5073   1.2161565433e+02   2.9559179399e+01    0.1607307    0.1115204  36.50 0.0005784001    1.552    0.356
       136  -9.5106    237.0355    198.2961   7.0692694916e+01  -3.4446702170e+00    0.4079904    0.1623337 -40.84  0.001406949    2.395    0.582
       137  -9.4609    149.3477    198.4393   8.8735219791e+01   1.0933506923e+01    0.4400117    0.3105325 -89.10  0.001269207    2.450    0.592
       138  -8.8691    123.9836    199.2314   9.4805219271e+01   1.5144015642e+01    0.3347758    0.2301888 -81.12  0.001205342    2.016    0.504
       139  -9.3770    112.8185    198.5337   9.7361849476e+01   1.7164616609e+01    0.4975137    0.2864766  67.12  0.001702022    2.713    0.631
       140  -9.2031     88.6780    198.2173   1.0314075854e+02   2.1057973703e+01    0.4937732    0.2932817 -79.85  0.002019215    2.055    0.513
       141  -8.8164    176.8415    198.8244   8.2673513400e+01   6.0720895023e+00    0.2549471    0.1960135 -54.19 0.0005145889    1.547    0.354
       142  -8.7057    132.9175    197.2800   9.2362722770e+01   1.4038941277e+01    0.4555306    0.1961583 -52.31   0.00177789    2.454    0.593
       143  -8.3074    202.3022    197.9756   7.7206827833e+01   1.9528205036e+00    0.2254238    0.1926319  59.91  0.001020127    1.643    0.391
       144  -9.1575     61.3316    196.8859   1.0954717636e+02   2.5221970101e+01    0.4822791    0.2659284  85.62   0.00173162    2.227    0.551
       145  -8.8428     12.6370    197.2323   1.2071234807e+02   3.0516903151e+01    0.3175451    0.1235388  86.41  0.001356019    2.752    0.637
       146  -7.9110     29.2977    197.6449   1.1706229135e+02   2.8798664003e+01    0.1373305     0.077889  68.04  0.000703515    1.698    0.411
       147  -9.0033    185.2103    194.9786   8.0158622618e+01   5.3631363594e+00    0.2925389    0.2383655 -68.73 0.0006716037    1.744    0.427
       148  -8.7265    224.4988    194.1933   7.2188580460e+01  -9.1650054761e-01    0.2771896     0.192487 -52.40  0.001060718    1.928    0.481
       149  -8.9450    160.8890    194.3123   8.5356943577e+01   9.7464228802e+00    0.3323584    0.2564437  74.35   0.00101063    1.909    0.476
       150  -8.1495    230.7293    194.2232   7.1049456626e+01  -1.8658022179e+00    0.1930159    0.1513977 -41.74 0.0006113938    1.429    0.300
       151  -8.7286     77.0397    193.8362   1.0537762009e+02   2.3792252068e+01    0.2768335    0.2019861  79.20 0.0007139542    1.450    0.310
       152  -8.8730     43.5108    193.2759   1.1338322994e+02   2.8263139839e+01     0.377728     0.199052  75.72  0.001728889    2.176    0.540
       153  -8.7260     62.2568    217.5780   1.1155350495e+02   2.0404538083e+01    0.3315634    0.1718689  62.42   0.00156798    2.061    0.515
       154  -7.9994    205.4609    191.9614   7.5417032647e+01   2.5016237230e+00    0.1991431      0.12679 -37.95 0.0004548665    1.512    0.339
       155  -8.3024    198.9272    191.7508   7.6689146007e+01   3.6281936448e+00    0.2337937    0.1732701 -51.21 0.0006345891    1.607    0.378
       156  -8.4955    178.9664    191.7463   8.0874486539e+01   7.0643449472e+00    0.2442523    0.1844867 -56.05 0.0006541054    1.602    0.376
       157  -8.6584    172.3106    191.7971   8.2335932069e+01   8.2273234354e+00    0.2539966    0.2207537 -84.83  0.001019553    1.573    0.364
       158  -9.1587    139.4227    190.4635   8.9626369986e+01   1.4373340698e+01    0.3792717    0.2795928  87.96  0.001010132    2.011    0.503
       159  -8.6780    215.9187    195.7310   7.4104795913e+01   1.5855513472e-01    0.2758901      0.17671 -54.31  0.001027312    2.218    0.549
       160 -10.4843     92.1329    188.7607   1.0093069730e+02   2.2738354709e+01     1.046511    0.3198145  47.30  0.003211834    3.641    0.725
       161  -8.9147     20.9780    190.9342   1.1839098078e+02   3.1192575705e+01    0.3390718    0.1377571  63.75  0.001434859    2.769    0.639
       162  -8.4580    148.4274    189.4249   8.7313788360e+01   1.2986848014e+01    0.2480765    0.1992397  79.73  0.000747061    1.679    0.405
       163  -9.7064    248.9331    185.5592   6.6197362427e+01  -3.1370130924e+00    0.3348524    0.2338662  -3.45  0.001332266    1.445    0.308
       164  -8.6574    237.1169    188.6180   6.8822802953e+01  -1.9061366923e+00    0.2172405    0.1564721 -36.33 0.0005881889    1.321    0.243
       165  -9.3078    155.9431    187.4670   8.5199872787e+01   1.2044564816e+01    0.4071072    0.2340074 -59.00  0.001224231    2.206    0.547
       166  -8.7683    129.2394    188.6207   9.1740960593e+01   1.6580468420e+01    0.3003831    0.2265746  73.18 0.0008564506    1.704    0.413
       167  -9.6958    120.8301    186.5757   9.3438040821e+01   1.8511263587e+01    0.5795937    0.3215946 -74.49  0.002133445    2.961    0.662
       168  -8.7663     34.3198    188.2658   1.1506177971e+02   3.0472492315e+01    0.3518614    0.1764071  77.72  0.001106051    2.274    0.560
       169  -9.3231     99.2648    206.0996   1.0170715138e+02   1.7650304295e+01    0.3864798    0.2505694  83.41  0.001437825    2.077    0.519
       170  -8.3448    230.4905    187.4945   6.9788014975e+01  -7.2052667533e-01    0.2188905    0.1150795 -46.62  0.001006459    2.131    0.531
       171  -8.8475    216.3821    188.0511   7.2521611678e+01   1.4067539106e+00    0.2343639    0.1981735  36.50 0.0007656208    1.341    0.254
       172  -8.9181    191.2706    187.3424   7.7401030093e+01   5.7561700421e+00    0.3398229    0.2480787 -64.06  0.001270061    2.009    0.502
       173  -9.1337     54.7576    186.8705   1.0997692068e+02   2.8445596969e+01    0.4390323    0.2245333  75.15  0.001395529    2.636    0.621
       174  -8.4897    165.0366    186.8706   8.3009986293e+01   1.0521183648e+01    0.2185397    0.1965194  70.82 0.0006573849    1.365    0.268
       175  -9.2361    109.5651    186.0650   9.6146376655e+01   2.0551912079e+01     0.427392    0.2710973  76.85  0.001195712    2.424    0.587
       176  -8.6747    182.9706    185.3171   7.8756095101e+01   7.6065707638e+00    0.2628814    0.1984239 -56.39 0.0008260519    1.607    0.378
       177  -9.0437     66.5305    184.6616   1.0677535444e+02   2.7451753489e+01    0.3754089    0.2224949  70.84  0.001183426    2.026    0.506
       178  -8.4944    210.2077    184.4642   7.3003038343e+01   3.0538818516e+00    0.2455632    0.1703397 -36.39 0.0004571737    1.359    0.264
       179  -8.7234    202.7296    184.8156   7.4553486597e+01   4.2518492638e+00    0.2420301    0.1874323 -54.60  0.000701586    1.605    0.377
       180  -8.6116    224.1221    183.6720   7.0199629173e+01   9.2179695116e-01    0.2306355     0.163527 -40.88 0.0005732242    1.407    0.289
       181  -8.1171    197.3796    184.1279   7.5499797795e+01   5.2991087918e+00    0.1930146    0.1284373 -50.04 0.0006273692    1.706    0.414
       182  -8.9494    174.2739    183.6710   8.0321285069e+01   9.4963655686e+00    0.2805089    0.2367465  89.71 0.0009291805    1.681    0.405
       183  -8.5598    243.0048    183.5173   6.6805269290e+01  -1.9510905985e+00    0.1530837    0.1174846  66.98 0.0006874627    2.444    0.591
       184  -8.3682     42.4738    179.4483   1.1217243060e+02   3.1707646257e+01    0.2383478     0.190132  70.30 0.0005785956    1.162    0.140
       185  -8.2154      1.7474    183.5935   1.2218293605e+02   3.4578004950e+01    0.1614522   0.09518091  46.75 0.0009470074    1.641    0.391
       186  -9.1754    147.5367    180.6615   8.5862851874e+01   1.5038437911e+01    0.3707224    0.2797884 -82.09  0.001117605    1.890    0.471
       187  -9.4983     25.8185    179.2990   1.1624773778e+02   3.3490666227e+01    0.7046194    0.2731788  77.60  0.002363247    4.244    0.764
       188  -8.6125    137.5058    179.2975   8.8016311997e+01   1.7184313366e+01    0.3119346    0.2306388  81.28 0.0008340876    1.955    0.488
       189  -8.7896     44.3081    182.6277   1.1206905344e+02   3.0724259215e+01     0.278042    0.1762735  65.39 0.0009870874    1.592    0.372
       190  -9.3371    191.4202    178.4249   7.5578902791e+01   7.4340086752e+00    0.2645906    0.2484527  86.48 0.0005668303    1.382    0.276
       191  -8.0542    169.2375    178.7946   8.0467508295e+01   1.1413620973e+01    0.2253855    0.1617232  86.20 0.0006759602    2.611    0.617
       192  -9.0472     36.0494    177.0521   1.1351327809e+02   3.2996679631e+01    0.5185308    0.2146168  79.60  0.001706223    4.207    0.762
       193  -9.6455    248.4332    176.5964   6.4532300493e+01  -1.6322441719e+00    0.4230445    0.2531457 -49.20  0.001795048    2.002    0.500
       194  -8.6966    250.5097    172.8803   6.3457378936e+01  -1.3375015117e+00    0.2881503    0.1534353 -36.63 0.0005810478    1.590    0.371
       195  -8.6198    231.2032    176.9309   6.7564832181e+01   9.4953215358e-01     0.262759    0.1619093 -45.41 0.0007353169    1.692    0.409
       196  -8.7136    205.0513    177.7850   7.2670192877e+01   5.1487069203e+00     0.249106    0.1915278 -36.58 0.0007089693    1.242    0.195
       197  -8.5365    129.0892    177.3670   8.9722845365e+01   1.9155930440e+01    0.2685146    0.2111627  88.78   0.00075236    1.629    0.386
       198  -9.0739     89.0189    176.9824   9.9898456030e+01   2.6054424220e+01    0.3181368    0.2194507  86.02 0.0008382467    1.777    0.437
       199  -8.3334    217.5073    177.1782   7.0132156143e+01   3.1373634829e+00    0.1969892    0.1882361 -58.09  0.000643148    1.350    0.259
       200  -8.8846    183.1896    176.3893   7.6907117152e+01   9.3266207325e+00    0.2600037    0.2362425 -66.74 0.0006766441    1.348    0.258
       201  -9.4255    104.4252    174.8551   9.5538543247e+01   2.4073311316e+01    0.6197822    0.3365895  63.52  0.002134342    2.887    0.654
       202  -7.8937     97.5471    177.5054   9.7772704814e+01   2.4570854767e+01    0.1439871    0.1405558  88.17 0.0001623074    1.042    0.040
       203  -9.9237     57.5032    173.6189   1.0763002107e+02   3.1348971486e+01    0.8284882    0.3842081  82.28  0.002614786    4.306    0.768
       204  -9.4093     12.8093    175.7422   1.1905608109e+02   3.5529274966e+01    0.4509296    0.1543099 -82.79   0.00179485    2.858    0.650
       205  -8.0114    211.5128    176.4807   7.1136648730e+01   4.2755747238e+00    0.1392307    0.1250032 -16.47 0.0008096201    1.055    0.052
       206  -9.2636    158.9209    175.1850   8.2096970573e+01   1.4101075216e+01    0.4060837    0.2894399  75.95  0.001583842    2.307    0.567
       207 -10.6243     76.0113    171.2193   1.0241088500e+02   2.9433081313e+01     1.123192    0.4714262 -78.79  0.003229715    4.679    0.786
       208  -9.3529     74.3289    160.3298   1.0112590350e+02   3.2411595472e+01    0.2782364    0.1937658  -7.46 0.0009462701    2.226    0.551
       209  -8.0203    241.4680    174.4650   6.5280073299e+01  -2.3634375557e-01    0.1331298     0.109667 -19.03 5.897314e-05    1.004    0.004
       210  -8.2415    224.2122    174.2313   6.8283952724e+01   2.5466798870e+00    0.1780985    0.1568427 -49.55 0.0008294251    1.364    0.267
       211  -9.3140    175.8900    172.3638   7.7666085479e+01   1.1496275231e+01    0.3634513    0.2032051 -45.60 0.0008235126    1.792    0.442
       212  -9.0128    143.1953    172.9146   8.5382885246e+01   1.7561304821e+01     0.289615    0.2251379  85.77 0.0008906323    1.782    0.439
       213  -8.7231    198.6609    170.6925   7.2486878177e+01   7.6184581012e+00    0.3640712    0.2292126 -58.94  0.001578954    2.250    0.556
       214  -8.8019    134.7936    172.0166   8.7271407305e+01   1.9336057392e+01    0.2319219    0.2058005  86.64 0.0007231009    1.292    0.226
       215  -9.6305    121.4475    170.5618   9.0357435486e+01   2.2124397263e+01    0.4193289    0.3015091 -87.36    0.0011432    1.920    0.479
       216  -9.0419     45.0977    171.1064   1.1053664595e+02   3.3468038562e+01    0.3930399    0.2123431  86.14  0.001453441    2.192    0.544
       217  -8.6410    205.7579    170.2879   7.0981536068e+01   6.4228360412e+00    0.3177608    0.1775635 -53.11  0.001153954    2.252    0.556
       218  -8.3433    237.0431    169.5226   6.5043679585e+01   1.2844366833e+00    0.2484762    0.1662243 -46.81 0.0007189448    1.591    0.372
       219  -8.9564    230.1166    169.3954   6.6230096386e+01   2.4227115875e+00    0.3852525    0.1675512 -47.17  0.001566891    2.523    0.604
       220  -9.2259    167.1606    168.6958   7.8857585365e+01   1.3918754773e+01    0.3360798    0.2600655  77.62  0.001043925    1.905    0.475
       221  -8.4623    149.9589    169.9676   8.3150306138e+01   1.6937778869e+01    0.2387898    0.1896017  79.95 0.0009126907    1.711    0.415
       222  -8.1126    244.0869    169.3109   6.3805993012e+01   2.1792621686e-01    0.1776492    0.1530627 -18.66 0.0004540172    1.063    0.059
       223  -8.3002    219.0237    168.6123   6.8087527226e+01   4.4173921756e+00    0.2296363     0.173585 -42.34 0.0005536688    1.312    0.238
       224  -8.4296     88.4938    168.6176   9.8660300948e+01   2.8195155416e+01    0.2938071    0.1899751  82.37 0.0007977255    2.124    0.529
       225  -8.6859    111.4731    167.3120   9.2324637287e+01   2.4680750215e+01     0.354918    0.2391635  88.04 0.0009306675    2.208    0.547
       226  -8.8962    191.9239    166.6665   7.3022368318e+01   9.6388508921e+00    0.2770381    0.2022232 -47.10 0.0006262247    1.410    0.291
       227  -8.9194    185.0820    166.6419   7.4461100431e+01   1.0927549082e+01    0.2509613    0.1946906 -49.79 0.0006181784    1.369    0.269
       228  -9.1733     20.7398    166.3649   1.1626907760e+02   3.7116117898e+01    0.3746368    0.1516068  57.00  0.001147051    2.862    0.651
       229  -9.8286    136.6876    164.5005   8.5281342606e+01   2.0708462088e+01    0.6455749    0.3418679  57.40  0.002004127    2.728    0.633
       230  -9.9986     95.0424    162.6013   9.5837117552e+01   2.8636914646e+01    0.9175285    0.5639262  87.07  0.002931111    2.619    0.618
       231  -8.1651    233.9781    165.0193   6.4653880600e+01   2.5507277638e+00    0.1957314    0.1594149 -60.32 0.0005537168    1.631    0.387
       232  -8.7331    159.5612    164.5375   7.9734204874e+01   1.6280392027e+01    0.2755493    0.2590307 -88.13 0.0007325117    1.223    0.182
       233  -9.9429     33.4847    163.3994   1.1265971445e+02   3.6640847405e+01    0.5733581    0.2294759  54.64  0.002230948    3.020    0.669
       234  -9.0497    246.0174    163.1131   6.2236151978e+01   9.5225355418e-01    0.2308434    0.1614597 -33.25 0.0004565531    1.204    0.170
       235  -8.1627    240.0207    164.2886   6.3470810459e+01   1.7003325938e+00    0.1819581    0.1612636 -18.34 0.0005038719    1.083    0.076
       236  -8.6027    213.0720    163.6705   6.8171962991e+01   6.3582989162e+00    0.2424044    0.1788465 -45.57 0.0007304184    1.377    0.274
       237  -8.5148    204.9833    162.6301   6.9515486485e+01   8.0104509550e+00    0.2646086    0.1897752 -52.45 0.0006341552    1.574    0.365
       238  -9.4519      3.3370    162.3671   1.2026419110e+02   3.9489238334e+01    0.3899519    0.1740619  55.42  0.001702265    2.329    0.571
       239  -8.8457    151.5732    161.0277   8.0883306942e+01   1.8615881352e+01    0.3498893     0.262643 -82.16 0.0009006083    1.929    0.482
       240  -9.0357     60.5362    160.7941   1.0500798364e+02   3.4183909892e+01    0.3629786    0.2673064  79.70  0.001292978    1.450    0.311
       241  -9.1135    177.4286    160.6094   7.4821578270e+01   1.3631285330e+01    0.2968465    0.2522782 -72.88 0.0009082853    1.484    0.326
       242  -7.7863    242.3543    160.1732   6.2239460490e+01   2.0264723643e+00    0.1827762      0.10771 -43.62 0.0003702768    1.594    0.373
       243  -9.8762    250.1669    157.8495   6.0500582737e+01   1.1829583885e+00    0.3568469    0.1831278 -40.19 0.0007843937    1.670    0.401
       244  -9.1150    246.5635    155.5407   6.0604307531e+01   2.1374674351e+00    0.2125395    0.1438783 -29.26 0.0005005741    1.273    0.215
       245  -8.5368    227.4911    159.2888   6.4599730179e+01   4.6411361345e+00     0.278903     0.201756 -61.78  0.001237157    1.942    0.485
       246  -8.3049    237.4847    159.0106   6.2813666461e+01   3.0152123117e+00    0.2098597     0.116438 -38.58 0.0007328934    1.565    0.361
       247  -9.1316    167.7297    157.4506   7.6304784445e+01   1.6206734680e+01    0.3972746    0.2956998 -84.05    0.0011743    2.115    0.527
       248  -8.1761    128.0398    158.9720   8.6336197438e+01   2.3645597874e+01     0.246854    0.1902952  82.26 0.0006991065    1.716    0.417
       249  -9.6807    105.6651    157.9861   9.2075896309e+01   2.7976209834e+01    0.5301911      0.35723  70.41  0.001457486    2.029    0.507
       250  -8.4692    196.7619    158.0780   7.0175894915e+01   1.0421091615e+01    0.2205818    0.1954389 -60.69 0.0009480324    1.320    0.242
       251  -8.2996    188.1419    157.7182   7.1880338257e+01   1.2143172188e+01    0.2627141    0.1941463 -51.08 0.0007382266    1.439    0.305
       252  -8.4699    217.9075    156.6035   6.5761455211e+01   6.8029091267e+00    0.2822696     0.169262 -52.66 0.0009395745    1.966    0.491
       253  -8.9822    157.4532    156.0936   7.8399848643e+01   1.8548735760e+01    0.3184841     0.235918 -68.78 0.0009895134    1.741    0.426
       254  -9.3828    119.5523    155.3717   8.7810470742e+01   2.6102302677e+01    0.4438136    0.3042203 -87.68  0.001564068    2.227    0.551
       255  -9.5539     81.8848    155.1348   9.8119766682e+01   3.2603145426e+01    0.4959544    0.2980825  72.76  0.001475148    2.518    0.603
       256  -9.0889     49.5947    155.1947   1.0722008136e+02   3.6958532250e+01    0.3743796    0.2167947  72.26  0.001450686    2.205    0.546
       257  -9.6383    241.9572    154.3288   6.1100819826e+01   3.0873523104e+00    0.3824864    0.2810812  81.28  0.001837877    2.629    0.620
       258  -9.8782    242.6564    150.1673   6.0123180052e+01   3.6856232341e+00    0.3761667    0.3003171  53.45  0.002216086    1.599    0.375
       259  -7.9494    204.6642    155.3522   6.8005749476e+01   9.4621475880e+00    0.2050889    0.1685616 -72.11 0.0008026467    1.647    0.393
       260  -8.4537    144.4925    154.9458   8.1295792950e+01   2.1387184667e+01     0.284517    0.2143966  59.43 0.0007760361    1.549    0.354
       261  -9.7625    132.8596    153.0397   8.3824010578e+01   2.4117998838e+01    0.4850207    0.3594782  81.43  0.001287271    1.925    0.481
       262  -9.4710    133.5069    148.5031   8.2655117338e+01   2.5057096868e+01    0.5095577    0.2359546 -45.31   0.00186221    2.148    0.534
       263  -9.4635     67.9473    153.7902   1.0182567216e+02   3.4975397148e+01    0.4518552     0.269547  74.19  0.001267148    2.377    0.579
       264  -7.9595    151.5872    152.7867   7.9074335449e+01   2.0460534495e+01    0.2150023    0.1482726 -57.39  0.000936689    1.602    0.376
       265  -9.4142     19.7722    152.4048   1.1508287916e+02   4.0659561892e+01    0.2446082    0.1379406 -85.89 0.0006127658    1.658    0.397
       266  -8.6933      8.3190    153.4140   1.1822535639e+02   4.1309207546e+01    0.2115621    0.1298354  12.25  0.001151654    2.187    0.543
       267  -9.7119     29.2721    150.6274   1.1227653266e+02   4.0261208262e+01    0.5287928    0.2432139  70.78  0.001988369    3.268    0.694
       268  -8.9260      2.7190    150.4394   1.1941609856e+02   4.2429498453e+01    0.4728546    0.1345081 -78.12  0.001784875    3.045    0.672
       269  -9.5330    248.8098    149.5251   5.9012852744e+01   2.7912034935e+00    0.3103723    0.1778091 -35.53 0.0007621842    1.465    0.317
       270  -8.9379    189.4623    150.3260   6.9961568976e+01   1.3378447293e+01     0.328265     0.224077 -57.95 0.0008147739    1.768    0.434
       271  -8.0666    182.4300    151.2778   7.1664503703e+01   1.4578881798e+01     0.211077    0.1396348 -53.21 0.0009325854    1.657    0.397
       272  -8.2698    162.8591    150.9310   7.5972788599e+01   1.8594859539e+01    0.2395842    0.1929273 -88.12 0.0009071316    1.697    0.411
       273  -8.8201     98.3726    150.7777   9.2654876650e+01   3.1026729545e+01    0.3196805    0.2387243  77.61 0.0009247153    1.679    0.404
       274  -8.0894    213.0012    149.9673   6.5234652807e+01   8.9315335862e+00    0.2062806    0.1693385 -65.77 0.0004194212    1.543    0.352
       275  -9.9040     39.8131    147.9111   1.0894985317e+02   3.9902670075e+01    0.5782192    0.2854767  67.48  0.002135084    2.996    0.666
       276  -8.5272    198.8550    149.0259   6.7755606046e+01   1.1798942446e+01     0.217834    0.1954765 -64.68  0.000525683    1.298    0.229
       277 -10.0637     89.2681    146.4178   9.4367370217e+01   3.3642328892e+01     0.708463    0.4151965 -89.89  0.002449527    3.168    0.684
       278 -10.4502     55.1587    145.0999   1.0407659881e+02   3.8871578229e+01    0.8539433     0.424015  66.88  0.002952154    3.532    0.717
       279  -9.9191    233.5159    147.5762   6.1082991321e+01   5.6833953747e+00    0.3250377    0.1781324 -32.42 0.0009432803    1.674    0.402
       280 -10.2188    107.0036    144.7960   8.8991751638e+01   3.0993915375e+01     0.792892    0.4542451  70.22  0.002540015    3.584    0.721
       281  -8.1631    105.9609    138.5316   8.7912897104e+01   3.2728974795e+01    0.3224293    0.2041712   9.16  0.001190127    2.639    0.621
       282  -9.0093     77.9958    146.8271   9.7704729580e+01   3.5304150798e+01    0.3442931    0.2015471 -80.94 0.0008600108    2.317    0.568
       283  -8.2934    223.3401    146.7954   6.2666753258e+01   7.6246755002e+00    0.2469841    0.1620298 -31.71 0.0007109753    1.398    0.285
       284 -10.1956    148.8486    144.8818   7.7948523058e+01   2.2800459105e+01    0.5807688    0.4042045 -87.90  0.001559493    2.471    0.595
       285  -9.8289    139.1453    145.1486   8.0445157230e+01   2.4713930234e+01    0.4890371    0.3206705 -73.45  0.001188843    2.317    0.568
       286  -9.4247     13.3159    146.3478   1.1618716880e+02   4.2684806257e+01    0.3843295    0.2079693  65.66  0.001244086    2.077    0.519
       287  -9.4038    240.1860    145.1883   5.9479295500e+01   4.9579186041e+00    0.2404715    0.1718165 -37.31 0.0005090563    1.198    0.165
       288  -8.4253    175.6572    146.1408   7.1972320819e+01   1.7016117896e+01    0.2392679    0.1859286 -58.64  0.000686918    1.447    0.309
       289  -8.9644    246.9664    143.9286   5.8141757393e+01   4.0389590329e+00    0.2709143    0.1595331 -40.95 0.0005006793    1.455    0.313
       290  -9.0600    165.7089    143.9982   7.3721322578e+01   1.9518920730e+01      0.35147    0.2784797 -62.47 0.0006136897    1.447    0.309
       291  -9.7323    125.0766    142.8313   8.3597783593e+01   2.8060365401e+01    0.5726309    0.3782205 -82.17   0.00132878    2.514    0.602
       292  -8.1682    194.4145    144.1485   6.7547327458e+01   1.3636824861e+01     0.213247    0.1335589 -51.48 0.0006640552    1.707    0.414
       293 -10.8390     69.0536    140.1690   9.9091253036e+01   3.8305233638e+01    0.9405497    0.4308991 -65.33  0.003147314    2.221    0.550
       294  -9.4244      2.5355    141.5956   1.1865304361e+02   4.4607927363e+01    0.4110077    0.1944756  77.73  0.001699539    2.389    0.581
       295  -8.6025    250.4863    140.5464   5.6899946790e+01   4.0314729766e+00    0.2653639    0.1106663 -38.88 0.0007756975    1.992    0.498
       296 -10.1796    242.6965    143.3030   5.8681026848e+01   4.8589845716e+00    0.4310467    0.1890761 -31.12  0.001788085    2.293    0.564
       297  -7.7530    134.2629    140.6364   8.0662237543e+01   2.6751241259e+01    0.1588268    0.1254615 -84.24  0.000571085    1.641    0.390
       298  -9.9162     23.6560    138.3414   1.1232507526e+02   4.3865104283e+01     0.575388    0.2850555  63.71  0.002111333    2.671    0.626
       299  -7.8820    218.5919    138.7470   6.1741153423e+01   9.9813189719e+00    0.2023818     0.122365 -47.63 0.0005977333    1.620    0.383
       300  -8.7008    172.4269    138.4258   7.0890373801e+01   1.9315191431e+01    0.3272872    0.2327943 -81.77  0.001019888    2.302    0.566
       301  -8.4413    207.5291    138.1258   6.3620980737e+01   1.2223636136e+01    0.2266292     0.196323 -68.28 0.0006498534    1.364    0.267
       302  -8.7013    197.6027    137.5728   6.5403978705e+01   1.4302403512e+01    0.2949545    0.2068091 -54.24 0.0009038608    1.551    0.355
       303  -9.0526    139.3469    137.7977   7.8678480916e+01   2.6373985716e+01     0.313853    0.2135986  11.69  0.001237377    2.182    0.542
       304  -7.8624    206.7746    146.5837   6.5664164620e+01   1.0747504990e+01    0.1774432    0.1423878  57.08 0.0004021051    1.497    0.332
       305  -7.9771    192.5105    137.0007   6.6287853145e+01   1.5448345015e+01    0.2075224     0.125941 -61.83 0.0006947629    2.358    0.576
       306  -8.4231    162.6396    136.5094   7.2665072715e+01   2.1786457381e+01    0.2593911    0.1870672 -64.44 0.0007858836    1.708    0.415
       307  -8.9001    151.0330    136.1685   7.5356937315e+01   2.4310645115e+01    0.3637639    0.2446855  15.86  0.001449999    2.134    0.531
       308  -9.1346    248.5175    135.4096   5.6126253780e+01   5.2271999993e+00     0.301761     0.189324 -43.26 0.0007006311    1.388    0.279
       309  -8.8113    250.7121    130.2238   5.4716035894e+01   5.7334760509e+00    0.3886414    0.1044559 -36.14  0.001300244    3.438    0.709
       310  -8.7969    246.9130    130.3637   5.5305356101e+01   6.3577878010e+00    0.2474075    0.1592136 -48.46 0.0005016716    1.474    0.322
       311  -9.1847     39.1375    136.0662   1.0740526779e+02   4.2995607520e+01    0.2746333    0.1936824  61.26 0.0008449092    1.594    0.373
       312  -9.2478    113.0443    133.5402   8.4761213464e+01   3.2627567153e+01    0.3965125    0.2767625  74.70  0.001206679    2.116    0.527
       313 -10.4039     83.5231    133.0109   9.3295657656e+01   3.7956109470e+01    0.6242315    0.3743966 -71.81  0.001313045    2.030    0.507
       314  -8.5844     84.9083    123.0414   9.0652405551e+01   4.0228999485e+01    0.5420067     0.340261  -2.70  0.001956475    2.849    0.649
       315  -8.6719    182.0127    141.6206   6.9545753913e+01   1.6658287065e+01    0.2895437     0.205311 -57.05  0.000706014    1.601    0.375
       316  -8.5579    179.7668    134.1225   6.8263079342e+01   1.8676555738e+01    0.2359117    0.2053122 -65.77 0.0007079479    1.285    0.222
       317  -8.0547    237.4195    133.2862   5.7386692215e+01   7.5141515952e+00    0.1961513    0.1127827 -46.23 0.0008329116    1.611    0.379
       318  -9.2644    143.2029    131.8974   7.6272178867e+01   2.6922813318e+01    0.3534607    0.2755484 -77.29 0.0006728183    1.652    0.395
       319 -10.0365    131.1113    118.8518   7.6137429457e+01   3.2446878565e+01    0.6803917    0.4514242  85.77  0.002014421    2.912    0.657
       320 -10.4079    133.6391    109.8034   7.3071205812e+01   3.3930455003e+01    0.7564324    0.3667946 -48.54  0.002446983    2.094    0.522
       321  -9.9165    132.3573    131.4101   7.8963005449e+01   2.9294211934e+01    0.6073953    0.4231898 -87.40  0.001797359    2.358    0.576
       322  -9.1037    134.7259    124.5909   7.6645519049e+01   3.0375032062e+01    0.4192854    0.2187982  27.33  0.001408028    2.821    0.645
       323 -10.5004     98.2745    129.3313   8.8052554166e+01   3.6384818362e+01     1.106568    0.3869867 -50.87  0.003200535    2.692    0.628
       324 -10.6544     60.2774    125.5377   9.8965974317e+01   4.3227477888e+01    0.9260865    0.5242409  82.30   0.00316233    3.422    0.708
       325 -10.0216     73.2432    129.3455   9.5669282935e+01   4.0460801246e+01    0.4443352    0.3100271  86.50  0.001295614    1.923    0.480
       326 -10.2543     12.9136    129.4214   1.1436668472e+02   4.6934365786e+01    0.4718658    0.2610178  68.30  0.002175824    2.193    0.544
       327  -8.2112    204.6501    130.3521   6.2380021998e+01   1.4287866601e+01    0.2172875    0.1678002 -69.57  0.001060179    1.647    0.393
       328  -7.9690    192.5526    130.0680   6.4653144100e+01   1.6823132284e+01    0.2276191    0.1397335 -42.41 0.0005050975    1.526    0.345
       329  -9.2412    168.2770    129.5038   6.9675717984e+01   2.2091129076e+01    0.3126675    0.2517398 -73.65 0.0008271366    1.536    0.349
       330  -9.3185    152.9412    129.0052   7.3144105991e+01   2.5499418251e+01    0.4317817    0.2849243 -65.43  0.001035445    2.019    0.505
       331  -8.4634    230.2986    141.5397   6.0329945433e+01   7.3230519624e+00    0.3866306     0.102804 -43.79  0.001233662    3.492    0.714
       332  -8.0522    211.4184    129.1844   6.0867891001e+01   1.3156267467e+01    0.2081104    0.1249382 -49.40 0.0006337896    1.667    0.400
       333 -10.7424     44.6889    123.2791   1.0352721319e+02   4.5665927482e+01     1.179001    0.6073816  79.29  0.003884707    4.165    0.760
       334  -9.9768    117.9763    125.4790   8.1427512487e+01   3.3601518701e+01    0.6043045    0.3872956  69.80   0.00182213    2.537    0.606
       335  -8.0446    228.4739    125.5150   5.7122685476e+01   1.0529018650e+01    0.1414562    0.1222979 -45.03 0.0008085865    1.082    0.076
       336  -8.8037    179.0997    124.7815   6.6149372871e+01   2.0744060213e+01    0.2965094    0.2364906 -62.37 0.0007300572    1.404    0.288
       337 -10.3286     28.3009    122.3466   1.0862279681e+02   4.7505768781e+01    0.7953131    0.3885613  76.42  0.002848502    3.749    0.733
       338  -8.5160     27.0137    113.5314   1.0760020332e+02   4.9824798552e+01    0.2057164    0.1570706 -28.17 0.0006481415    1.435    0.303
       339  -8.0345    188.4760    124.0193   6.4024564206e+01   1.8887026450e+01    0.2292161    0.1417747 -43.32 0.0004781569    1.525    0.344
       340  -8.9887    158.5117    121.6626   6.9973087623e+01   2.5890529160e+01    0.3526769    0.2622162 -69.67 0.0009471782    1.712    0.416
       341  -7.9937    195.0981    122.1519   6.2267106605e+01   1.7850915672e+01    0.2033194    0.1700937 -62.19 0.0004213943    1.296    0.228
       342  -8.7112    172.0915    121.6960   6.6898040970e+01   2.2903963702e+01    0.2602103    0.2046098 -54.90 0.0004534239    1.320    0.243
       343  -9.5713     70.9063    119.4378   9.4265777471e+01   4.3297668792e+01    0.4813328    0.2993199 -79.63   0.00131395    2.240    0.554
       344 -10.0988    141.4590    118.0116   7.3213798970e+01   3.0417507824e+01    0.6899536    0.3237336 -49.89  0.001337498    2.211    0.548
       345  -9.9917      2.8152    117.0513   1.1592680189e+02   5.0624163956e+01    0.5608512    0.2603379  82.06  0.002404228    2.789    0.641
       346  -7.6472    231.4825    117.5202   5.4871442299e+01   1.1378125786e+01    0.1405345    0.1205021 -46.59 0.0008091223    1.069    0.065
       347  -9.9645    109.3658    114.3548   8.1073910396e+01   3.7925257890e+01    0.5442719    0.3800208 -82.33  0.001418263    2.236    0.553
       348  -7.4897    203.2326    115.9897   5.9267390199e+01   1.7321873109e+01    0.1914677     0.114798 -40.19 0.0003625166    1.532    0.347
       349  -8.1918    185.5438    116.0039   6.2655260915e+01   2.1113728251e+01    0.2287438    0.1425948 -42.42 0.0004940567    1.514    0.340
       350  -8.0633    153.2329    115.9523   6.9762208151e+01   2.8281360297e+01    0.2114732    0.1292085 -44.16 0.0004880688    1.598    0.374
       351  -8.7198     59.7698    115.1342   9.6959217488e+01   4.5913848337e+01    0.3985038    0.2364153  -0.47  0.001586952    2.739    0.635
       352  -9.5825    249.6611    114.4998   5.1554019168e+01   8.5561474445e+00    0.3517784     0.201666 -57.27    0.0016855    2.035    0.509
       353  -8.1081    193.1597    115.2045   6.0961007999e+01   1.9617106012e+01    0.2071505    0.1685318 -62.39  0.000497299    1.329    0.248
       354 -10.1237     92.7539    112.7403   8.5696858741e+01   4.1408325282e+01    0.5395282    0.3468192 -67.72  0.001225315    1.951    0.487
       355  -8.9056     93.6509    104.7623   8.3321153318e+01   4.3134344079e+01    0.5456029    0.3112153  13.62  0.001870939    3.166    0.684
       356 -10.1571     78.4137    112.0178   9.0093212388e+01   4.3989398720e+01    0.6313724    0.4230978  77.70  0.002556159    2.492    0.599
       357  -8.7168     78.9014    104.9053   8.8141232876e+01   4.5626572875e+01    0.3334976    0.2391725 -10.59  0.001459221    1.809    0.447
       358  -7.7710    167.4830    114.5051   6.6096209168e+01   2.5411961867e+01    0.1555775    0.1491641 -55.67 4.605631e-05    1.042    0.040
       359  -8.5026    174.9393    112.2039   6.3890814507e+01   2.4216060554e+01    0.2815405    0.2061699 -63.87 0.0008080706    1.612    0.379
       360  -9.6657    121.8621    112.6544   7.7039746286e+01   3.5796584695e+01    0.3753041    0.3107302 -82.70 0.0009666831    1.495    0.331
       361 -10.3708    119.2807    106.0874   7.5989468733e+01   3.7815467841e+01    0.5966478    0.4702772 -39.81  0.002160545    1.251    0.201
       362 -10.6440    108.5970     98.6124   7.7006642133e+01   4.1668992948e+01    0.8783596    0.5304585  70.43  0.001168572    3.393    0.705
       363  -9.2736    107.9552     92.1300   7.5320244527e+01   4.3209987091e+01    0.6864265    0.3355092  32.28  0.002484174    2.488    0.598
       364  -8.4582    159.2414    111.9164   6.7293455636e+01   2.7795344355e+01    0.2382148    0.2046522 -62.93 0.0006055741    1.244    0.196
       365  -9.9884     66.4443    110.6344   9.3714497683e+01   4.6121151324e+01    0.4590001    0.3092653 -80.21  0.001358803    1.974    0.493
       366 -10.2267     13.9417    110.9365   1.1152605267e+02   5.1451879251e+01    0.4487719    0.2738317  73.22  0.001939156    2.070    0.517
       367 -10.3960    249.2068    108.1271   5.0264215363e+01   9.6980096562e+00    0.4229155    0.2755373 -44.67  0.002324519    1.291    0.225
       368 -10.1747    248.4768    102.6811   4.9202708233e+01   1.0730191187e+01    0.3330418    0.2822076  43.22  0.002075321    1.441    0.306
       369  -7.8632    189.3621    108.1535   5.9953341743e+01   2.1807060351e+01    0.2201533    0.1295609 -49.34 0.0004566465    1.695    0.410
       370  -8.0915      5.9487    109.0000   1.1388140266e+02   5.2417710663e+01     0.175105   0.07432999  15.18 0.0007524631    2.909    0.656
       371  -9.3029    110.6066    106.8495   7.8706032735e+01   3.9415724076e+01    0.3882965    0.2157888  25.56  0.001415717    2.471    0.595
       372  -9.3328    140.1224    104.9218   7.0060803197e+01   3.3560260820e+01    0.3919788    0.3001633  80.72  0.001109289    1.753    0.430
       373 -10.6452     45.6971    102.3021   9.8958075624e+01   5.0783755967e+01    0.7992324    0.4589328  68.45   0.00305007    3.359    0.702
       374 -10.6613     23.0710    102.8055   1.0706697257e+02   5.2790739650e+01     0.742458    0.4119699  71.11  0.002604231    2.948    0.661
       375  -8.4516    166.7777    104.2978   6.3596984100e+01   2.7647481814e+01    0.2651775    0.1993268 -54.67 0.0006625204    1.384    0.277
       376  -9.5929    150.6318    103.1307   6.6976096645e+01   3.1568525929e+01    0.4978295    0.2864643 -59.32  0.001074716    2.289    0.563
       377  -9.2552      6.6945    103.0524   1.1277979100e+02   5.3820768265e+01    0.2620751    0.1712717  86.30 0.0008817895    1.686    0.407
       378  -9.3056     43.1736    109.3714   1.0134762890e+02   4.9320629647e+01    0.3465497    0.1439341  19.02  0.001320922    3.123    0.680
       379  -9.9420    128.3918    102.0400   7.2341615345e+01   3.6762987590e+01    0.4139926    0.3047537 -58.76 0.0009173992    1.521    0.342
       380  -7.9707    175.4540    102.1971   6.1206709353e+01   2.6082846783e+01    0.2202038    0.1377095 -51.89 0.0005750268    1.666    0.400
       381  -8.2140    159.9160    101.1162   6.4271694970e+01   2.9856305608e+01    0.2378781    0.2026997 -69.43 0.0004773814    1.295    0.228
       382  -9.1653     82.1800    100.1143   8.5783337477e+01   4.6217634974e+01    0.3592571    0.2590116 -73.99  0.001087833    1.837    0.456
       383 -10.2117     63.7357     95.4795   9.0881710938e+01   5.0147314924e+01    0.7470644    0.4393714 -72.51   0.00199973    2.516    0.603
       384  -8.6796     64.2040     88.1920   8.8736427649e+01   5.1762959249e+01    0.3222377    0.1931113 -19.70  0.001337989    2.305    0.566
       385 -10.2780     86.5684     85.9988   8.0277585430e+01   4.8631313559e+01    0.6957151    0.4277717 -54.99   0.00157225    1.794    0.442
       386  -9.3086     95.0434     97.0939   8.0756602883e+01   4.4635955780e+01    0.3592579    0.2585745 -61.62 0.0005759666    1.600    0.375
       387  -9.9724     93.7559     91.5253   7.9561293068e+01   4.6113838461e+01    0.3116522    0.2654143  33.85 0.0002742526    1.201    0.167
       388  -8.8411    189.3396     95.0704   5.6663109869e+01   2.4274037668e+01    0.3449022    0.1327593 -39.07  0.001222977    2.460    0.594
       389  -8.5856    151.5129     95.2604   6.4601631821e+01   3.2963689664e+01    0.3669746     0.226727  17.55  0.001273173    3.037    0.671
       390  -8.2032    164.8604     94.1459   6.1297466077e+01   3.0084417269e+01     0.237809    0.2012532 -66.84 0.0005142058    1.273    0.214
       391  -9.2874    139.0198     92.0240   6.6720475055e+01   3.6481362289e+01    0.4800228    0.2954832 -55.34  0.001462963    1.889    0.470
       392  -9.2616     46.0665     92.4640   9.6524942147e+01   5.3102870126e+01     0.437149     0.248181  -9.23  0.001816269    2.682    0.627
       393  -9.4580    247.1879     93.1457   4.7333478576e+01   1.2524843744e+01     0.256277    0.1494742  34.50  0.001175861    2.803    0.643
       394  -8.2724    176.3423     93.1041   5.8643094156e+01   2.7616217771e+01    0.2208565    0.1841106 -49.80 0.0006329764    1.165    0.141
       395 -10.3967    124.0877     91.3806   7.0460567442e+01   3.9954412987e+01    0.5973018     0.463054  36.82  0.001146818    1.320    0.242
       396  -9.5372      5.1128     92.2657   1.1165213721e+02   5.6490481113e+01    0.3463048    0.2019201  63.02  0.001325353    2.417    0.586
       397  -7.8472    157.8346     91.8583   6.2210129891e+01   3.2163188151e+01    0.2115054    0.1788878 -69.63 0.0004373554    1.304    0.233
       398  -9.8201     34.8009     89.9227   1.0013387208e+02   5.4878245527e+01    0.4582667    0.2769505 -82.13   0.00176525    2.351    0.575
       399  -9.3452     22.9822     90.2529   1.0466652574e+02   5.5819697556e+01    0.3381218    0.2582361 -18.93   0.00133261    1.395    0.283
       400  -7.9031    151.1450     89.2068   6.2989084231e+01   3.4236850938e+01    0.2119996    0.1790813 -70.37 0.0004081292    1.326    0.246
       401  -8.1770    163.9953     86.9599   5.9517361147e+01   3.1648509315e+01    0.1847984    0.1717064 -46.35 0.0003819609    1.059    0.056
       402  -9.8558     48.4625     84.1380   9.3484247555e+01   5.4756156950e+01    0.5121019    0.3488425  77.58  0.002004626    2.671    0.626
       403  -9.7664    104.7857     83.1440   7.3568463491e+01   4.5737886949e+01    0.4909971    0.3461435 -69.15  0.001103103    2.066    0.516
       404  -8.8779    105.8547     76.7393   7.1235292116e+01   4.6799374957e+01    0.3367334    0.1948966  27.13  0.001079131    2.205    0.547
       405  -8.3216    157.9439     84.0917   6.0016863314e+01   3.3608368672e+01    0.2302427    0.1998358 -71.41 0.0004404511    1.242    0.195
       406  -9.0762    140.8883     82.7087   6.3548286419e+01   3.7871929726e+01     0.413287    0.2109787 -46.77 0.0009704887    2.047    0.512
       407  -9.6423      9.8672     81.1137   1.0784905600e+02   5.8841073290e+01    0.3465425     0.209653  65.05  0.001403492    2.569    0.611
       408  -8.4723     63.8591     82.3986   8.7202800893e+01   5.3109866587e+01     0.189436    0.1743833 -57.26 0.0004799918    1.199    0.166
       409  -8.1485     35.4622     82.4867   9.8087603329e+01   5.6543686952e+01     0.137525    0.1142475 -39.54 0.0001530682    1.031    0.030
       410  -9.6267     24.5506     80.4894   1.0191169867e+02   5.7973611737e+01    0.4127356    0.2580101 -87.01  0.001365775    2.378    0.579
       411  -8.8350    249.7577     81.0464   4.4448576537e+01   1.3959967323e+01     0.175196   0.09258839 -40.69  0.000566023    1.581    0.367
       412  -8.2073    150.3211     80.4728   6.0678451741e+01   3.6077790952e+01    0.2589236    0.1764884 -58.99 0.0006199988    1.724    0.420
       413  -8.7321    119.1371     80.1846   6.8459824859e+01   4.3287934173e+01     0.324656    0.2096062 -47.55 0.0007952725    1.622    0.383
       414  -8.8362     74.4642     80.2916   8.2721399935e+01   5.1930694273e+01    0.3489182    0.2316897 -64.74  0.001122171    2.028    0.507
       415  -8.3324    166.8727     79.4146   5.6838602436e+01   3.2340520052e+01    0.2545822     0.190894 -48.53 0.0004974245    1.327    0.247
       416  -9.3555    128.1014     75.3553   6.4548170038e+01   4.2197951537e+01       0.3774     0.253244 -58.04 0.0007236382    1.836    0.455
       417  -7.8186    157.4381     76.5492   5.7985497750e+01   3.5095977558e+01    0.1497625    0.1426558 -78.57 0.0002343496    1.051    0.049
       418  -8.5042    140.6451     75.5432   6.1477193992e+01   3.9257524797e+01    0.2538538    0.1750814 -57.85 0.0006616815    1.706    0.414
       419 -10.0205     63.0223     73.5239   8.4821110080e+01   5.5143629612e+01    0.4542834    0.2688003 -56.62  0.001066505    1.917    0.478
       420  -8.3977    163.4781     73.4724   5.5861868953e+01   3.4189269587e+01    0.2881923    0.1436393 -38.54  0.000786632    1.989    0.497
       421  -9.6949     82.2763     72.6399   7.7546418410e+01   5.2179208481e+01    0.3812037    0.2928759 -72.20 0.0009327006    1.904    0.475
       422  -8.3267    151.4034     73.2454   5.8333308029e+01   3.7117775318e+01    0.2093443    0.1374856 -48.28 0.0005605367    1.584    0.368
       423  -8.7295    115.7880     72.9445   6.7125124528e+01   4.5401896822e+01    0.2593242    0.2011506 -45.16 0.0006362592    1.340    0.254
       424  -8.5818     42.5479     72.5784   9.2578264308e+01   5.8012138094e+01    0.2995861    0.1613641 -60.19  0.001175265    2.011    0.503
       425  -7.7213    175.4776     72.5375   5.3295717275e+01   3.1481364873e+01    0.1456509    0.1390965 -77.44 0.0001139505    1.006    0.006
       426  -8.9051    105.8711     71.6592   6.9594376853e+01   4.7770696284e+01    0.2782864    0.1927404 -57.60 0.0006280413    1.809    0.447
       427  -9.2160     95.1647     71.2075   7.2772429988e+01   5.0036222272e+01    0.3436635    0.2411639 -57.04 0.0008710035    1.763    0.433
       428  -9.5966     51.4829     69.7087   8.8114824342e+01   5.7543263216e+01    0.4835523    0.2935596 -69.91  0.001527387    2.740    0.635
       429  -9.1370     29.6771     70.1187   9.7191220932e+01   5.9858926956e+01    0.5475864    0.2423464 -16.81  0.001894186    4.278    0.766
       430  -9.5304     16.8253     68.3998   1.0217468406e+02   6.1268562568e+01    0.7422515    0.1768554 -56.82   0.00281253    2.964    0.663
       431  -7.7082    157.2222     69.9497   5.6133840099e+01   3.6291650352e+01    0.1909668    0.1207223 -38.49 0.0003832713    1.592    0.372
       432  -8.7996    147.2063     68.5186   5.7861262709e+01   3.8935983954e+01    0.3060064    0.2290278 -71.09 0.0006483792    1.661    0.398
       433  -9.0505    138.6850     66.1524   5.9085535825e+01   4.1365037751e+01    0.3412992    0.2148693 -56.47 0.0009712765    1.955    0.488
       434  -8.8266    121.5988     66.0638   6.3323603296e+01   4.5346005990e+01    0.3139122    0.2373345 -65.92 0.0007017379    1.715    0.417
       435  -9.0469     83.7596     65.5320   7.4658723300e+01   5.3291917007e+01    0.4363745    0.2509927   1.83   0.00147246    3.747    0.733
       436  -8.9995    110.1999     63.4499   6.5612518393e+01   4.8333877897e+01    0.3191468    0.2235336 -50.58 0.0008169451    1.632    0.387
       437  -8.4138     95.4739     64.4773   7.0416996627e+01   5.1232996565e+01    0.1486796    0.1325585   5.26 0.0001185452    1.089    0.082
       438  -8.8289     64.1897     63.2351   8.1001355641e+01   5.7050819150e+01    0.2924292     0.190023 -10.63  0.000877219    1.914    0.477
       439  -8.1307    158.4377     61.9491   5.3569700470e+01   3.7314306565e+01     0.212343    0.1420566 -37.57 0.0003854235    1.521    0.343
       440  -9.1712     97.7025     60.6282   6.8392390551e+01   5.1467430201e+01    0.3242474    0.2571341  62.91  0.001024858    1.540    0.350
       441  -9.5855     73.3038     59.6376   7.6322878630e+01   5.6249550934e+01    0.3641303    0.2406614 -52.98  0.001121912    1.836    0.455
       442  -8.0221    147.1153     59.1894   5.5072830715e+01   4.0488479964e+01    0.2010052    0.1680233 -68.87 0.0004480259    1.324    0.245
       443  -9.1344     37.2944     64.4736   9.2340215145e+01   6.0314627627e+01    0.2780184    0.2220232 -76.36 0.0009978627    1.724    0.420
       444  -9.8716     23.3937     56.3968   9.5975315287e+01   6.3316734673e+01    0.4119233    0.2859136  88.34  0.002052657    2.776    0.640
       445  -9.6297      7.5636     57.2576   1.0342699392e+02   6.4255276509e+01    0.2902128    0.2033785 -86.27  0.001020054    2.012    0.503
       446  -8.5712    130.7246     57.9447   5.8395479259e+01   4.4593097278e+01    0.2017141    0.1888887 -38.80 0.0005077574    1.114    0.102
       447  -9.0836    119.0814     55.6467   6.0564164922e+01   4.7655474583e+01    0.3916577    0.2271848 -45.83   0.00148947    1.919    0.479
       448  -8.4334    139.8556     56.0712   5.5691302895e+01   4.2720773354e+01    0.2219007     0.193036 -71.26 0.0005075546    1.272    0.214
       449  -8.8962     44.0618     55.4240   8.6497923114e+01   6.1364017419e+01    0.2722692    0.1743165 -53.99 0.0009415162    1.731    0.422
       450  -9.2287     62.7489     53.6704   7.8177327998e+01   5.9071592595e+01    0.5565655    0.1849323 -46.85  0.001826151    3.252    0.693
       451  -8.9937     53.9704     53.6965   8.1715989177e+01   6.0379096251e+01    0.3432786    0.1884247 -55.72  0.001297843    2.444    0.591
       452  -8.5899    105.9211     53.4128   6.3413519435e+01   5.0940550650e+01    0.2592559    0.1971171 -53.91 0.0007244223    1.595    0.373
       453  -9.5556     92.3967     50.5731   6.6493656659e+01   5.4234231220e+01    0.4211207    0.2419727 -46.11  0.001384626    2.020    0.505
       454  -8.1417     74.9819     51.5087   7.2760656041e+01   5.7400154627e+01    0.2038538    0.1108099  19.53 0.0008105348    2.593    0.614
       455  -8.8374    145.0026     48.9877   5.2394254700e+01   4.2540629744e+01    0.2252171     0.166468 -67.55 0.0005228553    1.625    0.384
       456  -8.0962    129.6087     48.8184   5.5702159325e+01   4.6252439970e+01     0.195399    0.1310669 -44.74 0.0003573446    1.618    0.382
       457  -8.6210    120.9449     47.4670   5.7336089078e+01   4.8476162781e+01    0.2027837    0.1922603 -17.67 0.0004732597    1.106    0.096
       458  -8.6622    112.1605     46.8135   5.9374685606e+01   5.0575669191e+01    0.2336753     0.188826 -46.76 0.0006045121    1.391    0.281
       459  -9.0326     82.2144     46.5051   6.8335656808e+01   5.6887220200e+01    0.2777674    0.2198284 -52.88 0.0007754279    1.614    0.381
       460  -8.3715     45.0710     44.6726   8.2146256423e+01   6.3228744349e+01    0.2070679    0.1641751 -42.83 0.0006379369    1.363    0.266
       461  -9.0102     16.6338     44.7904   9.5479493215e+01   6.6179423369e+01    0.2004919    0.1783118 -82.08 0.0006980996    1.637    0.389
       462  -8.8065     92.7948     42.9422   6.3546677869e+01   5.5327218671e+01    0.2746862      0.19033   2.46  0.001352623    1.754    0.430
       463  -8.9537     58.1748     42.6456   7.5808561838e+01   6.1692589371e+01     0.305272     0.205874 -55.96   0.00122028    2.203    0.546
       464  -8.1651    132.5589     43.1099   5.3171168629e+01   4.6361311283e+01    0.2051056    0.1393666 -32.82 0.0005788949    1.566    0.361
       465  -9.3879     69.7173     41.4419   7.0833186699e+01   5.9972819321e+01    0.4046594    0.2652904 -50.10  0.001548577    2.011    0.503
       466  -9.6172      5.2364     42.1243   1.0028183707e+02   6.7470629571e+01     0.290695    0.2007414 -75.15  0.001336429    2.001    0.500
       467  -8.8222    105.9882     41.4400   5.9138455083e+01   5.2722532497e+01    0.2459131    0.1907524 -49.02 0.0005746228    1.522    0.343
       468  -7.8279    140.4519     41.4845   5.0981620219e+01   4.4686015534e+01    0.1399036    0.1309075  72.70 0.0002030501    1.043    0.042
       469  -8.6333     36.7946     40.7251   8.4359820530e+01   6.4957316380e+01    0.2366507    0.1666556 -48.52 0.0008106399    1.580    0.367
       470  -7.7786    156.2530     39.3621   4.7352609325e+01   4.1124519278e+01     0.136069    0.1054746  23.45 0.0004692042    1.619    0.382
       471  -9.1660     95.5384     37.9233   6.0824508291e+01   5.5469120204e+01    0.2706501    0.2169516 -44.17 0.0007831078    1.453    0.312
       472  -8.6379     80.8089     36.7363   6.5026014276e+01   5.8622594353e+01    0.2363973    0.1727775 -57.14  0.001039705    2.033    0.508
       473  -7.5440    133.4968     36.4793   5.0809867343e+01   4.7014515867e+01    0.1390899    0.1283172  59.35 7.670175e-05    1.016    0.016
       474  -8.7646    125.6616     35.6345   5.2221445769e+01   4.8986503220e+01    0.2512932    0.1965403  50.42 0.0005415094    1.166    0.142
       475  -9.3996     26.0640     35.4091   8.7429316404e+01   6.7068351733e+01     0.260384    0.2073624 -49.78 0.0009609041    1.507    0.336
       476  -8.6460    111.8198     34.7205   5.5185169156e+01   5.2314397751e+01    0.2587523    0.1815207 -42.83 0.0007089425    1.614    0.380
       477  -8.6431    119.2859     33.3888   5.2906600720e+01   5.0763529358e+01    0.2242341    0.1559536 -51.16 0.0006177876    1.731    0.422
       478  -8.9420     48.5157     33.3549   7.6076862166e+01   6.4631947166e+01    0.2201867    0.2086404  38.96 0.0006953013    1.471    0.320
       479  -8.5983     60.8509     32.7766   7.0701042464e+01   6.2794610151e+01    0.2093398    0.1825083 -32.55 0.0005276263    1.335    0.251
       480  -7.6210    139.2962     31.6510   4.8094481777e+01   4.6215690296e+01     0.140738    0.1016926 -68.46 0.0007033696    1.679    0.404
       481  -8.7729     71.9893     30.5974   6.5590996743e+01   6.1141708266e+01    0.2818239    0.1627518 -40.94  0.001201008    2.004    0.501
       482  -8.9763     12.8616     30.3845   9.2267454685e+01   6.9142003782e+01    0.2684647    0.1563009 -54.14  0.001074149    1.855    0.461
       483  -8.3850    101.5148     29.4217   5.5921948444e+01   5.5278778750e+01    0.2447677    0.1782719 -49.20 0.0007686581    1.709    0.415
       484  -7.9591     41.9889     30.0103   7.7563807515e+01   6.6065331400e+01    0.1538149    0.1234462 -10.77 0.0003733799    1.050    0.048
       485  -8.3160    229.8423     28.8777   3.5376101330e+01   2.5369365442e+01       0.1718    0.1603242  82.25 0.0007249582    1.276    0.216
       486  -8.8353     81.5085     27.3767   6.1021032283e+01   5.9730676241e+01    0.2765369    0.1988718 -47.66 0.0009290128    1.826    0.452
       487  -9.4221      3.5930     27.3353   9.6160800959e+01   7.0339860017e+01    0.2861857     0.166997 -60.85  0.001504559    2.061    0.515
       488  -8.9388     91.8215     26.4474   5.7485968885e+01   5.7726140929e+01    0.2712214    0.1851813 -38.40 0.0009811748    1.674    0.403
       489  -7.8521    145.5117     25.5090   4.5041257757e+01   4.5421784417e+01     0.135621    0.1217823  77.62 3.683355e-05    1.050    0.048
       490  -8.0376     34.7936     23.5662   7.8101532986e+01   6.7984699634e+01    0.1615028    0.1069994  37.92 0.0009485139    1.762    0.433
       491  -8.9050    118.8203     21.0524   4.8706058040e+01   5.2285368397e+01    0.4177633    0.2054849  53.55  0.001948305    1.734    0.423
       492  -8.9844     63.6079     21.1468   6.4591003113e+01   6.3877989230e+01    0.2870533    0.1950209 -45.61  0.001038308    2.019    0.505
       493  -8.9860     48.3432     21.6849   7.1005782960e+01   6.6343747908e+01    0.2078765    0.1981189 -42.91 0.0006608345    1.563    0.360
       494  -8.0520     19.5048     21.5061   8.5007283179e+01   7.0034569515e+01    0.1188572   0.09297927 -13.37 -5.590875e-05    1.044    0.042
       495  -9.1023     74.0752     19.3479   6.0089433297e+01   6.2143656469e+01    0.2497001    0.1786818 -36.24  0.000774211    1.631    0.387
       496  -7.9713    191.4975    249.5183   8.8205826633e+01  -4.7715678033e+00    0.1234222    0.1006744  17.06 0.0003063406    1.057    0.054
       497  -8.3924     38.7144     18.2155   7.3737883666e+01   6.8218584712e+01    0.1728289    0.1441218 -30.99 0.0008884505    1.438    0.305
       498  -7.5595    112.9740     16.7629   4.8448686880e+01   5.4079635922e+01    0.1706211   0.09851098  58.34 0.0003267564    1.515    0.340
       499  -8.0514     30.3760     16.2283   7.6854569113e+01   6.9593394042e+01    0.1558227    0.1022911 -39.49 0.0009421307    1.712    0.416
       500  -8.3542     97.1556     15.1563   5.1587230465e+01   5.7800281307e+01    0.1633255    0.1526317 -66.72 0.0004079147    1.325    0.245
       501  -8.3121     87.7321     17.5840   5.5109921452e+01   5.9577860787e+01    0.1937138    0.1530794 -49.03 0.0005964885    1.648    0.393
       502  -7.9325     17.1709     14.2019   8.2908526521e+01   7.1379397611e+01    0.1423536    0.1241546 -11.58 0.0004689459    1.333    0.250
       503  -9.0535    175.6357    247.7675   9.1084492849e+01  -2.2231751999e+00    0.2947701    0.2437931  82.77  0.001108614    2.068    0.516
       504  -7.6820     47.6958     10.3450   6.5883784656e+01   6.7841283606e+01    0.1037249   0.09816979 -53.51 0.0007040932    1.689    0.408
       505  -8.4071    156.3768    248.2706   9.5061623799e+01   5.5674481960e-01    0.2574182    0.1616073  58.83 0.0008081257    2.349    0.574
       506  -8.8760    132.3121    248.0096   9.9987928121e+01   4.2224513687e+00    0.2835326    0.1971266  75.49 0.0008064299    2.155    0.536
       507  -8.3182    113.2727    248.6673   1.0401164386e+02   6.9419705152e+00    0.2072697    0.1489438 -80.57 0.0008828089    1.778    0.438
       508  -9.3872    103.7948    246.8486   1.0576672970e+02   8.6605749288e+00    0.4527153    0.2585346 -89.63  0.002109339    2.901    0.655
       509  -9.0293    242.9601    246.5544   7.8160512538e+01  -1.1109381041e+01    0.3587873    0.1588583 -29.03  0.001716511    2.123    0.529
       510  -9.3455    233.0070    246.6280   7.9939735488e+01  -9.9058397175e+00      0.40452    0.2108738 -19.22  0.002229699    1.968    0.492
       511  -8.6685    218.5314    246.9912   8.2646984278e+01  -8.1036496443e+00    0.3264574    0.1069991 -37.42  0.001443892    3.129    0.680
       512  -8.0581     63.5272    248.4880   1.1409606108e+02   1.3884743499e+01    0.1192722   0.09865362  58.55 0.0006942919    1.051    0.049
