#   1 NUMBER                 Running object number                                     
#   2 MAG_AUTO               Kron-like elliptical aperture magnitude                    [mag]
#   3 X_IMAGE                Object position along x                                    [pixel]
#   4 Y_IMAGE                Object position along y                                    [pixel]
#   5 X_WORLD                Barycenter position along world x axis                     [deg]
#   6 Y_WORLD                Barycenter position along world y axis                     [deg]
#   7 A_WORLD                Profile RMS along major axis (world units)                 [deg]
#   8 B_WORLD                Profile RMS along minor axis (world units)                 [deg]
#   9 THETA_WORLD            Position angle (CCW/world-x)                               [deg]
#  10 FWHM_WORLD             FWHM assuming a gaussian core                              [deg]
#  11 ELONGATION             A_IMAGE/B_IMAGE                                           
#  12 ELLIPTICITY            1 - B_IMAGE/A_IMAGE                                       
         1 -13.9982    201.1937     35.2408   4.1594418785e+01   3.0709921238e+01    0.8317957    0.6876376  55.26  0.001651843    1.298    0.230
         2 -14.1973    223.7419      9.4306   3.3312323674e+01   2.8615294294e+01    0.8347678     0.697121 -69.95  0.004206015    1.037    0.036
         3 -11.5904     58.4004      2.7993   6.0098495177e+01   6.6342090101e+01    0.1722645    0.1021056  -4.47 0.0009618403    1.734    0.423
         4 -11.3387     93.7480    205.4220   1.0479412226e+02   1.9051490098e+01    0.1848675     0.126549  25.84 0.0009505886    1.641    0.391
         5 -19.4440     15.3287    147.5143   1.1692161086e+02   4.1995452777e+01     19.31684     6.433857 -79.37   0.07367428    3.058    0.673
         6 -11.3556     49.0272    216.7743   1.1582614141e+02   2.2618282441e+01    0.4243949    0.2886689  70.60  0.002581627    1.340    0.254
         7  99.0000     26.4877    203.9020   1.1945074313e+02   2.7876690527e+01     0.597194    0.1400645  39.26  0.002469192    3.301    0.697
         8 -10.6502     61.5498    194.4411   1.1081739196e+02   2.5984925937e+01    0.2215271    0.1680506 -86.87 5.589583e-05    1.252    0.201
         9 -11.9743     63.2463    200.0314   1.1106593331e+02   2.4504159838e+01    0.4367554    0.1858051 -57.57  0.000784864    2.323    0.569
        10 -11.6527     66.5627    195.1597   1.0974255364e+02   2.5170459266e+01    0.3179569     0.246094  76.82 0.0009498396    1.245    0.197
        11 -16.7074     70.6683    147.4592   1.0175552053e+02   3.6068403179e+01     7.612671     3.820462  88.28   0.01523264    5.706    0.825
        12 -11.9182    192.8925    194.5257   8.0895342023e+01   4.5766275047e+00    0.8027178     0.408051 -61.44  0.002262669    6.533    0.847
        13 -13.1296     52.9231    194.7085   1.1282648196e+02   2.6997135896e+01    0.5357876    0.2903953 -45.63  0.001529569    2.377    0.579
        14 -11.6566     31.5948    195.4610   1.1766552374e+02   2.9223143713e+01    0.2386791    0.1463372  60.97 0.0007206756    1.520    0.342
        15 -10.7705     82.2204    194.9554   1.0606347026e+02   2.3057617535e+01    0.2405942    0.1931285  42.07 0.0009731714    1.216    0.178
        16 -12.7329    147.1468    187.3448   8.9519035843e+01   1.4057011293e+01    0.5280047    0.2991618 -63.81  0.002126941    2.559    0.609
        17 -10.9751     57.1743    211.4858   1.1361122295e+02   2.2756504227e+01    0.3322888    0.2403839  36.12 0.0008365807    1.425    0.298
        18 -10.3726     62.8753    213.9680   1.1263614463e+02   2.1503839050e+01    0.1683842    0.1658667 -46.75 0.0004253269    1.293    0.226
        19 -12.0893     91.3642    183.3286   1.0220715276e+02   2.4364086322e+01    0.2637074    0.2281572  86.03 0.0006421309    1.162    0.139
        20 -12.8226     99.2196    181.0546   9.9915835890e+01   2.3664956140e+01    0.3006122    0.2887185  -4.74 0.0007748129    1.165    0.142
        21 -11.5767    186.6536    174.5844   7.8213009523e+01   9.3807162500e+00    0.3609506    0.3239625 -46.79   0.00108405    1.248    0.199
        22 -11.3435     55.4673    206.0964   1.1344345518e+02   2.4140107754e+01    0.3469613    0.2227507 -86.19  0.001082773    1.542    0.351
        23 -11.6248     41.6169    207.4713   1.1655981091e+02   2.5474960104e+01    0.3624667    0.1906275  78.76  0.001813013    2.077    0.519
        24 -12.4944     51.7708    171.7252   1.1042404051e+02   3.2525634719e+01    0.3522878    0.3087529   9.47 0.0005113315    1.438    0.305
        25 -12.1713     47.7036    172.3159   1.1151116875e+02   3.2857757667e+01    0.3577764    0.2215017 -55.53  0.001446555    1.585    0.369
        26 -11.0486    148.0047    174.3274   8.6820105732e+01   1.6651361499e+01    0.2086114    0.1887383  32.90 0.0004039585    1.079    0.073
        27 -11.1001     89.1179    210.8796   1.0654042969e+02   1.8565556435e+01    0.2275893    0.1801733 -83.14 0.0006805235    1.312    0.238
        28 -13.4576     93.5347    150.5197   9.5983444570e+01   3.1870604262e+01    0.6729686    0.5375983 -22.79   0.00337616    1.506    0.336
        29 -12.5550    133.7159    144.9410   8.4092340092e+01   2.5936445128e+01     1.204722    0.2879868 -53.88  0.002541296    6.899    0.855
        30 -12.2028    105.9447    136.9383   8.9714143973e+01   3.3051034567e+01    0.5647209    0.3045653 -31.00  0.002024717    2.683    0.627
        31 -11.8020    106.0047    130.8011   8.8300052743e+01   3.4511039870e+01    0.4187838    0.3334219 -57.68  0.001191301    1.258    0.205
        32 -12.4144     93.5962    136.7081   9.3148326394e+01   3.5236258697e+01    0.2930574    0.2519356 -43.63 0.0007973813    1.138    0.121
        33 -10.9796    112.5875    150.7773   9.0889287502e+01   2.8548473016e+01    0.2113879    0.1452928 -64.66 0.0005091049    1.608    0.378
        34 -11.8962    113.4988    128.6701   8.5694414531e+01   3.3630249237e+01    0.3135783    0.2597067  -0.23 0.0006355731    1.422    0.297
        35 -11.1668    101.0329    124.5536   8.8253274952e+01   3.6895938066e+01    0.2827161    0.2360861 -22.73 0.0005968613    1.303    0.233
        36 -11.7728    120.0762    122.7864   8.2430146427e+01   3.3730440266e+01    0.3156283    0.2045644 -22.41  0.001252865    2.104    0.525
        37 -10.9564    135.0000    119.9760   7.7715089635e+01   3.1328241067e+01    0.2659399   0.08811904 -45.17 0.0008034149    2.949    0.661
        38 -10.5024    109.2926    118.0061   8.4254931643e+01   3.6922347191e+01    0.2153281    0.1931669 -45.30 0.0002914984    1.077    0.071
        39 -10.7526    231.3175    113.8801   5.6260842802e+01   1.2022093051e+01    0.2356562    0.2076557  36.61 0.0007688989    1.282    0.220
        40 -12.7635    117.6491    109.0017   7.9518292060e+01   3.7343351041e+01    0.5308962     0.417404  75.15  0.002441151    1.709    0.415
        41 -10.4268    205.8249    110.1696   5.9653420768e+01   1.7875946138e+01    0.2213333    0.1943215 -58.12 0.0005842196    1.188    0.158
        42 -10.0899     65.4977    207.1542   1.1134947641e+02   2.2636159299e+01    0.4181087    0.2850163 -31.23  0.002156283    2.312    0.568
        43 -13.0447    180.6459     53.9330   4.9407589686e+01   3.3047195782e+01    0.4209033    0.4053483  41.44 0.0007523878    1.122    0.109
        44 -14.5878    195.6433     41.4286   4.3868378637e+01   3.1210610224e+01     1.206546    0.8626552  31.31  0.004662637    1.883    0.469
        45 -10.9484     71.9659    244.7801   1.1370755832e+02   1.4148019918e+01    0.2267657    0.1607311 -65.69 0.0009973512    1.565    0.361
        46 -10.4575     58.5898    225.5952   1.1464818761e+02   1.9618123977e+01    0.3238161    0.1350747  60.26  0.001403805    2.769    0.639
        47 -11.4062     73.8278     12.8366   5.9486021091e+01   6.2506316119e+01    0.1622426    0.1518286  52.17  0.000670455    1.356    0.262
