#   1 NUMBER                 Running object number                                     
#   2 MAG_AUTO               Kron-like elliptical aperture magnitude                    [mag]
#   3 X_IMAGE                Object position along x                                    [pixel]
#   4 Y_IMAGE                Object position along y                                    [pixel]
#   5 X_WORLD                Barycenter position along world x axis                     [deg]
#   6 Y_WORLD                Barycenter position along world y axis                     [deg]
#   7 A_WORLD                Profile RMS along major axis (world units)                 [deg]
#   8 B_WORLD                Profile RMS along minor axis (world units)                 [deg]
#   9 THETA_WORLD            Position angle (CCW/world-x)                               [deg]
#  10 FWHM_WORLD             FWHM assuming a gaussian core                              [deg]
#  11 ELONGATION             A_IMAGE/B_IMAGE                                           
#  12 ELLIPTICITY            1 - B_IMAGE/A_IMAGE                                       
         1 -11.3261     85.7840     20.9886   3.0817170006e+01   6.0775956296e+01    0.3971158    0.2792651 -43.97  0.002024368    1.552    0.356
         2 -10.3134    110.8655     24.5737   2.5848711123e+01   5.4375276118e+01    0.2730914    0.2108352 -80.33  0.001367326    1.585    0.369
         3 -12.3247     96.5967     22.0294   2.8261962300e+01   5.8149951857e+01     0.396566    0.3094412  74.31 0.0005305393    1.463    0.317
         4 -11.1503     49.5502     13.7056   4.0194248799e+01   6.9074686557e+01    0.3319884    0.2585957 -20.39  0.001104492    1.169    0.145
         5 -10.6884     45.6598     12.0126   4.0971937320e+01   6.9988407755e+01    0.2477112    0.2116608  -6.93 0.0006411792    1.014    0.014
         6 -11.3320     20.6350     17.2678   5.7588472056e+01   7.2721484511e+01    0.3734223    0.2765177   4.76  0.002039612    1.420    0.296
         7 -10.5937     66.1153     16.1097   3.4830641480e+01   6.5611895440e+01    0.2883485    0.2516143  42.96 0.0003147402    1.194    0.163
         8 -11.1837     84.9797     15.6419   2.8427788518e+01   6.1620515621e+01    0.3981177    0.1470622  54.82  0.001545912    2.524    0.604
         9 -10.5354      6.2621     14.9417   6.5701992753e+01   7.4542950951e+01     0.261315    0.1687766 -62.31  0.001231298    1.707    0.414
        10 -10.1079    204.1803     13.6138   8.7196313713e+00   3.1640506506e+01     0.224825    0.1668104 -38.47 0.0002639157    1.233    0.189
        11 -10.6883     34.9353     13.6760   4.7330491381e+01   7.1456899696e+01    0.2700112    0.2281989 -11.22 0.0009715044    1.016    0.016
        12  -9.9668     32.4541     10.4963   4.6744586370e+01   7.2311620822e+01    0.1990325    0.1597432 -19.51 0.0006757733    1.066    0.062
        13 -11.6159     69.9905      8.2512   2.9162877549e+01   6.5758702771e+01    0.3945312    0.2563845 -18.15  0.001670021    1.523    0.343
        14 -11.5860     79.5419     12.0123   2.8183511989e+01   6.3261401884e+01    0.3585545    0.2833772  79.09 0.0007368594    1.578    0.366
        15 -11.5910     74.3120      8.7228   2.8037098206e+01   6.4776896962e+01    0.3849967    0.2512336   3.26  0.001494442    1.725    0.420
        16 -10.9221     78.1721      7.8156   2.6381557057e+01   6.4022355711e+01    0.2347487    0.2142629  12.11 0.0004214067    1.026    0.025
        17  -9.6844     27.8066     11.5008   4.9986373218e+01   7.2811747540e+01     0.217608    0.1521252 -31.61 0.0006411748    1.242    0.195
        18 -11.0670    104.7748     10.1325   2.0843925047e+01   5.7510103182e+01    0.3296802    0.2646787 -38.34 0.0009923059    1.311    0.237
        19 -12.1840     56.4659      8.6827   3.4312596645e+01   6.8454632534e+01    0.5010665    0.3683079  28.38  0.002123074    1.313    0.239
        20  -9.5505    119.9964      8.9491   1.7362376851e+01   5.3786429814e+01     0.212282    0.1881439 -57.92 0.0004242476    1.192    0.161
        21 -11.2044    123.6497      6.3402   1.5660894708e+01   5.3086881325e+01    0.3269358    0.2428322  72.58 0.0005059493    1.302    0.232
        22 -11.7575     97.5108      6.6911   2.0835891714e+01   5.9621276523e+01     0.553035    0.3123727 -49.63  0.001334948    2.176    0.540
        23 -12.3605     87.0796      6.3347   2.3165798564e+01   6.2137701268e+01    0.6199912    0.3426312  30.70  0.002832872    2.013    0.503
        24  -9.9278    213.4991      8.3349   6.5658645185e+00   2.9953665848e+01    0.2313878    0.1492371  72.58 0.0006257769    1.582    0.368
        25  -9.5735    177.7007      7.6688   9.3485883991e+00   3.8868738221e+01    0.1380689    0.1010725  36.81 0.0007031205    1.645    0.392
        26 -10.4139    242.9707      5.4617   3.9980288502e+00   2.3621438037e+01    0.2104862    0.1676963 -10.63 0.0006486255    1.537    0.349
        27  -9.3780    134.6247      4.1659   1.3134383971e+01   5.0426987933e+01    0.1891551    0.1789613   8.33 0.0003467547    1.137    0.121
        28 -10.1112    131.2486      3.7375   1.3447807922e+01   5.1344058293e+01    0.4194762    0.2482668  21.49  0.001879892    2.160    0.537
        29  -9.8259    203.1686      4.8450   6.3742376225e+00   3.2772833025e+01    0.2209616    0.1781936  69.87 0.0005420758    1.301    0.231
        30 -10.6271     20.2625      3.4834   4.9418924456e+01   7.5049105139e+01    0.2386091    0.1791767 -24.57  0.000859994    1.119    0.107
        31  -9.1151    229.9820      1.9837   3.8889460799e+00   2.6800234244e+01    0.1551953    0.1256702 -53.30 0.0005421003    1.023    0.023
        32  -9.8156    173.2172      2.1970   8.0599580388e+00   4.0527796414e+01    0.1983789    0.1399094 -61.51 0.0004735717    1.359    0.264
        33 -10.2919     37.9125      1.8490   3.8233718315e+01   7.2638444968e+01    0.2674986    0.1739008  42.01  0.001557988    1.574    0.365
        34 -11.4626    114.3035      1.8075   1.5311111057e+01   5.5869799583e+01    0.4772663    0.1873512  68.89  0.001270737    2.395    0.582
        35 -10.2280      3.6003      8.5376   6.4214193837e+01   7.5955614008e+01    0.2040691    0.1751739 -33.80 0.0007847655    1.143    0.125
        36 -11.0066      5.5524     80.0496   8.4469504679e+01   5.9920792899e+01    0.2696748    0.1621487  68.73  0.001434746    1.890    0.471
        37 -11.2118      2.3043     75.3021   8.5031187786e+01   6.1265859403e+01    0.4203804    0.2366465 -53.37   0.00208532    1.535    0.348
        38  -9.3214    215.8691     78.3978   2.5018158036e+01   2.0367084940e+01    0.1767892    0.1297494  42.30 0.0002785439    1.572    0.364
        39  -9.4972     77.9943     77.9554   5.6350254301e+01   5.1834408267e+01    0.2129508    0.1960481 -53.06            0    1.012    0.012
        40  -9.8012     34.3208     69.9239   7.0614483095e+01   6.0005222332e+01    0.1967918    0.1552534 -57.25 0.0005621901    1.084    0.077
        41  -9.6148     64.0017     69.3771   5.8631763677e+01   5.6149817878e+01    0.1800101    0.1771351  22.77 0.0005672123    1.112    0.101
        42 -10.7378      7.7774     68.7280   8.1622248141e+01   6.2540785856e+01    0.2216276    0.1788272 -80.71 0.0002877689    1.143    0.125
        43 -10.1695    152.1162     66.0512   3.2160610447e+01   3.7675040769e+01    0.2366268     0.226672 -56.62 0.0006154358    1.011    0.011
        44  -9.1634    192.0184     65.7431   2.5021645169e+01   2.7830034631e+01    0.1681709    0.1290434  65.90 0.0002787809    1.395    0.283
        45 -10.5859      4.3481     64.1152   8.2238213947e+01   6.3853239673e+01    0.2493491    0.1620735 -55.12 0.0006408892    1.273    0.214
        46 -11.3973      3.3155     59.3600   8.1767830251e+01   6.5042608009e+01    0.3560726    0.2510806 -45.49  0.001341041    1.306    0.235
        47  -9.6933    203.6321     64.6924   2.3044683530e+01   2.5220497129e+01    0.1474932     0.110317  22.66 0.0007036111    1.755    0.430
        48  -9.1559    126.4689     64.5655   3.7450399634e+01   4.4264614555e+01    0.1530067    0.1484373 -58.27 0.0003277922    1.019    0.019
        49  -9.1080     75.4765     64.5662   5.2795037834e+01   5.5245266992e+01     0.145152    0.1363347 -51.95 0.0001770187    1.053    0.051
        50  -9.6167     85.2494     63.0186   4.8860288608e+01   5.3714864484e+01    0.2875703    0.1933604 -29.89 0.0009730655    1.620    0.383
        51 -10.1834     43.4401     62.3870   6.4584792811e+01   6.0700516951e+01    0.2525138     0.226205 -80.51   0.00102327    1.225    0.184
        52 -10.1917     98.6944     60.8115   4.3754926148e+01   5.1366657214e+01    0.3453168    0.2197716 -67.47  0.001366215    2.394    0.582
        53 -11.1220     14.1439     61.2585   7.7221330510e+01   6.3897924886e+01    0.2509128    0.2096994  11.22 0.0009781548    1.439    0.305
        54  -9.5666    115.4707     61.3500   3.9156925725e+01   4.7472835860e+01    0.2681236    0.1882228  77.42  0.001155883    1.904    0.475
        55 -10.0782     35.1842     60.8985   6.7680992492e+01   6.2031147128e+01    0.2248322    0.1893627   1.89 0.0004346452    1.374    0.272
        56  -9.7939    232.1066     60.1909   1.8340724827e+01   1.9438892353e+01    0.2692931    0.1370338  42.21  0.001151917    2.697    0.629
        57  -9.7985     57.6867     59.8444   5.7855673132e+01   5.9263441360e+01    0.2288226    0.1889208  10.61 0.0005478258    1.398    0.285
        58 -10.8176     22.0146     58.5355   7.2921495522e+01   6.3902078862e+01    0.3167587    0.1613391 -57.94 0.0004444786    1.591    0.371
        59  -9.0481     61.6923     57.7436   5.5510569662e+01   5.9081580876e+01    0.1365942    0.1064084 -12.81 0.0006912956    1.518    0.341
        60  -9.7463    169.3236     56.3204   2.5847664921e+01   3.4918223571e+01    0.1540041    0.1171547  22.72  0.000381955    1.676    0.403
        61  -9.5314     78.1060     55.8484   4.8655194477e+01   5.6561520805e+01    0.2125187    0.1955986 -70.63 0.0004460876    1.208    0.172
        62  -9.9827     63.6156     53.0368   5.2982798848e+01   5.9748445370e+01    0.4642725    0.1287287 -48.57   0.00145824    3.492    0.714
        63 -10.1469     72.0852     52.3662   4.9484163222e+01   5.8387056692e+01    0.2534212    0.1931672 -46.92  0.000167609    1.261    0.207
        64  -8.6319    111.5167     51.4860   3.6582588825e+01   5.0173641638e+01    0.1528571     0.142268   7.37 0.0001606031    1.128    0.114
        65 -10.3826     23.0067     50.7857   7.0177761174e+01   6.5593651234e+01    0.2903925    0.1466303 -33.33  0.001321277    2.262    0.558
        66 -11.5957     93.9986     48.5901   4.0509862153e+01   5.4672202867e+01    0.2762293    0.2112612 -32.38 0.0001350696    1.275    0.215
        67  -9.6859    172.4864     48.4576   2.2863712742e+01   3.5289903798e+01    0.1482316    0.1410301 -57.96 0.0008089544    1.015    0.015
        68  -9.8477     34.9650     48.0155   6.3495896367e+01   6.4945418552e+01    0.2807085    0.1697224 -45.59 0.0008524968    1.424    0.298
        69 -10.7162     37.6607     43.6360   6.0555042198e+01   6.5549315950e+01    0.3926697     0.248551  42.73     0.002054    1.890    0.471
        70 -10.1123     32.5077     43.5458   6.3012643144e+01   6.6193106284e+01     0.207643    0.1934489  31.03 0.0009133315    1.257    0.204
        71 -10.1711      6.4892     45.8165   7.7023531829e+01   6.8005335311e+01    0.3623162    0.1603313 -35.56  0.001263079    2.385    0.581
        72 -10.7543    118.8431     42.6949   3.1329318385e+01   4.9848770818e+01    0.3174923    0.2356255 -34.30 0.0004509179    1.327    0.246
        73  -9.1283     20.4741     44.5346   6.9406243110e+01   6.7223134759e+01    0.1293146    0.1071083 -46.93 9.288855e-05    1.002    0.002
        74  -9.3302     71.5764     42.2589   4.5498276273e+01   6.0410061547e+01      0.20452    0.1280092 -28.81 0.0009479416    1.652    0.395
        75  -9.8298     45.0466     42.3504   5.6577546436e+01   6.4821899924e+01    0.1805795      0.16307   8.23 0.0005282153    1.172    0.147
        76  -9.0050    134.2992     40.3053   2.6962896980e+01   4.6318417770e+01    0.1518517    0.1145179  24.86 0.0002389096    1.590    0.371
        77  -9.5283     90.1396     38.8407   3.7655050869e+01   5.7185329438e+01    0.1986324    0.1643238   0.51 0.0003829843    1.317    0.241
        78 -11.7089     38.3665     37.2405   5.7570477008e+01   6.6764271965e+01    0.5322936    0.3267198  11.31  0.002444775    2.206    0.547
        79  -9.4816     96.0743     38.0216   3.5504458487e+01   5.5990716398e+01    0.2099867    0.2012389 -12.89 0.0003634589    1.012    0.011
        80  -9.0908     66.6614     38.6695   4.5790463900e+01   6.1980414625e+01    0.1462175     0.105604  -0.57 0.0005288991    1.739    0.425
        81  -9.8534     13.4934     34.4839   6.9601977300e+01   7.0004419315e+01    0.2066868   0.08740507 -49.10  0.000990462    1.848    0.459
        82 -10.4496     20.7337     35.6997   6.6052005835e+01   6.9102147080e+01    0.2779113    0.2190695  41.88  0.001700478    1.582    0.368
        83  -9.8177     51.9435     32.9983   4.9292407890e+01   6.5560942908e+01    0.2195114    0.1770239  31.39 0.0004703688    1.315    0.239
        84  -9.8430     48.6906     31.7074   5.0143539775e+01   6.6315577327e+01     0.206426    0.1622059 -33.36 0.0006487163    1.143    0.125
        85  -9.2779    174.0334     34.5199   1.8232702195e+01   3.6798932942e+01    0.2113528    0.1423576  73.24 0.0008137351    1.516    0.340
        86  -9.1435    154.3640     31.8452   2.0268658399e+01   4.2261322944e+01    0.1941148    0.1407305 -12.03 0.0002757936    1.586    0.370
        87 -10.0867     83.4198     31.4127   3.6486193112e+01   5.9822546669e+01      0.43597    0.1940826  40.75  0.001245805    2.456    0.593
        88 -10.1630     17.5954     31.3588   6.6055150741e+01   7.0301794747e+01    0.2101841    0.1749727 -37.56  0.000509188    1.023    0.022
        89 -10.0247    104.0831     28.5827   2.9229201071e+01   5.5505727839e+01    0.3116194    0.1838588 -44.16   0.00096256    1.809    0.447
        90  -9.9893     64.8510     30.0670   4.2484390262e+01   6.3793745182e+01    0.2070263    0.1811674 -46.66 0.0008606114    1.257    0.205
        91  -9.2667     59.0745     29.4844   4.4529653397e+01   6.4951488540e+01     0.193914    0.1321532  40.91 0.0008064769    1.540    0.351
        92  -9.6000     60.5018     25.9887   4.2197402079e+01   6.5261456092e+01    0.2541547    0.1253595 -31.91 0.0009098705    1.963    0.491
        93  -9.4560    153.2026     27.8261   1.9056727659e+01   4.3068660349e+01    0.2137706    0.1841588 -62.57 0.0003411832    1.154    0.133
        94 -10.8233     89.6352     27.7996   3.2883352564e+01   5.8984166707e+01    0.3849562    0.2656684  72.71  0.001837599    1.858    0.462
        95  -9.2062     42.2368     28.5867   5.1672963333e+01   6.7865296774e+01    0.1647791    0.1206373  17.71 0.0004191027    1.494    0.331
        96  -9.6451    222.3110     27.6733   1.0954423799e+01   2.5779870366e+01    0.1470915   0.08354469 -55.97 0.0007040644    1.661    0.398
        97  -9.7784    160.7171     27.1021   1.7683161873e+01   4.1186896599e+01    0.2158598    0.1780094 -52.18 0.0004644928    1.179    0.152
        98 -10.4128      3.9450     31.3541   7.4019637759e+01   7.1363623121e+01     0.261009    0.1697938  31.28 0.0008447744    1.873    0.466
        99  -9.6442    120.1838     25.9781   2.4367516498e+01   5.1863809119e+01    0.3684498    0.1633903  39.25  0.001313121    2.821    0.645
       100 -10.4881      2.3189    235.1021   9.6117958299e+01   2.5654574538e+01    0.1851988   0.07171847 -75.24  0.001095198    2.567    0.610
       101  -8.8751     32.4817     26.4780   5.5598922693e+01   6.9604966318e+01    0.1278321    0.1106852 -29.44 9.302748e-05    1.054    0.051
       102 -11.0212      5.0078    229.7059   9.5471471641e+01   2.6363640971e+01    0.1562804    0.1271899  86.31 0.0007242983    1.340    0.254
       103  -9.3646     49.4997     24.0371   4.5930136274e+01   6.7507413312e+01     0.187679    0.1193004 -35.97 0.0009834148    1.447    0.309
       104 -11.0132      7.3192    227.1829   9.4969436259e+01   2.6602196441e+01    0.2884331    0.0974873  62.16  0.001344522    2.300    0.565
       105 -10.7391     38.3435     22.6712   5.0593989192e+01   6.9479137360e+01    0.2315876    0.1911056  -7.61 0.0003976233    1.145    0.126
       106  -9.9379      2.7423     23.4042   7.1829595564e+01   7.3113782985e+01      0.19349    0.1367295 -15.62  0.001240456    1.473    0.321
       107  -9.0038    195.7269     22.3311   1.1966891727e+01   3.2764458758e+01    0.1491128   0.09006462 -55.35 0.0004196027    1.592    0.372
       108  -9.7959    138.8289     21.9489   1.9258163518e+01   4.7535510391e+01    0.2133056    0.1843072  40.33 0.0004273983    1.208    0.172
       109  -9.8716     72.9328     22.4978   3.5724213713e+01   6.3348600884e+01      0.19579    0.1328555  49.54  0.000472084    1.506    0.336
       110  -9.6876     66.5194     20.5833   3.7059503717e+01   6.4919650103e+01    0.1345599     0.121722   3.76  0.000102104    1.015    0.015
       111 -10.5862     30.5062     20.2813   5.3480856955e+01   7.0980786442e+01     0.335099    0.1552688  37.35  0.001552868    2.392    0.582
       112  -9.4832    239.2776     24.2540   8.7367762230e+00   2.2394309534e+01    0.1794977    0.1204909 -55.96 0.0004757399    1.304    0.233
       113  -9.7865     48.0894     18.9446   4.3834907125e+01   6.8554487012e+01    0.2526542    0.1712046 -58.76  0.001254159    2.284    0.562
       114 -10.7035      3.3321    222.0290   9.5511378130e+01   2.7921013260e+01    0.1532437    0.1047287  71.07 0.0007695196    1.086    0.079
       115  -9.5390     19.6025    214.8203   9.2154077877e+01   2.7710784074e+01    0.1525406   0.08121219  79.30 0.0005407152    1.623    0.384
       116 -10.4757      2.7327    197.0145   9.4681166609e+01   3.2833719069e+01    0.1603283    0.1152747  74.49 0.0004700952    1.053    0.050
       117 -10.6528     13.2797     17.6189   6.2387279130e+01   7.3419644675e+01    0.3296601    0.1523958  26.22  0.001692659    2.421    0.587
       118  -9.1966    200.4153     18.1653   1.0324569143e+01   3.2071087543e+01    0.1906746    0.1096368 -41.27 0.0006556892    1.536    0.349
       119 -10.0475     70.5292     18.4469   3.4486519380e+01   6.4401832673e+01    0.2080762    0.1754063  58.60 0.0006233357    1.343    0.255
       120  -9.9626    238.5101    194.4924   4.6980148266e+01  -6.2294807926e-01    0.1184142   0.09322166   2.53 3.475734e-05    1.001    0.001
       121 -10.3514    244.5768    180.3426   4.3461653102e+01   2.4713218479e-01    0.2234359   0.08967645 -42.91 0.0009572738    3.361    0.702
       122  -9.1506     16.4665    157.4388   8.9360216201e+01   4.0226709260e+01    0.1240477   0.09824886  80.37 0.0002155055    1.012    0.012
       123  -9.7336    183.3357     14.9571   1.1030397537e+01   3.6692768183e+01     0.190066    0.1689457 -50.43 0.0004692837    1.066    0.062
       124  -8.8031      3.3381    156.6850   9.2540906836e+01   4.1516087152e+01    0.1311934   0.06669261  63.32 0.0007047548    1.698    0.411
       125  -9.5312    128.0004     13.9945   1.8026625526e+01   5.1224212056e+01    0.2118707    0.1977856  60.58 0.0003255675    1.034    0.033
       126  -8.9013     59.3102     16.3067   3.7545818595e+01   6.6920473955e+01    0.1367014   0.09505212  11.49 0.0002695222    1.616    0.381
       127  -9.2930     25.2097    146.3615   8.6162785264e+01   4.2015789684e+01    0.1833766   0.09949768  44.18 0.0004404939    1.764    0.433
       128  -9.4149      6.8155    142.0086   9.0679886675e+01   4.4666883125e+01    0.2118809    0.1019148  73.91 0.0006222639    1.941    0.485
       129 -10.0411     10.9048    133.3347   8.8866975672e+01   4.6424537601e+01    0.2251849    0.1404188  85.96 0.0008360047    1.357    0.263
       130 -10.1371     18.1268    131.3635   8.6637255048e+01   4.6302964957e+01     0.185621    0.1402717 -72.85   0.00113649    1.183    0.155
       131  -8.6957     30.0000    122.9078   8.2155829710e+01   4.7288114790e+01    0.2207403   0.06564213 -71.02 0.0007949595    2.891    0.654
       132 -10.6815      6.1838    121.6078   8.9179446487e+01   4.9635240603e+01    0.2137798    0.1380514  88.26  0.000521499    1.287    0.223
       133  -9.3171    103.2431    119.9415   5.9860181733e+01   3.7372080791e+01    0.1984954    0.1801123 -62.92 0.0001958666    1.063    0.059
       134  -8.7981     53.6676    117.2641   7.3975987774e+01   4.5993354951e+01     0.142048   0.09824282  68.84 0.0003564432    1.578    0.366
       135  -9.6039     20.9643    116.3034   8.4094463954e+01   4.9778017588e+01    0.3242806    0.1192408 -57.90   0.00138116    2.355    0.575
       136  -9.4706     13.1437    117.4996   8.6663576547e+01   5.0126828957e+01    0.1614264    0.1261847  32.25   0.00037666    1.502    0.334
       137  -8.8215     79.5528    110.5275   6.4569948165e+01   4.3833369604e+01    0.1475437    0.1359686 -54.46  0.000805645    1.102    0.093
       138 -10.8020     18.3176    108.3492   8.3922413549e+01   5.1987640117e+01    0.2358918    0.1954399 -72.05 0.0002623818    1.087    0.080
       139 -10.7989      2.3372    104.5236   8.8719664621e+01   5.4086493961e+01    0.2920707     0.164891 -53.94  0.001151232    1.706    0.414
       140 -10.2318     11.8482    105.0613   8.5638307060e+01   5.3311618232e+01    0.3341717   0.09401362  41.44  0.001302222    3.529    0.717
       141 -10.3091     26.8576    100.5807   7.9900678590e+01   5.3185326887e+01    0.3950217    0.2074886 -34.16  0.001088087    2.714    0.632
       142  -9.8001     63.9455     96.0368   6.6164170025e+01   4.9841198111e+01     0.279366    0.2354175 -56.03  0.001531363    1.098    0.089
       143 -11.5611      4.0285     96.1421   8.7214917107e+01   5.6049771522e+01    0.3372801    0.2367767 -43.04  0.001047933    1.571    0.364
       144  -9.1473    102.9973     96.1776   5.3858890598e+01   4.2919321888e+01    0.2226613     0.153652 -33.91 0.0004896311    1.632    0.387
       145 -10.6902     40.0154     95.2829   7.4312637144e+01   5.3161820003e+01     0.191858    0.1802415 -84.26  0.001182923    1.099    0.090
       146 -11.0394     19.1621     94.9272   8.1697710448e+01   5.5272943171e+01    0.3450726    0.1631597  33.99  0.001662382    2.308    0.567
       147 -10.6463    132.3121     92.5959   4.4901323131e+01   3.7377192792e+01    0.3018461    0.2771831  65.27 0.0006144601    1.129    0.114
       148  -9.9868      2.3688     88.7795   8.6898831759e+01   5.7962916098e+01    0.1867786   0.08864265 -65.95  0.000488959    1.634    0.388
       149 -10.0639     12.1803     85.6167   8.2788132331e+01   5.8117988606e+01    0.1576731    0.1210371 -13.10 0.0006204645    1.672    0.402
       150 -11.6880     54.7611     78.9353   6.4987635311e+01   5.5313470708e+01    0.2840483    0.2486191 -67.54 0.0003824448    1.090    0.082
