#   1 NUMBER                 Running object number                                     
#   2 MAG_AUTO               Kron-like elliptical aperture magnitude                    [mag]
#   3 X_IMAGE                Object position along x                                    [pixel]
#   4 Y_IMAGE                Object position along y                                    [pixel]
#   5 X_WORLD                Barycenter position along world x axis                     [deg]
#   6 Y_WORLD                Barycenter position along world y axis                     [deg]
#   7 A_WORLD                Profile RMS along major axis (world units)                 [deg]
#   8 B_WORLD                Profile RMS along minor axis (world units)                 [deg]
#   9 THETA_WORLD            Position angle (CCW/world-x)                               [deg]
#  10 FWHM_WORLD             FWHM assuming a gaussian core                              [deg]
#  11 ELONGATION             A_IMAGE/B_IMAGE                                           
#  12 ELLIPTICITY            1 - B_IMAGE/A_IMAGE                                       
         1 -15.0663    172.2757     55.4695   5.0583010225e+01   3.4943173156e+01     1.182539     1.027293  25.82  0.003789731    1.374    0.272
         2 -15.5660    191.2498     28.1239   4.0482734354e+01   3.4009551028e+01     1.158488    0.9427759  54.07  0.004388385    1.338    0.253
         3 -13.3500    189.7321     14.8166   3.7272429558e+01   3.5867589428e+01    0.3255864    0.2400598 -63.05  0.001178078    1.278    0.218
         4 -10.8946    102.3926    238.2498   1.0594661467e+02   1.1254617901e+01     0.165053    0.1438865 -68.07 0.0008355508    1.303    0.232
         5 -14.0280    191.1288    249.5386   8.9646346392e+01  -4.1264012615e+00     1.630024    0.4367462  32.27  0.005882086    3.769    0.735
         6 -15.1058    187.6628    240.6458   8.8958978503e+01  -2.3147113281e+00     1.751185    0.9736797  31.41  0.009494658    1.558    0.358
         7 -18.6857     68.5122    205.8239   1.0957968765e+02   2.2848696629e+01      8.86633     6.193017 -56.82   0.04941153    1.556    0.357
         8 -10.7159    121.2156    229.9221   1.0098330992e+02   9.9432743355e+00    0.2405831    0.1932781  40.37   0.00145548    1.093    0.085
         9 -10.6149    121.7974    225.0237   1.0020282786e+02   1.0788631094e+01     0.198549    0.1654474 -47.94 0.0004048579    1.372    0.271
        10 -13.1749    159.7439    224.9591   9.2134927469e+01   4.6297812125e+00    0.7332069     0.464608 -27.50  0.003308985    1.986    0.497
        11 -12.0754    182.1933    201.4875   8.3461472728e+01   5.0608412919e+00    0.2622193    0.2489857 -43.58 0.0005506218    1.226    0.184
        12 -14.8453    170.6945    221.0365   8.9234914841e+01   3.5231670639e+00     1.089252    0.7664216  10.70  0.005848602    1.606    0.377
        13 -15.5124    185.6354    215.7223   8.5285737477e+01   1.9892469572e+00     1.229161    0.8040736 -28.77  0.006558103    1.638    0.390
        14 -10.0411    129.5943    228.7751   9.9051402752e+01   8.8284369597e+00    0.1303036   0.09455302  15.60 0.0006875671    1.661    0.398
        15 -13.0215    152.8924    217.4627   9.2397718599e+01   7.1180521772e+00    0.4511402    0.3487331 -48.63  0.001375042    1.444    0.308
        16 -12.2717    146.2778    207.6760   9.2246806756e+01   1.0108761501e+01    0.4388343    0.2758963  50.86   0.00179338    1.670    0.401
        17 -11.1483    149.3068    211.7192   9.2245880720e+01   8.8062142986e+00    0.2169979    0.1759829  59.94  0.000571332    1.389    0.280
        18 -10.8283    115.1423    220.5137   1.0103178222e+02   1.2737141530e+01     0.172999    0.1613059 -88.10  0.001088503    1.147    0.128
        19 -13.2925    153.8233    207.5556   9.0574209823e+01   8.8319327936e+00     0.458497    0.3645291 -80.79   0.00232382    1.727    0.421
        20 -13.9524    192.7510    194.7119   8.0031771016e+01   4.4615872782e+00     1.034049    0.5471282 -62.18  0.003427963    4.710    0.788
        21 -11.0549    125.9549    228.5774   9.9797160262e+01   9.4465077839e+00    0.1791657    0.1675974  54.62 0.0004521283    1.084    0.078
        22 -13.4140    163.0265    200.1511   8.7287984873e+01   8.6533090998e+00    0.5923072     0.355241 -64.25   0.00188913    2.556    0.609
        23 -10.5456     99.8000    236.2317   1.0625369357e+02   1.2023777003e+01    0.4261272    0.1747799  28.35  0.001666492    3.189    0.686
        24 -12.4732    170.1959    193.9397   8.4604096400e+01   8.5771636193e+00    0.3092532    0.2408421 -47.43  0.000765251    1.382    0.276
        25  99.0000     12.5324    173.5109   1.1931854870e+02   3.6666195494e+01    0.4628971    0.2009458 -67.33  0.002303458    1.925    0.481
        26 -14.3716    246.0877    167.5334   6.4795461809e+01   2.0465879900e-01    0.8011358    0.5647131 -30.43  0.004651658    1.214    0.176
        27 -11.2999    198.5230    170.5412   7.4047843013e+01   7.8708559591e+00    0.4182207    0.2182777 -54.53  0.001649734    2.623    0.619
        28 -10.4968     30.2978    171.3183   1.1484013061e+02   3.5521605355e+01    0.1259164   0.08995437 -48.12 0.0003847841    1.614    0.380
        29 -12.1249     25.7826    165.3288   1.1534022155e+02   3.7413678581e+01    0.2224691     0.176454  29.46  0.001053094    1.494    0.331
        30 -18.9795     50.5438     93.0397   9.5778840738e+01   5.2547305007e+01       16.776    0.7664089 -57.09   0.02287493   19.462    0.949
        31 -14.8811    230.5515    168.0492   6.7529330305e+01   2.6516941644e+00     1.730934    0.6900409 -25.94    0.0057569    3.869    0.742
        32 -10.3853    161.2940    236.6510   9.3592797581e+01   2.3805356782e+00    0.1226297   0.09696631  65.30 0.0003596284    1.674    0.403
        33 -12.9912    168.9265    231.8691   9.1320591274e+01   1.9684099088e+00    0.4536833    0.2081209 -43.63  0.002120831    2.437    0.590
        34 -11.2572    165.2007    233.0975   9.2266065324e+01   2.3549999964e+00    0.1908151    0.1610262   4.37 0.0005674516    1.198    0.165
        35 -10.6804     22.8161    144.8778   1.1383661720e+02   4.2688374933e+01    0.1545996    0.1271632  74.22 0.0003126735    1.191    0.160
        36 -13.5570    175.5063    232.0415   9.0018831492e+01   9.0022594681e-01    0.3891903    0.2677919  19.85  0.002199512    1.415    0.293
        37 -10.2617     26.9089    140.0000   1.1208225557e+02   4.3527296401e+01    0.1744237   0.07642441  24.81 0.0007637712    2.681    0.627
        38 -11.6060    160.5291    127.9915   7.2554673074e+01   2.4212896611e+01    0.3378427    0.2627816 -70.08  0.001558764    1.563    0.360
        39  99.0000     18.5108    129.1290   1.1308028379e+02   4.6928599294e+01    0.2666325    0.1525129 -45.59  0.001378728    1.782    0.439
        40 -10.9855     19.6685    125.1555   1.1219599032e+02   4.7813678482e+01    0.1760507    0.1722078 -47.90 0.0003460862    1.201    0.168
        41 -11.4996     27.9623    118.4578   1.0862205136e+02   4.8765368764e+01    0.2551142    0.2253921  47.75 0.0006300233    1.288    0.224
        42 -10.3695    183.5081    116.5210   6.4738178728e+01   2.1496139618e+01    0.1516076    0.1448529 -29.12 0.0002414005    1.042    0.040
        43 -11.3036    167.3635    112.3425   6.7066653495e+01   2.5950847605e+01    0.3253251    0.2513508 -78.83  0.001002852    1.663    0.399
        44 -10.5329     31.4742    112.5664   1.0648954222e+02   4.9893758864e+01    0.1342172    0.1148468 -60.38 6.035242e-05    1.014    0.014
        45 -11.3045    205.3551    110.3083   5.9102314492e+01   1.7896917173e+01    0.2796576    0.2607234  42.08 0.0007808174    1.168    0.144
        46 -10.1474      7.4107    110.5436   1.1397001595e+02   5.2234313352e+01    0.1272264     0.100645 -66.57 0.0001688203    1.018    0.017
        47 -10.5844     13.9001    109.4716   1.1172240464e+02   5.2067248993e+01    0.1626275    0.1282894  20.34  0.001010581    1.534    0.348
        48 -10.4608     18.2372    108.6383   1.1017196623e+02   5.1956287970e+01    0.1603669    0.1192569  -9.94 0.0006297923    1.658    0.397
        49 -10.8306     24.2097    104.9794   1.0755502666e+02   5.2372253582e+01    0.2046095    0.1898185 -26.23 0.0007943083    1.194    0.163
        50 -10.7891      6.4812    101.9692   1.1303678840e+02   5.4338682401e+01    0.2054768    0.1531892 -29.63 0.0006473193    1.469    0.319
        51 -10.2712    215.2469    100.4303   5.5083645081e+01   1.7547255735e+01    0.1716098    0.1383959  77.95 0.0002585313    1.422    0.297
        52 -10.8480    142.5542    231.9226   9.6764691000e+01   6.1766590512e+00    0.2208485    0.1855083  52.43 0.0007642956    1.202    0.168
        53 -10.1646     11.9402     93.0300   1.0968933505e+02   5.6113596056e+01    0.1425505    0.1270953 -48.56 0.0004099814    1.115    0.103
        54 -11.8450     19.9136     91.1986   1.0647184254e+02   5.5985939674e+01    0.3028997    0.2088478  13.83  0.001026045    1.717    0.417
        55 -11.2863    135.8873    228.5774   9.7690686052e+01   7.8551055144e+00    0.2564462    0.2156018  87.32 0.0008323975    1.458    0.314
        56 -11.2834    149.1911     85.7961   6.3905823784e+01   3.5392190891e+01    0.2309902    0.2090249 -73.41  0.000776697    1.173    0.148
        57 -11.6349     74.9017     86.1961   8.5349350491e+01   5.0640325505e+01    0.2074105    0.1989834 -80.79 0.0004427433    1.193    0.162
        58 -11.6325    149.3139    228.5374   9.4859070182e+01   5.6923955441e+00     0.373571    0.3614278  35.08  0.002474159    1.123    0.110
        59 -11.8947    159.2922     83.1170   6.0906834613e+01   3.3496542504e+01    0.3116965    0.2317259  63.10  0.001482377    1.408    0.290
        60 -12.2390      6.6631     75.3459   1.0830553073e+02   6.0484407382e+01    0.1799352    0.1383315  73.53 0.0008999533    1.689    0.408
        61 -14.2268    159.2689     68.1208   5.6613237824e+01   3.6119518203e+01    0.9493077    0.6551775  33.10 0.0009768876    1.774    0.436
        62 -10.6277    164.0696    250.5749   9.5033411063e+01  -2.7388132564e-01    0.1803482    0.1018042  34.65 9.644189e-06    1.474    0.322
        63 -13.5193    178.2110     47.8483   4.7503553536e+01   3.4598874572e+01    0.4656202    0.4452367 -44.50 0.0009802054    1.132    0.116
        64 -12.7710     13.6189     60.1935   1.0187290756e+02   6.3344746945e+01    0.2786903    0.2065355 -62.70 0.0009094664    1.341    0.255
        65 -11.5109     23.3213     57.1168   9.6745187190e+01   6.3229819110e+01     0.209887    0.1521186  -5.44  0.001070155    1.425    0.298
        66 -11.6585     16.2943     36.5627   9.3227573334e+01   6.7789001782e+01    0.2534317    0.1729604  -4.33  0.001079125    1.426    0.299
        67 -10.5896    129.6184    240.2520   1.0057662928e+02   6.7335862084e+00    0.1531588     0.118898 -38.67 0.0008280076    1.562    0.360
        68 -12.0687     66.0451     32.0598   6.9381109829e+01   6.2022274881e+01    0.3014244    0.1803524  48.65  0.001178988    1.845    0.458
        69 -11.3033     71.9024     32.9664   6.7640510979e+01   6.0849152742e+01    0.2147051    0.1713741  32.63 0.0003778289    1.173    0.148
        70 -12.0666    221.8190     16.8249   3.4700766934e+01   2.8304103294e+01    0.1834056    0.1210262 -65.61 0.0006542389    1.337    0.252
