#   1 NUMBER                 Running object number                                     
#   2 MAG_AUTO               Kron-like elliptical aperture magnitude                    [mag]
#   3 X_IMAGE                Object position along x                                    [pixel]
#   4 Y_IMAGE                Object position along y                                    [pixel]
#   5 X_WORLD                Barycenter position along world x axis                     [deg]
#   6 Y_WORLD                Barycenter position along world y axis                     [deg]
#   7 A_WORLD                Profile RMS along major axis (world units)                 [deg]
#   8 B_WORLD                Profile RMS along minor axis (world units)                 [deg]
#   9 THETA_WORLD            Position angle (CCW/world-x)                               [deg]
#  10 FWHM_WORLD             FWHM assuming a gaussian core                              [deg]
#  11 ELONGATION             A_IMAGE/B_IMAGE                                           
#  12 ELLIPTICITY            1 - B_IMAGE/A_IMAGE                                       
         1 -12.8637    185.1057     42.6054   5.2611615999e+01   3.3785691697e+01     1.219065      0.96772  16.08  0.004205836    1.592    0.372
         2 -12.4668    208.3598     11.6374   4.1034186157e+01   3.1789934829e+01    0.8724927    0.8015225 -79.92  0.004587031    1.065    0.061
         3 -10.6675     59.0889      3.8847   6.8437637759e+01   6.7019540651e+01     0.284966    0.1702356 -24.73   0.00163645    1.594    0.373
         4 -10.0764     71.6006    241.6408   1.1899931561e+02   1.5877986449e+01    0.1691076     0.143251 -60.89 0.0007608772    1.574    0.365
         5 -11.6804    247.5991    245.5802   8.7558693256e+01  -1.0874429191e+01    0.6135362      0.31931  15.51  0.003510871    1.933    0.483
         6  -8.6341     64.9401    223.4052   1.1871289398e+02   2.0124468989e+01    0.1692478     0.114854  75.55  0.000598288    1.295    0.228
         7  -8.8942     55.9317    223.5681   1.2041395530e+02   2.1241873091e+01    0.1367593   0.09137862  54.79 0.0001978937    1.229    0.186
         8  -8.0624     61.4581    219.5575   1.1904435785e+02   2.1321855120e+01    0.1875037   0.09197113 -58.00  0.000994849    2.329    0.571
         9 -10.7307     55.8750    212.7746   1.1953861183e+02   2.3375349946e+01    0.2471944    0.1569957  69.44 0.0007510009    1.365    0.267
        10 -11.5275     48.6371    206.6897   1.2043657257e+02   2.5498557017e+01    0.4903435    0.1942184  60.66  0.001727794    2.597    0.615
        11 -10.7628     40.1965    213.1198   1.2256111594e+02   2.5180457688e+01    0.1704427    0.1286943  68.49 0.0004638397    1.051    0.049
        12  -8.8492    163.6970    209.3345   9.7211306972e+01   7.2962996620e+00    0.1294513    0.1008389  71.21 0.0007037051    1.661    0.398
        13 -12.0265      9.9915    206.4042   1.2770978183e+02   2.9661488535e+01    0.4702014    0.2051093  38.57  0.002777219    2.205    0.547
        14  -9.9264    150.6118    206.7758   9.9480326538e+01   1.0029228184e+01    0.1743888    0.1285604 -65.20 0.0009523377    1.665    0.400
        15  -9.9684     67.5986    206.6572   1.1665832402e+02   2.3108000622e+01    0.1832136    0.1491468  71.52 0.0003840188    1.011    0.011
        16 -10.0439     60.1777    203.1594   1.1782171603e+02   2.4800895821e+01    0.1788987    0.1673106  64.48  0.001003313    1.294    0.227
        17  -9.7772     96.3271    201.8031   1.1017306025e+02   1.9994492286e+01    0.2346926    0.1779982  75.28  0.001384038    1.276    0.216
        18  -8.7958     16.0917    201.2654   1.2629221391e+02   3.0126697932e+01    0.1379001   0.09690907  56.48 0.0004230385    1.273    0.214
        19 -10.1865    141.0304    197.4877   1.0002693249e+02   1.3448811365e+01    0.2185701    0.1232826  41.36  0.001038456    1.607    0.378
        20  -9.6526     75.3200    248.7839   1.1890931090e+02   1.4141769066e+01    0.2687829   0.07380942 -58.56  0.001177919    4.150    0.759
        21 -10.2598     64.9568    193.3860   1.1585164620e+02   2.6252995933e+01    0.2958369    0.2002331 -47.01  0.001367725    1.953    0.488
        22 -10.5542     95.8566    189.8921   1.0873254462e+02   2.2569494059e+01    0.3750931    0.2698707  37.93  0.001439582    1.425    0.298
        23 -10.5287    149.8209    187.9896   9.6560034428e+01   1.3718627575e+01    0.3633062    0.2356545 -71.06   0.00166199    2.207    0.547
        24 -10.6815     99.3022    180.7657   1.0667616358e+02   2.4012339419e+01    0.2877237    0.2431503  30.38 0.0006734584    1.361    0.265
        25 -10.7943    144.0328    178.6603   9.6183404878e+01   1.6659841871e+01    0.4111352    0.2066393 -47.56  0.001655415    2.107    0.525
        26 -11.8674    114.6162    175.4471   1.0232597734e+02   2.2639763088e+01    0.6772668    0.3402948 -63.10  0.002868132    2.218    0.549
        27 -10.6573    127.5132    174.4701   9.9182861179e+01   2.0575694695e+01    0.2979286     0.140267 -53.65  0.001223016    2.208    0.547
        28 -11.2556    103.8945    172.6259   1.0436864443e+02   2.5076901715e+01    0.4171273    0.2613261 -83.07  0.001903191    2.022    0.505
        29  -9.2895    149.9146    177.4789   9.4659545991e+01   1.5798633687e+01    0.2075021     0.192717 -57.13 0.0004749103    1.142    0.124
        30 -11.1240     94.8672    169.1724   1.0595782417e+02   2.7322493768e+01    0.4058535    0.2654245  40.78  0.001805202    1.530    0.346
        31  -9.2834    187.4633    176.0784   8.6342739912e+01   8.8827803214e+00    0.2592671    0.2339015  37.29  0.001489506    1.106    0.096
        32  -8.9566      2.1093    162.6969   1.2659967570e+02   3.9594637264e+01    0.1423585    0.1213471  70.11 0.0005616486    1.236    0.191
        33  -9.9721     93.7775    156.3762   1.0414080140e+02   3.0464815399e+01    0.2496933    0.2258217 -71.60 0.0002858709    1.076    0.071
        34 -11.0714     98.9522    150.3640   1.0177692738e+02   3.1037345181e+01    0.5550375    0.4098915 -32.40   0.00187374    1.740    0.425
        35 -10.3677    134.1015    147.0371   9.2314898627e+01   2.5395798079e+01     1.028757    0.2176454 -54.13  0.002163408    7.317    0.863
        36 -10.4201    109.5372    137.0196   9.6414982130e+01   3.2360116906e+01    0.4561575    0.2462271 -41.33   0.00184239    2.084    0.520
        37 -10.9028     98.0490    136.3482   9.9317136944e+01   3.4526780387e+01      0.33673    0.2831997 -54.57 0.0003876272    1.151    0.131
        38 -10.3137    106.0795    130.9115   9.6025072644e+01   3.4428803513e+01       0.3966    0.3193644 -77.17  0.001250075    1.325    0.245
        39  -9.4634    116.0440    128.1927   9.2756453509e+01   3.3232843658e+01    0.2299682    0.2097705  -7.93 0.0008115368    1.264    0.209
        40  -9.6019    104.0390    124.0382   9.5052760123e+01   3.6427223621e+01    0.3081103    0.2364284 -26.79 0.0008555496    1.591    0.372
        41  -8.5734    110.9747    117.9735   9.1720889760e+01   3.6585542546e+01    0.1792968    0.1758973 -77.34 0.0003880503    1.035    0.034
        42  -8.8315    231.1271    113.8247   6.4025510352e+01   1.1260590554e+01    0.2120595    0.1927913 -56.30 0.0007728154    1.184    0.156
        43  -8.6507    167.3887    112.2016   7.5996522991e+01   2.5836159287e+01    0.2276782    0.1434282 -51.24 0.0006816061    1.682    0.405
        44  -9.8760    120.0003    110.9910   8.7498274954e+01   3.6444626591e+01    0.2534584     0.195222  89.04  0.001143919    1.721    0.419
        45  -8.4890    205.6746    110.3296   6.7630086855e+01   1.7419174041e+01     0.155913    0.1180294 -69.76 0.0007050459    1.703    0.413
        46 -19.4544     28.5911    145.8674   1.1901114969e+02   4.1244462682e+01     19.62536     3.573544 -72.24   0.05799264    5.111    0.804
        47  -8.9382     58.3977    228.8921   1.2037710822e+02   1.9917361373e+01    0.1470031   0.09767002 -82.11 0.0006234398    1.440    0.306
        48 -11.9592    170.2067     56.4958   5.9379520448e+01   3.5494803915e+01    0.5129598    0.4616757 -15.41  0.001068107    1.189    0.159
        49  99.0000     61.5445    247.4143   1.2119604595e+02   1.6164480950e+01    0.2109135    0.1738554  48.22  0.001606336    1.338    0.252
        50 -11.6381    190.5766     35.9179   4.9846132476e+01   3.3309721009e+01    0.5524723    0.5273505  29.18  0.001641574    1.175    0.149
        51  -8.2237     62.0104    243.1254   1.2080618352e+02   1.6857759573e+01    0.1840784    0.1202528 -88.40 0.0004490325    1.473    0.321
