#   1 NUMBER                 Running object number                                     
#   2 MAG_AUTO               Kron-like elliptical aperture magnitude                    [mag]
#   3 X_IMAGE                Object position along x                                    [pixel]
#   4 Y_IMAGE                Object position along y                                    [pixel]
#   5 X_WORLD                Barycenter position along world x axis                     [deg]
#   6 Y_WORLD                Barycenter position along world y axis                     [deg]
#   7 A_WORLD                Profile RMS along major axis (world units)                 [deg]
#   8 B_WORLD                Profile RMS along minor axis (world units)                 [deg]
#   9 THETA_WORLD            Position angle (CCW/world-x)                               [deg]
#  10 FWHM_WORLD             FWHM assuming a gaussian core                              [deg]
#  11 ELONGATION             A_IMAGE/B_IMAGE                                           
#  12 ELLIPTICITY            1 - B_IMAGE/A_IMAGE                                       
         1 -12.8011     59.3550    135.2487   1.1347992016e+02   4.0491086986e+01     3.162361     0.939378 -74.02   0.00677323    9.572    0.896
         2 -12.1716    198.2741     32.7665   5.2529801108e+01   3.1260907841e+01     1.102901     0.906693  31.83  0.004920141    1.395    0.283
         3 -12.1560    209.2439     19.5198   4.7384202977e+01   3.0040861900e+01     1.015061     0.746186  30.16  0.005198202    1.717    0.417
         4 -10.0930     40.7608     11.2879   8.4735119461e+01   6.8530227376e+01    0.2195753    0.1255476 -35.35  0.001268954    1.547    0.354
         5 -10.7691     58.2002      3.9615   7.3790145843e+01   6.6960149624e+01    0.4177504    0.2105712 -11.66  0.002026272    2.221    0.550
         6  -9.8740     48.8029      6.6108   7.8913166580e+01   6.8075078008e+01    0.1541874    0.1114288  43.61 0.0009546485    1.734    0.423
         7  -9.7312     41.1268      3.8044   8.0763072010e+01   6.9502655310e+01    0.3538608    0.1103704 -26.97  0.001365928    3.594    0.722
         8 -11.8962     96.8812    224.7981   1.1660119230e+02   1.6509543545e+01     1.505347    0.5069514  41.57  0.006848784    2.546    0.607
         9 -13.0687    125.3935    230.7913   1.1205758878e+02   1.1099215994e+01     1.764512     1.026011  67.07  0.009615661    2.020    0.505
        10 -11.1235    109.0689    221.0069   1.1395067712e+02   1.5319062530e+01    0.4272063    0.2934536 -40.55  0.002506997    2.201    0.546
        11 -12.9545    120.7361    245.8120   1.1451248292e+02   9.4711714455e+00     2.415901     0.571127  39.08   0.00866277    4.302    0.768
        12 -16.0076      5.2808    108.5162   1.2398249667e+02   5.1688475979e+01     20.05982     2.531269 -74.20   0.04808729    8.778    0.886
        13 -10.9995     20.2322    192.8285   1.2798707569e+02   3.2241047296e+01    0.2185898    0.1621106  69.10 0.0004755515    1.122    0.109
        14 -10.3314     70.2752    180.8182   1.1704174344e+02   2.8871225255e+01    0.3998562    0.2597163 -43.69  0.001734559    2.222    0.550
        15 -10.3200     74.7351    175.3551   1.1543833438e+02   2.9417050650e+01    0.2839347     0.239331 -46.68  0.001088641    1.536    0.349
        16  -8.4427     99.5090    180.4973   1.1078715684e+02   2.4599609254e+01     0.131401     0.115741  73.16 2.853365e-05    1.032    0.031
        17  -8.5197    196.0076    169.4965   8.8499422709e+01   8.6503966044e+00    0.2226645    0.1883167 -30.06  0.001249363    1.234    0.189
        18 -11.6364     89.4656    158.3829   1.0976162309e+02   3.0958961161e+01    0.8921665    0.4963281 -63.68  0.004002911    1.739    0.425
        19 -12.6939     68.1854    144.2823   1.1266593527e+02   3.7254185671e+01    0.9340721    0.5921164  85.05  0.003304784    1.776    0.437
        20 -11.4238     83.4614    164.8612   1.1210848332e+02   3.0436962135e+01    0.6673325    0.4186097  58.08 0.0007717336    1.566    0.361
        21 -10.1776     40.7558    147.0668   1.1963244059e+02   3.9921414417e+01    0.2775126    0.1289121 -75.14  0.001146588    1.904    0.475
        22  -8.9844    134.0000    145.9199   9.6994068933e+01   2.5824500021e+01    0.3965568   0.08338168 -49.28  0.001040528    4.837    0.793
        23  -9.7020     87.3782    146.3731   1.0830655039e+02   3.3994400667e+01    0.2764224    0.1737672  74.67   0.00128538    1.987    0.497
        24 -10.5591     90.7084    142.5461   1.0682341445e+02   3.4347644431e+01    0.2645299    0.2505997 -62.86 0.0003256146    1.155    0.134
        25  -9.1936    102.9204    142.3629   1.0377300033e+02   3.2371076752e+01     0.377901    0.2529538 -29.50  0.001697887    2.245    0.555
        26 -14.0634     21.7027    224.3171   1.2959710833e+02   2.6127228975e+01      0.91133    0.6098764  43.39  0.005272053    1.604    0.377
        27  -8.4851    112.0105    131.9471   9.9413521031e+01   3.3121100426e+01    0.2254934    0.1832788 -13.10 0.0008238988    1.684    0.406
        28  -8.6756    105.9349    130.4730   1.0064552126e+02   3.4554428942e+01    0.2887749    0.2004571 -72.56  0.001371691    1.599    0.374
        29  -9.2894     99.3160    128.4166   1.0192083496e+02   3.6180513027e+01    0.2842287    0.2228018 -33.16 0.0008429745    1.529    0.346
        30  -9.1040    125.9758    127.5854   9.4945735591e+01   3.1429297241e+01    0.3453686    0.2053349 -86.41  0.001083415    3.993    0.750
        31 -11.4084     40.9810    125.3079   1.1672035273e+02   4.4898076705e+01    0.4245541    0.2104879 -73.69  0.002093236    1.801    0.445
        32  -8.0832    108.4476    120.3871   9.7785751244e+01   3.6404386287e+01    0.1431592    0.1384209 -71.00 0.0001372978    1.040    0.039
        33  -8.2778     68.4585    207.7078   1.2019605640e+02   2.3685914516e+01    0.1427931    0.1024983 -68.86 0.0004717055    1.467    0.318
        34 -11.1996     45.3534    110.3515   1.1315010969e+02   4.7926992837e+01    0.3628946    0.2486645  89.75   0.00201761    1.558    0.358
        35  -8.4212    168.2532    112.8584   8.1248086288e+01   2.5346493968e+01    0.2654325    0.1738664 -79.24 0.0008885136    2.816    0.645
        36  -8.6665    119.5003    110.5117   9.2499850673e+01   3.6517189760e+01    0.1506986    0.1447782 -62.66 0.0008105803    1.003    0.003
        37 -12.0756     71.5917    160.9639   1.1426359275e+02   3.3005513371e+01    0.6411905     0.544411 -21.23   0.00241485    1.766    0.434
        38  -8.2903    134.6610    102.6688   8.6514521024e+01   3.5067164264e+01    0.1603489    0.1243793   0.63 0.0007051821    1.741    0.426
        39  -8.5609     73.9930    206.6903   1.1905205365e+02   2.3130342583e+01    0.2198976    0.1327284 -44.92  0.001084098    2.662    0.624
        40 -10.1615     54.2311     95.6713   1.0767897891e+02   5.0350330192e+01    0.2636189    0.1775476 -38.61  0.001415564    1.572    0.364
        41 -13.8568     44.6626    233.5495   1.2639010668e+02   2.1938467654e+01     2.268777    0.9995484  39.70   0.01112858    2.188    0.543
        42 -11.5951    103.6047    249.8410   1.1782140824e+02   1.1406449218e+01     1.203042     0.282523  48.98  0.004976582    3.301    0.697
        43  -9.8705     35.1056    209.3301   1.2641899997e+02   2.7458530764e+01    0.3921234    0.1290862  57.51  0.001698353    2.710    0.631
        44  -9.3160    153.8645     56.6308   6.7876813004e+01   3.9333145033e+01    0.3543762    0.2442882 -79.80  0.001091547    2.183    0.542
        45  -9.0074    156.2491     50.6743   6.5405697371e+01   3.9678099059e+01    0.3088204    0.2350382 -74.11  0.001424152    1.669    0.401
        46 -10.9258    188.7756     39.4767   5.5920510734e+01   3.2853198099e+01    0.4511038    0.3268888  65.08  0.001191993    1.354    0.261
        47 -13.8739      3.6795    246.2032   1.3332971426e+02   2.4178563274e+01    0.8225378    0.3571672  80.79  0.005659969    1.811    0.448
        48 -12.4346     52.7917    202.6687   1.2268841993e+02   2.6678859492e+01      1.32954     1.141358 -67.12  0.009765484    1.468    0.319
        49 -12.5493     66.1940    246.2501   1.2372744553e+02   1.7124190182e+01    0.7577656    0.5277885 -88.03   0.00483997    1.386    0.279
        50 -10.1931     92.4328    235.0023   1.1838329830e+02   1.5411060118e+01    0.2328998     0.173897  81.51 0.0008554157    1.267    0.211
        51  -8.9269     45.3164     11.3246   8.2761480180e+01   6.7929238339e+01    0.1270608   0.07944147  -4.32 0.0007043701    1.669    0.401
        52 -12.0367    113.8191    229.4743   1.1401270083e+02   1.3135515072e+01    0.7535161    0.3341735  43.54  0.003904652    1.853    0.460
        53 -13.9715      3.9869    221.2532   1.3228134284e+02   2.8426412605e+01    0.8913095    0.3492742 -70.71  0.005520929    2.368    0.578
