#   1 NUMBER                 Running object number                                     
#   2 MAG_AUTO               Kron-like elliptical aperture magnitude                    [mag]
#   3 X_IMAGE                Object position along x                                    [pixel]
#   4 Y_IMAGE                Object position along y                                    [pixel]
#   5 X_WORLD                Barycenter position along world x axis                     [deg]
#   6 Y_WORLD                Barycenter position along world y axis                     [deg]
#   7 A_WORLD                Profile RMS along major axis (world units)                 [deg]
#   8 B_WORLD                Profile RMS along minor axis (world units)                 [deg]
#   9 THETA_WORLD            Position angle (CCW/world-x)                               [deg]
#  10 FWHM_WORLD             FWHM assuming a gaussian core                              [deg]
#  11 ELONGATION             A_IMAGE/B_IMAGE                                           
#  12 ELLIPTICITY            1 - B_IMAGE/A_IMAGE                                       
         1 -14.3918    163.9501     51.6033   7.7113219931e+01   3.7749080204e+01     1.929465     1.408128  14.42  0.006863799    1.959    0.489
         2 -14.0453    177.2151     34.9456   7.0274169321e+01   3.6752320170e+01    0.8857669    0.7953244  80.89  0.002869305    1.017    0.017
         3 -13.3860    181.2150     28.2426   6.7916270082e+01   3.6598008133e+01    0.5306715     0.478819  64.63   0.00124772    1.126    0.112
         4 -12.6536    189.9826     14.6473   6.3331145833e+01   3.6014367897e+01    0.3243625    0.2738231  83.71 0.0008951084    1.013    0.013
         5 -13.8502    196.2615      4.1090   6.0108406454e+01   3.5605117236e+01    0.9092654    0.4731664  70.43  0.004249366    1.607    0.378
         6 -10.1932     70.5854      8.5196   8.4955668583e+01   6.2912970592e+01    0.1174886   0.09560587  19.30 7.104205e-05    1.026    0.025
         7  -9.6343    121.3631      6.6795   7.1626929377e+01   5.2920583924e+01    0.1245983   0.09298144 -76.46 0.0007041161    1.778    0.437
         8 -10.7739    163.9148    204.8701   1.1400806848e+02   7.1368697149e+00    0.2479087    0.2392421  38.73   0.00040086    1.043    0.041
         9 -18.7161     59.3169    242.0247   1.4032123830e+02   1.7186463458e+01     7.548453     6.266784 -87.26    0.0493356    1.237    0.192
        10 -10.0178    180.1670    192.2180   1.0818357493e+02   6.4791832656e+00    0.1944755    0.1689169  72.72 0.0003837881    1.336    0.252
        11 -10.8255    167.5589    190.7233   1.1060135315e+02   9.2739769452e+00    0.3483815     0.249724  13.67   0.00134181    1.902    0.474
        12 -11.3354    159.2169    206.1677   1.1524240979e+02   7.7767863012e+00    0.3679601    0.2467457  61.89  0.001740342    1.746    0.427
        13 -12.0947    152.7852    184.3313   1.1264081243e+02   1.3564972863e+01     0.443686    0.2950001 -85.23  0.001804341    2.420    0.587
        14 -13.0870     12.4998    205.9447   1.4603689409e+02   3.0225052305e+01     0.469494    0.2385751  39.82     0.002781    2.060    0.514
        15 -12.3140    206.8774    180.1201   1.0024273865e+02   3.5676331481e+00    0.8142196    0.4381415  29.59  0.002890314    2.291    0.563
        16  -5.9823     22.8737    205.1199   1.4400249919e+02   2.9338084132e+01    0.2071497    0.1128375  60.52  0.001004833    1.657    0.397
        17 -12.7923    136.0095    179.4529   1.1554668139e+02   1.7965348007e+01    0.4823514    0.2346984  44.33  0.001480159    1.982    0.496
        18 -12.8739    194.0018    193.7389   1.0559460394e+02   3.4896210292e+00     1.096463    0.6117909 -58.78  0.003143188    2.595    0.615
        19  -9.6522    171.1334    177.1255   1.0712217378e+02   1.1372860587e+01    0.2047288    0.1777007  81.25 0.0004644034    1.321    0.243
        20 -12.2877    196.1212    171.6522   1.0065170415e+02   7.3567011489e+00    0.6917815    0.4014262 -51.31  0.002287134    1.886    0.470
        21 -12.5720    139.5832    199.8822   1.1842347986e+02   1.2807219412e+01    0.4015456    0.3203683  77.20  0.001866095    1.388    0.280
        22  -9.6830     17.9467    167.6940   1.4157441207e+02   3.8204328319e+01    0.1536153     0.135019  74.06  0.001083059    1.208    0.172
        23 -11.7138    120.6952    164.3051   1.1627014932e+02   2.4424439969e+01    0.4827701     0.253723  55.46  0.001649132    2.187    0.543
        24 -10.4367    223.8388    164.1123   9.3589465603e+01   3.2631387595e+00    0.2131941    0.1887369 -61.09  0.000506191    1.280    0.219
        25 -10.7940    193.9933    165.7888   9.9836796105e+01   8.9687242620e+00    0.3118135    0.2746282  79.37 0.0008959422    1.330    0.248
        26 -10.7575     12.6808    160.0901   1.4197158541e+02   4.0410617909e+01    0.2340369    0.1677515  76.76 0.0006905874    1.302    0.232
        27 -10.6158    237.5157    159.4808   9.0120408825e+01   1.4938030645e+00    0.1396294    0.1276446 -29.42 0.0007690058    1.025    0.025
        28  -9.6039    176.8207    154.7876   1.0107806124e+02   1.4907875609e+01    0.2056787    0.1790511 -89.58 0.0004448075    1.312    0.238
        29 -13.0677    134.0410    145.8900   1.0908308709e+02   2.6072928444e+01     1.415971    0.3434991 -54.33  0.003211269    5.864    0.829
        30 -11.0774    174.4186    148.6519   1.0021731606e+02   1.6745225190e+01    0.3985621    0.2769125 -59.23  0.001257514    1.606    0.377
        31 -12.6294    144.8727    146.2516   1.0651074255e+02   2.3713742200e+01    0.5495441    0.3979554  66.76  0.002442619    1.624    0.384
        32 -12.6253    101.7571    139.4261   1.1597430865e+02   3.3859372838e+01     0.316991    0.2973539 -35.94 0.0004229028    1.151    0.131
        33 -12.5964    135.4203    122.3978   1.0315008458e+02   3.1143173393e+01    0.7835546    0.2414596 -49.42  0.002297025    3.376    0.704
        34 -12.2132    105.9274    130.7066   1.1291300157e+02   3.5165920641e+01     0.432233    0.3545859 -64.71  0.001191522    1.215    0.177
        35 -11.4310    106.2384    126.0358   1.1173942010e+02   3.6200488122e+01    0.3051256    0.2567707 -20.41  0.001276625    1.399    0.285
        36 -12.4269    118.4185    129.7931   1.0936354789e+02   3.2982779836e+01    0.4168828     0.402501 -34.61  0.001006297    1.085    0.078
        37 -12.4239    126.0012    127.7609   1.0689155063e+02   3.1917036569e+01    0.5369322     0.344643  73.37  0.002056258    2.437    0.590
        38 -11.2559    160.4792    127.1441   9.8257509614e+01   2.4525915579e+01    0.3890794    0.2837082 -57.13  0.001168576    1.444    0.307
        39 -11.0776    141.8141    126.9342   1.0267825501e+02   2.8742374270e+01    0.3342369    0.2546917  74.10 0.0004573778    1.596    0.374
        40 -11.2018    209.2406    198.5413   1.0346564708e+02  -2.6109502184e-01    0.2494652    0.2184519 -76.79 0.0009904279    1.529    0.346
        41 -11.2447    112.3807    118.6322   1.0826548699e+02   3.6733153917e+01    0.3683582     0.278011 -68.94  0.001145424    1.507    0.337
        42 -11.2676     10.4388    152.7802   1.4171460730e+02   4.2269164135e+01    0.3189181    0.2570501  57.73  0.002218744    1.358    0.264
        43 -11.1415    168.6359    113.2828   9.2918360298e+01   2.5575080665e+01    0.4677759    0.3264737  86.32  0.001220669    2.067    0.516
        44  -9.9118    167.9814    134.4801   9.8330388182e+01   2.1237350726e+01    0.2208128    0.1387953  72.61 0.0008087666    2.425    0.588
        45 -10.7959    205.3874    110.3305   8.4751925686e+01   1.7552715593e+01    0.3457322    0.2533095  40.40  0.001145915    1.542    0.352
        46 -10.2189    130.3882    109.7481   1.0118061057e+02   3.5007136807e+01    0.2196798    0.1447276 -35.30  0.000556035    1.636    0.389
        47 -12.1360     85.5045    108.1701   1.1327814709e+02   4.3929027253e+01    0.4394527    0.3822363 -29.54  0.001444766    1.170    0.145
        48 -10.8233    164.2979    111.2861   9.3372350324e+01   2.7004070847e+01    0.2080236    0.1885061  87.30 0.0001709906    1.154    0.133
        49  -9.8225    124.6955     92.3042   9.7891156355e+01   3.9871500770e+01    0.1496591    0.1207301 -85.65  0.000322397    1.599    0.374
        50 -10.4396     85.5175     77.0416   1.0468876988e+02   5.0451726898e+01     0.205607    0.1304621 -43.52 0.0004169855    1.516    0.340
        51 -10.1541    104.9115     73.5111   9.7783503631e+01   4.7553307718e+01    0.2162689     0.137685  41.85  0.001022096    1.565    0.361
        52 -10.5284    163.9390    239.9609   1.1976814453e+02   6.6786605829e-01    0.1574692    0.1370747  40.11 0.0003523002    1.015    0.015
        53 -11.2143    155.2189    197.3638   1.1453655702e+02   1.0332209123e+01    0.2831677    0.2095623  70.04  0.001244534    1.624    0.384
        54 -11.4510    169.1051    236.4269   1.1819929478e+02   3.6556189487e-01    0.2287299     0.205333 -53.31 0.0003596824    1.300    0.231
        55 -10.2708     13.5253     59.9429   1.2496484221e+02   6.2264412342e+01    0.1630524    0.1292121 -36.76 0.0004200772    1.036    0.034
        56 -10.2433    220.5163    229.0043   1.0693005853e+02  -7.2280828576e+00     0.278698    0.1197231 -46.58  0.001200369    2.924    0.658
        57 -19.1138     40.8325    103.4675   1.2581877457e+02   5.0918968950e+01     16.81233    0.8944264 -59.42   0.02694224   15.980    0.937
        58 -11.1932     20.8871    214.0398   1.4508408237e+02   2.7642233184e+01    0.2428203    0.1885035  36.57  0.001687409    1.660    0.397
