#   1 NUMBER                 Running object number                                     
#   2 MAG_AUTO               Kron-like elliptical aperture magnitude                    [mag]
#   3 X_IMAGE                Object position along x                                    [pixel]
#   4 Y_IMAGE                Object position along y                                    [pixel]
#   5 X_WORLD                Barycenter position along world x axis                     [deg]
#   6 Y_WORLD                Barycenter position along world y axis                     [deg]
#   7 A_WORLD                Profile RMS along major axis (world units)                 [deg]
#   8 B_WORLD                Profile RMS along minor axis (world units)                 [deg]
#   9 THETA_WORLD            Position angle (CCW/world-x)                               [deg]
#  10 FWHM_WORLD             FWHM assuming a gaussian core                              [deg]
#  11 ELONGATION             A_IMAGE/B_IMAGE                                           
#  12 ELLIPTICITY            1 - B_IMAGE/A_IMAGE                                       
         1  -8.6712     55.4510     10.1207   9.8073223036e+01   6.7354966698e+01    0.2167021    0.1854236 -27.68 0.0007307891    1.296    0.229
         2  -7.7181     47.5150     10.0168   1.0135699137e+02   6.8532239510e+01    0.1767566    0.1030162 -33.57  0.001012747    1.562    0.360
         3  -8.1321    101.1702      8.1206   8.2047317895e+01   5.8969345680e+01    0.1675023     0.158666 -67.52 0.0004247108    1.310    0.237
         4  -8.0404     68.8793      7.7864   9.1783308685e+01   6.5427419251e+01    0.1536721    0.1407446 -20.53 0.0003799738    1.276    0.216
         5  -8.6241     33.5807      5.5154   1.0545483596e+02   7.0957357855e+01    0.2452929     0.179832 -56.03  0.001495029    2.293    0.564
         6  -8.5260     79.0589      3.6683   8.6333894560e+01   6.3992395138e+01     0.272159    0.1559986 -37.85  0.001341325    2.010    0.503
         7  -8.6684     90.8931      9.1900   8.5351805040e+01   6.1048659229e+01    0.1862798    0.1773786 -59.79 0.0006888002    1.344    0.256
         8  -7.5084     15.6994      3.2943   1.1358583405e+02   7.3132936640e+01   0.09125891   0.08396326 -44.55 0.0002768237    1.571    0.364
         9  -8.0020    115.3939      2.2488   7.6167227348e+01   5.6277475638e+01    0.1772976    0.1204258 -31.49 0.0008485309    1.601    0.375
        10  -8.4366     62.3419      1.7461   9.1099894949e+01   6.7239634102e+01    0.1837754    0.1574164  41.30 0.0008235303    1.352    0.260
        11  -9.9482    223.9161    244.0610   1.1577460867e+02  -5.7619865638e+00    0.3714868    0.2288042 -44.86  0.002170345    2.427    0.588
        12  -9.8624    248.4983    242.0394   1.1145369637e+02  -9.2020629904e+00    0.3040084     0.174763 -30.32  0.001107862    2.022    0.505
        13  -9.3892    233.1622    246.4945   1.1460794647e+02  -7.4081516576e+00    0.3858049    0.2256341 -16.93  0.002158966    2.017    0.504
        14  -9.3360    211.2303    247.2149   1.1834885592e+02  -4.1531202772e+00    0.3420407    0.1850621 -51.64   0.00173022    3.390    0.705
        15  -7.9494    191.7717    249.8284   1.2199901967e+02  -1.4004234899e+00    0.1532325    0.1150479  52.48 0.0006816998    1.400    0.285
        16  -8.4683     94.0093    249.6339   1.3878707436e+02   1.3816456536e+01    0.2507077    0.1069363  63.51  0.001189853    2.590    0.614
        17  -9.1711    147.4322    246.5410   1.2926425711e+02   6.1304740091e+00    0.2982635    0.1559485  62.02  0.001537395    2.393    0.582
        18  -9.1487    120.4601    245.6263   1.3387884431e+02   1.0506755217e+01    0.3111815    0.1675086  69.01  0.001590445    2.339    0.573
        19  -9.8907     10.5155    245.2203   1.5191288962e+02   2.4737948200e+01    0.4691741    0.1342889  68.25  0.002394003    3.152    0.683
        20  -8.6615    201.9823    243.4658   1.1939092378e+02  -2.2695350705e+00    0.1784999    0.1631326 -72.61 0.0007299099    1.655    0.396
        21  -8.4444    169.0108    243.4239   1.2510632634e+02   3.0683182426e+00     0.185833    0.1553817  82.96 0.0006272001    1.581    0.367
        22  -9.7008    160.4531    240.6652   1.2626920620e+02   4.8434912016e+00    0.3519055    0.2301022 -83.45  0.001907178    2.835    0.647
        23  -8.7214     77.6676    243.2130   1.4103557663e+02   1.7127438302e+01     0.174953    0.1055641  71.99  0.001099811    1.475    0.322
        24  -8.5871    214.0927    241.3275   1.1702394098e+02  -3.9384914343e+00    0.1864517    0.1431093   3.13 0.0008102246    1.367    0.269
        25  -9.1996    183.2725    240.3951   1.2220857259e+02   1.1338114133e+00    0.3721818    0.2339966  65.48  0.001745657    2.461    0.594
        26  -7.7598    153.5105    242.0490   1.2766863314e+02   5.7833309394e+00    0.1471312   0.09747475  88.07 0.0008090009    2.531    0.605
        27  -8.5940    147.0777    240.8158   1.2866287406e+02   7.0051965760e+00    0.2823138    0.1670574  74.60  0.001423306    2.817    0.645
        28  -8.3971     88.0446    241.9154   1.3915886491e+02   1.5897481811e+01     0.181182    0.1348008  81.37 0.0006671557    1.269    0.212
        29  -8.3191     67.7474    245.4117   1.4286085258e+02   1.8092054808e+01    0.2031153    0.1063239  88.66  0.001205009    2.031    0.508
        30  -8.5122    240.5156    240.0491   1.1243843246e+02  -7.8382368574e+00    0.1958922     0.102791 -23.23  0.001166627    2.172    0.540
        31  -8.3227    242.9710    236.5151   1.1149137059e+02  -7.8383297072e+00    0.2325864    0.1109675  28.91  0.001295437    1.813    0.448
        32  -8.8654    194.0781    239.6490   1.2021991004e+02  -5.3591474071e-01    0.1638414     0.156369  44.32 0.0004002175    1.308    0.236
        33  -8.6198    135.4133    239.0166   1.3053444012e+02   9.1555892966e+00    0.2172211    0.1305128  59.86  0.001014044    1.600    0.375
        34  -7.9260    129.0772    238.8409   1.3164670826e+02   1.0194669330e+01    0.1980978    0.1055549  61.59  0.001052891    1.997    0.499
        35  -8.9103    230.9809    237.1217   1.1355973918e+02  -6.0941062731e+00    0.2056876     0.180243 -78.81 0.0009821565    2.173    0.540
        36  -8.6356     25.6773    237.1777   1.4922076814e+02   2.4511310801e+01     0.247085   0.09326708  75.96  0.001345508    2.572    0.611
        37  -7.8060     13.6120    238.2874   1.5116356491e+02   2.5583769921e+01    0.1115463   0.04569698  62.28 0.0007008895    1.755    0.430
        38  -8.8629    217.0184    235.5325   1.1566939504e+02  -3.7369955302e+00     0.228164    0.1836905  55.08 0.0009982961    1.599    0.374
        39  -9.2140    213.7503    231.8644   1.1567442353e+02  -2.7823901238e+00    0.2729728     0.214322  65.72  0.001201618    1.936    0.484
        40  -8.9111    203.0918    234.5096   1.1791550353e+02  -1.3705906290e+00    0.2751487    0.1871768 -58.53  0.001394397    2.510    0.602
        41  -9.6611    175.8649    233.4690   1.2257923045e+02   3.2810327353e+00    0.3861594    0.2284635 -60.39  0.002088911    2.697    0.629
        42  -8.1365    170.2664    236.0117   1.2392356126e+02   3.8667331084e+00    0.1583967    0.1376631  48.57 0.0005272066    1.144    0.126
        43  -8.1751     57.9647    237.0000   1.4391511771e+02   2.0759987453e+01    0.1701853   0.04960934  40.55 0.0006148267    2.899    0.655
        44  -9.1631    247.8717    234.7001   1.1041004180e+02  -8.3754106352e+00    0.2407328    0.1700023  16.12  0.001242564    1.141    0.124
        45  -9.2369    246.5037    229.3525   1.0977731972e+02  -7.6160290880e+00     0.277867    0.1877222 -28.91 0.0007850182    1.694    0.410
        46  -9.3316    109.0169    234.5584   1.3479006720e+02   1.4008784182e+01     0.397437    0.1718019  54.47  0.001131867    2.007    0.502
        47  -8.0786     99.5255    234.4288   1.3647673958e+02   1.5463452075e+01    0.2557921    0.1288502  68.46  0.001146123    2.304    0.566
        48  -8.9601     78.8032    234.3714   1.4013619568e+02   1.8450914837e+01    0.2802339    0.1411864  69.80   0.00117232    2.027    0.507
        49  -9.0709      7.9581    234.9904   1.5190286217e+02   2.6706580942e+01    0.1681755   0.07444997  66.33  0.001125147    1.628    0.386
        50  -8.1703    122.8436    234.0724   1.3224587836e+02   1.1931101065e+01    0.1887007    0.1158325  74.88 0.0009531643    2.011    0.503
        51  -8.8511     92.4818    232.1503   1.3752204142e+02   1.6884528864e+01    0.3227293    0.1806048 -83.95  0.001869641    2.115    0.527
        52  -9.0717     68.4772    232.6031   1.4179681477e+02   2.0154645729e+01    0.3935896    0.1497734  65.52  0.001787626    3.119    0.679
        53  -7.9208     53.5673    234.5191   1.4449004590e+02   2.1736998659e+01    0.1118765   0.07656785  67.04 7.067389e-05    1.055    0.052
        54  -8.5373    194.7730    233.0297   1.1915606276e+02   1.8377228372e-01    0.1754827    0.1421512  51.91   0.00067969    1.328    0.247
        55  -8.2807    144.7958    233.2015   1.2816019915e+02   8.5074714429e+00    0.2527338     0.120558  59.90  0.001159553    2.627    0.619
        56  -8.7677    140.0454    230.1980   1.2866197627e+02   9.7538677317e+00    0.2339166    0.1343313  56.25 0.0008708773    1.607    0.378
        57  -8.2706    132.5163    233.1282   1.3038482300e+02   1.0528784670e+01     0.210128     0.131994  58.09   0.00125733    1.429    0.300
        58  -9.3619    186.5631    230.8596   1.2029950270e+02   1.8378445923e+00    0.2790694    0.2145365  84.86  0.001457223    2.140    0.533
        59  -8.9107    236.1832    230.8661   1.1171981770e+02  -6.2116241372e+00    0.2001171    0.1651232   7.81 0.0007395989    1.155    0.134
        60  -9.1446    151.4821    228.9881   1.2641009489e+02   8.0320192840e+00    0.2915581    0.2013005 -88.64  0.001443323    2.190    0.543
        61  -9.1308    148.6590    224.5037   1.2635104956e+02   9.1996736921e+00    0.3035365    0.2138143  79.60  0.001226421    1.890    0.471
        62  -8.9276     11.3242    231.6764   1.5124192981e+02   2.6944529734e+01    0.2145751   0.05780939  68.04 0.0009540844    3.797    0.737
        63  -8.6204      1.8764    231.0939   1.5269258573e+02   2.7957154601e+01    0.1671173   0.08326828  67.05  0.001202227    1.393    0.282
        64  -8.1800    229.6824    229.0719   1.1252383017e+02  -5.0002902449e+00    0.1523553    0.1424496 -26.24 0.0006450929    1.477    0.323
        65  -8.7887    162.4534    227.9752   1.2426283233e+02   6.3275221230e+00    0.2838569    0.1697824  55.02  0.001240737    1.622    0.384
        66  -8.6392    127.9979    227.3821   1.3054661506e+02   1.2180371924e+01    0.2789402    0.1501184  60.22  0.001089226    1.900    0.474
        67  -8.0014    120.0226    227.7991   1.3206816176e+02   1.3398696171e+01    0.2032507    0.1081276  62.20 0.0009347647    1.977    0.494
        68  -9.1968    225.0038    223.0103   1.1234975845e+02  -3.5480204073e+00    0.4590399    0.2322234 -18.96  0.002294421    2.704    0.630
        69  -9.0047    206.0978    226.1623   1.1613431229e+02  -8.2470127371e-01    0.2539462    0.1751427 -36.30  0.001152574    1.756    0.430
        70  -8.2797     49.2139    227.1236   1.4473837306e+02   2.3570127796e+01    0.1624834    0.0937449  70.45  0.001067601    1.397    0.284
        71  -8.1692    199.9730    226.2897   1.1723633524e+02   1.8419140776e-01    0.1695265    0.1325599  35.88 0.0005050364    1.047    0.045
        72  -8.9021     94.4151    224.5611   1.3645029436e+02   1.7907485344e+01     0.435827    0.1767028  60.95  0.001939932    2.815    0.645
        73  -8.7446    180.7620    224.5425   1.2043223916e+02   3.6894934729e+00    0.2374675    0.1839421  63.04  0.001072678    1.518    0.341
        74  -8.8269    104.9713    223.9807   1.3444005698e+02   1.6409628466e+01    0.2976382    0.1682714  72.08  0.001596286    2.046    0.511
        75  -8.6957    216.5188    223.5609   1.1390344416e+02  -2.2276838675e+00     0.212131    0.1942574 -82.27 0.0008730842    1.708    0.414
        76  -8.3684    173.0523    223.2805   1.2166159091e+02   5.1983362342e+00    0.1979818    0.1603528  76.28 0.0005396282    1.590    0.371
        77  -7.8076    113.8219    224.0318   1.3279883237e+02   1.5017135637e+01    0.1917518    0.1175394  76.65 0.0009346991    1.951    0.487
        78  -7.9840     59.9645    223.7962   1.4262016004e+02   2.2823327559e+01    0.1972201   0.08496488  60.20 0.0007737075    2.012    0.503
        79  -7.9642     38.2334    224.2536   1.4643893279e+02   2.5381875747e+01    0.1639208   0.06893536  88.74 0.0007227524    2.411    0.585
        80  -9.2584      7.8804    222.6221   1.5140453565e+02   2.8870375737e+01     0.205077   0.07979283  52.30  0.001293269    1.866    0.464
        81  -9.0118    239.1700    221.5174   1.0970694110e+02  -5.6335753827e+00    0.2179314    0.1828501 -25.06 0.0008607685    1.440    0.306
        82  -9.2430    192.5331    221.4698   1.1783502545e+02   2.0914356077e+00    0.2897416    0.2177423  65.29  0.001176307    1.768    0.434
        83  -9.0667    159.9208    220.9487   1.2376880023e+02   7.8195917919e+00    0.4339994     0.198022  57.64  0.001837775    2.850    0.649
        84  -8.3309    202.7163    220.3731   1.1583307533e+02   4.9447589197e-01     0.182403    0.1510938 -49.67 0.0006479283    1.618    0.382
        85  -9.1255    120.2090    219.1341   1.3103646468e+02   1.4829023080e+01    0.3937598    0.2445733  77.84  0.001813759    2.029    0.507
        86  -8.5135     82.8145    220.7032   1.3822007747e+02   2.0283549760e+01    0.2768156    0.1282474  64.86   0.00117343    2.288    0.563
        87  -8.3491     27.6377    220.9467   1.4804937476e+02   2.7159048712e+01    0.1871442   0.07539778 -69.74   0.00108466    2.391    0.582
        88  -8.1838     72.5283    220.0473   1.4005201664e+02   2.1838848322e+01    0.1630111    0.1017938 -79.68  0.001030396    1.597    0.374
        89  -8.7829    248.7849    217.9645   1.0751916918e+02  -6.7276736268e+00    0.3236556    0.2459198  79.39  0.001650782    3.763    0.734
        90  -8.4302    209.9328    219.1715   1.1435803369e+02  -5.7420617569e-01    0.1773529    0.1500864  41.54 0.0005420595    1.219    0.179
        91  -9.1172    132.8851    216.0754   1.2824013358e+02   1.3247595831e+01    0.4448072    0.2472021  74.26  0.001957466    3.040    0.671
        92  -8.4340     62.2814    217.5812   1.4171740849e+02   2.3657618192e+01    0.3147082    0.1247628  62.57  0.001508891    2.554    0.609
        93  -8.7107     51.6246    217.3566   1.4362798272e+02   2.5048983315e+01    0.2491177    0.1270571  79.25 0.0008482042    1.893    0.472
        94  -7.8027    179.3039    217.6803   1.1968247818e+02   4.9270067380e+00    0.1205344   0.09215544  67.17 0.0005500527    1.630    0.387
        95  -8.6143    169.1227    216.2291   1.2136646545e+02   6.9345330317e+00    0.2138419    0.1586807  86.86 0.0006919152    2.034    0.508
        96  -8.6728    143.0416    216.5527   1.2635909882e+02   1.1436009560e+01    0.2492418    0.1731945  76.57  0.001250391    1.809    0.447
        97  -8.1403     18.6102    216.8187   1.4935651502e+02   2.8857804554e+01    0.1491928   0.07297757  83.68 0.0009163425    1.685    0.407
        98  -8.6320    232.4366    214.8301   1.0972499267e+02  -3.7755977745e+00    0.2061537    0.1796266  51.73 0.0008640844    1.520    0.342
        99  -8.3598    185.6482    214.3313   1.1799267123e+02   4.2979343548e+00    0.1929371    0.1542813 -56.65 0.0008510788    1.644    0.392
       100  -8.0109    154.2298    215.1673   1.2403325479e+02   9.7193356883e+00    0.1704102    0.1353605  70.73  0.000584989    1.391    0.281
       101  -8.9040     93.6378    214.4127   1.3556916216e+02   1.9839733647e+01    0.3921605    0.1622344  59.49   0.00175248    2.605    0.616
       102  -9.4411    214.0392    212.2639   1.1249852961e+02  -3.7371754330e-01    0.3554218     0.240111  57.99  0.001446165    1.959    0.490
       103  -9.4288     73.3566    212.2028   1.3920029547e+02   2.3175196123e+01    0.5454465    0.1994184  62.15  0.002219216    3.418    0.707
       104  -8.1724     40.3183    213.6253   1.4539015244e+02   2.7093520119e+01    0.1873244   0.09196028  66.60   0.00110638    1.722    0.419
       105  -8.2210    224.5879    212.2786   1.1064575875e+02  -2.1642521742e+00    0.1983161    0.1154631 -38.30 0.0006676042    2.029    0.507
       106  -8.4966    161.5774    212.3684   1.2222738254e+02   8.8711321894e+00    0.2061681    0.1667154  73.48 0.0006837243    1.440    0.306
       107  -7.8670    106.5598    212.7992   1.3291267205e+02   1.8139635394e+01     0.158472     0.108388 -87.80 0.0007303856    1.611    0.379
       108  -8.9572    204.2935    211.1074   1.1405530111e+02   1.4702724214e+00    0.2468831    0.2106598 -64.23 0.0009330703    1.695    0.410
       109  -9.3922    175.6288    210.2661   1.1923587040e+02   6.6894951739e+00    0.3834459       0.2542  71.56  0.001309586    2.363    0.577
       110  -8.3781      8.6576    212.3329   1.5081519892e+02   3.0659937983e+01    0.2382873   0.06232219  61.84  0.001093784    3.356    0.702
       111  -8.4470      6.0012    208.1816   1.5107134967e+02   3.1677370326e+01    0.2151324   0.08535332  72.95  0.001232825    2.112    0.526
       112  -7.7828    249.6350    211.6853   1.0630184437e+02  -6.1526030236e+00    0.1284987   0.07554276  14.50 0.0007039626    1.767    0.434
       113  -8.1978    192.4753    210.5336   1.1612505861e+02   3.6368465362e+00    0.1907533    0.1223308 -54.69 0.0009215949    2.210    0.548
       114  -8.6196    148.0983    210.6282   1.2457016774e+02   1.1539294344e+01    0.2528324    0.1795065  76.75  0.001133037    1.787    0.440
       115  -8.8435    116.2812    210.5309   1.3075644426e+02   1.6983376767e+01    0.2711177    0.1675687  70.13 0.0008339271    1.795    0.443
       116  -9.0795    236.5865    207.9324   1.0783148257e+02  -3.6174481077e+00    0.3004478    0.2177684 -50.43  0.001773823    2.140    0.533
       117  -8.4233     85.8116    209.7615   1.3658847137e+02   2.1863713573e+01    0.2857813    0.1366251  65.02  0.001147847    2.284    0.562
       118  -7.7594     32.3061    210.6486   1.4662478654e+02   2.8556270143e+01     0.120098   0.05869535  68.08 0.0007042183    1.709    0.415
       119  -8.0387    126.6276    208.9129   1.2852660278e+02   1.5548284523e+01    0.1726492    0.1467226  72.07  0.000715368    1.128    0.114
       120  -7.9679     46.0011    209.2194   1.4404964065e+02   2.7258917982e+01    0.1700948   0.09331614  77.38 0.0007208255    1.619    0.382
       121  -9.4382    246.3694    207.2823   1.0607101831e+02  -5.1258774955e+00    0.2444731    0.1917534 -10.74 0.0006027553    1.236    0.191
       122  -7.9596    156.4060    208.1369   1.2259800646e+02   1.0478293904e+01    0.1626552    0.1224361 -72.06 0.0006651218    1.720    0.419
       123  -8.1614    139.0132    207.9940   1.2597215562e+02   1.3579410940e+01    0.2044347     0.139406  70.59  0.000747267    1.692    0.409
       124  -9.0718     99.3413    206.0721   1.3355072706e+02   2.0513884357e+01    0.3290345    0.1884815  74.77  0.001304642    2.067    0.516
       125  -8.5585     56.9624    205.8465   1.4174056045e+02   2.6557876805e+01    0.3213462    0.1268991  64.32  0.001467045    2.769    0.639
       126  -8.0533     11.6908    207.3072   1.5005382013e+02   3.1305526082e+01    0.1127002   0.05402725  66.64 0.0002894892    1.615    0.381
       127  -9.2863    194.8742    203.6642   1.1454545152e+02   4.2069666354e+00    0.3414255     0.289166 -47.81  0.001060571    1.457    0.314
       128  -9.1951    192.4084    197.5361   1.1396310218e+02   5.5775367453e+00    0.3245439    0.2635957 -84.85  0.001268983    1.855    0.461
       129  -8.9776    183.8292    204.0383   1.1668594620e+02   6.1600026666e+00    0.3041317    0.2230323  70.31  0.001040253    1.884    0.469
       130  -8.4979    131.3744    204.1368   1.2694839127e+02   1.5586817425e+01    0.2838933    0.1763646  74.34 0.0009016008    2.138    0.532
       131  -8.1808    109.0957    205.1434   1.3151128329e+02   1.9139357952e+01    0.2022171    0.1288303  71.75 0.0007973807    1.675    0.403
       132  -8.1244     74.7569    205.7616   1.3832516613e+02   2.4204709327e+01    0.1993954   0.06720165  49.14 0.0007626006    2.445    0.591
       133  -8.4221     25.1528    205.3415   1.4757410692e+02   3.0330721823e+01     0.245023   0.06920347  55.81  0.001148019    2.928    0.658
       134  -9.3788    250.1119    202.1064   1.0452750983e+02  -5.1113660952e+00    0.3253013    0.1680518 -30.52  0.001177003    1.997    0.499
       135  -8.7587    227.7574    203.4440   1.0856438968e+02  -1.5724087940e+00    0.1999818    0.1611274 -15.69 0.0005211531    1.281    0.220
       136  -9.4723    163.9011    202.9959   1.2035596412e+02   9.9702141621e+00    0.4075446    0.2278504  57.30  0.001175853    1.974    0.494
       137  -9.2941    242.9399    200.7316   1.0547548844e+02  -3.7789531693e+00    0.2815438    0.1829062 -30.04 0.0008181572    1.628    0.386
       138  -8.1338    211.0306    202.0680   1.1129899163e+02   1.5315365622e+00    0.1773144    0.1545642  76.53 0.0004143952    1.647    0.393
       139  -8.9803    140.5872    200.9862   1.2466290292e+02   1.4530315241e+01    0.3595986    0.2373371  81.60   0.00124659    2.157    0.536
       140  -8.5442     79.9982    201.2083   1.3684110990e+02   2.4344684363e+01    0.2952935    0.1542195  75.72   0.00120056    2.278    0.561
       141  -7.6506     73.2885    202.6276   1.3830518556e+02   2.5015214560e+01    0.1297446   0.07389536  71.53 0.0007021044    1.718    0.418
       142  -8.5236     48.2369    201.8813   1.4307020692e+02   2.8407577167e+01    0.2503551    0.1267588  71.46  0.001346054    1.852    0.460
       143  -8.1729     10.1886    202.5985   1.5007613657e+02   3.2337824341e+01    0.1217536   0.09652066  36.79 0.0008794982    1.691    0.408
       144  -9.3786    149.5950    198.7666   1.2252837891e+02   1.3299480856e+01    0.3690242    0.2486448  84.71  0.001406576    2.244    0.554
       145  -8.8244    123.9715    199.3259   1.2777337701e+02   1.7740983300e+01    0.2850023    0.1863206  86.32  0.001438968    1.998    0.499
       146  -9.2457    113.0046    198.6172   1.2990260685e+02   1.9725870515e+01    0.4225201       0.2341  73.63  0.001650345    2.538    0.606
       147  -8.9920     88.7799    198.7701   1.3482372632e+02   2.3530814229e+01    0.3438029    0.1920779  74.77  0.001735581    2.069    0.517
       148  -9.0841    236.9787    198.1449   1.0601911860e+02  -2.4588179506e+00    0.2702969    0.1707979 -38.81  0.001386303    1.856    0.461
       149  -8.5864    177.1344    198.7839   1.1710153520e+02   8.2164506108e+00    0.2007331    0.1815536 -71.84 0.0005704192    1.358    0.264
       150  -8.5929    202.2644    197.4199   1.1209388645e+02   3.7799152292e+00    0.2580151    0.1802405 -30.12 0.0009416367    1.608    0.378
       151  -9.0585     61.5136    197.1646   1.4009585452e+02   2.7675095311e+01    0.3638293    0.1757993  70.76  0.001604202    2.232    0.552
       152  -8.3981     13.2104    198.1295   1.4930185372e+02   3.2909208577e+01    0.2251097    0.0837021  59.23  0.001236035    2.203    0.546
       153  -8.1761     53.5956    196.8135   1.4161765726e+02   2.8752380514e+01    0.1667971   0.09155566  88.75 0.0007826344    1.744    0.427
       154  -8.6710    215.9423    195.5889   1.0925921650e+02   1.5593859313e+00    0.2130298    0.1812777 -54.23 0.0007676956    1.596    0.374
       155  -7.9781    132.9490    196.0163   1.2548037837e+02   1.6787397161e+01    0.2081018    0.1439304  74.35 0.0005971732    1.691    0.409
       156  -8.4396    224.4682    194.3195   1.0750135844e+02   2.1324552382e-01    0.2647053    0.1927693 -48.89  0.001003334    1.859    0.462
       157  -8.9137    185.2846    194.9236   1.1487208236e+02   7.3111074346e+00    0.2415553    0.1982556  57.46 0.0007085552    1.301    0.231
       158  -8.8250    160.8089    194.2760   1.1957374107e+02   1.2011332681e+01    0.2858279     0.213584  76.03 0.0008401141    1.703    0.413
       159  -8.9476     44.3098    193.7701   1.4317290206e+02   3.0480716604e+01    0.4062574    0.1568936  66.24  0.001816925    2.941    0.660
       160  -9.3173    245.6790    192.9125   1.0358029634e+02  -3.2582687301e+00    0.3429415     0.200643 -20.55   0.00106714    1.772    0.436
       161  -8.7721     77.2120    193.9273   1.3662877594e+02   2.6183007606e+01    0.2361891    0.1615784  67.90 0.0006206473    1.270    0.213
       162  -8.3574    230.8629    193.9433   1.0630715612e+02  -8.5992634749e-01    0.2165249    0.1645923 -30.13  0.001229785    1.425    0.298
       163  -8.0778    198.8733    191.8752   1.1174241540e+02   5.2383074751e+00    0.1904504    0.1590463  77.01 0.0004833342    1.654    0.395
       164  -7.9680    179.0390    191.9203   1.1556549143e+02   8.9726667201e+00    0.2008958    0.1575874  76.16  0.000525836    1.691    0.409
       165  -8.4708    172.4799    191.9082   1.1685495456e+02   1.0217599654e+01    0.2471059    0.1983494  71.59 0.0009301719    1.492    0.330
       166  -8.9827    139.4999    190.6990   1.2333621213e+02   1.6593583394e+01    0.3260953    0.2181694  73.75  0.001059496    1.887    0.470
       167  -8.0346     23.1717    192.3850   1.4712298147e+02   3.3059153022e+01    0.1567272    0.0767398  51.14 0.0008181278    1.716    0.417
       168  -7.5491    205.2553    191.6309   1.1050239615e+02   4.0856838826e+00    0.1196191    0.1047154 -85.12 0.0005490517    1.638    0.389
       169 -10.3443     91.9347    188.6013   1.3297472110e+02   2.5073226859e+01    0.8488506    0.2546065  52.48  0.003026699    3.572    0.720
       170  -8.9202    216.5754    188.3604   1.0781650293e+02   2.4742055005e+00    0.2837861    0.2229853 -44.32 0.0009645257    1.546    0.353
       171  -8.4431    148.6483    189.6205   1.2128265898e+02   1.5105781888e+01    0.2620855    0.1792012  78.44 0.0007674656    2.019    0.505
       172  -8.2670    237.0889    188.5795   1.0422668666e+02  -1.2308435432e+00    0.2030791    0.1630898 -30.66  0.000652967    1.374    0.272
       173  -9.1580    156.0383    187.6009   1.1943626579e+02   1.4083271618e+01    0.3169371     0.218198 -61.85 0.0008376597    1.768    0.434
       174  -8.8200    129.2607    188.6443   1.2514839143e+02   1.8828546982e+01    0.2792547    0.1909847  75.31  0.001090285    1.732    0.423
       175  -9.7636    121.0838    186.9725   1.2661625715e+02   2.0595572602e+01    0.5210616      0.28568 -80.04  0.002173461    2.959    0.662
       176  -8.5168     34.4439    188.1184   1.4465441541e+02   3.2734815203e+01    0.3248559    0.1306123  77.36  0.001138123    2.941    0.660
       177  -8.7176    191.5238    187.2607   1.1230963549e+02   7.3489984806e+00    0.2816489    0.2152629 -72.82  0.001307899    1.989    0.497
       178  -8.9088    164.9026    186.7569   1.1748840067e+02   1.2544768852e+01    0.3122398    0.2190779 -70.44  0.001125017    1.986    0.496
       179  -9.1208    109.6758    186.3332   1.2893656315e+02   2.2673913560e+01      0.38695    0.2225329  73.23  0.001416535    2.284    0.562
       180  -9.0134     54.7853    187.1496   1.4050586517e+02   3.0559864953e+01    0.3472829     0.163356  69.39  0.001693842    2.302    0.566
       181  -7.8493    230.5977    186.8297   1.0502317435e+02   1.4978246081e-01    0.1730753    0.1181778 -41.29 0.0009555917    1.728    0.421
       182  -8.5409    249.0886    185.4735   1.0160544936e+02  -2.8845466465e+00    0.2199435     0.165033 -41.05 0.0008435983    1.656    0.396
       183  -8.6979    210.3401    184.5182   1.0823970776e+02   4.1996277728e+00    0.2157147    0.1993814  -9.08 0.0005677302    1.146    0.128
       184  -8.7386    202.8482    184.6241   1.0966120854e+02   5.6017996513e+00    0.2380331    0.1771325 -58.90 0.0008065801    1.873    0.466
       185  -8.7070    183.1068    184.7797   1.1349949370e+02   9.3727003176e+00    0.2481185    0.2179542 -80.91 0.0007738639    1.444    0.307
       186  -8.9164     66.5672    184.4999   1.3781126116e+02   2.9580820806e+01    0.3365575    0.1816477  70.55  0.001049989    1.929    0.482
       187  -8.7766    224.2090    183.1469   1.0545196020e+02   1.8218983623e+00    0.3432511    0.1708168 -30.88  0.001170923    2.156    0.536
       188  -8.0565    196.9412    183.7555   1.1062218464e+02   6.8681495746e+00     0.210532    0.1532856  69.08   0.00070644    1.943    0.485
       189  -9.2470    174.1437    183.0358   1.1496781274e+02   1.1407758077e+01    0.4157938    0.2227673 -48.95  0.001282845    2.166    0.538
       190  -8.0525      2.3890    184.1247   1.5052587192e+02   3.6625442535e+01     0.164209    0.1002373  50.49  0.000929448    1.502    0.334
       191  -8.7987     44.3265    182.3936   1.4220305305e+02   3.2801144302e+01    0.3238122    0.1632634  73.21  0.001101348    1.976    0.494
       192  -9.1125    147.5582    180.7986   1.2004889652e+02   1.6944279289e+01    0.3286043    0.2369978  79.01  0.001139369    1.772    0.436
       193  -7.5641     83.3408    182.6510   1.3405879816e+02   2.7593386637e+01    0.1406084   0.08286542  70.91 0.0007044949    1.796    0.443
       194  -7.5149    235.2895    181.6699   1.0321505333e+02   2.1431654458e-02    0.1149927    0.1053159 -74.45 0.0004148294    1.622    0.384
       195  -9.2689     25.6588    179.0417   1.4570872065e+02   3.5512300005e+01    0.5601264    0.2004888  78.37  0.002244983    3.813    0.738
       196  -8.5234    137.6942    179.4633   1.2191510293e+02   1.9058363170e+01    0.3221965    0.2071716  75.34  0.001207427    2.149    0.535
       197  -9.2697    191.3393    178.3512   1.1068823858e+02   8.8322001128e+00    0.2717722    0.2223716  56.62 0.0004285846    1.305    0.234
       198  -9.2489    183.3731    176.5053   1.1191118245e+02   1.0715965321e+01    0.3760714    0.2657035 -70.78  0.001315716    2.185    0.542
       199  -8.2415    169.3114    178.8182   1.1518346820e+02   1.3091826542e+01    0.2507548    0.2043837  85.73 0.0008778204    1.554    0.357
       200  -9.1883     35.7939    176.6514   1.4345623025e+02   3.4954935130e+01    0.5197818     0.193683  83.16  0.001978524    4.029    0.752
       201  -9.3354    248.6370    176.8745   1.0000897001e+02  -1.6835642679e+00    0.3979279    0.2684174 -44.89  0.002035116    1.895    0.472
       202  -8.6503    250.5013    172.8865   9.8908213656e+01  -1.4761760935e+00    0.2243689    0.1665255 -26.96 0.0006415333    1.325    0.245
       203  -8.4003    217.7869    177.6460   1.0554669965e+02   3.8242249740e+00    0.2250221    0.1774546 -68.86 0.0009840761    2.000    0.500
       204  -8.4864    205.1326    177.6835   1.0790690866e+02   6.2451357977e+00    0.2256459    0.1826586 -47.26  0.000699534    1.459    0.315
       205  -8.6570    129.1600    177.2155   1.2338073862e+02   2.1077657268e+01    0.3300094     0.199065  89.56  0.001232406    2.807    0.644
       206  -8.1306    231.2100    177.1906   1.0305138584e+02   1.3869117964e+00    0.1664693    0.1531559 -44.52 0.0005089544    1.376    0.273
       207  -9.2686    104.5104    174.8981   1.2841537695e+02   2.5873142376e+01    0.5093322    0.2538773  68.36   0.00195282    3.122    0.680
       208  -7.8846     97.7571    177.6100   1.3028653212e+02   2.6413913389e+01    0.1859069    0.1083198  51.91 0.0009396923    1.558    0.358
       209  -8.4263     88.9761    177.1256   1.3213977828e+02   2.7896856186e+01    0.2403601     0.152583  63.28 0.0009000233    1.511    0.338
       210  -9.9288     57.2622    173.1500   1.3857462872e+02   3.3187487261e+01    0.7637987    0.3171107  79.12  0.002621968    4.636    0.784
       211  -8.6763     12.8810    176.7271   1.4808571192e+02   3.7203104406e+01    0.2242617   0.09919824  73.58  0.001011382    2.063    0.515
       212  -9.1862    158.9215    175.2285   1.1668212954e+02   1.5788746292e+01    0.3826643     0.254477  76.54  0.001335278    2.277    0.561
       213  -8.3312     79.2802    158.5799   1.3178253407e+02   3.3369188864e+01    0.2510146    0.1288857  30.77  0.001120191    2.494    0.599
       214 -10.5262     76.0881    171.2439   1.3421795717e+02   3.1063469363e+01    0.9973834    0.3950902 -81.29   0.00321715    4.846    0.794
       215  -8.8131     74.5067    160.5016   1.3316455102e+02   3.3633463535e+01    0.2303796    0.1721367 -31.01  0.001048648    2.117    0.528
       216  -8.1966    224.4089    174.2257   1.0367185892e+02   3.0812633941e+00    0.1789808    0.1235681 -42.92 0.0009476028    1.670    0.401
       217  -9.3689    175.5947    172.2701   1.1267517147e+02   1.3008879924e+01     0.323913    0.2622178 -47.98 0.0008267539    1.372    0.271
       218  -8.4920    143.0267    172.6740   1.1961039331e+02   1.9371137629e+01    0.2304484     0.191509 -80.93 0.0007092335    1.339    0.253
       219  -8.6550    134.7703    171.8946   1.2126983078e+02   2.1097308879e+01    0.2483548    0.1874463 -84.17 0.0007957932    1.563    0.360
       220  -9.5030    121.6345    170.6397   1.2395522620e+02   2.3778936802e+01    0.4058398    0.2659382  79.66  0.001137904    1.983    0.496
       221  -9.0793     45.1355    171.0279   1.4097352830e+02   3.5105139122e+01    0.3614177    0.1751375  88.90  0.001277356    2.167    0.538
       222  -9.0263    230.3830    170.2566   1.0181207388e+02   2.5402044536e+00    0.2242823    0.1942266   9.78 0.0007457511    1.032    0.031
       223  -8.2311    205.8141    170.6452   1.0639075920e+02   7.2301409006e+00    0.2335833    0.1762029 -66.64 0.0007948968    1.984    0.496
       224  -7.8934    237.1400    169.8393   1.0054926382e+02   1.3431704841e+00    0.1816125    0.1770041  -6.05 0.0005391462    1.252    0.201
       225  -8.6740    198.4503    170.1787   1.0771052620e+02   8.7723769504e+00    0.2144268    0.1864405  65.18 0.0006977182    1.345    0.256
       226  -9.1776    167.0446    168.7737   1.1377372585e+02   1.5367078098e+01    0.3152481    0.2414584  70.64 0.0008962433    1.554    0.357
       227  -8.3343    149.8148    169.5669   1.1758654007e+02   1.8656511623e+01    0.2598265    0.1858427 -75.65 0.0007517789    1.819    0.450
       228  -7.7221    244.2070    169.3827   9.9252449185e+01   1.1867544570e-01    0.1665989    0.1202531  50.37 0.0004311421    1.584    0.369
       229  -8.2967    218.9388    168.5110   1.0351298235e+02   4.9893127027e+00    0.2286603    0.1860563 -48.06 0.0005575321    1.477    0.323
       230  -8.6061    111.9978    167.8900   1.2566546174e+02   2.6065189641e+01    0.3539019     0.199094  72.79   0.00134924    2.640    0.621
       231  -8.2339     88.5083    168.5458   1.3107389962e+02   2.9796392663e+01    0.2229781    0.1193126 -77.67 0.0007483838    2.177    0.541
       232  -8.7371    191.8953    166.6617   1.0828961963e+02   1.0687781374e+01    0.2486352    0.2033663 -46.87 0.0005741628    1.366    0.268
       233  -8.8662    184.9613    166.4782   1.0963847991e+02   1.2134405652e+01    0.2553137    0.1955349 -59.29 0.0006213005    1.606    0.377
       234 -10.0643     95.1652    163.1660   1.2876614268e+02   2.9909688432e+01    0.8026657    0.3969883  74.61  0.002697045    4.164    0.760
       235  -8.8532     20.7162    166.4476   1.4576211461e+02   3.8626775014e+01    0.3392701    0.1298008  62.77  0.001135903    2.693    0.629
       236  -8.6213    233.9124    165.2810   1.0017742519e+02   2.6038062610e+00    0.2183462    0.1744062 -36.14 0.0006216396    1.350    0.260
       237  -9.9270    136.5688    164.4471   1.1955594378e+02   2.2256564480e+01    0.5588647    0.3086195  61.81  0.002256064    2.239    0.553
       238  -8.6726    159.4934    164.4227   1.1453481454e+02   1.7715514476e+01    0.2830864      0.23589  78.99 0.0007650343    1.370    0.270
       239  -9.3154     33.6303    163.5975   1.4275624296e+02   3.7964220216e+01    0.5073746    0.1688555  54.69  0.002208659    3.071    0.674
       240  -8.6859    246.0745    163.1787   9.7670114799e+01   6.4685091475e-01    0.2695309    0.1712713 -34.23 0.0006794863    1.571    0.363
       241  -8.6214    212.9414    163.6815   1.0362958208e+02   6.9277746938e+00    0.2462494    0.1956497 -40.70  0.000615535    1.375    0.273
       242  -9.2954     59.8588    161.7000   1.3669186686e+02   3.5345975631e+01    0.4519687    0.3696667 -23.06  0.002727716    1.963    0.491
       243  -8.4306    205.0173    162.8892   1.0496273573e+02   8.6522268527e+00    0.2292908    0.1997836 -34.62 0.0005158226    1.223    0.182
       244  -9.2306      3.4015    162.4343   1.4907213512e+02   4.0959524640e+01    0.3479519     0.134386  58.98  0.001600931    2.370    0.578
       245  -8.0793    221.9744    161.9733   1.0161261683e+02   5.4046032858e+00    0.1667284    0.1505207   3.76 0.0004274999    1.037    0.035
       246  -9.0771    177.7121    160.8661   1.0998537286e+02   1.4634813842e+01    0.3244079     0.261403 -85.54  0.001081279    1.649    0.393
       247  -9.0314    151.6781    161.1831   1.1560136260e+02   1.9927509039e+01      0.30946    0.2293135 -82.45 0.0008805217    1.775    0.437
       248  -8.0076    240.0067    164.3216   9.8929315627e+01   1.6018713050e+00    0.1816224    0.1589054  16.93 0.0004892737    1.053    0.050
       249  -8.3322    227.6264    159.3670   1.0005119005e+02   4.6963615704e+00    0.2673588    0.1865891 -56.08   0.00102745    2.031    0.508
       250  -9.6102    105.8196    158.0213   1.2546532715e+02   2.9252138811e+01    0.4727775     0.301231  82.91  0.001533576    2.047    0.512
       251  -9.6103    250.1914    157.7288   9.5855986600e+01   6.6142024704e-01    0.3222281    0.1721939 -31.68  0.000843328    1.786    0.440
       252  -7.7168    237.1715    159.1662   9.8340763837e+01   2.8843678228e+00    0.1724474     0.157639 -43.58 0.0005965318    1.315    0.239
       253  -8.5142    196.9030    158.2335   1.0556404479e+02   1.1104190382e+01    0.2496535    0.2024702 -70.65 0.0008811744    1.651    0.394
       254  -9.1244    167.7696    157.3862   1.1136250743e+02   1.7356639880e+01    0.3718134    0.2626607 -88.19  0.001152776    2.239    0.553
       255  -8.3395    128.0459    159.0344   1.2049303730e+02   2.5005554229e+01    0.2335376    0.1644802  76.81 0.0007419084    1.720    0.419
       256  -7.8651    188.1511    158.1158   1.0728283998e+02   1.2951456532e+01    0.1891723    0.1716012 -85.74 0.0004502611    1.317    0.241
       257  -8.3181    217.8809    156.7512   1.0125823941e+02   7.0423227760e+00    0.2395717    0.1763219 -61.30 0.0008100566    1.945    0.486
       258  -9.0218    157.5263    155.9429   1.1328158756e+02   1.9766071086e+01    0.3019134    0.2359157 -67.38 0.0009253976    1.488    0.328
       259  -9.3553    119.5674    155.3533   1.2178165462e+02   2.7374809081e+01    0.4336224    0.2738558 -84.22  0.001443284    2.238    0.553
       260  -8.6575    144.8832    155.2343   1.1594617084e+02   2.2493206427e+01    0.2645923    0.1997616 -86.80 0.0009900279    1.668    0.401
       261  -9.3796     81.4760    154.6005   1.3068017995e+02   3.3929759110e+01    0.4545005    0.2642927  79.09  0.001352523    2.201    0.546
       262  -8.9115     49.6422    155.3505   1.3829052461e+02   3.8005529824e+01    0.3699372    0.1876865  68.06  0.001501972    2.213    0.548
       263  -8.9427    242.5457    154.9242   9.6531114960e+01   2.4860775377e+00    0.1895148    0.1893702 -86.92 0.0003600479    1.273    0.214
       264  -9.6830    242.3049    149.9253   9.5501011280e+01   3.2667116598e+00    0.3660529     0.244155  50.23   0.00191111    1.629    0.386
       265  -7.9409    204.7835    155.5595   1.0346482517e+02   9.9213352108e+00    0.1871407    0.1339566  56.51 0.0004634867    1.539    0.350
       266  -9.6489    132.8079    153.0991   1.1828159679e+02   2.5335796343e+01    0.4623857    0.3001001  71.66  0.001205549    2.018    0.504
       267  -9.5659    133.5639    148.2521   1.1715219663e+02   2.6210686719e+01    0.3958751    0.2661344 -39.49  0.001864308    1.726    0.420
       268  -9.7781     67.9024    153.7503   1.3379188300e+02   3.6054956032e+01    0.4356984    0.2436379  77.07  0.001446592    2.183    0.542
       269  -8.9474    151.9237    152.9676   1.1391455588e+02   2.1515632916e+01    0.2332086    0.1769339  85.73  0.000865899    1.689    0.408
       270  -8.4544     20.3304    152.9057   1.4473042328e+02   4.1569962621e+01    0.1893014    0.1296725  63.07 0.0006879355    1.330    0.248
       271  -8.0509    182.6498    151.6418   1.0703203379e+02   1.5284625855e+01    0.2693748    0.1716807 -63.42  0.001131199    2.298    0.565
       272  -9.5155     29.5545    151.0005   1.4246400541e+02   4.1125572985e+01    0.3753801    0.1708438  72.02  0.001683469    2.521    0.603
       273  -9.3734    248.7144    149.3809   9.4325311735e+01   2.1265994076e+00    0.2991535    0.1956388 -29.66 0.0007126809    1.444    0.308
       274  -8.8378    189.4623    150.4873   1.0539097583e+02   1.4037464203e+01    0.2878885    0.2398467 -73.42 0.0009910109    1.522    0.343
       275  -8.5360    162.7797    151.0627   1.1112605595e+02   1.9625957778e+01    0.2266433    0.1961429  86.77 0.0008302252    1.314    0.239
       276  -8.6562     98.3832    150.8707   1.2602378197e+02   3.2088126243e+01    0.2670057    0.1878674  86.66 0.0009373642    1.592    0.372
       277  -8.1898    212.9613    149.9450   1.0070000457e+02   9.1571435889e+00    0.2070846    0.1761282 -79.36 0.0004554593    1.598    0.374
       278  -9.7433     39.8068    147.9565   1.3974908286e+02   4.0757433793e+01    0.5128703    0.2287096  70.10  0.002101227    2.947    0.661
       279  -8.3459    198.8945    149.0828   1.0320497535e+02   1.2270414572e+01    0.2126205    0.1967917 -87.71 0.0004089552    1.283    0.221
       280  -9.8636     89.1728    146.2545   1.2748756334e+02   3.4621789510e+01    0.6629715    0.3554181  86.80  0.002444527    3.350    0.701
       281  -8.8962    233.0972    148.0167   9.6653448348e+01   5.3572205778e+00    0.2103181    0.1878983  -3.81 0.0004665273    1.034    0.033
       282 -10.2122    106.6799    144.0749   1.2278991580e+02   3.2177597019e+01    0.8022519    0.4653324 -88.07  0.002408745    2.915    0.657
       283  -9.0175     78.1961    147.3989   1.3037296895e+02   3.6036009912e+01    0.2968211    0.1802585  71.20  0.001009663    1.917    0.478
       284 -10.3428     54.7472    144.3158   1.3569127100e+02   3.9878230409e+01     0.828599    0.3998307  79.90  0.002765236    3.126    0.680
       285  -8.0310    223.2933    147.0021   9.8159663332e+01   7.4991859726e+00    0.1918978    0.1708808 -19.80 0.0003153725    1.100    0.091
       286 -10.1990    148.9627    144.9744   1.1291910421e+02   2.3756403854e+01    0.5746417    0.3876229  88.80  0.001507032    2.357    0.576
       287  -8.9021    150.7976    136.4401   1.1063540507e+02   2.5126953044e+01    0.5428404    0.3426267  18.59  0.002044488    2.785    0.641
       288  -9.9079    139.2563    145.1182   1.1518561237e+02   2.5729535963e+01    0.5078156    0.3234121 -76.13  0.001417769    2.328    0.571
       289  -9.0619    139.5104    137.9868   1.1361136165e+02   2.7183838738e+01    0.4584244    0.3074121   4.15  0.001702363    3.146    0.682
       290  -9.0269     13.4952    146.2050   1.4569510700e+02   4.3614354070e+01    0.3205195    0.1550266  67.46   0.00120362    2.044    0.511
       291  -9.6816    240.6021    144.9628   9.4706485379e+01   4.3382736336e+00    0.3592429    0.2499463  14.75  0.001288557    1.641    0.391
       292  -8.0985    175.6952    146.1993   1.0730313153e+02   1.7797975199e+01    0.2249997    0.1845866 -71.41 0.0007387031    1.478    0.323
       293  -9.7238    124.9935    142.7532   1.1807693593e+02   2.9071781547e+01     0.554485     0.331742 -74.60   0.00188994    2.408    0.585
       294 -10.8821     69.3517    141.5618   1.3166481007e+02   3.8620283713e+01    0.9103338    0.5042962 -89.44  0.004084064    2.299    0.565
       295  -8.9349    247.0161    143.9807   9.3431672187e+01   3.2382304147e+00    0.2040289    0.1783426 -16.62 0.0005259125    1.066    0.062
       296  -8.7726    165.4567    144.0854   1.0904212413e+02   2.0423272539e+01    0.2732528    0.2104341  58.80 0.0007562295    1.334    0.250
       297  -7.6359    194.2962    143.7078   1.0292199023e+02   1.4210865506e+01    0.1409448    0.1177799 -86.46 0.0002642699    1.559    0.358
       298  -9.1400      2.8435    142.0974   1.4778084268e+02   4.5320245781e+01    0.2987514     0.136756  71.72   0.00141846    2.122    0.529
       299  -8.4603    182.1591    141.7535   1.0495654356e+02   1.7224991619e+01    0.2516657    0.2002701 -55.76  0.000622844    1.407    0.289
       300  -8.0296    206.7197    146.5791   1.0113713000e+02   1.1035301859e+01    0.1895635    0.1371395  56.19 0.0005269765    1.501    0.334
       301  -9.8613     23.2887    138.1357   1.4264211002e+02   4.4563431331e+01     0.479103    0.2202296  73.29  0.002285044    2.543    0.607
       302  -7.9689    218.6124    138.7621   9.7160074875e+01   9.8173477765e+00    0.1925395     0.131319 -42.97 0.0004440597    1.537    0.349
       303  -8.7246    172.2607    138.1659   1.0623988167e+02   2.0092120681e+01    0.3589076    0.2206306 -58.70 0.0009832134    2.067    0.516
       304  -8.1531    207.3405    138.0179   9.9086534865e+01   1.2369019189e+01    0.2034346    0.1817647 -35.76 0.0006648866    1.147    0.128
       305  -8.6271    197.6089    137.6318   1.0088267864e+02   1.4571033355e+01    0.2792171    0.2164475 -59.35 0.0008210933    1.553    0.356
       306 -10.3005     83.2879    133.2992   1.2671933150e+02   3.8494916254e+01    0.6067474    0.3411844 -61.24  0.001798219    1.667    0.400
       307  -8.3269    162.6858    136.4999   1.0795705027e+02   2.2531550653e+01    0.2473519    0.1836742 -70.97 0.0006515361    1.708    0.415
       308  -9.1710     39.1018    136.3923   1.3854834003e+02   4.3441157376e+01     0.239489    0.1564428  76.10 0.0006809762    1.502    0.334
       309  -8.7654    248.2992    135.2098   9.1286852328e+01   4.2891990659e+00    0.3024138    0.1749388 -31.67  0.000698381    1.614    0.380
       310  -8.8402    250.7029    130.5319   8.9858126698e+01   4.5134983034e+00    0.4252892    0.1236376 -30.93  0.001384586    3.455    0.711
       311  -8.3179    246.8438    130.2094   9.0394895323e+01   5.3277786881e+00    0.2317805       0.1704 -37.67 0.0005613161    1.330    0.248
       312  -8.5126      3.1842    135.8045   1.4721132349e+02   4.6659463844e+01    0.2249238    0.1166976 -27.97  0.001069665    4.203    0.762
       313  -8.5278    179.5972    133.8749   1.0368472533e+02   1.9281673975e+01    0.2875189    0.2251262 -73.97 0.0009578742    1.644    0.392
       314  -8.8298    113.0579    133.3800   1.1909462027e+02   3.3410092302e+01    0.3309704    0.2302413 -88.85  0.000932088    1.853    0.460
       315  -7.3727    237.3344    133.6625   9.2730554727e+01   6.7235255840e+00      0.13917    0.1102594 -67.11 0.0007051849    1.746    0.427
       316  -9.0002    143.1918    131.8751   1.1138090994e+02   2.7705320757e+01    0.3156613    0.2468547 -81.65  0.000780395    1.543    0.352
       317 -10.4543    132.6566    130.3440   1.1356882096e+02   3.0235119179e+01    0.7699858    0.5237588 -57.61  0.002012823    1.536    0.349
       318 -10.5943     98.5325    130.7833   1.2228005106e+02   3.6595588250e+01    0.6476781    0.3175266 -63.03   0.00180564    2.175    0.540
       319  -8.7064     98.8251    120.7751   1.2012454834e+02   3.8827698515e+01    0.6489655    0.3474688  18.52  0.001975719    4.990    0.800
       320  -8.1159    204.9006    130.8876   9.7892841921e+01   1.4145883800e+01     0.230114     0.182315 -76.28 0.0006787059    1.714    0.417
       321  -9.6230    152.7922    128.4007   1.0832625340e+02   2.6354528194e+01    0.6268654    0.2907836 -48.21  0.001312789    2.245    0.555
       322  -9.6954     73.2134    129.4240   1.2867244498e+02   4.0876607211e+01    0.3531634    0.2234675 -84.61  0.001060832    1.780    0.438
       323  -9.6709     12.9901    129.4838   1.4428863508e+02   4.7336981610e+01    0.4195598    0.1970254  70.56   0.00197699    2.354    0.575
       324  -7.4014    220.6865    130.2975   9.4833998560e+01   1.0773687551e+01    0.1401256    0.1155243 -73.81 0.0004081024    1.603    0.376
       325  -8.3897    192.8600    130.1707   1.0008162873e+02   1.6980278577e+01     0.223519    0.2053162 -76.60   0.00045964    1.232    0.189
       326  -9.3237    168.3025    129.3013   1.0503797597e+02   2.2712834490e+01     0.356326    0.2524409 -64.55 0.0009936251    1.764    0.433
       327  -8.8889    161.5061    129.9581   1.0670469217e+02   2.4106162529e+01    0.2304872    0.1514674 -43.52  0.000676465    1.566    0.362
       328  -8.2640     25.1885    130.2053   1.4131321755e+02   4.6175914409e+01     0.219328    0.1050648  16.04  0.001033031    3.477    0.712
       329  -7.9596    211.6393    129.3366   9.6256900993e+01   1.2917304311e+01    0.2168294    0.1723158 -72.61 0.0006276696    1.684    0.406
       330 -10.4799     60.1104    125.1782   1.3144901017e+02   4.3615611564e+01     0.735577    0.3915869  77.66  0.002806254    2.924    0.658
       331 -10.5867     45.0643    123.8503   1.3529267183e+02   4.5683872320e+01     1.045054    0.4865549  76.44  0.003856384    3.931    0.746
       332  -9.9182    117.8770    125.2823   1.1612597200e+02   3.4300838857e+01    0.5191345    0.3363957  76.52  0.001674503    2.263    0.558
       333  -8.0031    228.5628    125.7677   9.2393160393e+01   9.8164889617e+00    0.2007828    0.1280361 -44.52 0.0006052456    1.639    0.390
       334  -8.8027    179.3447    124.7029   1.0154834134e+02   2.1090112789e+01    0.2819145     0.247538 -78.50   0.00068493    1.305    0.234
       335 -10.0400     28.4226    122.3537   1.3953083347e+02   4.7668968863e+01    0.6828281    0.3006142  77.31   0.00273035    3.553    0.719
       336  -9.2668    241.1905    122.2590   8.9475239653e+01   7.6997098577e+00    0.3549679    0.2843961  87.82  0.001638527    1.751    0.429
       337  -8.1674    188.4466    124.2597   9.9550911105e+01   1.9077291798e+01    0.2084252    0.1434387 -49.83 0.0005663909    1.567    0.362
       338  -8.6391     84.9703    122.9863   1.2431816234e+02   4.0611395671e+01    0.3603279    0.2488206   7.29  0.001623836    2.536    0.606
       339  -9.4605     71.4453    120.6966   1.2756714368e+02   4.3148599861e+01    0.5354555    0.3048519  79.94  0.001813048    2.789    0.641
       340  -9.3348    158.7794    121.8107   1.0536223442e+02   2.6367952426e+01    0.3836579    0.2836974 -86.66  0.000855155    1.876    0.467
       341  -7.9427    195.1366    122.1648   9.7694820364e+01   1.7919703137e+01    0.2074907    0.1773799 -65.34  0.000404727    1.341    0.254
       342  -8.8594    171.9751    121.8253   1.0242260957e+02   2.3345402201e+01     0.257473    0.2205104 -42.33 0.0004308268    1.190    0.160
       343 -10.1553    141.5438    117.7006   1.0841491467e+02   3.1061090309e+01    0.7151303    0.3580093 -47.64  0.001577911    2.023    0.506
       344  -9.6090    130.6877    118.6815   1.1134018444e+02   3.3170967372e+01     0.452246    0.3078901 -74.75  0.001337919    1.971    0.493
       345  -9.5812      3.0520    117.6685   1.4564708358e+02   5.0646580180e+01    0.4919824    0.1966298  78.10  0.002200996    3.114    0.679
       346  -8.6581     16.1801    119.1267   1.4237815843e+02   4.9410661929e+01    0.2460546    0.1486962 -13.17  0.001317273    3.002    0.667
       347  -7.3484    231.3236    117.6292   8.9999253192e+01   1.0533587050e+01    0.1498791     0.110371 -64.61 0.0007033289    1.809    0.447
       348  -9.7772    109.1792    114.1462   1.1584495962e+02   3.8453183841e+01    0.4788652    0.3203452 -80.71  0.001157044    2.061    0.515
       349  -8.7945     58.6741    115.6305   1.3019496735e+02   4.6010699143e+01    0.2012749    0.1447333 -36.63  0.000891349    1.703    0.413
       350  -8.1841    192.9394    115.1825   9.6395211773e+01   1.9705048067e+01     0.231004     0.202371 -66.65 0.0005050246    1.275    0.216
       351  -8.3325    166.8746    114.7186   1.0176004459e+02   2.5927797862e+01    0.3128994    0.2292462  14.78  0.001349694    1.895    0.472
       352 -10.0599     92.6458    112.4120   1.1996828989e+02   4.1795290277e+01    0.5240587    0.3261593 -75.31  0.001317653    2.035    0.509
       353  -9.9155     78.9794    112.6677   1.2386606596e+02   4.3914558900e+01    0.5556002    0.3497788  83.03  0.002072768    2.329    0.571
       354  -8.5799     78.8623    105.3593   1.2231205537e+02   4.5614080314e+01     0.324108    0.2190117   3.87  0.001033476    2.585    0.613
       355 -10.3182    133.8047    109.8116   1.0834623665e+02   3.4419111480e+01    0.7065228    0.3213027 -53.77  0.002025669    2.489    0.598
       356  -8.2950     27.0156    113.8361   1.3878871055e+02   4.9733293671e+01    0.1774562    0.1251343 -31.52 0.0007399668    1.897    0.473
       357  -8.7221    174.9466    112.3254   9.9383141476e+01   2.4496502179e+01    0.3000281     0.209549 -55.64 0.0007614295    1.609    0.379
       358  -9.9393    121.7781    112.1511   1.1202545919e+02   3.6431088743e+01    0.4462191    0.2881759 -55.41  0.001471551    1.577    0.366
       359  -8.6015    159.2228    111.9280   1.0276992524e+02   2.8266401385e+01    0.2798938    0.2407907 -70.75 0.0005327573    1.280    0.218
       360 -10.0352     66.4164    110.2576   1.2696637689e+02   4.6258707417e+01    0.5331057     0.293913 -65.73  0.001860152    1.709    0.415
       361  -9.6013     14.1930    111.1841   1.4198402036e+02   5.1343140231e+01    0.3744674    0.1877041  75.35  0.001461569    2.354    0.575
       362 -10.3652    248.7337    106.9030   8.4703850150e+01   8.4814935792e+00    0.5722546    0.2594191 -31.58  0.002386338    2.052    0.513
       363  -8.6086    188.9537    107.8497   9.5315142532e+01   2.1997085939e+01    0.2694812    0.2200427 -38.83 0.0006232518    1.225    0.183
       364  -9.2092    110.1227    107.3357   1.1393840562e+02   3.9794811183e+01    0.4408576    0.2578965  19.37  0.001552009    3.359    0.702
       365  -9.2412    139.8321    104.6928   1.0549790573e+02   3.4177620421e+01    0.3856792     0.283087 -74.92 0.0008414466    1.765    0.433
       366 -10.6199     22.9681    102.8397   1.3838626778e+02   5.2568510415e+01    0.7102956    0.3522627  75.97  0.003095506    2.867    0.651
       367  -8.4610    166.6896    104.3106   9.9079951741e+01   2.8017328638e+01    0.2646393    0.2297154 -71.67 0.0006709559    1.272    0.214
       368  -9.6248    150.6138    103.1024   1.0244945828e+02   3.2050077384e+01    0.4840705    0.2885858 -61.71  0.001163793    2.260    0.557
       369  -8.7532     93.2563    104.8557   1.1803805786e+02   4.3410359993e+01    0.2687024    0.1963365   3.67  0.001239398    2.142    0.533
       370 -10.4117     45.4590    102.2850   1.3161050480e+02   5.0618511450e+01    0.7089124    0.3882283  78.32  0.003064636    2.914    0.657
       371  -8.7481     46.5180     92.5709   1.2939183408e+02   5.2727873737e+01    0.3535115    0.1715491  20.73  0.001603356    2.906    0.656
       372  -9.2371      6.8960    103.2497   1.4306877560e+02   5.3606043388e+01    0.2653898    0.1540796  75.61  0.001114978    1.819    0.450
       373  -7.5193    191.3050    103.3274   9.3665425157e+01   2.2256490077e+01    0.1579116    0.1216246  12.81 0.0003276301    1.649    0.394
       374 -10.1728    128.6803    102.0859   1.0763381935e+02   3.7168145082e+01    0.4145346    0.3063514  85.39  0.001246876    1.838    0.456
       375 -10.3588    108.9759     98.9494   1.1210456701e+02   4.1866059062e+01    0.7629295    0.4452105  69.73  0.001450277    3.031    0.670
       376  -8.9664    108.8133     92.3631   1.1037006401e+02   4.3328104723e+01    0.5590013    0.2752336  28.99   0.00192191    3.241    0.691
       377  -8.0466    175.4351    102.2222   9.6620494478e+01   2.6312430338e+01    0.2208799    0.1444387 -50.48 0.0006839256    1.635    0.388
       378  -8.9320     43.2837    109.5216   1.3352553641e+02   4.9180463874e+01    0.2797547    0.1346211  23.95  0.001312373    2.766    0.639
       379  -8.4264    159.8323    101.0868   9.9752902623e+01   3.0286372927e+01    0.2421593    0.2080373 -74.24 0.0004890419    1.301    0.231
       380  -8.9684     82.1450    100.1099   1.2013216282e+02   4.6306411242e+01    0.3285421    0.2215108 -76.39 0.0006970562    1.782    0.439
       381  -9.1335     95.0605     97.0137   1.1556615472e+02   4.4858283083e+01    0.3471045    0.2169424 -60.23  0.000564905    1.652    0.395
       382  -9.9378     63.8778     95.9942   1.2470335780e+02   4.9876028609e+01    0.5106903    0.3176077  84.14   0.00158677    2.527    0.604
       383  -7.6410    183.5449     96.5214   9.3395683104e+01   2.5392783043e+01    0.1540838    0.1513941 -73.05 7.960778e-05    1.024    0.024
       384  -8.5391    151.4934     95.4718   1.0014108830e+02   3.3377051056e+01     0.288752     0.139758  39.81  0.001024897    2.358    0.576
       385  -8.1838    176.3092     93.3972   9.4027041248e+01   2.7753278616e+01    0.2703435    0.1794121 -56.11 0.0005693136    1.738    0.425
       386  -8.0259    164.8580     94.1386   9.6701429876e+01   3.0426294636e+01    0.2393934    0.2064336 -71.49  0.000477718    1.283    0.220
       387  -9.1458    139.0366     92.3309   1.0228851170e+02   3.6903692923e+01    0.3787366    0.2757421 -75.38 0.0006761351    1.851    0.460
       388 -10.1378    123.7640     91.3700   1.0597358435e+02   4.0480163418e+01     0.581475    0.4333855  33.52  0.001133545    1.485    0.327
       389  -9.4844      5.1106     91.9377   1.4217983506e+02   5.6223686852e+01    0.3212777    0.1749283  73.50   0.00141103    2.168    0.539
       390  -8.1474    157.7253     91.7398   9.7633809706e+01   3.2619271414e+01    0.2712926    0.1886909 -37.07 0.0006127799    1.461    0.316
       391  -9.4345     34.8635     89.9862   1.3258460395e+02   5.4472927283e+01    0.4099165    0.2299892  89.35   0.00181778    2.427    0.588
       392  -9.1008     23.1686     90.1361   1.3632781935e+02   5.5423183562e+01    0.2665036    0.2125989 -30.68  0.001071424    1.469    0.319
       393  -8.2413    150.8632     89.2999   9.8534035768e+01   3.4742066111e+01    0.2718108    0.2055589 -51.35 0.0004677865    1.372    0.271
       394  -9.8974     86.3361     86.6853   1.1543880223e+02   4.8626876446e+01    0.4539974    0.3256396 -89.41  0.001087464    2.019    0.505
       395  -8.6876     66.2233     87.4098   1.2194089785e+02   5.1501774404e+01    0.5673354    0.3073798   9.54  0.002033413    4.278    0.766
       396  -7.6413    188.2814     87.3164   8.9926852691e+01   2.5870091494e+01    0.1547306      0.12229  14.03 0.0004103272    1.578    0.366
       397  -8.0243    164.1968     87.2414   9.4889373463e+01   3.1894859212e+01    0.2489907    0.1100782 -46.58 0.0004422667    2.414    0.586
       398  -9.6856     48.4810     84.4441   1.2699900658e+02   5.4349393818e+01    0.4527635    0.2912945  77.86   0.00173703    2.322    0.569
       399  -7.3133    179.2744     85.6506   9.1243594890e+01   2.8426709184e+01    0.1612922    0.1197462 -66.98 0.0003692858    1.633    0.388
       400  -8.8958    127.4328     84.1220   1.0288489280e+02   4.1171076430e+01    0.5327258    0.2476219  29.15  0.001464528    4.730    0.789
       401  -9.6955    104.8171     83.3855   1.0896108584e+02   4.6014439191e+01    0.4318055    0.3055408 -71.43 0.0009850691    1.861    0.463
       402  -8.1087    158.0022     84.2413   9.5403955729e+01   3.3982566792e+01    0.2142091    0.2062168  64.55 0.0004493541    1.035    0.034
       403  -9.6107     10.2381     81.6917   1.3908935721e+02   5.8188131516e+01    0.4179578    0.2168871  74.23  0.001630915    2.744    0.636
       404  -9.0774    140.7233     82.6504   9.9035705443e+01   3.8437283567e+01    0.3291603    0.2577721 -47.81 0.0008099667    1.291    0.226
       405  -8.0300    185.2995     82.6877   8.9208480038e+01   2.7432610931e+01    0.1591054    0.1202661 -70.56 0.0004403939    1.605    0.377
       406  -9.6015     24.6536     80.5516   1.3411980596e+02   5.7450745694e+01    0.4279363    0.2341283  89.98  0.001370377    2.466    0.594
       407  -8.3266    150.1664     80.7378   9.6176836831e+01   3.6553495062e+01    0.2740273     0.205485 -52.64 0.0006675356    1.413    0.292
       408  -8.7118    119.2914     80.4469   1.0397740340e+02   4.3677971801e+01    0.3373021    0.2426929 -65.23 0.0007559197    1.711    0.416
       409  -8.8008     74.4589     80.5900   1.1751151265e+02   5.1831437266e+01    0.2810595    0.2180283 -81.58  0.001120152    1.590    0.371
       410  -8.4142    166.8283     79.7191   9.2123739501e+01   3.2623949349e+01    0.2577376    0.2096516 -25.77 0.0005712343    1.308    0.235
       411 -10.1311     64.0622     75.1343   1.1944152438e+02   5.4494114483e+01    0.7049139    0.3214998 -66.93  0.002537093    3.472    0.712
       412  -8.2183    184.1893     78.3973   8.8202161155e+01   2.8458573730e+01    0.2105875    0.1497012  71.02 0.0004435369    1.570    0.363
       413  -7.7837     49.3214     78.3032   1.2526888431e+02   5.5621314483e+01    0.1317153   0.08877592 -32.75 0.0007028844    1.632    0.387
       414  -9.2317    127.9920     75.3344   1.0005295855e+02   4.2781950228e+01     0.379163    0.2617041 -63.91 0.0007057353    1.863    0.463
       415  -8.6263    105.4154     76.9205   1.0684638309e+02   4.7236949349e+01    0.2941829    0.1944495  24.82  0.001100275    1.954    0.488
       416  -8.5749    140.3732     75.5019   9.6941972760e+01   3.9887848019e+01    0.3127001    0.2473246 -67.72 0.0007863994    1.500    0.333
       417  -9.7089     82.5199     72.9634   1.1270144489e+02   5.2192363748e+01    0.4379708     0.303536 -76.17  0.001045108    2.126    0.530
       418  -8.1540    163.4141     73.5895   9.1026479295e+01   3.4579078621e+01    0.2905774     0.143776 -41.22 0.0009420161    2.017    0.504
       419  -7.5598    151.4325     73.4424   9.3658391642e+01   3.7594977221e+01      0.15311    0.1501759 -82.22  0.000180446    1.033    0.032
       420  -8.7173    115.7329     72.9744   1.0264737763e+02   4.5919680069e+01    0.2670235    0.2007155 -58.24 0.0007666517    1.488    0.328
       421  -8.0865     42.5714     72.8219   1.2625497700e+02   5.7547543476e+01    0.1750752    0.1097688 -70.43 0.0004228234    1.666    0.400
       422  -7.8501    175.4875     72.5272   8.8200753062e+01   3.1690296651e+01    0.1544597    0.1512945 -89.64 0.0001818307    1.011    0.011
       423  -8.4485    105.9309     72.0881   1.0518550247e+02   4.8108737936e+01    0.2237568    0.1940856 -71.72   0.00059028    1.326    0.246
       424  -9.0669     95.1673     71.1784   1.0814665279e+02   5.0354667319e+01    0.3415599    0.2242703 -59.81 0.0008456028    1.794    0.442
       425  -8.8873     28.6447     70.6842   1.3068887329e+02   5.9301968012e+01    0.3417477    0.1599906 -36.61   0.00157697    2.435    0.589
       426  -8.4616     32.2956     68.3296   1.2883015069e+02   5.9501161174e+01    0.2315376    0.1700356 -45.04 0.0009821894    1.194    0.162
       427  -9.4308     51.3408     69.4958   1.2229384327e+02   5.7306439550e+01    0.4172846    0.2558345 -79.95  0.001632807    2.539    0.606
       428  -9.0157     16.6828     69.3443   1.3467722828e+02   6.0483479302e+01    0.4577802    0.1669845 -72.09  0.001967372    2.814    0.645
       429  -8.7799    147.1134     68.5972   9.3149575886e+01   3.9527426852e+01     0.311531    0.2240473 -60.64 0.0008269523    1.662    0.398
       430  -8.6026    138.8436     66.2689   9.4391670821e+01   4.1947198956e+01    0.3350358    0.2008135 -51.08 0.0006907323    1.885    0.470
       431  -8.8783    121.5717     66.1278   9.8815575098e+01   4.5961089828e+01    0.3266529    0.2373746 -64.34 0.0008435213    1.757    0.431
       432  -8.4157     83.8898     65.1286   1.0980096465e+02   5.3565369120e+01    0.3926831    0.2258105   4.91  0.001245923    4.777    0.791
       433  -8.6958     37.4339     64.3177   1.2594451752e+02   5.9888991487e+01    0.2521476     0.180271  86.73  0.001168024    1.967    0.492
       434  -8.8883    110.0012     63.5499   1.0120404083e+02   4.8929905401e+01    0.3140602    0.2025235 -44.80 0.0009714279    1.544    0.353
       435  -8.5468     64.3449     63.5687   1.1596142604e+02   5.6893807482e+01    0.3795308    0.2231796 -10.72  0.001530019    3.234    0.691
       436  -8.4170    158.1153     62.0755   8.8600293353e+01   3.7902822131e+01    0.2279548    0.2068124  17.83 0.0003960635    1.189    0.159
       437  -9.5402     73.4474     59.6790   1.1153099728e+02   5.6342529846e+01       0.3495    0.2452392 -60.74 0.0009675832    1.658    0.397
       438  -7.9281    194.2421     60.0324   8.1076601987e+01   2.8867151367e+01    0.2059002    0.1893431 -37.91 0.0004173038    1.096    0.088
       439  -9.2833     97.7101     60.5812   1.0387631779e+02   5.1950349097e+01    0.3320493    0.2942186 -42.36  0.001176564    1.116    0.104
       440  -7.7010    147.1519     59.1954   9.0109009619e+01   4.1143000077e+01    0.2082239    0.1776166 -65.83 0.0004070106    1.310    0.237
       441  -7.9122     88.8128     59.5803   1.0634948759e+02   5.3793478530e+01    0.1789448    0.1348977  54.78  0.000513759    1.566    0.361
       442  -9.9069     23.4168     56.5772   1.2926753184e+02   6.2727257630e+01      0.41814    0.2558314  89.93  0.002146674    2.592    0.614
       443  -8.4840    130.7191     57.9104   9.3651309813e+01   4.5340408421e+01    0.2758699    0.1947677 -51.45 0.0006775669    1.572    0.364
       444  -9.5330      7.4903     57.2980   1.3560455503e+02   6.3608561447e+01    0.2717355    0.1879268  84.76  0.001269501    1.772    0.436
       445  -9.1472    119.1887     55.3193   9.5793756898e+01   4.8429597897e+01    0.4916375    0.2452013 -43.17  0.001602879    2.052    0.513
       446  -9.4557     54.2693     55.6224   1.1711657234e+02   5.9835176947e+01    0.3251954    0.2057897 -60.82  0.001155901    1.739    0.425
       447  -8.2433    139.9174     56.2042   9.0807877039e+01   4.3424383203e+01    0.2317002    0.2020204 -71.46  0.000501651    1.304    0.233
       448  -8.6577     44.0548     55.5267   1.2096182862e+02   6.1045985842e+01    0.2291024      0.16078 -65.42 0.0006565832    1.558    0.358
       449  -8.5584    105.8879     53.4224   9.8896058251e+01   5.1622990243e+01    0.2699823    0.1924109 -52.59 0.0007410722    1.597    0.374
       450  -9.4915     92.3131     50.5877   1.0204258230e+02   5.4810229863e+01    0.4268491     0.231358 -49.02  0.001160437    2.042    0.510
       451  -7.7602    127.2962     51.6503   9.2364257294e+01   4.7194816333e+01    0.1515237    0.1164552 -68.05 0.0003664387    1.681    0.405
       452  -7.8768    144.8672     48.8822   8.7182014805e+01   4.3374850168e+01    0.2067042    0.1739873 -57.39 0.0007055272    1.305    0.234
       453  -8.2640    129.9022     49.1837   9.0836912563e+01   4.6981077899e+01    0.2207931    0.2024639 -72.57 0.0005228839    1.229    0.186
       454  -8.6915    120.9689     47.4490   9.2516869704e+01   4.9340109103e+01    0.2712966    0.2119088 -30.08 0.0005146519    1.282    0.220
       455  -8.9572    249.5176     46.2115   6.9882623202e+01   1.7127250645e+01    0.2371755    0.2126992  50.88 0.0006078351    1.280    0.218
       456  -8.4144    112.1726     46.9419   9.4731979204e+01   5.1386266522e+01    0.2183283    0.1905767 -61.30 0.0005761186    1.344    0.256
       457  -8.9030     82.0813     46.6700   1.0396409091e+02   5.7363031429e+01    0.2591085    0.2058679 -52.72 0.0006802765    1.424    0.298
       458  -7.9162    150.5033     45.4879   8.4797900435e+01   4.2465163063e+01    0.1494448    0.1453067  57.62 -9.757156e-05    1.014    0.014
       459  -8.3374     45.0132     45.0120   1.1717923187e+02   6.3022651076e+01    0.1870825     0.160271 -43.75 0.0005602458    1.123    0.109
       460  -9.1652     16.6280     44.8226   1.2889465113e+02   6.5626270420e+01    0.2089709    0.1567302 -83.95 0.0009677761    1.687    0.407
       461  -8.8563    133.1430     43.6137   8.8067879906e+01   4.7069293623e+01    0.3031885    0.2148787 -56.64 0.0008134494    1.717    0.418
       462  -8.8540     58.2124     42.8880   1.1120686073e+02   6.1767410556e+01    0.2949693    0.1871654 -57.16  0.001057705    1.902    0.474
       463  -7.9436     32.1959     44.5806   1.2228618923e+02   6.4427600127e+01    0.1585264    0.1088015  -1.57 0.0009530745    1.726    0.421
       464  -8.3637     92.8326     42.8427   9.8972864633e+01   5.6041426218e+01    0.2245629    0.1796503   2.64  0.001223265    1.329    0.248
       465  -9.2093     69.5855     41.4898   1.0639864025e+02   6.0346723537e+01    0.3645309    0.2407434 -57.38  0.001158613    1.993    0.498
       466  -9.4794      5.2998     42.1367   1.3299943940e+02   6.6842987532e+01    0.2913215    0.1796403 -80.59  0.001455751    1.928    0.481
       467  -8.1677    140.5283     41.7225   8.5682709314e+01   4.5534701487e+01    0.1968849    0.1387233 -43.14 0.0004138023    1.497    0.332
       468  -8.4947    105.9638     41.4689   9.4454467667e+01   5.3600354561e+01    0.2577295     0.185985 -46.58 0.0003556783    1.526    0.345
       469  -8.6978     95.7110     38.0443   9.6199440845e+01   5.6249851737e+01    0.2826948    0.1741612 -44.76  0.001171434    1.767    0.434
       470  -8.2133     80.5129     36.9730   1.0073538993e+02   5.9285136406e+01    0.1990654    0.1235799 -35.26 0.0004398465    1.517    0.341
       471  -9.4378     26.1017     35.5779   1.2191736231e+02   6.6707422236e+01     0.280953     0.203792 -68.40  0.000811508    1.705    0.413
       472  -7.3737    133.4734     36.4327   8.5403283780e+01   4.8032294209e+01    0.1453141    0.1382779  38.53  0.000128627    1.011    0.011
       473  -7.8936    125.9699     35.5507   8.6865426141e+01   4.9966755098e+01    0.2122462     0.137383  53.69 0.0003344704    1.492    0.330
       474  -8.4142    111.7822     34.8224   9.0254671094e+01   5.3338746391e+01    0.2550924    0.1855964 -47.93 0.0006448668    1.576    0.366
       475  -8.4907     36.8079     40.9301   1.1914303174e+02   6.4687177502e+01    0.2120278    0.1570085 -62.73 0.0008541717    1.545    0.353
       476  -8.9728     48.5112     33.3638   1.1142531794e+02   6.4746332531e+01    0.2816435    0.1834204 -43.29  0.001193065    1.387    0.279
       477  -8.4757    119.0742     32.9011   8.7587412330e+01   5.1955034171e+01    0.2541636    0.1733902 -44.96 0.0006234669    1.634    0.388
       478  -8.7913     60.5520     32.5485   1.0624457947e+02   6.3247037865e+01    0.2250548    0.1636356 -42.87 0.0005503515    1.374    0.272
       479  -8.8359     72.2531     31.2406   1.0129392906e+02   6.1623503642e+01    0.2225254    0.1968974 -53.08 0.0005590612    1.420    0.296
       480  -8.9667     12.8887     30.3313   1.2617069659e+02   6.8703462350e+01    0.3196652    0.1513391 -64.51  0.001268188    2.313    0.568
       481  -7.7284    139.4538     31.5548   8.2299475307e+01   4.7210666062e+01    0.1435751    0.1388992  63.62 0.0002815663    1.057    0.054
       482  -7.7153    190.4439     33.5143   7.3860994418e+01   3.3620016123e+01    0.1459288    0.1382582  59.44 7.661439e-05    1.084    0.078
       483  -7.9889    101.6149     29.3638   9.0940100985e+01   5.6319584636e+01    0.1939338    0.1625303 -66.31  0.001051618    1.587    0.370
       484  -7.5939    161.7487     27.9919   7.6719677256e+01   4.1917137315e+01    0.1825089    0.1274869 -26.22  0.000546833    1.520    0.342
       485  -8.8492     81.4356     27.6945   9.6569062684e+01   6.0552247478e+01    0.2477686     0.206728 -61.33 0.0007139965    1.660    0.398
       486  -8.5693      3.8005     27.9106   1.2970030760e+02   6.9700801268e+01    0.1886938    0.1353761 -73.19 0.0007066583    1.605    0.377
       487  -9.4554    144.2180     26.2692   7.9412086240e+01   4.6674355068e+01    0.2889788    0.2452403  38.73 0.0006517383    1.153    0.133
       488  -7.6078    109.7483     27.3580   8.7855565685e+01   5.4824475550e+01    0.1359365     0.105948 -55.56 0.0006954863    1.608    0.378
       489  -8.9114     91.8182     26.3574   9.2631340566e+01   5.8752112241e+01    0.2804994    0.1715419 -43.25 0.0007168205    1.847    0.459
       490  -8.0280    104.3959     23.1839   8.7610785374e+01   5.6545177830e+01    0.1912644     0.121621 -37.90 0.0006913441    1.673    0.402
       491  -7.7985     34.4352     23.1998   1.1339163744e+02   6.8127061980e+01    0.1586871    0.1016815 -51.29 0.0006484368    1.673    0.402
       492  -8.8704     63.5990     21.0882   1.0008432946e+02   6.4571361316e+01    0.2746491    0.1981726 -52.89  0.001005688    1.934    0.483
       493  -8.8505     48.3373     21.8874   1.0664538345e+02   6.6676412212e+01    0.2060013    0.1803221 -31.18 0.0006236699    1.239    0.193
       494  -8.2044     19.6070     21.7330   1.1983024726e+02   6.9777964436e+01    0.1525196   0.09434443 -54.14 0.0005419768    1.585    0.369
       495  -8.3151    154.9763     21.2507   7.5629316134e+01   4.4488633036e+01    0.1981002    0.1177035  64.79 0.0008874757    1.582    0.368
       496  -7.7007    120.7172     21.3379   8.2682067438e+01   5.3057216032e+01    0.1383012    0.1075209 -60.62 0.0004861782    1.625    0.385
       497  -8.8344     73.9564     19.8005   9.5674979219e+01   6.3013772699e+01    0.2615333    0.1698981 -35.26 0.0008142719    1.536    0.349
       498  -8.1822     87.8399     17.8060   9.0158158390e+01   6.0668965842e+01     0.169167    0.1542131 -42.22 0.0005118565    1.323    0.244
       499  -7.7249     38.5397     18.5304   1.0945756122e+02   6.8430308169e+01    0.1193939   0.09656858 -20.54 7.222492e-05    1.029    0.028
       500  -8.0257    112.6620     17.1133   8.2938214889e+01   5.5425128268e+01    0.1866424    0.1245419  -7.32 0.0004709442    1.657    0.397
       501  -8.0941     30.0119     16.0644   1.1234039705e+02   6.9768234411e+01    0.1569547    0.1396337 -62.80 0.0007243347    1.674    0.403
       502  -8.4170      7.6421     15.3657   1.2337692789e+02   7.1767109139e+01    0.1411511    0.1265882 -81.69 0.0007624948    1.649    0.394
       503  -8.0803     16.9541     14.1670   1.1802180470e+02   7.1292065262e+01    0.1558763    0.1367255 -36.57 0.0005568561    1.284    0.221
       504  -7.7188    119.6908     11.3433   7.8937515760e+01   5.4402235033e+01    0.1375173    0.1043879 -61.66 0.0007044494    1.696    0.411
       505  -8.6858    218.6543    247.5015   1.1714766463e+02  -5.3282592060e+00    0.2675474    0.1322998 -39.44  0.001519948    2.646    0.622
       506  -9.0631    175.6801    247.6045   1.2447412899e+02   1.4429989858e+00     0.262773     0.210027  85.90   0.00107981    1.849    0.459
       507  -8.8555    156.6083    248.4069   1.2788079654e+02   4.4035381845e+00    0.2718109    0.1589167  64.38  0.001093853    2.218    0.549
       508  -8.6066    132.1038    247.9235   1.3208873494e+02   8.3582343969e+00    0.2106413    0.1552377  74.53 0.0006068225    1.478    0.323
       509  -8.1782    113.1254    248.6818   1.3544585855e+02   1.1159337803e+01    0.1822652    0.1315012  84.07 0.0008868378    1.510    0.338
       510  -9.0230    104.1125    247.2754   1.3686357493e+02   1.2718008087e+01     0.325098    0.1701605 -88.39  0.001731235    2.858    0.650
       511  -8.9339    243.1222    246.7016   1.1302385719e+02  -8.8852309249e+00    0.3002703      0.16768 -19.66  0.001912559    2.025    0.506
       512  -8.4080     64.0730    248.0850   1.4364936908e+02   1.8132653376e+01    0.1514591    0.1238425  61.12  0.001212688    1.277    0.217
       513  -7.9362     40.7114    248.3725   1.4741676218e+02   2.0949335492e+01    0.1122904   0.05207261  66.91 0.0007021133    1.718    0.418
