#   1 NUMBER                 Running object number                                     
#   2 MAG_AUTO               Kron-like elliptical aperture magnitude                    [mag]
#   3 X_IMAGE                Object position along x                                    [pixel]
#   4 Y_IMAGE                Object position along y                                    [pixel]
#   5 X_WORLD                Barycenter position along world x axis                     [deg]
#   6 Y_WORLD                Barycenter position along world y axis                     [deg]
#   7 A_WORLD                Profile RMS along major axis (world units)                 [deg]
#   8 B_WORLD                Profile RMS along minor axis (world units)                 [deg]
#   9 THETA_WORLD            Position angle (CCW/world-x)                               [deg]
#  10 FWHM_WORLD             FWHM assuming a gaussian core                              [deg]
#  11 ELONGATION             A_IMAGE/B_IMAGE                                           
#  12 ELLIPTICITY            1 - B_IMAGE/A_IMAGE                                       
         1 -10.3298    209.9471      7.9604   3.8923687781e+01   3.1377032083e+01    0.9011555    0.5312629 -31.76  0.004660259    1.471    0.320
         2  -9.2168    205.3892     13.1902   4.0758524572e+01   3.1937769884e+01    0.4718013    0.2334204 -44.81  0.002189345    1.760    0.432
         3  -8.8505    204.4560      9.4798   3.9758989778e+01   3.2529667205e+01    0.2994722    0.2325114 -52.06  0.001465239    1.142    0.125
         4  -8.3172    119.9366      8.4859   4.9197190529e+01   5.4352967091e+01    0.3231882    0.1988495 -86.67  0.001423436    2.003    0.501
         5  -8.9541    238.5780      2.5263   3.5759762430e+01   2.5491547572e+01    0.2541897    0.2021582  51.24  0.001614044    1.577    0.366
         6  -7.2555    124.6289      3.2217   4.6116027402e+01   5.3618924593e+01    0.1432728    0.1009953 -70.05 0.0005384195    1.588    0.370
         7  -9.8075    132.7924    230.7699   1.0267839301e+02   1.1782581564e+01    0.2412431    0.1678932 -20.86  0.001556302    2.064    0.515
         8  -9.1313    125.0150    248.2409   1.0586182034e+02   1.0385140119e+01    0.2287665    0.1707365 -45.15  0.001752567    1.762    0.432
         9 -10.2977    110.3289    249.1738   1.0854554185e+02   1.2089246322e+01    0.2141628    0.1509991  41.50 0.0002590735    1.067    0.062
        10  -9.5359    104.1320    249.0502   1.0963615363e+02   1.2867475320e+01    0.2497571    0.1671676  20.12   0.00145935    1.715    0.417
        11 -17.8149     28.8063    237.7326   1.2250960641e+02   2.3058526210e+01      2.74025     2.282165  45.47   0.01348771    1.290    0.225
        12  -7.5439    121.3658    204.1053   1.0177689610e+02   1.7496694005e+01    0.1532112    0.1128529 -77.57 0.0007508711    1.772    0.436
        13 -10.4076    241.1645    201.9474   8.0037162583e+01   6.9026923200e-01    0.2117626    0.1655146  13.03 0.0003680697    1.151    0.131
        14  -7.9649    133.8077    202.1133   9.9019715364e+01   1.6011680236e+01    0.1783805    0.1486778  51.64 0.0005889176    1.195    0.163
        15  -8.7959     90.1278    201.5983   1.0794269737e+02   2.2298121947e+01    0.2591356    0.1977259  89.57  0.001138761    1.440    0.306
        16  -9.1163    210.8001    198.8910   8.4346106434e+01   5.1264671599e+00    0.2095953    0.1542741  13.58 0.0003379039    1.141    0.123
        17  -8.8760    211.1826    194.0852   8.3490237776e+01   5.6679681426e+00    0.2075817    0.1501681  13.99  0.000270064    1.194    0.162
        18  -9.1289    149.6383    219.4807   9.8224771488e+01   1.1083606078e+01    0.1704545    0.1098856 -46.06  0.001066641    1.879    0.468
        19  -9.5193     81.4033    195.7182   1.0919404108e+02   2.4554297611e+01     0.524432    0.2376197  58.59   0.00241997    2.536    0.606
        20  -8.3394    157.0003    218.4877   9.6736693775e+01   1.0190733366e+01    0.2780294    0.1504537  54.53  0.001385009    2.606    0.616
        21  -9.4284    153.5782    215.7961   9.7017070980e+01   1.1054045868e+01    0.2548173     0.189798 -23.40  0.001601942    1.599    0.375
        22  -7.3901    220.6436    194.1911   8.1953818790e+01   4.3155437294e+00    0.1496469   0.09278783 -17.05 0.0002687518    1.559    0.358
        23  -8.3964     91.7825    192.2700   1.0657503177e+02   2.3808445427e+01    0.2883784    0.1557806  57.40   0.00147449    1.942    0.485
        24  -8.7747     97.1211    191.2206   1.0529423664e+02   2.3261246261e+01    0.2739789    0.1818481 -62.76  0.001609816    1.673    0.402
        25 -10.1447    179.0242    189.6939   8.8418880860e+01   1.1060445498e+01    0.2179128    0.2023798  18.79 0.0003917374    1.167    0.143
        26  -7.6897      2.2272    190.3733   1.2589395413e+02   3.4137948121e+01    0.2850035   0.08981422  47.62  0.001492237    2.204    0.546
        27  -8.7787    237.4413    189.6273   7.8535062505e+01   2.5378060954e+00    0.1921796    0.1542818  -9.80 0.0005806613    1.175    0.149
        28  -8.3206    129.0428    185.2913   9.7652080643e+01   1.9600846052e+01    0.2645525    0.1760995 -86.97  0.001308699    2.518    0.603
        29  -7.9787    105.9192    187.5466   1.0292767399e+02   2.2686948955e+01    0.2596211    0.1766712 -60.47  0.001511729    1.637    0.389
        30  -9.4484     91.8042    215.1046   1.0894681431e+02   1.9691929771e+01    0.2787631     0.235259  55.85 0.0009319016    1.069    0.064
        31  -8.1423     22.8686    183.5442   1.2113495611e+02   3.3710560636e+01    0.3513025     0.122841  49.54  0.001736191    2.224    0.550
        32  -8.7213     15.1091    188.0107   1.2306200682e+02   3.3510557246e+01    0.2132666     0.140618  61.11 0.0007776748    1.171    0.146
        33  -9.3553     16.8415    184.0381   1.2249478215e+02   3.4167888984e+01     0.253437    0.1647067  25.70 0.0005279449    1.775    0.437
        34  -8.9573    123.9161    184.5039   9.8627030129e+01   2.0536863860e+01    0.2293011    0.1706536  53.24 0.0007882291    1.322    0.244
        35  -8.0270    110.9893    183.5107   1.0128599438e+02   2.2693518884e+01    0.2260041    0.1718646 -89.47 0.0009090722    1.589    0.371
        36  -8.5492    223.0201    226.4999   8.6613436918e+01   3.9502295212e-01    0.1534274    0.1300817  -5.99 0.0003489277    1.343    0.255
        37  -9.1307    151.4545    180.9746   9.2338276336e+01   1.6791443983e+01    0.3790038    0.2260949 -64.07  0.001805762    2.658    0.624
        38  -8.4707    131.0825    189.0892   9.7775120603e+01   1.8616860749e+01    0.1810782    0.1612215  39.30 0.0003099025    1.015    0.015
        39  -8.0493      2.6260    180.4360   1.2546228620e+02   3.6127452747e+01    0.2198655    0.1556944   1.56  0.001416766    2.255    0.557
        40  -8.9938     24.6281    178.8367   1.2046729885e+02   3.4527624602e+01    0.3617575    0.2005841  40.29   0.00183731    1.587    0.370
        41  -9.0196     95.6371    174.9614   1.0358367519e+02   2.6651564903e+01    0.4546092    0.2095244  61.50  0.001733278    3.384    0.704
        42  -7.5215     13.8464    180.0000   1.2296205078e+02   3.5274954365e+01    0.1657453   0.05884719  28.14 0.0007839957    2.816    0.645
        43  -8.5494    189.1932    177.6412   8.4491088532e+01   1.1226525860e+01    0.2399011    0.1993785 -62.49  0.001475984    1.791    0.442
        44  -9.9453     21.4301    156.7207   1.1980804567e+02   3.9678849145e+01    0.4493816     0.160438  29.51  0.002058585    2.752    0.637
        45 -10.3696     18.9408    163.4482   1.2086720928e+02   3.8392399075e+01    0.6723534    0.3013525 -77.80  0.002626827    1.993    0.498
        46 -10.0058     14.7530    174.6268   1.2248946624e+02   3.6330389027e+01    0.5512264    0.2528225  24.36  0.002692886    2.502    0.600
        47  -9.9292     21.0012    171.2870   1.2085334383e+02   3.6484517391e+01    0.5364953    0.3935393  58.42  0.002665179    1.130    0.115
        48  -8.4119    129.5111    174.2719   9.5873420490e+01   2.1530715097e+01    0.2320487    0.1308792 -57.88  0.001110007    2.074    0.518
        49  -8.7310     89.2360    174.5621   1.0501379689e+02   2.7661745322e+01    0.2226651    0.1739187 -69.49 0.0007122348    1.345    0.257
        50  -9.2677    152.3437    224.8284   9.8395941837e+01   9.9599225984e+00    0.3143528    0.1595815  13.36  0.001296763    4.136    0.758
        51  -8.8768    200.0185    174.0035   8.1897295006e+01   1.0028153947e+01    0.1811197    0.1542749   7.62  0.001196616    1.012    0.012
        52  -9.6914     35.6499    171.7692   1.1742317258e+02   3.4938835252e+01    0.3270172    0.2589823 -43.43 0.0008409228    1.724    0.420
        53  -7.3456    221.5264    177.5580   7.8910334645e+01   6.2470147185e+00    0.1187071   0.09827452   3.15 4.759098e-05    1.048    0.046
        54  -8.2629    104.3148    171.9359   1.0116540172e+02   2.5960012117e+01    0.2460109    0.1744042 -69.72  0.001369938    1.565    0.361
        55  -9.5651     79.2197    168.1220   1.0656695954e+02   3.0423516101e+01    0.4312473     0.169958  46.23 0.0008399303    2.317    0.568
        56  -9.2669     84.5321    170.2132   1.0556167560e+02   2.9235052408e+01    0.2864439    0.2393134 -59.46 0.0007865485    1.308    0.236
        57  -9.3024     87.4457    165.7488   1.0427348875e+02   2.9759914894e+01    0.3047362    0.2506592 -29.16  0.001783504    1.607    0.378
        58  -9.1747    221.4585    208.8235   8.4197229524e+01   2.5024070063e+00    0.2474189    0.2336259 -64.40  0.001479489    1.937    0.484
        59  -7.9686    109.4907    168.9449   9.9532574650e+01   2.5757777938e+01     0.183104    0.1297696 -59.37 0.0003977301    1.514    0.340
        60  -9.1500    128.6043    166.3161   9.4777879306e+01   2.3180418197e+01     0.318634    0.2017917  48.45 0.0009867483    1.542    0.351
        61  -9.0294     68.9776    166.5062   1.0885554391e+02   3.2157240181e+01    0.1986422    0.1650728 -85.29    0.0012397    1.163    0.141
        62  -8.9681     33.8741    164.0695   1.1725375242e+02   3.6816784746e+01    0.3682005    0.2064865 -41.98  0.001808926    2.783    0.641
        63  -9.7103     60.9021    162.8051   1.1042344392e+02   3.4010589232e+01    0.5168449    0.2509095  30.61  0.002448471    2.167    0.539
        64  -9.6034     56.8067    160.5341   1.1119742878e+02   3.5026444445e+01    0.3359123    0.2695285  40.72  0.001284365    1.261    0.207
        65  -8.0839      1.6591    163.0724   1.2500407249e+02   3.9904969356e+01    0.1689379    0.1196237  85.23  0.001134962    1.160    0.138
        66  -7.2966    132.9840    162.0602   9.3073851961e+01   2.3259898102e+01    0.1576676    0.1443236  39.54 0.0004200739    1.025    0.024
        67 -10.3349     72.4863    161.5113   1.0738338700e+02   3.2782322854e+01    0.4647204    0.2354723  33.97  0.002220992    1.959    0.489
        68  -9.0387     11.1161    161.6349   1.2266457991e+02   3.9471910247e+01    0.3478916     0.187366  15.71  0.001861879    2.558    0.609
        69  -9.5618     34.2684    157.2439   1.1659221289e+02   3.8315254913e+01    0.4617144    0.1886554  63.17  0.001989918    2.640    0.621
        70  -8.2050    149.8038    157.3951   8.8549846262e+01   2.1217333992e+01    0.2030267     0.192315  75.16 0.0005163837    1.195    0.163
        71  -7.9645     93.9654    157.3267   1.0146841282e+02   3.0591077916e+01    0.1820771    0.1591455  49.74 0.0004263202    1.084    0.078
        72  -7.7130    227.6937    163.3004   7.5259760787e+01   7.1502630864e+00    0.1055366   0.09637477 -49.26 0.0003333399    1.595    0.373
        73  -8.3402    143.1165    209.2370   9.8136188726e+01   1.3525310249e+01    0.2184531    0.1879066   3.48  0.001389356    1.254    0.203
        74  -8.1734      1.7382    152.0883   1.2450004019e+02   4.2346291013e+01    0.3126914    0.1191699 -71.78  0.001532089    2.304    0.566
        75  -8.6341      5.7841    154.6333   1.2361147837e+02   4.1467409471e+01    0.4145674    0.0663464  44.49  0.001603508    3.686    0.729
        76  -8.6632      9.2675    152.5599   1.2262449807e+02   4.1664868983e+01    0.1690234    0.1115563  33.54 0.0008171906    1.591    0.372
        77 -10.4694     83.1935    151.6668   1.0332191852e+02   3.3457246704e+01    0.4471231    0.2690078 -40.98 0.0008236321    2.176    0.540
        78  -9.1611     97.3731    152.0324   9.9788486458e+01   3.1209052836e+01    0.4372053    0.2701049  37.44  0.001970979    1.587    0.370
        79 -10.6891     21.6115    151.4832   1.1938745242e+02   4.0862036487e+01    0.8763762    0.1639493  30.70  0.003232094    4.109    0.757
        80 -10.7491     21.5060    147.1096   1.1908696748e+02   4.1887418464e+01    0.4081191    0.3076961  64.56  0.001140429    1.139    0.122
        81  -9.5172     35.8572    149.7711   1.1550955705e+02   3.9874340483e+01    0.3818944    0.1531202  52.82  0.001692598    2.377    0.579
        82  -7.1537    219.3022    149.7212   7.3912250876e+01   1.0318476815e+01    0.1107442    0.1005612 -56.89 0.0001757371    1.545    0.353
        83  -8.3001    150.3551    147.8790   8.6576799590e+01   2.2884278479e+01    0.2086876    0.1748725 -67.59 0.0004815559    1.431    0.301
        84  -9.3547    133.4308    146.6224   9.0114405509e+01   2.6207567606e+01    0.4492371    0.1625965 -45.66  0.001655126    2.867    0.651
        85 -10.0337     45.2456    146.6633   1.1268448687e+02   3.9583040170e+01    0.3516152    0.2566731  50.01  0.001139921    1.283    0.221
        86  -7.2298    158.0232    146.0007   8.4553121802e+01   2.1820738238e+01    0.1619987     0.146081  30.73  0.000942711    1.074    0.069
        87 -11.1510      3.0365    126.3829   1.2274720273e+02   4.8271495696e+01    0.9895421    0.2963491 -77.90  0.004127388    2.674    0.626
        88 -10.9387      3.9597    139.3724   1.2326845257e+02   4.5117423482e+01    0.8120731     0.384631  85.50  0.004136918    1.801    0.445
        89  -9.5488     35.0246    144.0012   1.1517731382e+02   4.1316958196e+01    0.3093885    0.2415802  15.21  0.001860076    1.668    0.400
        90  -7.5720    115.4697    153.4736   9.5608586907e+01   2.7944088742e+01    0.1346409    0.1288764  50.39 0.0005108641    1.031    0.030
        91 -10.5713     15.4828    135.7522   1.1985687366e+02   4.5093234154e+01    0.4434811    0.2020115  53.75   0.00219251    2.021    0.505
        92  -9.2336     98.2563    137.0078   9.6948877834e+01   3.4401558898e+01    0.2537776    0.1975212  41.48 0.0003544932    1.280    0.219
        93  -7.9596     36.2949    133.6627   1.1373497001e+02   4.3667554032e+01    0.1403829   0.08409171  68.23  0.000247413    1.650    0.394
        94 -10.3308     10.7287    129.9595   1.2076982529e+02   4.6860879947e+01    0.3342555    0.2600517  79.44  0.002162022    1.045    0.043
        95  -8.1910     39.2736    130.6493   1.1251969773e+02   4.4087942220e+01    0.1404664   0.08634621  71.09 0.0003565488    1.634    0.388
        96  -7.7604    116.1652    128.8421   9.0667945086e+01   3.3083100746e+01    0.1981699    0.1755112   0.53 0.0005379682    1.343    0.255
        97  -9.1030     34.2286    129.2912   1.1384337534e+02   4.4947123571e+01    0.2742403    0.1656322  25.06  0.001018205    1.937    0.484
        98 -10.1114     28.2788    128.4810   1.1551140339e+02   4.5729120961e+01    0.4215947      0.17169  37.68  0.001930025    2.320    0.569
        99  -7.9015    185.7591    228.9144   9.3032022609e+01   4.9139846003e+00    0.2081808   0.09095625 -42.24  0.001155444    2.815    0.645
       100  -7.9241    104.0711    124.9565   9.3009204010e+01   3.6134467863e+01    0.2144583    0.2026256 -67.93 0.0005221401    1.043    0.041
       101  -8.7593    146.2130    121.9900   8.1843469694e+01   2.8697958275e+01    0.2246826    0.2039745  43.65 0.0005536189    1.116    0.104
       102  -9.4408    202.8014    119.9651   7.0144618099e+01   1.7704600406e+01     0.225033    0.2047783   0.02 0.0003640779    1.057    0.054
       103  -9.3375     33.2299    120.5410   1.1310481831e+02   4.7211111885e+01    0.3394978    0.1419348 -45.42  0.001323048    3.200    0.687
       104 -10.4781     46.5155    116.2522   1.0834509384e+02   4.6845645257e+01    0.4911724    0.2660571  48.14  0.001540944    1.879    0.468
       105  -8.5552    207.9508    116.4634   6.8459711467e+01   1.7254373555e+01     0.205854     0.167138 -23.99 0.0003123793    1.102    0.092
       106  -7.7093    109.3012    117.1896   8.9886318237e+01   3.6940889006e+01    0.2411948    0.1709944  63.94 0.0007364745    1.652    0.394
       107  -9.4871     66.2008    115.6039   1.0207325400e+02   4.4460647611e+01    0.4657754     0.181267  46.14   0.00176149    2.695    0.629
       108  -7.3217    133.7999    118.8168   8.4002418426e+01   3.1837118921e+01    0.1988869    0.1732807  89.15 0.0004937451    1.319    0.242
       109 -10.4161      7.5362    145.4082   1.2266244006e+02   4.3444667809e+01    0.3977142    0.3108169  21.99  0.002621846    1.590    0.371
       110  -8.1418     52.3270    112.3182   1.0585186989e+02   4.7129381954e+01    0.1397195     0.101634 -37.92 0.0007046125    1.679    0.404
       111  -7.1074    109.6389    107.6738   8.7515174816e+01   3.9021521146e+01    0.1539707    0.1201892  -8.21  0.000385849    1.788    0.441
       112  -9.0954     66.2417    105.9319   1.0015149243e+02   4.6846574645e+01    0.3545437    0.1653964 -50.81  0.001452169    2.079    0.519
       113  -7.6707     57.1647    100.1739   1.0196241118e+02   4.9551113901e+01    0.1995776    0.1562503  80.45  0.000432393    1.334    0.251
       114  -7.7376     53.5158     98.9668   1.0296210091e+02   5.0335328136e+01    0.2164194    0.1267429 -64.18  0.000371617    1.530    0.346
       115  -8.6133     91.9064     96.7930   8.9882243033e+01   4.4857093749e+01    0.2941288    0.2265038 -84.16            0    1.526    0.345
       116  -7.6709    149.2390     95.8354   7.4419617910e+01   3.3210996169e+01    0.2008865    0.1745835  11.77 0.0003978939    1.302    0.232
       117  -7.0233      1.3445     96.2975   1.2102609565e+02   5.5788452878e+01    0.1279045   0.07990994 -50.72 0.0007034452    1.672    0.402
       118  -7.5468      2.0178     83.9985   1.1957267862e+02   5.8842124593e+01    0.1516574    0.1254894 -83.13 0.0003728732    1.036    0.035
       119  -8.6075    125.2791     82.1331   7.6170282612e+01   4.1287883148e+01    0.3418534    0.1955224  30.95  0.001283525    2.463    0.594
       120  -7.1533    103.2965     79.3442   8.1409500304e+01   4.6607997617e+01     0.154538      0.12126 -11.43 0.0004548645    1.669    0.401
       121 -10.1351    108.0987     76.5908   7.9124730839e+01   4.6193402842e+01    0.2735982    0.2620099 -35.40  0.000214578    1.052    0.049
       122  -8.9009    103.9434    207.3470   1.0569721287e+02   1.9399229106e+01     0.171582    0.1331354  40.02 0.0008487416    1.105    0.095
       123  -8.6213    119.6676     75.0002   7.5390582693e+01   4.3992260590e+01    0.2162898    0.1905205 -34.71 0.0003916287    1.119    0.106
       124  -9.0363    204.2013     72.1694   5.7717782410e+01   2.4779422864e+01      0.36915    0.2217468 -25.54 0.0008828455    1.575    0.365
       125  -7.9069    145.4763     70.4743   6.7656253829e+01   3.8847853374e+01    0.1536354    0.1468538 -35.21 0.0008095766    1.019    0.018
       126  -9.6000    135.7910     66.5707   6.8566279833e+01   4.1875395116e+01    0.4051104    0.2958193  82.65  0.001310735    1.788    0.441
       127  -8.2210    126.0002     66.2003   7.0813914086e+01   4.4264588183e+01    0.2311623    0.1766464 -10.81  0.001051985    1.622    0.383
       128  -8.7362    179.0012     62.3630   5.8741675556e+01   3.2095332390e+01    0.1993122    0.1926438 -89.45 0.0005859648    1.102    0.092
       129 -11.5594    170.2471     55.6893   5.8120413570e+01   3.5248276802e+01    0.8442371    0.5979781  75.98  0.003025955    1.629    0.386
       130  -9.4511    144.8806     59.5279   6.4172021616e+01   4.0910133414e+01    0.3742469    0.2409291  40.28  0.001220903    1.763    0.433
       131  -7.5387    111.3198     57.3531   7.1551232976e+01   4.9352873043e+01    0.1588905    0.1212866   5.59 0.0007047097    1.748    0.428
       132 -11.2441    185.8395     41.5229   5.1331704520e+01   3.3404694038e+01    0.9689003    0.7968521  46.55  0.005069782    1.348    0.258
       133  -9.5573    189.8822     35.7554   4.9043183309e+01   3.3151720748e+01    0.4901067    0.3538131   0.53  0.001486187    1.704    0.413
       134  -9.1137    153.8197     49.9447   5.9130456357e+01   4.0230074795e+01    0.2566888    0.2221709 -80.03  0.001323734    1.249    0.199
       135  -7.1415    134.9767     29.2549   5.5102008746e+01   4.8033073525e+01    0.1784859    0.1283829  66.32 0.0002932864    1.425    0.298
       136  -7.7255    165.3146     20.0870   4.6984819684e+01   4.1233878954e+01    0.1971478    0.1689362 -29.77 0.0004375259    1.138    0.121
       137  -8.5349    132.9241     16.9662   5.0554512139e+01   5.0068188587e+01    0.2085138    0.2052581 -68.09 0.0003230027    1.004    0.004
       138  -9.6662     90.7535    246.9962   1.1186464961e+02   1.4781191845e+01    0.3418443    0.2276035  66.40   0.00176435    1.589    0.371
       139  -9.4495     87.8289    241.6374   1.1198465691e+02   1.5927638868e+01    0.5107949    0.1058866  45.79  0.002095243    3.668    0.727
       140  -9.2211    101.2630    203.4894   1.0582242642e+02   2.0442319488e+01    0.3393352    0.1743832 -45.57  0.001754088    2.548    0.607
       141  -9.0257    210.0430    203.4804   8.5210811984e+01   4.6729719018e+00    0.2579917    0.1639512  32.17 0.0008301085    1.384    0.278
       142  -9.0013    132.3566    235.9306   1.0331459884e+02   1.1115061841e+01    0.2254549    0.1349146  30.74  0.001253429    1.410    0.291
