#   1 NUMBER                 Running object number                                     
#   2 MAG_AUTO               Kron-like elliptical aperture magnitude                    [mag]
#   3 X_IMAGE                Object position along x                                    [pixel]
#   4 Y_IMAGE                Object position along y                                    [pixel]
#   5 X_WORLD                Barycenter position along world x axis                     [deg]
#   6 Y_WORLD                Barycenter position along world y axis                     [deg]
#   7 A_WORLD                Profile RMS along major axis (world units)                 [deg]
#   8 B_WORLD                Profile RMS along minor axis (world units)                 [deg]
#   9 THETA_WORLD            Position angle (CCW/world-x)                               [deg]
#  10 FWHM_WORLD             FWHM assuming a gaussian core                              [deg]
#  11 ELONGATION             A_IMAGE/B_IMAGE                                           
#  12 ELLIPTICITY            1 - B_IMAGE/A_IMAGE                                       
         1  -8.4789     55.8295     10.0082   5.2298650276e+01   7.0205022681e+01    0.2032122    0.1856042 -68.38 0.0005808572    1.330    0.248
         2  -7.8680     47.6150      9.7857   5.6536540590e+01   7.1916720309e+01    0.1875513    0.1241634 -44.75 0.0007701755    1.657    0.397
         3  -7.9355    101.4628      7.9801   3.5647635066e+01   5.9246148207e+01    0.2025398    0.1040819 -49.57  0.000522601    2.270    0.559
         4  -8.3754     90.8309      8.6012   3.8574169076e+01   6.1988332234e+01    0.2033447    0.1350097  80.14 0.0004273601    1.674    0.403
         5  -8.6184     33.4267      4.7523   6.2185658085e+01   7.5307647727e+01    0.3020635    0.2051796 -64.78    0.0014366    2.494    0.599
         6  -8.5679     79.1680      3.9450   3.9318005501e+01   6.5484801512e+01    0.2829723    0.1765595 -28.79 0.0009123939    1.669    0.401
         7  -8.1014     62.8305      1.4313   4.3445168016e+01   6.9745668152e+01    0.2012837    0.1300613  60.15 0.0009918569    1.516    0.340
         8  -8.5310    218.4935    247.1672   7.1029886843e+01   2.3650705137e-01    0.2186721   0.08936999 -33.14  0.001365211    2.754    0.637
         9  -9.9179    243.0364    246.0365   6.7130842142e+01  -2.1997953413e+00    0.3864264    0.1455157 -17.69  0.002176729    3.136    0.681
        10  -9.9073    246.6817    228.4426   6.4188940191e+01  -1.0181972177e+00    0.3651061    0.1642763 -24.45  0.002308511    2.073    0.518
        11 -10.3840    248.7906    242.8176   6.5862014412e+01  -2.4955964025e+00    0.5840368     0.159696 -32.36  0.002588259    3.826    0.739
        12  -8.4367     93.9625    249.2868   9.3897142963e+01   1.4525369890e+01    0.1910191    0.1151385  52.95  0.001061684    1.652    0.395
        13  -7.4522     86.2846    250.6090   9.5511936353e+01   1.5210372571e+01     0.112364   0.06143724  52.49 0.0007003817    1.755    0.430
        14  -8.6310    132.0939    247.5516   8.6301575313e+01   1.0244299545e+01     0.200357    0.1375644  51.16 0.0006808814    1.706    0.414
        15 -10.0486    223.9147    243.8497   6.9747264129e+01  -3.2330734744e-02     0.324386    0.1861016 -37.52  0.002291054    2.464    0.594
        16  -9.2946    210.8286    246.1916   7.2133255058e+01   1.1605665733e+00    0.1716113    0.1574096 -31.03  0.001209605    2.001    0.500
        17  -9.1611    147.3761    245.8881   8.3231709935e+01   8.6047972279e+00    0.2700088    0.1674752  55.23  0.001636189    2.516    0.603
        18  -9.2771    120.2502    245.1842   8.8367933699e+01   1.1990488623e+01    0.2853216    0.1821566  61.31  0.001570093    2.247    0.555
        19  -8.7609      9.7776    243.7901   1.1034778841e+02   2.3912698168e+01     0.186836   0.07014158  68.81  0.001088118    2.448    0.591
        20  -8.4293    161.4569    244.5004   8.0465745079e+01   7.0678133408e+00    0.1836008       0.1223  24.05 4.455183e-05    1.082    0.076
        21  -9.6836    159.9870    239.8372   8.0201199634e+01   7.8092164971e+00     0.272428    0.2143093 -67.62  0.001574293    2.343    0.573
        22  -8.5200     49.8695    243.4066   1.0237557858e+02   2.0237889275e+01    0.2926974    0.1107107  76.26  0.001342305    4.254    0.765
        23  -8.7798    169.2233    243.2281   7.8904879452e+01   6.2807771048e+00    0.1902592    0.1364571  35.39 0.0006759845    1.372    0.271
        24  -8.0835    139.6739    244.3361   8.4526001429e+01   9.7388750807e+00    0.1083371   0.07019421  47.82 0.0007051561    1.721    0.419
        25  -9.0465     77.8445    243.0491   9.6679631075e+01   1.7284140819e+01    0.2642872    0.1224989  52.40  0.001104631    2.049    0.512
        26  -9.1767    194.2061    240.1234   7.4128010512e+01   3.6611790665e+00    0.2300362    0.1413388 -40.26  0.001229094    2.231    0.552
        27  -7.8112    153.5026    241.9958   8.1656894777e+01   8.3402928051e+00    0.1215091   0.09513189  73.99 0.0008094523    2.450    0.592
        28  -8.3010     88.0513    242.0347   9.4533353341e+01   1.6271039939e+01    0.1709137     0.101004  52.59 0.0006813701    1.621    0.383
        29  -7.9355    214.3891    241.1683   7.0909764351e+01   1.2588333851e+00    0.1177836   0.08973615 -27.32 0.0006158752    1.718    0.418
        30  -9.1866    182.8947    239.9019   7.6062909257e+01   5.0206850087e+00    0.2798342    0.1859744  49.60  0.001404601    2.393    0.582
        31  -9.0842    242.3438    236.3373   6.5929478114e+01  -1.2801497060e+00    0.3259847    0.1329054 -12.19  0.001738088    3.216    0.689
        32  -9.1556    231.1671    237.0071   6.7710261620e+01  -1.6799823309e-01    0.1997495    0.1887806 -42.73  0.001161526    2.439    0.590
        33  -8.0137    146.1724    239.2460   8.2737816349e+01   9.5931724719e+00    0.1428947    0.1081737  41.22 0.0005152458    1.375    0.273
        34  -8.8304    135.8324    238.8707   8.4692975683e+01   1.0929507632e+01    0.1735286    0.1087282  47.91  0.001109162    1.733    0.423
        35  -8.4122    201.9690    243.2063   7.3209580718e+01   2.4462448277e+00    0.1441187    0.1275587 -19.81 0.0006709671    1.677    0.404
        36  -7.9757      2.3209    239.6701   1.1172505565e+02   2.5195099611e+01    0.1152779   0.04464638  50.55 0.0004121493    1.692    0.409
        37  -8.2031    209.1654    238.1592   7.1365470177e+01   2.1440767850e+00    0.1294021    0.1028465  17.68 0.0004783542    1.327    0.246
        38  -7.8294    129.1672    238.4333   8.5953642688e+01   1.1818656887e+01    0.1641707   0.07689443  39.61 0.0006872075    1.698    0.411
        39  -8.4480     25.6713    236.8494   1.0701454374e+02   2.3654385443e+01    0.2362671   0.07334009  61.56  0.001158648    3.017    0.669
        40  -8.8404    217.3139    235.6714   6.9709266403e+01   1.4756837684e+00    0.1786902    0.1348861  27.97 0.0007130757    1.492    0.330
        41  -9.4753    213.8280    231.7108   6.9737244842e+01   2.2698108613e+00    0.2184816    0.2134542  38.50  0.001308113    2.062    0.515
        42  -9.0492    203.1855    234.5040   7.1875835144e+01   3.2104984435e+00    0.2254632    0.1753966 -49.45  0.001260846    2.424    0.587
        43  -9.7648    175.6704    233.1319   7.6506661425e+01   6.6799009027e+00    0.3435077    0.2238843 -53.50  0.002202532    2.657    0.624
        44  -8.2014    170.5226    235.7310   7.7768261106e+01   7.0067197183e+00    0.1144359    0.1091457 -36.53 0.0009298773    1.621    0.383
        45  -7.9864     57.7880    236.6179   1.0039851443e+02   2.0500560308e+01    0.1713431   0.06846026  38.52 0.0009493016    1.698    0.411
        46  -9.2640    108.8204    234.3216   8.9640935008e+01   1.4934091062e+01    0.2941093    0.1580797  53.33  0.001267897    2.121    0.529
        47  -9.2201     78.8181    234.2649   9.5858855947e+01   1.8541237261e+01    0.2172954    0.1372083  70.35  0.001337154    1.927    0.481
        48  -8.1566    122.9818    234.0406   8.6736468626e+01   1.3207180682e+01    0.1788699    0.1116139  50.68 0.0006655821    1.747    0.428
        49  -8.2857     99.6786    234.1199   9.1504270527e+01   1.6086256261e+01    0.1725181    0.1208688  57.20  0.001163225    1.545    0.353
        50  -9.8467     68.4284    231.8824   9.7877530312e+01   2.0108754379e+01    0.5016387    0.2096796  58.12  0.002512285    2.715    0.632
        51  -8.9254    132.8291    232.4796   8.4600026269e+01   1.2180502835e+01    0.1837791    0.1492516  77.54 0.0009530619    1.902    0.474
        52  -8.5957     92.7395    231.9948   9.2765479721e+01   1.7255133630e+01    0.2590895    0.1522303  66.64  0.001361004    2.304    0.566
        53  -9.3607    186.5575    230.3846   7.4200144279e+01   5.6576630830e+00    0.2473489    0.2133432  71.89  0.001432547    2.437    0.590
        54  -8.5266     67.5263    244.9992   9.8894508948e+01   1.8126988062e+01    0.1311293    0.1060552 -86.45 0.0007880117    1.568    0.362
        55  -9.3830    236.0954    229.9294   6.5980161029e+01  -3.2931040081e-02    0.2745542    0.1208823 -25.41  0.001125997    2.212    0.548
        56  -9.9442    149.6310    225.8728   8.0519098597e+01   1.0921962449e+01    0.4524714    0.3157327  87.27   0.00234927    3.859    0.741
        57  -8.4837    140.1875    230.0316   8.2867525569e+01   1.1577604659e+01    0.2195934    0.1140351  47.09  0.001095017    2.116    0.527
        58  -8.8887    229.8207    228.1014   6.6688119980e+01   8.2746721517e-01    0.1807098    0.1051379 -22.13  0.001299268    1.652    0.395
        59  -8.8515    162.3175    227.5615   7.8282132376e+01   9.0544592239e+00    0.2595738    0.1590654  49.99  0.001508092    2.233    0.552
        60  -9.0573    127.7451    227.0360   8.5031161755e+01   1.3608643753e+01    0.2599297    0.1518116  48.99  0.001425179    1.834    0.455
        61  -8.2375     49.9090    226.9363   1.0152365081e+02   2.2950671105e+01    0.2919199   0.09684192  53.07  0.001385687    2.678    0.627
        62  -8.6438    206.1480    225.7690   7.0191292529e+01   3.7956083836e+00    0.1610038    0.1328176 -18.94 0.0008860638    1.482    0.325
        63  -9.0221     93.9148    223.8114   9.1804067228e+01   1.8414843695e+01    0.3047799    0.1494705  51.58  0.001309514    2.067    0.516
        64  -7.5004     72.3024    225.3517   9.6593962256e+01   2.0751274752e+01      0.10574   0.08438002  -6.11 0.0007039435    1.700    0.412
        65  -8.8218    216.4660    223.1443   6.8112975085e+01   2.8522801776e+00    0.1819327    0.1698057 -31.79 0.0009330943    1.923    0.480
        66  -8.6107    180.5989    223.9782   7.4418905163e+01   7.1605086379e+00    0.2187121    0.1475361  41.15 0.0009551022    1.651    0.394
        67  -7.8981    113.6222    223.7964   8.7610391804e+01   1.5920953452e+01    0.1305245    0.1110327  82.79 0.0003865409    1.574    0.365
        68  -9.0373    104.9465    223.4587   8.9411440720e+01   1.7085323414e+01    0.2638671    0.1668557  70.56  0.001504492    2.364    0.577
        69  -8.6607    194.3719    232.6066   7.3126008214e+01   4.4582782157e+00    0.1380716    0.1106587  34.33 0.0005708146    1.547    0.354
        70  -8.2210     38.2931    224.6578   1.0390422709e+02   2.4530203984e+01    0.1212429   0.05863298  53.09 0.0007028745    1.657    0.396
        71  -8.6006      1.6448    230.5060   1.1172006134e+02   2.6782797313e+01    0.1797604   0.07881846  58.30 0.0009056237    1.701    0.412
        72  -8.3359    172.9415    222.6387   7.5649546523e+01   8.3093234923e+00    0.1754333    0.1537973 -64.47 0.0006202882    1.960    0.490
        73  -9.1826    239.3507    221.4534   6.4277123140e+01   4.2028441400e-01    0.2234224    0.1860629  26.27  0.001571468    1.720    0.419
        74  -9.2039    225.5592    221.5695   6.6425966794e+01   1.9585405209e+00    0.1863533    0.1443277  12.79 0.0007574575    1.233    0.189
        75  -9.3113    192.4326    221.2067   7.1919111373e+01   5.9930700429e+00    0.2220694    0.2042829  47.69  0.001211654    1.786    0.440
        76  -9.0964    160.2078    221.0050   7.7850697795e+01   1.0187645557e+01    0.4420666     0.177365  45.85  0.001792168    3.164    0.684
        77  -8.1303    140.3835    222.2644   8.1922015522e+01   1.2640424049e+01    0.1279313    0.1150809 -75.91 0.0005257044    1.636    0.389
        78  -9.1043    120.5666    219.0092   8.5634940885e+01   1.5753021800e+01    0.4064603    0.1986675  54.57   0.00190192    2.945    0.660
        79  -8.8477     82.8858    220.3553   9.3897501975e+01   2.0340518252e+01    0.2574671    0.1549112  62.84  0.001234452    1.895    0.472
        80  -8.1900     73.3747    220.6770   9.6011621128e+01   2.1420205120e+01    0.2515725    0.1130924  58.88  0.001229952    2.603    0.616
        81  -7.8188     27.5149    220.9782   1.0607251696e+02   2.6218515600e+01    0.1318243   0.08221439 -48.71 0.0008084528    2.403    0.584
        82  -8.1103    202.6920    219.9313   6.9956763970e+01   4.8610994817e+00    0.1478022    0.1139803   2.00 0.0003917049    1.135    0.119
        83  -8.3976    210.0090    218.8209   6.8559950090e+01   4.0883559524e+00    0.1583932    0.1297146 -27.41 0.0006219148    1.606    0.378
        84  -8.7523    249.3289    218.1719   6.2317487662e+01  -3.5061056596e-01    0.1583823    0.1237682  38.88  0.001219324    2.142    0.533
        85  -8.0299    179.4800    217.9408   7.3801506933e+01   8.0492515963e+00    0.1249453    0.1048488 -78.33 0.0008083511    2.492    0.599
        86  -9.3518    133.1881    216.0034   8.2642872983e+01   1.4521819342e+01    0.4164707    0.2474912  65.61  0.001930961    3.606    0.723
        87  -9.0214     51.6449    217.1102   1.0058265648e+02   2.4490703025e+01    0.2633049    0.1665192  57.72  0.001179752    1.401    0.286
        88  -8.7195    169.4562    216.0883   7.5423816369e+01   9.6105360271e+00    0.2150117    0.1869686  73.60   0.00142129    2.004    0.501
        89  -8.6598    143.0175    216.3349   8.0662804183e+01   1.3141361728e+01    0.2299666    0.1614798  57.25  0.001266645    1.967    0.492
        90  -8.4979     61.9469    216.9586   9.8274296127e+01   2.3384240399e+01     0.194729    0.1031058  53.73 0.0005858477    1.686    0.407
        91  -8.5273     41.8347    215.8248   1.0269759621e+02   2.5749470971e+01    0.1694102     0.100978  51.88 0.0007012268    1.337    0.252
        92  -8.0123     18.5175    216.0738   1.0785376063e+02   2.7921372466e+01    0.1515755   0.09765276  83.84  0.001029112    1.582    0.368
        93  -8.9158    232.5702    213.8685   6.4195867059e+01   1.9353047771e+00    0.2969899    0.1693371 -22.46  0.001675172    1.636    0.389
        94  -8.1598    154.5571    214.7913   7.8145521802e+01   1.1794913049e+01    0.1302114    0.1179461 -64.12 0.0007289808    1.640    0.390
        95  -8.2666    185.7811    214.1485   7.2115242201e+01   7.6976479059e+00    0.1607577    0.1341538  22.59  0.000643205    1.251    0.201
        96  -9.1789     92.9635    213.5659   9.1059929046e+01   2.0240693557e+01    0.3463372    0.1621894  53.09  0.001626868    2.335    0.572
        97  -9.4769     73.2067    211.7260   9.5343975875e+01   2.3009104624e+01    0.5981206    0.1853453  52.73  0.002243218    3.918    0.745
        98  -9.4177    214.0711    211.8976   6.6867146707e+01   4.3556100737e+00    0.2855905    0.2386922  36.52  0.001612913    1.692    0.409
        99  -8.1084    106.5555    212.7741   8.7972794988e+01   1.8607595874e+01    0.1421115    0.1141483  80.78 0.0009327371    1.618    0.382
       100  -7.9921    224.5702    212.0459   6.5181015796e+01   3.0646686459e+00    0.1441499   0.09114408 -24.25 0.0006019604    1.556    0.357
       101  -9.0495    204.3187    210.7676   6.8344117706e+01   5.7067392612e+00    0.2050236    0.1762793 -38.35 0.0007513132    1.764    0.433
       102  -8.5619    161.6332    212.0028   7.6375528185e+01   1.1218142067e+01    0.1743326    0.1556388 -68.17 0.0009905412    1.758    0.431
       103  -8.1932      8.4821    211.9620   1.0992936384e+02   2.9530999036e+01    0.1626541   0.05396958  61.38 0.0008089935    2.458    0.593
       104  -7.5463    242.6966    211.6829   6.2326803296e+01   1.0005199847e+00    0.1086789    0.0604783   3.77  0.000296422    1.623    0.384
       105  -8.3240    192.6091    210.4940   7.0354924855e+01   7.2528111436e+00    0.1543316     0.139004 -46.75  0.000845666    1.781    0.438
       106  -9.3961    175.4389    209.6799   7.3392775055e+01   9.6493602039e+00    0.3336268    0.2314955  57.68  0.001696795    2.570    0.611
       107  -8.6903    148.0192    210.4223   7.8882752952e+01   1.3318699204e+01    0.2225834    0.1754591  64.63  0.001384079    1.895    0.472
       108  -8.8685    116.2388    210.0612   8.5552023615e+01   1.7756004743e+01    0.2617455     0.184188  63.28 0.0008316613    1.830    0.454
       109  -8.4258     32.7237    210.2545   1.0447166119e+02   2.7683734647e+01    0.2688296    0.1082326  64.70  0.001337093    2.496    0.599
       110  -8.6457    139.1935    208.5131   8.0453815192e+01   1.4832232454e+01    0.2296149    0.1696587 -75.85  0.001345795    2.272    0.560
       111  -9.1820    236.6134    208.0094   6.2686514847e+01   2.0654250294e+00    0.2178484    0.1831538 -35.83   0.00122661    1.970    0.492
       112  -7.5492    229.2900    209.6165   6.4066428044e+01   2.7593766147e+00   0.08860423   0.08280925  -6.36 0.0007014852    1.750    0.428
       113  -8.4669     85.2230    208.9067   9.2362439217e+01   2.2034499375e+01    0.2328562    0.1455314  61.05  0.000797533    1.755    0.430
       114  -8.1892     46.3591    209.1401   1.0130328232e+02   2.6512672388e+01    0.1575495   0.09361415  75.27  0.000508288    1.786    0.440
       115  -9.4432    246.4592    207.1332   6.1075679351e+01   1.0260894668e+00    0.2232011    0.1440092 -20.84 0.0007296136    1.425    0.298
       116  -9.3887    250.1350    201.5850   5.9677682057e+01   1.1599151314e+00    0.3190507    0.1350421 -24.86  0.001496173    2.128    0.530
       117  -8.0890    156.5716    207.7825   7.6797574552e+01   1.2511612070e+01    0.1351977    0.1191649 -58.64 0.0007834826    1.637    0.389
       118  -8.3232    126.6835    208.2011   8.3067576485e+01   1.6622344614e+01     0.175687    0.1439557  57.93 0.0009575507    1.449    0.310
       119  -8.4102      5.9745    208.0083   1.1038953141e+02   3.0471796294e+01     0.192918   0.08319366  52.85 0.0008440889    1.685    0.407
       120  -9.0060     99.5327    205.9249   8.8809887993e+01   2.0703919511e+01    0.3358899    0.1734553  56.80  0.001252563    2.396    0.583
       121  -8.4375     56.5970    205.5385   9.8700523497e+01   2.6074924850e+01    0.2463506    0.1169707  55.48  0.001044541    1.971    0.493
       122  -7.9946     11.6935    206.6784   1.0908344204e+02   3.0256125569e+01   0.09584565   0.08435784 -33.38  0.000454926    1.640    0.390
       123  -8.6304    131.2860    203.8474   8.1527391418e+01   1.6673562084e+01    0.2609183    0.1842927  66.54  0.001039866    2.130    0.531
       124  -8.1773    109.1815    205.1230   8.6545942556e+01   1.9541689470e+01    0.1669288    0.1274193  54.42 0.0006053492    1.369    0.269
       125  -8.9930    194.8904    203.3615   6.8878211828e+01   7.8313950864e+00    0.2318772    0.1741285  35.67  0.001136385    1.434    0.303
       126  -9.5119    192.5634    197.3891   6.8371880660e+01   8.9054767437e+00    0.3537967    0.3130569 -82.35  0.001665557    2.219    0.549
       127  -9.0433    183.6877    203.4989   7.0939535106e+01   9.3348940859e+00    0.2393188    0.1818696  48.03 0.0009077034    1.773    0.436
       128  -9.7303    164.0824    202.8365   7.4600970432e+01   1.2162303013e+01    0.4179679    0.2385402  46.61  0.001357294    2.015    0.504
       129 -10.0954     15.0639    202.8325   1.0820583138e+02   3.0707538618e+01    0.3960432    0.1412796  27.95 0.0009536899    2.274    0.560
       130  -8.5036    210.8929    201.5409   6.5816542378e+01   5.9393539266e+00    0.1868358    0.1440356 -42.60 0.0008509097    1.937    0.484
       131  -8.8795    140.5463    200.9578   7.9162397162e+01   1.5810150588e+01    0.2964526    0.2106057  67.47  0.001172279    2.300    0.565
       132  -8.4410     80.2702    201.2424   9.2789799872e+01   2.4051993713e+01    0.3167422    0.1499605  60.24  0.001319769    2.702    0.630
       133  -8.0152     73.0000    201.9785   9.4569037522e+01   2.4819672427e+01    0.1697058   0.07055862 -68.50 0.0005072335    2.892    0.654
       134  -8.2445     48.7529    202.1779   1.0031549710e+02   2.7577893464e+01    0.2180622   0.07724404  55.18 0.0009468995    2.753    0.637
       135  -9.0857    242.9856    200.3165   6.0527962810e+01   2.1109575267e+00    0.2292098    0.1322605 -28.74 0.0009591651    1.711    0.415
       136  -7.8122    222.1930    201.2118   6.3897822541e+01   4.5358704840e+00    0.1509268    0.0758373 -39.28 0.0005736396    2.475    0.596
       137  -9.2442    149.5769    198.4837   7.6917330574e+01   1.4887990201e+01    0.3142801    0.2366246  74.11  0.001219356    2.364    0.577
       138  -8.7501    124.0664    199.2342   8.2508706814e+01   1.8456332216e+01    0.2674625    0.1809349  62.32 0.0009837196    2.015    0.504
       139  -9.4355    113.1267    198.4245   8.4862287904e+01   2.0148019322e+01    0.4188257    0.2149566  57.29  0.001874802    2.802    0.643
       140  -9.3121    236.9935    197.9262   6.1051812173e+01   3.0722769715e+00     0.251489    0.1325191 -32.33  0.001154208    1.950    0.487
       141  -8.3815    176.9704    198.9048   7.1508817526e+01   1.0886152057e+01    0.1661454    0.1391952  50.90 0.0005346396    1.651    0.394
       142  -9.1507     88.7878    197.9460   9.0454091612e+01   2.3562966046e+01    0.3712363    0.2452816  88.37   0.00174242    2.038    0.509
       143  -8.2669    202.4486    197.5841   6.6644058389e+01   7.5315276037e+00    0.1797141    0.1616873 -67.50  0.001058929    2.108    0.526
       144  -8.8856     61.4043    196.9781   9.6916512047e+01   2.7163607807e+01    0.3995081    0.1710598  59.46  0.001543145    2.661    0.624
       145  -7.6732     29.6354    197.3315   1.0458192422e+02   3.0468822394e+01    0.1361188   0.06042416  52.62 0.0007036548    1.814    0.449
       146  -8.2322     12.3913    196.5914   1.0862953871e+02   3.2151702887e+01    0.2260729    0.0705165  74.58 0.0009610103    3.389    0.705
       147  -9.6646    245.8801    193.4160   5.8996766041e+01   2.4822679406e+00    0.2678773    0.1986894 -43.74  0.001841003    2.349    0.574
       148  -8.2761     53.3897    196.1920   9.8795289116e+01   2.8234059231e+01    0.1644841    0.1037531  78.69 0.0009484281    1.723    0.420
       149  -8.0955     35.6240    195.8063   1.0306817292e+02   3.0188592929e+01    0.1653239   0.09526642  75.77 0.0009448014    1.753    0.430
       150  -7.6066    209.2898    195.5921   6.5146575101e+01   6.8573952104e+00   0.09526014   0.09359224 -71.59 0.0006984781    1.816    0.449
       151  -8.7670    185.1128    194.4386   6.9277376624e+01   1.0338167583e+01    0.1943161    0.1636947 -27.13 0.0005711751    1.380    0.275
       152  -8.8960    161.1165    194.2162   7.3916014177e+01   1.3845711522e+01    0.2507948    0.1954213  64.63 0.0009801754    2.035    0.509
       153  -8.1617    230.9572    194.1432   6.1375432643e+01   4.2231555719e+00    0.1392839    0.1098128 -28.23 0.0004880237    1.561    0.359
       154  -8.6217    224.7127    193.9089   6.2325610878e+01   5.0391284696e+00    0.1811576    0.1386074 -31.66  0.000866371    1.610    0.379
       155  -8.9424     77.1037    193.7349   9.2826361246e+01   2.5875238621e+01    0.2536815    0.1731317  54.15  0.000726108    1.356    0.262
       156  -8.8803     43.8953    193.0510   1.0089324421e+02   2.9891376112e+01    0.4149088    0.1557727  54.34  0.001884734    2.448    0.591
       157  -7.9231    204.8484    191.7520   6.5289539843e+01   7.9288239768e+00    0.1437283    0.1266824  17.96 0.0006402628    1.327    0.247
       158  -8.2668    198.9543    191.6958   6.6315652304e+01   8.7502928923e+00    0.1740762    0.1456362 -36.02   0.00059786    1.565    0.361
       159  -8.6982    179.1439    191.4465   6.9931034899e+01   1.1606410598e+01    0.1719662    0.1392911 -33.27 0.0005012054    1.439    0.305
       160  -8.9002    172.7369    191.8336   7.1232387717e+01   1.2487126853e+01    0.1895661    0.1747914 -67.44 0.0009339306    1.659    0.397
       161  -8.6848    215.9358    195.4321   6.4003413641e+01   5.9987687066e+00    0.1842592     0.148047 -33.80 0.0008303973    1.637    0.389
       162  -9.0640    139.4512    190.2637   7.7886563013e+01   1.7691692746e+01    0.2986696    0.2158924  65.26  0.001132921    2.057    0.514
       163 -10.3449     92.5133    188.7660   8.8554699951e+01   2.4789465636e+01    0.9545029    0.1856303  41.98  0.003072449    4.011    0.751
       164  -8.8872      6.6633    189.5428   1.0978311772e+02   3.4023395500e+01    0.1941678   0.09587276 -89.58  0.001095142    1.993    0.498
       165  -8.4985    237.3601    188.4122   5.9450212651e+01   4.0527474936e+00    0.1927211    0.1131201 -27.45 0.0006282794    1.603    0.376
       166  -8.9284    216.6338    187.8732   6.2650615654e+01   6.8028518912e+00    0.2265622     0.180096 -37.67 0.0009647755    1.696    0.410
       167  -8.8289    148.5546    188.9124   7.5722363610e+01   1.6539503876e+01    0.2064763    0.1631957 -65.40  0.001138485    1.838    0.456
       168  -8.8134    129.3282    188.2895   7.9847080787e+01   1.9544697351e+01    0.2545364    0.2023046  67.88 0.0008238651    1.656    0.396
       169  -8.8797     34.1613    187.8336   1.0298134903e+02   3.1947584276e+01    0.3082601    0.1352919  64.18    0.0014908    2.271    0.560
       170  -7.9294    133.0350    195.9559   8.0095649615e+01   1.7704018745e+01    0.1853149    0.1378271  56.63 0.0005699598    1.626    0.385
       171  -8.6822    191.4778    187.1710   6.6924702282e+01   1.0404362381e+01    0.2299024    0.1930539 -59.50  0.001034078    1.994    0.499
       172  -9.2913    155.8746    187.0993   7.3899184937e+01   1.5716891107e+01    0.2782168    0.1888687 -50.75 0.0009748526    1.884    0.469
       173  -9.6058    120.6590    185.9664   8.1501717202e+01   2.1252586738e+01    0.4140407    0.2662449 -80.45  0.002016824    2.701    0.630
       174  -9.0792     54.8181    187.0045   9.7742182213e+01   2.9916046692e+01    0.3755848    0.1764272  59.78  0.001442384    2.222    0.550
       175  -8.1702    230.6868    187.3333   6.0299017404e+01   5.0179617635e+00    0.1387307    0.1345746 -16.31 0.0007815401    1.751    0.429
       176  -8.8163    164.9938    186.4851   7.1925932023e+01   1.4428105963e+01     0.243365    0.2041707 -78.91  0.001079247    2.007    0.502
       177  -9.1287    109.7061    186.0334   8.4082678210e+01   2.2861828805e+01    0.3525383    0.2066714  59.87   0.00124673    2.249    0.555
       178  -9.3480     18.3350    187.2406   1.0687441991e+02   3.3534859020e+01    0.2071935    0.1387517  31.37 0.0005301529    1.349    0.259
       179  -8.9852    249.2281    185.2095   5.7162908348e+01   2.9389893271e+00     0.205792    0.1461795 -25.44 0.0008309136    1.446    0.308
       180  -8.9562    182.9617    184.6978   6.8105780659e+01   1.1992101385e+01    0.2087612    0.1736631 -34.48 0.0008247384    1.430    0.301
       181  -9.1544     66.6067    184.3140   9.4526749244e+01   2.9064061797e+01    0.3603359     0.181919  56.55  0.001051203    2.020    0.505
       182  -8.5029    224.0316    183.4255   6.0696579305e+01   6.3405662762e+00    0.1845168    0.1430233 -30.43 0.0005450877    1.511    0.338
       183  -8.9082    210.2070    183.6099   6.3014624626e+01   8.2054821686e+00    0.2525287    0.1468514 -22.05 0.0006674818    1.681    0.405
       184  -8.9522    174.3629    183.4192   6.9556571884e+01   1.3466004886e+01    0.2353919    0.2140896 -60.62 0.0008420971    1.612    0.380
       185  -8.1445    196.9874    183.4671   6.5305160025e+01   1.0102972100e+01    0.1473372     0.100177  53.92 0.0004786564    2.343    0.573
       186  -9.0316     44.6016    182.2097   9.9976739697e+01   3.2042622712e+01    0.3610473    0.1515377  55.06 0.0009252036    2.227    0.551
       187  -8.0940      1.7286    183.5514   1.1082708155e+02   3.5620715444e+01    0.1658618   0.07797892  39.58 0.0009364779    1.611    0.379
       188  -9.1527    147.4864    180.4606   7.4638626300e+01   1.8081670402e+01    0.2817023    0.2248656  66.56 0.0009829287    1.769    0.435
       189  -8.9288     26.3655    180.0778   1.0452986205e+02   3.4314071451e+01    0.3814858    0.1283772  58.43  0.001445179    2.789    0.642
       190  -8.6960     24.0000    176.0141   1.0493263397e+02   3.5398320504e+01    0.2675475    0.1439695  77.97  0.001033984    1.814    0.449
       191  -8.2567    240.4855    179.9725   5.7561809470e+01   4.5882411920e+00     0.161838   0.09175538 -25.06 0.0007162155    1.566    0.362
       192  -8.4322    250.5298    172.1716   5.4759209353e+01   4.1718668164e+00     0.151326    0.1112886 -11.82 0.0007886975    1.112    0.100
       193  -9.2303    249.0172    177.2088   5.5843115814e+01   3.8163352016e+00    0.2328047    0.1573959 -26.14  0.001076062    1.421    0.296
       194  -8.6948    247.4706    173.5013   5.5425939987e+01   4.4134834805e+00    0.2081179    0.1159673 -22.59 0.0007238297    1.533    0.348
       195  -9.2982    191.5060    178.1605   6.5398047838e+01   1.1630491393e+01    0.2329458    0.2041942  45.08 0.0006186018    1.503    0.335
       196  -8.5851    205.0044    177.5299   6.2867163952e+01   9.7234918502e+00    0.2037302    0.1599414 -39.10 0.0006544156    1.607    0.378
       197  -8.2753    169.1877    178.2323   6.9721207931e+01   1.5038761925e+01    0.1611127    0.1470474  45.34 0.0005495222    1.361    0.265
       198  -8.6962    129.1551    176.9969   7.8215044555e+01   2.1560623806e+01    0.2979593    0.2077222 -89.39  0.001286441    2.566    0.610
       199  -9.1378     35.8593    176.3891   1.0184918757e+02   3.4188204488e+01     0.482893    0.1657565  66.20  0.001781973    3.773    0.735
       200  -8.5011    231.1150    176.7243   5.8428394697e+01   6.1799843644e+00    0.1864968    0.1333911 -26.31 0.0007785376    1.391    0.281
       201  -8.4984    217.7599    177.0881   6.0627972195e+01   7.9621471302e+00    0.1632891    0.1438541  -6.58 0.0006375312    1.284    0.221
       202  -9.0468     89.1776    176.6717   8.7940193918e+01   2.7634185483e+01     0.283114    0.1754117  57.20 0.0008912195    1.714    0.417
       203  -9.2834     59.2337    175.6894   9.5624992800e+01   3.1761655975e+01    0.4782983    0.1811254  54.86  0.001895621    2.897    0.655
       204  -9.2722     55.7998    170.4173   9.6049844620e+01   3.3307438785e+01     0.426084    0.1931106  66.18   0.00175945    2.826    0.646
       205  -8.9757     12.9993    176.4012   1.0779577498e+02   3.6255502786e+01    0.2821168    0.1389775  62.12  0.001087191    1.728    0.421
       206  -8.4585    202.7007    184.2074   6.4414230348e+01   9.1864752513e+00    0.1621756      0.14268 -27.58 0.0005900693    1.434    0.303
       207  -9.1131    182.9282    175.7168   6.6587254378e+01   1.3281414005e+01    0.2119918    0.1754764 -36.33 0.0006099413    1.420    0.296
       208  -9.1977    159.1325    175.0835   7.1261788540e+01   1.7120026762e+01    0.3533429    0.2318378  61.75  0.001423023    2.593    0.614
       209  -9.1447    104.2589    174.5620   8.3856231851e+01   2.5857730757e+01    0.4587731    0.2127834  53.05   0.00187733    2.633    0.620
       210 -10.6576     75.9159    169.8735   9.0579343144e+01   3.0877888960e+01     1.145614    0.4849775 -82.06  0.004007543    4.320    0.769
       211  -9.5667     81.8926    154.5664   8.6968575446e+01   3.3373737801e+01    0.4956723    0.2744904  65.11  0.001645311    2.419    0.587
       212  -8.3958    224.6009    174.2391   5.9019495470e+01   7.3598064052e+00    0.1538817    0.1382194 -48.45 0.0009504296    1.810    0.447
       213  -8.6342    137.6241    179.0003   7.6589953597e+01   1.9876409862e+01    0.2631723     0.199426  65.75  0.001077609    1.824    0.452
       214  -9.3964    175.8159    172.0545   6.7330767676e+01   1.4936950266e+01    0.2761187    0.2241631 -38.68 0.0009531751    1.427    0.299
       215  -8.2147    143.1340    172.6606   7.4331770087e+01   2.0098256763e+01    0.2010418    0.1843371 -73.70 0.0008405881    1.415    0.293
       216  -8.2695    134.8029    171.7638   7.6079381622e+01   2.1602829971e+01    0.1757161    0.1485627  57.06 0.0005123434    1.353    0.261
       217  -9.1935     45.1354    170.8795   9.8975861156e+01   3.4416429612e+01    0.3404334     0.179323  69.21  0.001212466    2.031    0.508
       218  -9.3871    121.3477    170.2660   7.9019558788e+01   2.4039631061e+01    0.3138975    0.2383257  77.38 0.0009107994    1.836    0.455
       219  -8.5754    230.2818    169.7126   5.7323804764e+01   7.1201565549e+00    0.1949451    0.1198932 -27.19 0.0006315681    1.494    0.331
       220  -8.2682    205.8491    170.0880   6.1403210328e+01   1.0580859982e+01    0.1682646    0.1576148 -16.15  0.000756247    1.379    0.275
       221  -8.4887    198.6614    170.1157   6.2676779101e+01   1.1660440965e+01    0.1738628    0.1489221 -38.35  0.000937383    1.480    0.324
       222  -9.2374    167.1886    168.4059   6.8425008940e+01   1.6891013017e+01    0.3275714    0.2419839  63.68  0.001147285    2.122    0.529
       223  -8.5603    149.9224    169.4319   7.2279764165e+01   1.9548573980e+01    0.2186089    0.1900073 -75.26 0.0007439423    1.602    0.376
       224  -8.0669    244.4628    169.0036   5.5072047424e+01   5.2997973057e+00    0.1601686   0.09193546 -26.79 0.0004653485    1.536    0.349
       225  -8.3549    237.0637    169.3040   5.6216439000e+01   6.2457774505e+00    0.1556114    0.1246575   1.30 0.0005746219    1.087    0.080
       226  -8.0276     88.8308    168.7994   8.7024816532e+01   2.9301354184e+01    0.1923176    0.1393351  55.99 0.0006410743    1.361    0.265
       227  -8.4624    218.8297    168.0839   5.8854222935e+01   8.9348469687e+00    0.1659831      0.14744 -12.86  0.000541174    1.295    0.228
       228  -7.9575    211.4787    168.0107   6.0063068463e+01   1.0018324150e+01     0.173678    0.1073269 -30.14  0.001020966    1.567    0.362
       229  -8.4353    112.0577    167.6240   8.0894217029e+01   2.6023342431e+01    0.2894868    0.1949839  71.93   0.00110533    2.161    0.537
       230  -9.0443    191.9876    166.6603   6.3265604871e+01   1.3177247481e+01     0.221298    0.1940864 -38.50 0.0005160415    1.427    0.299
       231  -8.6644    185.0330    166.4642   6.4536302625e+01   1.4307059297e+01    0.2113573    0.1739983 -46.32 0.0005751861    1.559    0.359
       232  -9.1093     20.6203    165.9332   1.0531755610e+02   3.7904822793e+01    0.4266997    0.1387834  55.31   0.00155532    2.702    0.630
       233  -9.7769    137.0442    164.2958   7.4309640300e+01   2.2588193869e+01    0.6095759     0.282567  52.63  0.002339557    3.012    0.668
       234  -9.9803     95.0758    162.5558   8.4513043453e+01   2.9685429670e+01    0.8079394    0.4105597  68.30  0.002750969    4.159    0.760
       235  -8.3344    233.9675    164.7156   5.5860101175e+01   7.2068883270e+00    0.1955127    0.1266145 -34.74 0.0008020129    1.638    0.390
       236  -9.1765     33.6745    163.1898   1.0154541643e+02   3.7317094464e+01    0.5822837     0.128874  47.36  0.002045384    3.541    0.718
       237  -8.8212    212.8855    163.3780   5.8977782605e+01   1.0415141478e+01    0.2434251    0.1537517 -32.83 0.0007470521    1.574    0.365
       238  -8.5282    159.4005    164.0661   6.9278724057e+01   1.8884216508e+01    0.2213345    0.1782009  58.68 0.0008764517    1.599    0.374
       239  -8.2304     56.6371    163.6970   9.5167079775e+01   3.4691116232e+01    0.3753242    0.1831302   6.47  0.001263871    4.547    0.780
       240  -8.3777    246.1501    162.8626   5.3733718807e+01   5.7706791547e+00    0.1608679    0.1287112 -13.62 0.0004130401    1.180    0.153
       241  -8.3521    204.8459    162.3525   6.0161233931e+01   1.1776158028e+01    0.1968609    0.1521388 -32.80  0.000578763    1.394    0.283
       242  -9.6576      3.6178    162.2358   1.0978708985e+02   4.0053884206e+01    0.4597829    0.1614811  44.37   0.00188256    2.119    0.528
       243  -9.0968    177.4248    160.4855   6.4908633819e+01   1.6453108634e+01    0.2353087    0.2198852 -72.99 0.0008855673    1.518    0.341
       244  -8.6866    151.6665    160.8558   7.0377749336e+01   2.0735683386e+01    0.2341539    0.1986711  77.40 0.0008486366    1.666    0.400
       245  -8.6606    227.6159    159.1658   5.5816371601e+01   8.7803163989e+00    0.2443731    0.1555674 -45.35  0.001055995    2.171    0.539
       246  -8.5865     60.5663    159.6226   9.3634315127e+01   3.5124671085e+01    0.3610463    0.1558805  57.67  0.001431109    2.706    0.630
       247  -9.1279    245.1958    158.4062   5.3060547792e+01   6.4072111000e+00    0.3577013    0.1607915  25.51  0.001808528    2.619    0.618
       248  -9.4434    242.0861    154.1544   5.2719880310e+01   7.3288366261e+00    0.2983495    0.2369202  78.33   0.00176232    2.972    0.664
       249 -10.0114    243.0356    150.0155   5.1808639672e+01   7.6836317301e+00    0.2942777    0.2035969 -28.95  0.001954577    1.355    0.262
       250  -9.6947    250.1817    157.5178   5.2198209415e+01   5.8391613890e+00    0.2752984    0.1437185 -28.96 0.0008188466    1.657    0.397
       251  -8.6599    246.5676    155.4686   5.2326835141e+01   6.5587940867e+00    0.1979114    0.1184588 -24.40 0.0006332205    1.415    0.293
       252  -8.2965    237.3486    159.1368   5.4333915472e+01   7.4003769869e+00    0.1624366   0.09084613 -35.89 0.0009428225    1.825    0.452
       253  -9.3791    167.7235    157.0995   6.6235144004e+01   1.8629143415e+01    0.3180678    0.2597106 -82.74  0.001144591    2.030    0.507
       254  -8.3344    128.1804    158.8460   7.5474365144e+01   2.5097488359e+01    0.2587704    0.1972736  71.99  0.001036423    1.789    0.441
       255  -9.5785    105.8390    157.8315   8.0952709767e+01   2.8992240898e+01    0.4340463    0.2718512  65.97  0.001218306    2.220    0.550
       256  -8.4212    196.6993    157.8276   6.0754367124e+01   1.3693870020e+01     0.205993    0.1642521 -45.67 0.0008856497    1.598    0.374
       257  -8.3442    188.2496    157.5479   6.2260817947e+01   1.5110223517e+01    0.2128314    0.1474168 -43.00  0.000697385    1.667    0.400
       258  -8.5208    218.0824    156.3834   5.6809552518e+01   1.0546656104e+01    0.2186425     0.143767 -44.16 0.0006672529    1.936    0.484
       259  -8.7690    157.6444    155.9202   6.8150480465e+01   2.0562730994e+01    0.2331004    0.2047309  83.75 0.0008448386    1.601    0.375
       260  -9.1668    119.6109    154.9628   7.6923643580e+01   2.7306442894e+01    0.3936987    0.2790959  86.99  0.001467879    2.215    0.548
       261  -9.3079     49.6955    154.8513   9.6258222855e+01   3.7518996712e+01    0.4559947    0.2018142  58.58  0.001712116    2.469    0.595
       262  -8.0654    204.7410    155.1608   5.8818200025e+01   1.2783445905e+01    0.1805368    0.1447434 -38.99 0.0005317841    1.466    0.318
       263  -8.5229    144.6451    154.6387   7.0815107764e+01   2.3052849036e+01    0.2483106    0.1881848  70.62 0.0007760336    1.928    0.481
       264  -9.2385     68.0328    153.5035   9.0777427769e+01   3.5549350426e+01     0.414146    0.2159748  60.47  0.001265107    2.229    0.551
       265  -8.0625    232.8407    153.7695   5.4006106243e+01   8.6890328739e+00    0.1462609    0.1299964 -21.84 0.0005115008    1.344    0.256
       266  -9.6305    132.7987    152.7199   7.3254960546e+01   2.5480506426e+01    0.4072602    0.3099952  78.98   0.00122011    1.940    0.484
       267  -9.3625    133.4885    148.4821   7.2293763645e+01   2.6175351502e+01    0.4652417    0.1858773 -41.93  0.001778429    2.834    0.647
       268  -9.2029      3.3767    150.1829   1.0947241925e+02   4.2799671644e+01    0.6441556    0.1696155  48.11  0.002670404    2.788    0.641
       269  -9.6387     29.2764    150.3287   1.0188546328e+02   4.0705102615e+01    0.5213272    0.1876478  60.98  0.002003171    3.036    0.671
       270  -9.2161     20.1488    152.2844   1.0470429761e+02   4.1055341396e+01    0.2463524    0.1319337  47.41 0.0008348892    1.573    0.364
       271  -7.9726    182.4264    151.1576   6.2133451827e+01   1.7060902846e+01    0.1717818    0.1214771 -47.09 0.0007555956    1.705    0.413
       272  -8.3909    162.5893    150.5234   6.6045244104e+01   2.0620783244e+01    0.2418812    0.1676259 -42.04 0.0007016424    1.557    0.358
       273  -8.6266     98.1518    150.5252   8.1832378494e+01   3.1772803866e+01    0.2668503    0.2035764  68.10 0.0006260364    1.488    0.328
       274  -9.5058    248.7979    149.1178   5.0835680506e+01   6.9849294525e+00    0.2638434    0.1515229 -24.25 0.0008510912    1.459    0.315
       275  -8.1896    212.9750    149.5174   5.6325481562e+01   1.2250304372e+01    0.1871608    0.1438368 -20.41 0.0005814771    1.183    0.155
       276  -8.6660    189.3602    149.8589   6.0555879853e+01   1.6078840967e+01    0.2203577    0.1879027 -52.63 0.0008584137    1.555    0.357
       277  -8.4998    198.8512    148.9743   5.8646619473e+01   1.4617731048e+01    0.1770273    0.1694501 -34.28 0.0006325143    1.346    0.257
       278  -9.7138     39.8238    147.5858   9.8492012625e+01   4.0308396617e+01    0.5599913    0.2086772  54.76  0.001848674    2.782    0.641
       279  -8.8253    233.3838    147.5121   5.2731856670e+01   9.3807310109e+00    0.2224387    0.1216439 -26.04 0.0007580751    1.614    0.380
       280 -10.3516     54.9534    144.4389   9.3552576210e+01   3.9338166784e+01     0.823377    0.3468544  64.69  0.002845085    3.590    0.721
       281  -9.9905     54.5133    136.0077   9.2647099721e+01   4.1418961462e+01    0.5594271    0.2819448   9.95  0.002081679    3.278    0.695
       282  -8.3218    223.1709    146.4884   5.4089765586e+01   1.1055898985e+01    0.1785869    0.1511033 -27.69 0.0005998189    1.283    0.221
       283  -8.7954    150.4564    136.0299   6.5768560729e+01   2.5415246584e+01    0.4499003    0.2763092  -0.79  0.001726049    3.052    0.672
       284  -9.6719    139.1535    144.9428   7.0240997906e+01   2.5837614580e+01    0.3911639    0.2855026 -84.75  0.001171106    2.294    0.564
       285 -10.1679    106.9157    144.5567   7.8415110076e+01   3.1613473009e+01    0.6715508    0.3720287  65.31   0.00242428    3.125    0.680
       286  -8.7859    105.4753    138.4961   7.7701267351e+01   3.3169851017e+01    0.6210436    0.2324776  25.18  0.001573385    5.759    0.826
       287  -8.3217     78.0160    146.9861   8.6988239030e+01   3.5646653589e+01    0.2334974    0.1514221  63.75 0.0005741938    1.726    0.421
       288  -7.8653    206.5726    146.0305   5.6713395705e+01   1.3763274519e+01    0.1774671    0.1126108 -29.91 0.0004813432    1.489    0.328
       289  -8.1695    175.7334    145.9285   6.2407865660e+01   1.9056720714e+01    0.1926534    0.1539038 -65.62 0.0007493009    1.859    0.462
       290  -9.3525     13.0860    145.7797   1.0643793997e+02   4.3141934638e+01    0.2840501    0.1640338  63.80  0.001189428    1.525    0.344
       291  -9.0110    240.3879    145.1712   5.1262563970e+01   8.6403426457e+00    0.1743361    0.1230655 -20.57 0.0005825754    1.193    0.162
       292  -9.7145    242.6721    142.6913   5.0462257725e+01   8.6072286750e+00    0.4038937    0.1632249 -19.15  0.001754278    2.994    0.666
       293  -9.1157    247.1016    143.6410   5.0031424917e+01   7.8596308095e+00    0.2553502    0.1475114 -13.12 0.0004359691    1.638    0.389
       294  -8.0039    250.4567    140.4934   4.8974907098e+01   7.7527520611e+00    0.1157826   0.09048507 -10.61 0.0002850161    1.016    0.016
       295  -8.7485    165.7234    143.9010   6.4053693202e+01   2.1188044552e+01     0.272496    0.2115478  62.52  0.001032519    1.714    0.417
       296  -9.8622    125.0687    142.5069   7.3243119964e+01   2.8863274897e+01    0.4844051    0.3430111  82.12  0.001666974    2.279    0.561
       297 -10.1272     89.3986    146.2439   8.3587557405e+01   3.4098754278e+01    0.6581225    0.3734601  81.12  0.002464672    3.250    0.692
       298  -9.5165      2.6922    141.4353   1.0937182503e+02   4.4883772519e+01    0.4584497    0.1890306  66.14  0.001913692    2.165    0.538
       299 -10.3184    149.0590    144.7118   6.7879245824e+01   2.4078439469e+01    0.5052127    0.3697493 -87.54  0.001925266    2.478    0.596
       300  -8.5780    182.0209    141.3528   6.0230829376e+01   1.8672516875e+01     0.221393    0.1875344 -60.40 0.0007654091    1.600    0.375
       301 -10.4746     69.4604    140.4387   8.8588425099e+01   3.8388388796e+01    0.6778281    0.3606354  76.15  0.002243475    2.917    0.657
       302  -9.6923     70.6483    133.5844   8.7188362145e+01   3.9850439787e+01    0.4087838    0.2241967  23.38  0.001753519    2.058    0.514
       303  -9.8504     23.5834    138.0008   1.0272316120e+02   4.4163381176e+01    0.5465488    0.1839495  56.80  0.001957129    3.037    0.671
       304  -9.2915    138.9557    137.9842   6.8883557139e+01   2.7209723259e+01    0.4439727    0.2697446  -3.65  0.001599322    3.466    0.712
       305  -7.8125    218.5510    138.4733   5.3219358530e+01   1.2847034091e+01    0.1243944    0.1050839  -6.65 9.173886e-05    1.023    0.023
       306  -8.3845    207.6346    137.6207   5.4826190023e+01   1.4772326690e+01     0.198088    0.1401406 -44.99  0.000618042    1.671    0.402
       307  -8.6425    197.6372    137.3966   5.6507197796e+01   1.6521774743e+01    0.2335936    0.1817918 -52.03 0.0008083222    1.676    0.403
       308  -8.4093    172.3208    137.8642   6.1430143237e+01   2.1000022631e+01    0.2393144    0.2008402 -61.78  0.000811369    1.574    0.365
       309  -8.7716    250.7887    129.9449   4.6878282994e+01   8.9401320149e+00    0.3285968   0.09257143 -28.15  0.001333845    3.188    0.686
       310  -8.9744    248.4509    134.7905   4.8137370749e+01   8.7090876928e+00    0.2387995    0.1497338 -33.07 0.0008605206    1.469    0.319
       311  -8.5555    247.0087    130.2572   4.7435095843e+01   9.4604434211e+00     0.228052    0.1332275 -36.59 0.0007736556    1.644    0.392
       312  -8.2315    162.6715    136.1454   6.3084838120e+01   2.3089855352e+01    0.2084009    0.1767408 -61.72 0.0009530028    1.493    0.330
       313 -10.4554     83.5410    132.9739   8.3095320661e+01   3.8054329551e+01    0.5299279     0.383247 -80.24  0.001573396    1.588    0.370
       314  -9.2484     39.2061    135.7801   9.7531428673e+01   4.3221316563e+01    0.2979733    0.1715562  57.65 0.0007076989    1.681    0.405
       315  -8.2096    187.8200    134.7568   5.7740155538e+01   1.8668045587e+01    0.2463711   0.09678828 -34.91 0.0009926285    2.535    0.606
       316  -8.9804    179.6066    133.6704   5.9079265719e+01   2.0344312375e+01    0.2513542    0.1978237 -48.70 0.0006706083    1.487    0.328
       317  -8.9275    112.7681    132.9249   7.4601690343e+01   3.3086738097e+01    0.3228155    0.2462826  74.70  0.000909974    1.668    0.401
       318  -8.0880    237.4098    133.2018   4.9334488205e+01   1.0551046956e+01    0.1703026   0.09508669 -37.47 0.0009425572    1.754    0.430
       319  -7.8355    231.4977    133.5780   5.0257904276e+01   1.1421305443e+01    0.1216895   0.09984766  -6.25 6.322406e-05    1.020    0.020
       320 -10.1914    132.3090    130.7961   6.9009424487e+01   2.9882192770e+01    0.5707761     0.370054 -67.09  0.001900009    2.241    0.554
       321  -9.3797    143.1588    131.3189   6.6462067662e+01   2.7695539978e+01    0.3121114    0.2416167 -67.04 0.0007168889    1.685    0.407
       322 -10.3176     98.0545    129.0162   7.8007778234e+01   3.6563455485e+01    0.8771808    0.3117803 -54.90  0.003075443    2.960    0.662
       323  -8.0539    192.5486    129.9984   5.5846959088e+01   1.8545101480e+01    0.1961864    0.1229253 -34.15 0.0005386285    1.542    0.351
       324  -9.1633    168.3177    129.4143   6.0428823736e+01   2.3184148972e+01    0.2648473    0.2290918 -70.08 0.0005438384    1.523    0.343
       325  -9.7202    152.9780    129.2055   6.3715237080e+01   2.6190115635e+01    0.3913046    0.2400228 -52.88  0.000818332    1.958    0.489
       326  -9.6823     73.2520    129.0206   8.5625210303e+01   4.0566246698e+01    0.4500606    0.2800201 -89.45  0.001385555    2.084    0.520
       327  -9.7993     12.7855    128.8275   1.0559266680e+02   4.7252286532e+01    0.4913129     0.193027  62.55  0.001810468    2.506    0.601
       328  -8.1975      1.9658    130.1688   1.0917785080e+02   4.7620505515e+01    0.2263031    0.0946738  48.15  0.001066183    2.033    0.508
       329  -7.5327    220.5342    129.5560   5.1073838880e+01   1.3721456384e+01    0.1249863    0.1064595  -8.40 0.0002693155    1.017    0.016
       330  -8.0520    211.9162    128.9744   5.2310677836e+01   1.5260348741e+01    0.1864293    0.1520338 -57.03  0.001006619    1.692    0.409
       331 -10.4132     60.2525    124.9319   8.9206966268e+01   4.3398126731e+01    0.7538033    0.4002934  68.55  0.002974521    2.567    0.611
       332  -9.8782    117.8868    124.5306   7.1436423466e+01   3.3936157944e+01    0.5751083     0.423944 -68.08  0.001217366    1.656    0.396
       333  -7.6562    228.6554    125.3274   4.8976384947e+01   1.2941114315e+01    0.1170962   0.09376843 -55.82  0.000705063    1.746    0.427
       334  -8.9782    179.2550    124.4881   5.7126357558e+01   2.1908360067e+01    0.2527277    0.2242326 -63.88 0.0005146552    1.424    0.298
       335 -10.1796     28.3416    121.7698   9.9751959884e+01   4.7768527507e+01    0.8693485    0.3047715  64.79   0.00280742    4.059    0.754
       336  -8.6913     26.6641    113.6837   9.9526767451e+01   4.9970942140e+01     0.211742     0.142823 -42.15  0.000780283    1.733    0.423
       337  -7.7254    244.2230    123.9536   4.6536999815e+01   1.0642881884e+01    0.1546219   0.08194987 -28.84 0.0004418347    1.586    0.369
       338  -7.9956    188.5269    124.0199   5.5266261407e+01   2.0217847869e+01    0.1761262    0.1128704 -56.58 0.0004309966    2.288    0.563
       339  -8.8021    135.3752    123.4311   6.6612428105e+01   3.0760059901e+01    0.3686925    0.1405731 -50.22  0.001273686    3.000    0.667
       340  -9.4007    158.5432    121.5130   6.0730445278e+01   2.6494250965e+01    0.3031414    0.2501611 -71.12  0.001030012    1.596    0.373
       341  -8.7251     84.3819    122.7798   8.0963757337e+01   4.0320945770e+01     0.245565     0.187212   4.96 0.0008036895    1.719    0.418
       342  -7.8452    194.8587    121.8733   5.3645062195e+01   1.9361497926e+01     0.177701    0.1503781 -45.70 0.0004468041    1.337    0.252
       343  -8.8394    171.8994    121.3292   5.7868644684e+01   2.3868264354e+01    0.2647035    0.1826058 -40.57 0.0004698743    1.475    0.322
       344  -8.5859    172.5800    116.2466   5.6547591160e+01   2.4594970879e+01    0.3223976    0.2214126 -12.04  0.001542121    1.778    0.438
       345 -10.7051     45.1404    123.5069   9.4128303437e+01   4.5621887445e+01     1.170657     0.478121  66.70  0.003731482    4.062    0.754
       346 -10.0504    141.5830    118.0923   6.3845486823e+01   3.0567074335e+01    0.5327326    0.3138336 -58.54  0.001163974    2.266    0.559
       347  -9.7081     71.3480    119.1193   8.4514409951e+01   4.3255012795e+01    0.4874858    0.2842774 -72.53  0.001738936    1.925    0.481
       348  -9.7764    130.5715    118.0859   6.6601010787e+01   3.2797607793e+01    0.4205723    0.2827073 -61.85  0.001335486    1.864    0.464
       349  -9.9161    133.6215    109.4637   6.3733016560e+01   3.3921130909e+01     0.628083    0.3394514 -46.83   0.00230986    1.932    0.482
       350  -9.8396      3.1252    117.0499   1.0822133095e+02   5.0776200123e+01    0.5903794    0.1961668  60.93  0.002321362    2.909    0.656
       351  -7.9038    204.6283    129.8969   5.3711310994e+01   1.6397008275e+01    0.1791822    0.1101081 -41.57 0.0006456819    1.718    0.418
       352  -8.2329    231.4190    117.2450   4.6880151962e+01   1.3534422176e+01    0.1714683    0.1001163 -37.34  0.000934728    1.610    0.379
       353  -8.2485    185.6108    115.7683   5.3923961661e+01   2.2084204726e+01    0.1880849    0.1225548 -42.92 0.0004215858    1.589    0.371
       354 -10.0373    109.3641    114.1196   7.1494349147e+01   3.7837717299e+01    0.4953578    0.3373477 -77.24  0.001408492    2.092    0.522
       355  -9.1482    109.7767    107.0866   6.9689563288e+01   3.9313658810e+01    0.3430665     0.230924   4.44  0.001071661    2.576    0.612
       356  -8.8138     59.1171    114.9820   8.7979720400e+01   4.6030370841e+01    0.3279728     0.207955 -24.26  0.001381886    2.440    0.590
       357  -8.3153    193.0875    115.0533   5.2409265686e+01   2.0742911748e+01    0.1965025    0.1621822 -64.75 0.0004170873    1.612    0.380
       358  -8.7785    250.0786    114.5147   4.3860241011e+01   1.0879351654e+01    0.1545544    0.1148306  42.41  0.001023229    1.562    0.360
       359 -10.0491    248.6124    107.4348   4.2570961119e+01   1.1958682701e+01    0.3347764    0.1968956 -27.44   0.00197275    1.398    0.285
       360 -10.4175    249.0999    102.6098   4.1497661811e+01   1.2460889666e+01    0.3278562    0.2615874 -14.48  0.002242035    1.074    0.069
       361  -8.2804    167.1649    114.1651   5.7157647649e+01   2.6050335788e+01    0.2203211    0.1894094   7.90 0.0006276096    1.201    0.168
       362 -10.1036     92.7214    112.1783   7.6113637081e+01   4.1389134402e+01    0.5134915     0.341939 -76.21  0.001541166    1.935    0.483
       363  -9.9554     78.9236    112.1219   8.0609354979e+01   4.3773682319e+01    0.5336782    0.3434064  84.15  0.001665632    2.223    0.550
       364  -9.6848    122.0954    112.5224   6.7526298104e+01   3.5663554416e+01    0.3121716    0.2610676  71.72 0.0005954545    1.378    0.274
       365  -8.6507    174.8935    111.5014   5.4957887404e+01   2.4925883880e+01     0.254505     0.188006 -50.18 0.0005958781    1.520    0.342
       366  -9.1828    159.3976    111.7439   5.8220014928e+01   2.8081677544e+01    0.2642905    0.2265127 -81.88 0.0007429604    1.499    0.333
       367 -10.0327     14.1374    110.9338   1.0388391484e+02   5.1642828112e+01    0.4321826    0.2034186  54.61  0.001874203    2.047    0.512
       368  -9.8221     66.3574    110.3216   8.4580035001e+01   4.6173604553e+01     0.385968    0.2625758  66.38  0.001155068    1.679    0.404
       369  -8.1245    183.1568    109.2244   5.2832908251e+01   2.3621529710e+01    0.1855276     0.161252 -57.03 0.0004697019    1.343    0.255
       370  -7.8220    150.2702    109.6515   5.9744031073e+01   3.0379872414e+01    0.1444435    0.1170977 -76.41 0.0003102687    1.623    0.384
       371  -8.5106     43.7838    108.9999   9.2577845918e+01   4.9460924967e+01    0.2892208    0.1299013  32.98  0.001203019    2.093    0.522
       372  -8.1695    188.9994    107.7316   5.1414421793e+01   2.2683242163e+01    0.1854051    0.1757926  -7.15 0.0005493864    1.046    0.044
       373 -10.8327    109.0437     98.6570   6.7756424969e+01   4.1322143433e+01       1.3873    0.7156161  67.69  0.001608738    5.327    0.812
       374  -9.3147    107.4531     92.5441   6.6584473320e+01   4.2995116669e+01    0.8199154    0.3729513  30.75  0.002611768    3.261    0.693
       375  -9.3449    139.9882    104.3713   6.0848333757e+01   3.3580837898e+01    0.3699108     0.276199 -77.98 0.0007977943    1.918    0.479
       376 -10.6347     22.8078    102.2463   9.9751483211e+01   5.3236231294e+01    0.8378829    0.3552016  66.39   0.00251358    2.879    0.653
       377  -9.6964    150.5790    102.8922   5.7960172326e+01   3.1576076733e+01    0.4449258    0.2871863 -59.48  0.001378002    2.034    0.508
       378  -8.3078     88.9906    105.2755   7.5741010141e+01   4.3684784823e+01    0.2158581    0.1882725  48.39 0.0004471697    1.107    0.097
       379  -9.4189     77.5681    104.3153   7.9394045941e+01   4.5897165327e+01    0.4634115    0.2434512  38.08  0.001514424    1.830    0.454
       380 -10.4912     45.6679    101.9221   9.0724607652e+01   5.1062829592e+01    0.8831037    0.4170146  66.71  0.003072152    3.234    0.691
       381  -9.0058     46.3465     92.2238   8.8692382751e+01   5.3482025378e+01    0.4575134     0.253099   1.89  0.001730372    3.023    0.669
       382  -8.6668    166.7253    103.8092   5.4702112835e+01   2.7938792158e+01    0.2799461    0.1857345 -45.38 0.0006746849    1.567    0.362
       383  -8.7899     94.2581    103.9329   7.3702632879e+01   4.3032164465e+01    0.4202551     0.229385  19.77  0.001429497    3.144    0.682
       384 -10.2239    128.5747    101.9836   6.3132406825e+01   3.6507865281e+01     0.425209    0.3152648 -62.14  0.001333342    1.588    0.370
       385  -8.2819    131.0134     97.0000   6.1165613183e+01   3.6990375868e+01     0.263144     0.127801  35.65 0.0009419407    2.446    0.591
       386  -9.4279      6.7502    102.1729   1.0603193073e+02   5.4331750835e+01    0.3800207     0.145343  79.71  0.001500119    2.708    0.631
       387  -7.7424    175.5403    102.0320   5.2506162231e+01   2.6370752901e+01    0.1942992    0.1159736 -56.79 0.0006118165    2.326    0.570
       388  -8.3288    159.6675    100.7517   5.5397981798e+01   2.9993445903e+01    0.2498587    0.1797827 -46.65 0.0005403169    1.449    0.310
       389  -9.4291     82.2139     99.9313   7.6765376258e+01   4.6165884901e+01    0.3838321     0.269132 -85.22  0.000914028    1.846    0.458
       390 -10.1886     63.8909     95.7913   8.2479083993e+01   5.0180073453e+01    0.6722575    0.3820893 -83.86   0.00193516    2.523    0.604
       391  -9.2048     95.0515     96.9374   7.1689011904e+01   4.4503221065e+01    0.3267191    0.2441072 -70.97 0.0006137053    1.550    0.355
       392  -8.6548    151.0661     95.2273   5.5827214328e+01   3.2885785241e+01    0.3059537    0.1927016  -9.73  0.001173786    2.627    0.619
       393  -8.1827    164.8556     94.0806   5.2568073138e+01   3.0024247496e+01    0.2164817    0.1945185 -62.63 0.0004003518    1.230    0.187
       394  -9.3105    139.1387     92.2148   5.7801836259e+01   3.6126031917e+01    0.3838705    0.2760612 -72.56 0.0007947516    1.947    0.486
       395 -10.1116    247.1468     92.5874   3.9579474953e+01   1.3987508169e+01    0.2854203    0.1900739  33.91  0.001726661    1.758    0.431
       396  -8.3954    176.5790     92.8889   4.9973998909e+01   2.7651327752e+01    0.2748232     0.158766 -46.41 0.0007995944    1.827    0.453
       397 -10.5801    124.2276     90.0917   6.1051873984e+01   3.9887782340e+01    0.8504121    0.5930823 -16.98   0.00207536    1.999    0.500
       398  -9.5462      5.3138     91.9119   1.0587663354e+02   5.7037932226e+01    0.3491065    0.1731713  56.57  0.001170301    1.993    0.498
       399  -7.9944    157.9784     91.2308   5.3232212085e+01   3.2055714809e+01    0.2138431    0.1531613 -55.42 0.0004971033    1.595    0.373
       400  -9.4594     34.8794     89.6378   9.3028682943e+01   5.5430195840e+01    0.4601284    0.2508947  78.04  0.001661383    2.320    0.569
       401  -9.2556     23.1329     89.8412   9.8099640726e+01   5.6436468430e+01    0.3331897    0.2993746   2.47  0.001197173    1.265    0.210
       402  -8.0812    150.9979     88.9716   5.4128766739e+01   3.4041698094e+01    0.2332471    0.1804784 -71.89 0.0005238783    1.650    0.394
       403 -10.0448     86.5826     86.4166   7.1729163365e+01   4.8575307557e+01    0.5203611     0.346408  75.98  0.001141751    2.275    0.560
       404  -8.7323     65.1096     87.3785   8.0028408564e+01   5.2094748627e+01    0.3031023    0.2127296  -2.64  0.001318322    2.103    0.524
       405  -7.9700    164.1522     87.1138   5.0833047992e+01   3.1373306492e+01    0.2059587    0.1688909 -58.85  0.000586475    1.354    0.261
       406  -9.6898     48.4682     83.7740   8.6041602244e+01   5.5387889243e+01    0.5929172    0.3746457  77.49   0.00225082    2.065    0.516
       407  -7.7454    179.3969     85.2125   4.7441525723e+01   2.8264583160e+01     0.211021     0.122985 -43.87 0.0008964636    1.715    0.417
       408  -9.8297    104.8356     83.0347   6.4656874448e+01   4.5623761686e+01     0.478216    0.3424692 -81.76 0.0009234405    2.006    0.502
       409  -8.7568    105.0268     77.0274   6.2754072716e+01   4.6870075677e+01    0.2997349    0.2116494 -13.20  0.000978322    2.125    0.529
       410  -8.4038    158.0629     83.7361   5.1138756586e+01   3.3346068999e+01    0.2532485     0.193295 -48.53 0.0004312451    1.352    0.260
       411  -9.0009    140.9541     82.4344   5.4569271600e+01   3.7559572277e+01    0.3259455    0.2020594 -47.82 0.0008975565    1.688    0.407
       412  -7.7970     64.2676     82.6461   7.9160405868e+01   5.3400952654e+01    0.1521824    0.1134967  78.08 0.0005007572    1.629    0.386
       413  -9.8013     24.9195     80.5110   9.5935935830e+01   5.8726738879e+01    0.5214177    0.2773144  67.05  0.001534306    2.261    0.558
       414  -9.4200      9.6574     80.8062   1.0299621377e+02   5.9687812943e+01    0.3739495    0.1731095  51.38   0.00157468    2.253    0.556
       415  -8.7590    119.4875     79.9867   5.9379353120e+01   4.3009135571e+01    0.3894947    0.2456768 -54.77  0.001354785    1.784    0.439
       416  -9.0257     74.6229     79.6285   7.4224514573e+01   5.2389725361e+01    0.5160531     0.259473 -63.84  0.001922524    2.415    0.586
       417  -7.9169    249.6725     80.6618   3.6703657945e+01   1.4980802270e+01    0.1212888   0.08467904   6.70 0.0003266302    1.730    0.422
       418  -8.3743    166.9273     79.4990   4.8175851652e+01   3.2009680310e+01    0.2235011    0.1881087 -34.96 0.0004369423    1.157    0.136
       419  -8.3878    150.3983     80.2172   5.1766132730e+01   3.5747950395e+01    0.2193012    0.1354323 -47.64 0.0009441773    1.694    0.410
       420  -7.9841    174.6253     77.7919   4.6276611883e+01   3.0511951976e+01    0.2084546    0.1245433 -43.30 0.0005300465    1.649    0.394
       421  -7.8521    157.3763     76.2125   4.9121204349e+01   3.4793500326e+01    0.2108501    0.1320184 -45.75 0.0003071194    1.626    0.385
       422  -9.2993    127.9893     74.9601   5.5522668228e+01   4.2018613028e+01    0.3856136    0.2758127 -58.87 0.0006904277    1.605    0.377
       423  -9.9354     63.2384     73.4307   7.7047070947e+01   5.5826490137e+01    0.5036225    0.2913901 -70.02  0.001391984    2.114    0.527
       424  -8.4855    140.5145     75.0380   5.2456483913e+01   3.9020107677e+01    0.2291251     0.149208 -39.21  0.000481586    1.537    0.349
       425  -9.6434     82.4269     72.4626   6.9070977418e+01   5.2600223487e+01    0.3977011    0.2735433 -72.68 0.0009842155    1.893    0.472
       426  -8.2770    163.5128     73.0115   4.6974160293e+01   3.3869478656e+01    0.2251602    0.1416508 -35.48 0.0008753289    1.547    0.354
       427  -8.5985    115.6296     72.5977   5.8148639732e+01   4.5381045899e+01    0.2917355    0.1883525 -45.68 0.0006688252    1.580    0.367
       428  -8.2142     42.6960     72.5962   8.6028485840e+01   5.8963159716e+01    0.2458072    0.1699089  85.99 0.0006933162    1.728    0.421
       429  -7.5988    175.5256     72.4555   4.4628726489e+01   3.1137039520e+01    0.1420953    0.1373768 -26.72 0.0002106868    1.020    0.020
       430  -7.9340    151.2993     72.6826   4.9337594117e+01   3.6844525763e+01    0.1534399    0.1163637 -70.34 0.0004114125    1.615    0.381
       431  -9.1213    106.0698     71.5731   6.0674135513e+01   4.7779497583e+01    0.3182099    0.2350424 -72.85 0.0007176385    1.748    0.428
       432  -9.2523     95.1652     71.0431   6.4051279629e+01   5.0294271016e+01     0.405398     0.260861 -63.55  0.001079125    1.950    0.487
       433  -9.4537     51.4876     69.5116   8.1124856186e+01   5.8580673381e+01    0.4689864     0.278684 -86.45  0.001483782    2.539    0.606
       434  -8.5830     29.2935     70.1234   9.1948657332e+01   6.1039698109e+01     0.230104    0.1489482 -49.06 0.0005419685    1.506    0.336
       435  -8.9526     16.5323     69.8859   9.8293222075e+01   6.2116905306e+01    0.2556234    0.1863293  62.45 0.0008080041    1.437    0.304
       436  -8.6844    147.0264     67.8576   4.8772123493e+01   3.8704773890e+01    0.2654558    0.2114888 -41.58 0.0006096437    1.247    0.198
       437  -8.4579    138.7864     65.8682   4.9979164408e+01   4.1070518854e+01    0.2928603    0.1982924 -55.92 0.0008238532    1.671    0.402
       438  -9.0117    121.7550     65.6698   5.4156805677e+01   4.5269202015e+01    0.2992954    0.2400761 -63.12 0.0008197967    1.389    0.280
       439  -8.7788     37.3058     63.9782   8.6492858956e+01   6.1781509048e+01    0.3565133    0.2207794  79.02  0.001109459    2.229    0.551
       440  -7.4908    157.2844     69.6915   4.7208101275e+01   3.5903163476e+01    0.1503606    0.1136672 -67.06 0.0002709032    1.568    0.362
       441  -9.0666    110.1107     63.3492   5.6656965015e+01   4.8496314207e+01    0.3202613    0.2154181 -48.04 0.0006720292    1.539    0.350
       442  -8.5545     65.4415     62.4385   7.2647267165e+01   5.8069457644e+01    0.4667504    0.2639261   6.56  0.001339981    4.960    0.798
       443  -8.0521    158.4244     61.9299   4.4623846466e+01   3.6874655923e+01    0.2242874    0.1406338 -36.03 0.0005374162    1.552    0.356
       444  -9.1473     97.7449     60.4098   5.9504071495e+01   5.1944495110e+01    0.3642271      0.25883  69.50 0.0009381876    1.730    0.422
       445  -9.6218     73.4645     59.4027   6.8173884968e+01   5.7282365418e+01    0.4155591    0.2795981 -68.48  0.001082381    1.903    0.474
       446  -8.7574    146.0168     59.3056   4.6264522378e+01   4.0380406326e+01    0.4364319     0.174099  54.46  0.001558404    2.421    0.587
       447  -8.6942     88.9291     59.1928   6.2114444377e+01   5.4151589401e+01    0.2364372    0.2075368 -88.30 0.0007288962    1.292    0.226
       448  -7.6273     38.6611     58.6844   8.4347042122e+01   6.2948839947e+01    0.1501119    0.1022902 -29.54 0.0007047947    1.701    0.412
       449  -9.9351     23.4061     56.1349   9.1986321103e+01   6.5141749343e+01    0.5029943    0.2721622  74.01  0.002074983    2.640    0.621
       450  -9.4494      7.4868     56.7600   1.0112311437e+02   6.6007516959e+01    0.4042777    0.2035468  70.33  0.001460908    2.331    0.571
       451  -8.5308    130.9447     57.3389   4.8982615655e+01   4.4496799026e+01    0.2172137    0.1975911  66.92 0.0007541836    1.090    0.083
       452  -8.2122    140.0011     55.9555   4.6442251083e+01   4.2442805384e+01    0.2424339    0.1771483 -67.17 0.0004619566    1.627    0.385
       453  -9.3663    119.0237     55.0639   5.1194955055e+01   4.7874869674e+01    0.4517399    0.2223143 -47.56  0.001391816    2.207    0.547
       454  -8.7344     44.1175     55.2073   8.0431195459e+01   6.3107255317e+01    0.3003925    0.2009688 -66.71  0.001204098    1.556    0.357
       455  -9.1148     62.9957     54.4638   7.0918814876e+01   6.0325746421e+01    0.3469261    0.2340735 -65.05 0.0007129453    1.730    0.422
       456  -9.0333     54.0357     53.4926   7.4814951478e+01   6.2055701947e+01    0.4057165    0.2103846 -65.06    0.0014069    2.406    0.584
       457  -7.5441    217.9617     53.7641   3.3742186696e+01   2.4259862819e+01     0.146849    0.1100067  66.44 0.0003270975    1.496    0.331
       458  -8.5315    105.7234     53.0421   5.4233284033e+01   5.1501491656e+01      0.25611    0.2129803  73.50 0.0005331325    1.306    0.234
       459  -8.7003     75.2064     51.4362   6.4447930436e+01   5.8659781357e+01     0.546722    0.3126933  16.99  0.001772587    3.721    0.731
       460  -9.3881     92.5483     50.5552   5.7538599017e+01   5.5075099076e+01    0.4108865    0.2560512 -57.06  0.001091079    1.943    0.485
       461  -9.1117    112.8194     47.9116   5.0218625405e+01   5.0672844834e+01    0.5335507    0.2003958 -46.77  0.001581982    3.054    0.673
       462  -7.6673    230.4494     49.5130   3.1431432644e+01   2.2208106984e+01    0.1264003    0.1078895 -35.15 0.0002617161    1.021    0.021
       463  -8.0364    129.8366     48.8118   4.6241809856e+01   4.6197091213e+01    0.2136076     0.174544 -63.66 0.0004859043    1.320    0.243
       464  -7.9910     62.2954     49.3431   6.9284276071e+01   6.1589876261e+01    0.1510491    0.1144228 -14.75 0.0002890607    1.664    0.399
       465  -8.2245    144.5716     48.5095   4.2967092261e+01   4.2449133635e+01     0.149695    0.1435718 -71.37 -1.962028e-05    1.022    0.021
       466  -8.4017    120.8650     47.1493   4.7802578370e+01   4.8766415131e+01    0.2324636    0.2050085 -70.16 0.0006066509    1.201    0.167
       467  -8.9630     82.0751     46.1923   5.9581429874e+01   5.8272813373e+01    0.3083971    0.2129978 -50.01 0.0007148673    1.526    0.345
       468  -8.2995     44.9798     44.4557   7.6158747411e+01   6.5521321668e+01    0.2534851    0.1951752 -74.60 0.0004945738    1.525    0.344
       469  -9.1164     16.6785     44.4509   9.3177689234e+01   6.8595983703e+01     0.257809    0.1806017  74.82 0.0007517476    1.679    0.405
       470  -8.2136    132.8476     43.0680   4.3483745496e+01   4.6316542064e+01    0.2361346    0.1959291 -63.35 0.0004073544    1.271    0.213
       471  -8.7483     92.8738     42.2742   5.4037354791e+01   5.6539874681e+01    0.2847804    0.2036319  -0.64 0.0009725369    2.024    0.506
       472  -8.8990     58.2034     41.8643   6.8166042043e+01   6.3940648563e+01    0.4555812    0.2514696 -63.91    0.0017596    2.634    0.620
       473  -9.4975      5.4040     41.7879   9.9925283585e+01   6.9887140674e+01    0.3822596    0.2035851  82.96  0.001370871    2.125    0.529
       474  -9.1902     69.5106     41.0541   6.2533052220e+01   6.1942348595e+01    0.3793768    0.2553311 -62.83  0.001122071    1.916    0.478
       475  -7.4654    140.4713     41.4262   4.1315750388e+01   4.4567079429e+01    0.1508063    0.1416081 -81.70 0.0001545137    1.045    0.043
       476  -8.8421    105.8539     41.0920   4.9484047187e+01   5.3573429890e+01    0.2365401    0.2037149 -68.40  0.000581448    1.272    0.214
       477  -8.2191     36.8422     40.7417   7.9402812473e+01   6.7492563902e+01    0.1850449    0.1626867  72.93  0.000634579    1.331    0.249
       478  -8.3955     95.7841     38.0306   5.1261576785e+01   5.6578884232e+01    0.2367881    0.1993181 -70.03 0.0006741284    1.356    0.263
       479  -8.4699    125.9682     35.5038   4.2145085566e+01   4.9242987195e+01    0.2266404    0.2022113 -37.50 0.0004479216    1.149    0.129
       480  -7.8139     80.8088     36.5668   5.5861790181e+01   6.0362765539e+01    0.2002176    0.1426229  63.44 0.0004993037    1.579    0.367
       481  -9.4169     26.2842     35.1795   8.3990358603e+01   7.0013985161e+01     0.330231    0.2224547 -72.51 0.0009918335    1.630    0.387
       482  -8.6924    111.8073     34.2254   4.5015826478e+01   5.3142995020e+01    0.2584512    0.2142853  61.26 0.0005942819    1.164    0.141
       483  -7.8382     88.5581     34.4775   5.2087642164e+01   5.8923225372e+01    0.1477264    0.1445554  48.89 9.390659e-05    1.014    0.013
       484  -8.4044    119.3764     33.1532   4.2714272008e+01   5.1321134975e+01     0.217684    0.1315563 -43.55 0.0004930199    1.703    0.413
       485  -8.5612     60.7891     32.2076   6.2442330768e+01   6.5412326515e+01    0.2841253    0.1948205 -55.14 0.0009658943    1.669    0.401
       486  -8.9466     48.5536     32.8662   6.9171418118e+01   6.7501071997e+01    0.2523536    0.2282118 -82.32 0.0007854059    1.318    0.241
       487  -8.9923     72.2699     31.0557   5.6671984086e+01   6.3246083326e+01     0.289997    0.2307788 -56.96 0.0007153329    1.435    0.303
       488  -8.7460     12.9459     30.0626   9.1707008284e+01   7.2364540966e+01    0.3067867     0.175674 -82.60 0.0009471047    2.019    0.505
       489  -8.1298    101.6453     29.1580   4.5576956482e+01   5.6520036579e+01    0.2342319    0.1781993 -51.74 0.0006171452    1.423    0.297
       490  -7.5832     42.3026     29.6852   7.1287107721e+01   6.9168987495e+01    0.1340815    0.1113746  79.25 0.0004306559    1.617    0.381
       491  -8.8990     81.6343     27.2093   5.1094544854e+01   6.1763146577e+01    0.3194946    0.2285235 -60.43 0.0008130745    1.752    0.429
       492  -9.1271      3.6400     27.3808   9.8128875041e+01   7.3500345241e+01    0.2881861    0.1835481  65.15  0.001128308    1.914    0.477
       493  -8.7592     91.8761     26.1980   4.7125434332e+01   5.9429607768e+01    0.3074917    0.1935405 -48.26 0.0004999576    1.766    0.434
       494  -8.0443     34.9134     22.9575   7.2626191609e+01   7.1665430367e+01    0.2080062    0.1665931  69.05 0.0009706738    1.729    0.422
       495  -8.2638    104.4950     22.5278   4.1809459124e+01   5.6713474155e+01    0.1487217    0.1415959  77.30 2.536901e-05    1.036    0.035
       496  -8.9001     63.6947     20.8873   5.5106808426e+01   6.6838624496e+01    0.2957166    0.2046288 -49.82 0.0008883278    1.644    0.392
       497  -8.8053     48.3792     21.5232   6.3367532489e+01   6.9762942137e+01    0.2399344    0.2104437 -45.03 0.0005685565    1.197    0.165
       498  -7.6861    159.4828     21.6355   3.1312200441e+01   4.2090545294e+01    0.1428015    0.1295688 -82.79 0.0001240475    1.042    0.040
       499  -7.8861    120.6416     20.8328   3.7362552596e+01   5.2624860415e+01    0.2170705     0.125371 -40.28 0.0008139957    1.754    0.430
       500  -7.8407     19.7228     21.3540   8.3092137708e+01   7.3833897691e+01    0.1265116    0.1011923  73.35 0.0004722651    1.649    0.393
       501  -8.8535     74.1338     19.4371   4.9885434284e+01   6.4727458233e+01     0.275631    0.2141883 -57.81 0.0007313243    1.535    0.348
       502  -8.1178     87.8278     17.7252   4.4201395043e+01   6.1643350031e+01    0.1982766    0.1684325 -67.93 0.0005380004    1.338    0.253
       503  -7.8860     38.6245     17.7993   6.7236158028e+01   7.2127634789e+01    0.1836983    0.1258593 -54.10 0.0004406748    1.637    0.389
       504  -7.8284    112.7975     16.9209   3.7321838120e+01   5.5208657398e+01    0.1888798    0.1201137 -23.13  0.000509901    1.695    0.410
       505  -8.0216     97.1836     15.1507   4.0220861506e+01   5.9569499268e+01    0.2024583    0.1686262 -62.58 0.0004718025    1.320    0.243
       506  -8.2210      7.4399     15.2168   9.1026927098e+01   7.6180960867e+01    0.1718097    0.1170942 -81.62 0.0009426923    1.665    0.400
       507  -7.7893     17.2978     13.7117   8.1359075452e+01   7.5740232619e+01    0.1192689    0.1000123  63.61 0.0002332075    1.555    0.357
       508  -7.8838    191.7611    249.5677   7.5713802762e+01   2.9499673790e+00    0.1416774   0.07413115  34.95 0.0006271227    1.644    0.392
       509  -9.1950    175.7843    247.6184   7.8247167953e+01   5.0024819079e+00    0.2366166    0.1819937  50.59  0.001118521    2.026    0.506
       510  -8.5428    156.5356    248.0929   8.1769551559e+01   7.2324742350e+00    0.2371155    0.1548579  51.47  0.001095347    2.172    0.540
       511  -8.3981    113.2577    248.5735   9.0042853896e+01   1.2366314810e+01    0.1602948    0.1285486  84.66  0.001211166    1.830    0.454
       512  -9.2911    104.1207    247.0453   9.1708909422e+01   1.3659994756e+01    0.3451616    0.2050073  70.45  0.001877743    2.774    0.640
       513  -9.2427    232.5853    246.7334   6.8786618880e+01  -1.2029824238e+00    0.2058142    0.1397365  -7.56  0.001323848    1.290    0.225
