#   1 NUMBER                 Running object number                                     
#   2 MAG_AUTO               Kron-like elliptical aperture magnitude                    [mag]
#   3 X_IMAGE                Object position along x                                    [pixel]
#   4 Y_IMAGE                Object position along y                                    [pixel]
#   5 X_WORLD                Barycenter position along world x axis                     [deg]
#   6 Y_WORLD                Barycenter position along world y axis                     [deg]
#   7 A_WORLD                Profile RMS along major axis (world units)                 [deg]
#   8 B_WORLD                Profile RMS along minor axis (world units)                 [deg]
#   9 THETA_WORLD            Position angle (CCW/world-x)                               [deg]
#  10 FWHM_WORLD             FWHM assuming a gaussian core                              [deg]
#  11 ELONGATION             A_IMAGE/B_IMAGE                                           
#  12 ELLIPTICITY            1 - B_IMAGE/A_IMAGE                                       
         1 -14.4258    148.9470     59.7479   2.9042965903e+02   6.1791295125e+00   0.06211466   0.04448748 -32.02  0.003561704    1.482    0.325
         2 -14.7355    159.8449     44.7697   2.9021638224e+02   6.2886507419e+00    0.0573559   0.04298659 -55.06  0.003664234    1.309    0.236
         3 -14.6801    172.4715     12.7503   2.8988340463e+02   6.5801819912e+00   0.05903108   0.04693223 -39.68  0.004110289    1.251    0.201
         4 -13.3577    189.0974     13.3268   2.8969496919e+02   6.4836731675e+00   0.03721093   0.02285093  62.16  0.003512303    2.264    0.558
         5 -12.9974    198.5698      7.1493   2.8954955185e+02   6.5017237763e+00   0.01569693   0.01468066 -34.94   0.00199063    1.044    0.042
         6 -14.1750    204.7029    176.6562   2.9046907855e+02   4.5624094150e+00   0.05183483   0.03205136  84.82  0.004748554    2.477    0.596
         7 -19.7942     90.3300    227.0693   2.9207962391e+02   4.6111281978e+00    0.4301558    0.3910566  30.00   0.04849201    1.110    0.099
         8 -12.7219    204.0254    169.4960   2.9043515144e+02   4.6466542977e+00    0.0301677    0.0222275 -52.11  0.002887449    1.323    0.244
         9 -14.0236    195.3783    168.8378   2.9053088484e+02   4.7007784612e+00   0.04364104   0.02841866 -32.96 0.0007373081    1.681    0.405
        10 -12.5836    193.4000    164.2111   2.9052670480e+02   4.7635394351e+00   0.01801743    0.0145302  33.75  0.001535334    1.246    0.197
        11 -12.0241     21.6844    236.3793   2.9292457345e+02   4.8746615452e+00   0.01183101  0.009414526 -59.45  0.001376337    1.255    0.203
        12 -10.2360     13.4068    236.3333   2.9301969910e+02   4.9195234450e+00  0.006330355    0.0058581  -7.65 0.0002472712    1.068    0.064
        13 -19.1700     73.6045     97.3032   2.9151847059e+02   6.1627191280e+00    0.8471631   0.04298409 -62.76   0.02548224   19.175    0.948
        14 -12.5159    165.3551    171.7690   2.9089378247e+02   4.8298766350e+00   0.01365037   0.01149729  47.72   0.00144472    1.267    0.210
        15 -12.6740    230.2973    167.7432   2.9012252137e+02   4.5243670428e+00   0.02246221   0.01236902 -73.04  0.001979433    2.178    0.541
        16 -11.7762     12.7708    241.2847   2.9305564706e+02   4.8671305423e+00   0.01348027  0.009372172 -45.41  0.001467886    1.417    0.294
        17 -13.6291    163.5454    156.0574   2.9082313019e+02   5.0165266791e+00    0.0244656   0.01690178 -63.10  0.001916235    1.470    0.320
        18 -13.2998    159.9847    151.9908   2.9084047448e+02   5.0815246059e+00   0.01920927   0.01465588 -49.53   0.00204162    1.279    0.218
        19 -12.0094    192.0049    157.8624   2.9050576952e+02   4.8425313948e+00   0.01750285   0.01236637 -30.02  0.001658762    1.531    0.347
        20 -10.9263     18.2833    220.7215   2.9287320902e+02   5.0693363040e+00  0.009221788  0.006848359 -56.42 0.0004240645    1.323    0.244
        21 -14.2327    135.7853    128.8465   2.9098462542e+02   5.4726415295e+00   0.09076869   0.02098546 -66.35  0.004866281    6.203    0.839
        22 -12.4130    134.6860    109.4877   2.9088447411e+02   5.6964888769e+00   0.04716575    0.0084189 -63.91  0.002433885    6.531    0.847
        23 -14.5650    134.2325    147.1935   2.9110939871e+02   5.2744506986e+00   0.08338533   0.02813541 -72.63  0.004782459    5.729    0.825
        24 -15.2867    143.0274    144.6972   2.9099345696e+02   5.2551287033e+00   0.05581252   0.03699578 -64.64  0.005947283    1.552    0.356
        25 -10.0148      3.5528    158.4218   2.9268234931e+02   5.8502941352e+00  0.006475479  0.006072754 -19.85 0.0001473885    1.041    0.040
        26 -10.0477     22.8531    156.1658   2.9244651344e+02   5.7722969566e+00  0.008824588  0.007282513 -22.65 0.0004400504    1.255    0.203
        27 -10.6131    218.4445    219.9852   2.9056327854e+02   4.0005446351e+00  0.009794472  0.006363444 -63.57 0.0004666276    1.569    0.363
        28 -11.3513     17.2698    153.4613   2.9249526612e+02   5.8326976532e+00   0.01943362   0.01218353 -26.27  0.001590883    1.900    0.474
        29 -12.8431    173.8332    148.6730   2.9066155311e+02   5.0441127120e+00   0.01790491    0.0161827  49.17  0.001523352    1.177    0.150
        30  -9.8200      8.2697    149.3194   2.9257512941e+02   5.9275895004e+00  0.006730045  0.004654003 -31.33 0.0002945575    1.562    0.360
        31 -10.3558     18.5477    148.4595   2.9245149932e+02   5.8822030630e+00   0.01322444  0.006377251  23.02  0.001186917    2.103    0.525
        32 -12.3460     27.4138    145.5402   2.9233221610e+02   5.8675542571e+00   0.01985555   0.01790648 -22.13  0.001332966    1.101    0.092
        33 -12.0960     23.8050    217.3002   2.9278975975e+02   5.0783032258e+00   0.01143143  0.009306036 -38.86 0.0008904916    1.220    0.180
        34 -11.9110    173.1827    139.6690   2.9061656545e+02   5.1489725174e+00   0.01095514  0.009154066 -83.09 0.0007243618    1.344    0.256
        35 -11.7126     30.7318    206.2343   2.9264583363e+02   5.1658739735e+00    0.0180066  0.008965081 -45.99  0.001656008    2.003    0.501
        36 -13.2197    160.7186    128.1858   2.9069328093e+02   5.3455273443e+00   0.02150084   0.01839467  83.05  0.001781079    1.345    0.256
        37 -11.3288     29.9109    127.1887   2.9219682845e+02   6.0608914461e+00   0.01505186  0.009100021  10.24  0.001437049    1.883    0.469
        38 -12.3144    141.1527    121.1131   2.9087765497e+02   5.5307432410e+00   0.02246288   0.01050431  50.91  0.001773972    2.898    0.655
        39 -12.9686     11.7768    205.9561   2.9286278658e+02   5.2705904700e+00   0.03082866   0.01541002  17.64  0.002774811    2.195    0.544
        40 -11.0306    167.6180    112.6260   2.9052299303e+02   5.4833799525e+00   0.01351907  0.008666609  60.16  0.001223485    2.035    0.509
        41 -12.5095    139.8934    200.1857   2.9135246412e+02   4.6471895924e+00   0.02059941   0.01507921  27.17  0.000943211    1.351    0.260
        42 -10.8280    205.3481    110.2075   2.9007405040e+02   5.3066093249e+00   0.01336272  0.009211771  14.73 0.0008878161    1.516    0.341
        43 -12.5365     97.9996    109.2574   2.9130645539e+02   5.8968311347e+00   0.01321594   0.01093234  -1.28  0.001245826    1.259    0.205
        44 -11.3505     23.4045    107.0865   2.9215516857e+02   6.3222017080e+00   0.01346458  0.009518402  13.30 0.0006757128    1.480    0.324
        45 -10.1392    180.7753    106.5825   2.9033605268e+02   5.4802790412e+00  0.009381428  0.005618817  38.02 0.0008461957    1.684    0.406
        46 -11.3229    161.4533    239.0603   2.9133007525e+02   4.0932413685e+00   0.01678721   0.01165226  25.24  0.001655909    1.427    0.299
        47 -10.6567     28.7566     96.5850   2.9203229141e+02   6.4117492912e+00   0.01206357  0.009154979   0.11  0.001349223    1.429    0.300
        48 -10.5843     35.1828     96.2084   2.9195586350e+02   6.3815033505e+00   0.01410153  0.009521129 -75.23 0.0008288888    1.698    0.411
        49 -10.9882    150.8866    239.9129   2.9145667444e+02   4.1405724528e+00  0.009402792  0.009153171 -61.89 0.0004365974    1.067    0.063
        50 -10.7578     28.3531    238.0539   2.9285741050e+02   4.8200525135e+00   0.00889241  0.006976186 -59.09 0.0004656084    1.270    0.213
        51 -12.5403     47.2649     92.8066   2.9179650237e+02   6.3549312847e+00   0.02617062    0.0145952  14.03  0.002188216    2.012    0.503
        52 -11.4796      4.0003     89.9830   2.9227995274e+02   6.6188132448e+00   0.02098065  0.009717529   7.07  0.001579447    3.323    0.699
        53 -11.0331    103.2357     81.9473   2.9108685365e+02   6.1760304817e+00   0.01044727  0.008932765  20.66 0.0004899244    1.162    0.139
        54 -10.6972    143.0302     80.9743   2.9062187500e+02   5.9723205423e+00  0.009836608  0.009666361 -12.45 0.0005329412    1.029    0.028
        55 -11.2471     41.6083     91.8195   2.9185610292e+02   6.3964251983e+00   0.01511072  0.009639075 -72.35  0.001058388    1.765    0.433
        56 -11.5992    127.1336    248.9795   2.9178278562e+02   4.1663630380e+00  0.009383676  0.008659595 -38.30  0.000352758    1.059    0.056
        57 -12.5523    146.1162    189.2171   2.9121698697e+02   4.7371744480e+00   0.02021688   0.01166126 -26.84  0.001524264    2.197    0.545
        58 -13.1404    163.7149     36.1002   2.9012104106e+02   6.3651787285e+00   0.01986277   0.01754963 -28.21 0.0008281565    1.126    0.112
        59 -10.8302     13.4038     59.8657   2.9199610056e+02   6.9074578995e+00   0.01061222  0.008583255  36.65 0.0004468286    1.256    0.204
        60 -10.6857    146.9228     34.9267   2.9030797650e+02   6.4691574516e+00   0.00976665  0.009226052  34.03 0.0004701422    1.087    0.080
        61 -12.7293    199.0361    178.5100   2.9054512302e+02   4.5721558518e+00   0.02923276    0.0179814  85.45   0.00227158    2.498    0.600
        62 -11.0374     15.5584    246.9696   2.9305638064e+02   4.7881367663e+00  0.009098917   0.00642795 -75.42 0.0009665718    1.599    0.375
