#   1 NUMBER                 Running object number                                     
#   2 MAG_AUTO               Kron-like elliptical aperture magnitude                    [mag]
#   3 X_IMAGE                Object position along x                                    [pixel]
#   4 Y_IMAGE                Object position along y                                    [pixel]
#   5 X_WORLD                Barycenter position along world x axis                     [deg]
#   6 Y_WORLD                Barycenter position along world y axis                     [deg]
#   7 A_WORLD                Profile RMS along major axis (world units)                 [deg]
#   8 B_WORLD                Profile RMS along minor axis (world units)                 [deg]
#   9 THETA_WORLD            Position angle (CCW/world-x)                               [deg]
#  10 FWHM_WORLD             FWHM assuming a gaussian core                              [deg]
#  11 ELONGATION             A_IMAGE/B_IMAGE                                           
#  12 ELLIPTICITY            1 - B_IMAGE/A_IMAGE                                       
         1  -9.0958     74.0872     19.5366   5.9229483343e+01   6.2190883378e+01    0.2862681    0.1881175 -45.41 0.0009701569    2.103    0.525
         2  -8.1084     30.0492     15.9809   7.6183244668e+01   6.9800317907e+01    0.1545018    0.1505202  11.82 0.0007395007    1.680    0.405
         3  -7.8573    119.5457     11.0585   4.4058183562e+01   5.3045139385e+01    0.1749744   0.09631879 -50.97 0.0008070204    2.413    0.586
         4  -8.5397     55.7708      9.9985   6.1514230269e+01   6.6615751872e+01    0.1951375     0.163165 -33.94 0.0009143347    1.561    0.359
         5  -7.9183     47.4863     10.2787   6.5062913297e+01   6.7985178349e+01     0.151337    0.1082115 -31.85 0.0009337619    1.629    0.386
         6  -8.5526     90.6805      8.7171   4.9684541356e+01   5.9820524694e+01    0.2350798    0.1316145 -44.65 0.0009873257    2.449    0.592
         7  -7.9854    101.4032      8.1821   4.6844695577e+01   5.7489358115e+01    0.1585873    0.1170767 -36.49 0.0004651523    1.608    0.378
         8  -8.4843     33.5380      5.3308   6.8944668166e+01   7.0664744565e+01    0.2440696    0.1781154 -54.08  0.001360204    2.988    0.665
         9  -8.5175     79.1556      4.1954   5.0925071291e+01   6.2648357184e+01    0.2062752    0.1474027 -47.94 0.0007213971    1.976    0.494
        10  -7.7313     44.6779      3.3217   6.2722783546e+01   6.9171667363e+01   0.09924744   0.09775365 -55.93 0.0005457047    1.676    0.403
        11  -8.3662    167.1011      2.0023   3.4240869603e+01   4.2398200765e+01     0.183584    0.1570922  88.21 0.0003395035    1.037    0.035
        12  -8.2865     62.3144      1.5028   5.4981781096e+01   6.6217346398e+01    0.2028853    0.1094078  55.28 0.0005413344    1.868    0.465
        13  -9.0525    147.1051    246.2054   9.6180570409e+01   2.2775114895e+00    0.2700641    0.1978331  61.67  0.001289701    1.789    0.441
        14  -9.9894    248.7109    243.4409   7.5882799831e+01  -1.1472624488e+01     0.688502    0.1844805 -38.20  0.002848735    3.740    0.733
        15  -9.2984    247.8339    234.7034   7.4553421008e+01  -1.0232910221e+01    0.3466256    0.1831513  29.54  0.002010026    1.807    0.446
        16  -8.3417    240.4881    240.4770   7.6838264300e+01  -1.0098424967e+01    0.2098181    0.1033912 -36.16  0.000977583    2.031    0.508
        17  -8.8072    242.6428    236.6683   7.5807089930e+01  -9.8585138070e+00    0.2817142    0.1478918  -2.88  0.001423806    2.269    0.559
        18  -7.8744    199.3496    250.2905   8.6163146186e+01  -6.0391788585e+00    0.1289466   0.08026457   5.27 0.0004580797    1.668    0.400
        19  -8.0992    191.5768    249.7607   8.7608741783e+01  -4.8732265385e+00    0.1454823    0.1194742 -46.29  0.000707189    1.653    0.395
        20  -8.4544     94.0700    249.6640   1.0770440295e+02   9.5426563602e+00    0.2909097    0.1367953  60.69  0.001260994    2.813    0.645
        21  -7.8401     86.3501    250.2536   1.0934841794e+02   1.0514448150e+01    0.1588977    0.1097276 -87.43 0.0009370052    1.677    0.404
        22  -7.6468     25.6839    250.6816   1.2121076617e+02   1.7952905899e+01   0.09582659   0.08572523 -48.55 0.0003855736    1.654    0.395
        23  -9.1217    146.8650    240.3795   9.5413768324e+01   3.3178224155e+00    0.3821561    0.2519321  75.74  0.001409202    3.075    0.675
        24  -9.3607    120.2660    245.6253   1.0176609083e+02   6.4526545618e+00    0.3644036    0.2234461  67.78  0.001773258    2.393    0.582
        25  -8.5201     67.4469    244.7615   1.1269279489e+02   1.4116902115e+01    0.2140291    0.1154356 -77.74  0.001137393    2.078    0.519
        26  -8.9670      9.3264    243.6242   1.2382251884e+02   2.1001313123e+01    0.3293612   0.09975116  80.24  0.001241552    4.568    0.781
        27  -8.5206    201.9974    243.4479   8.4559356258e+01  -5.4194780899e+00    0.2053193    0.1721716 -46.54 0.0008938599    1.676    0.403
        28  -8.5877    168.9559    243.4142   9.1220510156e+01  -5.7886278955e-01    0.1988886    0.1855476 -77.72 0.0005764307    1.514    0.339
        29  -9.1548     77.6217    242.9518   1.1043689199e+02   1.3112239692e+01    0.2278011    0.1438255  84.94  0.001254181    1.847    0.459
        30  -8.9970    194.4153    240.3391   8.5557359549e+01  -3.8725408149e+00    0.3065634    0.2099483 -58.04  0.001330496    2.463    0.594
        31  -9.3496    160.1295    240.3688   9.2605310666e+01   1.2703365365e+00    0.3480975    0.2610499  88.64  0.001493469    2.459    0.593
        32  -7.9461    153.4124    242.2311   9.4292707427e+01   1.9880384058e+00     0.155317    0.1285843 -65.35 0.0007885511    1.617    0.382
        33  -8.1611     88.1898    242.1980   1.0815398424e+02   1.1793271743e+01      0.17189    0.1280996  71.88 0.0005076507    1.381    0.276
        34  -9.0600    182.8235    240.0220   8.7846721460e+01  -2.1181567540e+00    0.2884968    0.2221665  57.23  0.001152141    1.914    0.477
        35  -9.6449    135.8932    239.2405   9.7600428854e+01   5.2212034528e+00    0.2827961    0.1730469  51.68  0.001421833    1.758    0.431
        36  -8.1092     40.5412    239.4970   1.1767240647e+02   1.8490032292e+01    0.1207062   0.09374332  65.38 0.0008091464    1.021    0.020
        37  -8.9583    230.7464    236.9780   7.8013234930e+01  -8.3934736511e+00    0.2380531    0.2246611 -60.44  0.001528527    1.925    0.481
        38  -8.3071    209.1969    238.2631   8.2305575785e+01  -5.6685913791e+00    0.1709685   0.09359483 -46.57 0.0007717991    2.393    0.582
        39  -8.2435     25.3686    236.5648   1.2044179567e+02   2.0770354942e+01    0.2258916   0.08397357  85.55 0.0009504171    3.324    0.699
        40  -8.5714    217.2991    235.6925   8.0314990753e+01  -6.4159970796e+00    0.1863023    0.1605394  13.58 0.0006654903    1.249    0.199
        41  -9.3320    213.7741    231.8965   8.0344994135e+01  -5.3682663061e+00    0.2699653    0.2447062  84.21  0.001283642    2.055    0.513
        42  -9.1669    203.0405    234.6289   8.2904237157e+01  -4.2506512168e+00    0.3021226    0.1755226 -48.44  0.001107491    2.306    0.566
        43  -9.8369    175.6572    233.3654   8.8264343462e+01   4.9735180556e-02     0.467265    0.2684651 -57.85  0.002177667    2.749    0.636
        44  -7.6546     57.9790    237.0000   1.1395862938e+02   1.6882966442e+01    0.1951084   0.06179414  33.94 0.0007930618    2.878    0.653
        45  -8.3313    169.8912    235.4062   8.9795089798e+01   5.9916602403e-01    0.1696813    0.1566028  28.83 0.0005348822    1.200    0.167
        46  -8.1611    137.9696    234.9884   9.6558643125e+01   5.6713090355e+00    0.2097038    0.1508662   6.32 0.0008199764    1.699    0.411
        47  -9.3708    132.4249    233.3713   9.7538057736e+01   6.8422620147e+00    0.3116382    0.2199952 -37.67  0.001208257    1.668    0.401
        48  -8.3690    122.9454    234.2506   9.9730542702e+01   8.1572027984e+00    0.2446826    0.1595189  81.48 0.0009324287    2.532    0.605
        49  -9.3442    108.5028    234.2919   1.0289332793e+02   1.0363785605e+01    0.3319219    0.2370229  71.68  0.001269693    1.670    0.401
        50  -8.2831     99.8287    234.6475   1.0482699602e+02   1.1591578191e+01    0.2472183    0.1542929  75.20  0.001212182    2.163    0.538
        51  -8.9141     78.5578    234.4670   1.0939862111e+02   1.4674989264e+01    0.2662212     0.169717  73.16 0.0009341436    1.738    0.425
        52  -8.8356     92.8734    232.5427   1.0609756607e+02   1.3033160270e+01     0.357594    0.2299992  78.59  0.001839064    1.963    0.490
        53  -9.4165     68.5802    232.6789   1.1134913006e+02   1.6393332714e+01    0.4506696    0.1909154  62.38  0.001798591    3.153    0.683
        54  -8.8370    194.4888    232.5365   8.4261327498e+01  -2.6731840190e+00    0.2270583    0.1226874 -39.79 0.0005931999    1.975    0.494
        55  -9.4878    186.4029    230.5854   8.5583071030e+01  -1.1412058005e+00    0.3706183    0.2721932 -67.30  0.001314277    2.454    0.593
        56  -7.6703    186.2834    225.6580   8.4779993417e+01  -3.0831034622e-01    0.1184846    0.1065693  67.46 0.0007014617    1.635    0.388
        57  -9.1009    140.4816    230.6256   9.5381584460e+01   6.0802263930e+00    0.3341647    0.1877603  55.35  0.001194322    2.322    0.569
        58  -8.5477    158.1253    232.1850   9.1790033601e+01   2.9945417135e+00    0.1776332     0.149961  52.09 0.0004721049    1.365    0.267
        59  -9.0056    236.0582    230.5789   7.5941121869e+01  -8.1924113645e+00    0.2487879    0.1468953 -28.09 0.0004671781    1.537    0.349
        60  -8.6599      1.6026    230.8953   1.2463383443e+02   2.4267119283e+01    0.2205923    0.1031803  79.22 0.0009585325    1.858    0.462
        61  -9.3676    246.6599    228.3065   7.3649173459e+01  -9.2261821813e+00    0.4799476    0.1993717 -28.96  0.002169748    2.235    0.553
        62  -8.9852    151.4602    228.9844   9.2737045382e+01   4.6290322040e+00    0.2682117    0.2205446  86.72  0.001110561    1.757    0.431
        63  -9.4718    148.6391    224.6219   9.2679502761e+01   5.8898973366e+00    0.3938385    0.2894982  82.53  0.001296753    2.263    0.558
        64  -8.1181    229.5016    229.0155   7.6871239409e+01  -7.1065350919e+00    0.1761023    0.1088731 -32.55 0.0005410363    1.561    0.359
        65  -8.3620     15.3540    229.3169   1.2194819626e+02   2.3285553619e+01    0.1042332    0.0848354 -47.55 0.0007046207    1.743    0.426
        66  -8.8640    162.2383    227.8285   9.0222143022e+01   3.1125969193e+00    0.3047588    0.2226025  54.20  0.001539277    1.688    0.407
        67  -9.0930    127.9225    227.3630   9.7683714225e+01   8.7008412818e+00    0.3229357     0.214153  63.07  0.001132837    1.942    0.485
        68  -8.5368    119.9951    227.9268   9.9527729151e+01   9.8430791768e+00    0.2167775    0.1499305  63.22   0.00111975    1.715    0.417
        69  -9.0741      8.4018    228.2232   1.2322376589e+02   2.4184602718e+01    0.1658462   0.08494105  82.99 0.0009500351    1.705    0.414
        70  -7.6544    177.6532    227.2725   8.6851508783e+01   7.6617653376e-01    0.1260644    0.1002692  53.41 0.0004064266    1.623    0.384
        71  -8.8977    205.9825    225.9008   8.0832397658e+01  -3.3294739372e+00    0.2144137     0.172191 -26.29 0.0006611184    1.270    0.212
        72  -8.5249    200.0450    226.3088   8.2085819196e+01  -2.5129213673e+00    0.1804962    0.1480282  14.74 0.0004430611    1.071    0.066
        73  -9.0429     94.2703    224.4274   1.0483348744e+02   1.4493189808e+01    0.4421266    0.2058454  58.31  0.001770472    2.791    0.642
        74  -7.8712     48.8588    226.5822   1.1497634089e+02   2.0176668537e+01    0.1753553   0.09286878  47.85 0.0005470358    1.615    0.381
        75  -9.0863    216.5818    223.9180   7.8415820324e+01  -4.5606706570e+00    0.2627188    0.2142404 -47.52  0.001119985    1.705    0.414
        76  -8.8328    180.4180    224.0520   8.5730852823e+01   8.8154948706e-01    0.2353541    0.2092005  81.90 0.0004523744    1.714    0.416
        77  -9.0000    104.8304    223.9073   1.0239279101e+02   1.3008660848e+01    0.3341618    0.2180789  74.17  0.001631407    2.029    0.507
        78  -8.5834    173.0234    223.3843   8.7183445025e+01   2.1731276230e+00    0.2267752     0.191838 -62.38 0.0006951552    1.609    0.378
        79  -8.1047    114.0393    224.0513   1.0033472377e+02   1.1552143062e+01    0.2153504    0.1509424  65.33  0.000709762    1.674    0.403
        80  -7.8994     59.7554    223.7501   1.1239384028e+02   1.9424135474e+01    0.2204598    0.1126756  63.48  0.001040301    2.104    0.525
        81  -9.0519    238.9676    221.5284   7.3817786528e+01  -7.2866787391e+00    0.2311458    0.1612168 -27.93 0.0007068223    1.323    0.244
        82  -9.3815    225.4032    221.6980   7.6343458661e+01  -5.4701979996e+00    0.2160498    0.1856816 -17.82 0.0005586769    1.253    0.202
        83  -9.5263    192.4126    221.1848   8.2745285073e+01  -5.1182050763e-01    0.3016673    0.2617745 -58.52  0.001189794    1.637    0.389
        84  -9.2301    159.7198    220.8840   8.9644499603e+01   4.7788481181e+00    0.4163587    0.2228692  52.45  0.001628294    2.518    0.603
        85  -7.6412    223.2993    227.6253   7.7787523799e+01  -6.0613063641e+00    0.1066215    0.1035587 -73.61 0.0007027716    1.751    0.429
        86  -8.7430     82.6100    220.5554   1.0699780818e+02   1.7011398047e+01    0.3389093    0.2009997  70.29  0.001139951    2.048    0.512
        87  -8.1017     73.4306    220.9464   1.0910071991e+02   1.8212811469e+01    0.1865192    0.1007823  80.20 0.0008061946    2.550    0.608
        88  -8.2713     27.5692    220.7463   1.1896541802e+02   2.3843554090e+01    0.2191626   0.09843344 -70.27  0.001121226    2.074    0.518
        89  -8.7067    202.5457    220.0613   8.0490889635e+01  -1.8824205476e+00    0.1885105     0.121987 -35.98 0.0005323148    1.566    0.361
        90  -9.1410    120.1536    219.0873   9.8251472596e+01   1.1594588502e+01    0.3844091    0.2348154  66.19  0.001533543    2.374    0.579
        91  -8.0587    210.0211    219.3119   7.8873201269e+01  -2.8842578343e+00    0.1788413    0.1486711   6.08 0.0003639322    1.046    0.044
        92  -8.4648    248.9840    218.1257   7.1433144309e+01  -8.1001799682e+00    0.2480827    0.1588643  52.45   0.00123555    3.283    0.695
        93  -8.9026    179.2788    216.9885   8.4757640127e+01   2.2953454575e+00    0.2711859    0.1972073 -44.97  0.001301226    1.547    0.353
        94  -9.4780    132.8461    216.0292   9.4891008039e+01   1.0150512004e+01    0.4860599    0.3145914  80.17  0.002030153    2.898    0.655
        95  -8.6476     51.6320    217.4353   1.1357634701e+02   2.1815268817e+01    0.2559625    0.1533961  72.30 0.0008245241    1.693    0.409
        96  -8.6947    169.1955    216.0345   8.6760575562e+01   4.1153206670e+00    0.2785487    0.2148113 -79.55 0.0008470339    2.174    0.540
        97  -8.5988    142.9834    216.6004   9.2675444389e+01   8.3584528063e+00    0.2840624    0.2115185  82.67   0.00139911    2.070    0.517
        98  -8.6314    111.8372    217.0046   9.9864060575e+01   1.3352573484e+01    0.2296622    0.1531339  76.42  0.001079013    2.090    0.522
        99  -8.3062     61.9178    217.0102   1.1125986882e+02   2.0609387384e+01    0.2196464    0.1297282  65.58  0.001113993    1.743    0.426
       100  -7.9418     55.6764    217.1853   1.1266288817e+02   2.1368217037e+01    0.1764476    0.1031018 -60.32  0.000341674    1.792    0.442
       101  -8.1713     18.4026    216.2066   1.2054373090e+02   2.5763928635e+01    0.1709113   0.09345548  85.80  0.000948745    1.649    0.394
       102  -8.7126    232.0647    214.4388   7.3791757789e+01  -5.3024211185e+00    0.2544388    0.1605287 -40.30  0.001039179    1.708    0.414
       103  -8.4089    185.5283    214.3137   8.2963966848e+01   1.7570836452e+00    0.2086545    0.1936023 -53.21 0.0005685912    1.403    0.287
       104  -8.2497    154.4785    215.0287   8.9834398803e+01   6.7486790189e+00    0.1956193    0.1391783 -48.90 0.0005113116    1.566    0.361
       105 -10.2646    155.2876    210.1344   8.8824806848e+01   7.5609155991e+00    0.3128543    0.2453028 -28.29 0.0004346585    1.365    0.267
       106  -9.4764    214.0660    212.2466   7.6799337411e+01  -2.3532740644e+00    0.3588396    0.2960052  55.26  0.001609137    1.849    0.459
       107  -9.2385     92.9346    213.9680   1.0383098150e+02   1.6924329289e+01     0.354006     0.185905  54.38  0.001365483    2.027    0.507
       108  -9.4824     73.0904    211.8404   1.0816857172e+02   2.0259084929e+01    0.6775042     0.279112  60.23  0.002388777    3.592    0.722
       109  -8.0810    224.8234    212.7404   7.4828545501e+01  -4.0152335902e+00    0.1591559    0.1457339 -19.61 0.0006131947    1.342    0.255
       110  -8.7336    161.6705    212.3224   8.7774092462e+01   6.0614323225e+00    0.2246833    0.2036733  57.30 0.0006994445    1.315    0.240
       111  -8.0023    106.5471    212.7450   1.0049419558e+02   1.5093322817e+01    0.1784344    0.1329136 -82.03 0.0009300042    1.586    0.370
       112  -8.9645    204.1351    210.7730   7.8493224109e+01  -5.9008774512e-01    0.2814274     0.202437 -46.50 0.0008863895    1.664    0.399
       113  -9.0788      8.4748    211.9823   1.2230956138e+02   2.7624259625e+01    0.2929234   0.09106682  65.62  0.001100215    3.888    0.743
       114  -9.3706    175.1829    209.7637   8.4359977511e+01   4.2768889765e+00    0.3497801    0.2808754 -84.15  0.001280635    2.064    0.515
       115  -8.8342    147.9004    210.4927   9.0558820931e+01   8.7425723409e+00    0.3200606    0.2261539  66.23  0.001424438    2.045    0.511
       116  -8.9828    116.3149    210.2823   9.7848749141e+01   1.4057426571e+01    0.3617691    0.2376238  70.83  0.001062637    2.122    0.529
       117  -8.3714    192.1797    210.2401   8.0838053017e+01   1.3981478303e+00    0.1654752    0.1644689 -47.77 0.0004496524    1.354    0.262
       118  -8.5656     85.6577    209.5818   1.0497017640e+02   1.8973423080e+01    0.3083839    0.1737478  73.13  0.001130247    2.527    0.604
       119  -8.1045     32.3500    210.6664   1.1720222011e+02   2.5544183408e+01    0.1388674   0.07420379  63.64 0.0007047402    1.778    0.438
       120  -9.0750    236.4362    208.3362   7.1867683565e+01  -4.9821604337e+00    0.2544429    0.2055819 -39.05 0.0009421422    1.495    0.331
       121  -8.5375    139.0405    207.9031   9.2162707657e+01   1.0769848646e+01    0.2981873    0.2005777 -75.97 0.0009105154    2.280    0.561
       122  -8.0731     46.3129    209.6661   1.1403891108e+02   2.4188280290e+01     0.138941   0.08114392  65.59 0.0007045323    1.683    0.406
       123  -9.4214    246.4278    207.2719   6.9893418827e+01  -6.1881279556e+00    0.2689965    0.1895854 -24.13 0.0005894831    1.197    0.164
       124  -8.6236    125.4375    207.2877   9.5242353043e+01   1.3191722398e+01    0.3931108    0.2381784  75.94  0.001474971    3.289    0.696
       125  -9.2971     99.2486    205.9790   1.0126749031e+02   1.7720208681e+01    0.4153983    0.2693577  81.74  0.001713277    2.113    0.527
       126  -8.7696    108.0311    205.8442   9.9150867424e+01   1.6359942273e+01    0.3134839    0.2400587  14.18  0.001623249    1.558    0.358
       127  -8.5918     56.5249    205.5356   1.1130764387e+02   2.3879301641e+01    0.3484808    0.1607899  62.90  0.001436643    2.645    0.622
       128  -9.4090    194.9807    203.3927   7.8986968047e+01   2.1508073921e+00    0.4230313    0.2734855 -40.82  0.001169554    1.589    0.371
       129  -9.2981    192.3599    197.3757   7.8388180669e+01   3.6725718509e+00    0.3999276    0.2303666 -41.01  0.001153932    1.744    0.426
       130  -9.0054    183.8081    203.9428   8.1440888962e+01   3.9059418319e+00    0.3012457    0.2571525  78.43 0.0009828552    1.801    0.445
       131  -8.7836    131.3200    203.9620   9.3317658851e+01   1.2906198897e+01    0.3360032    0.2372859  85.69  0.001010208    2.193    0.544
       132  -9.4339    250.1429    202.1012   6.8285683337e+01  -5.9135733205e+00    0.3584728    0.1573424 -35.90  0.001141546    1.991    0.498
       133  -9.5815    163.7405    203.0794   8.5679493866e+01   7.4945048191e+00    0.3993465    0.2756987  57.74 0.0009995843    1.942    0.485
       134  -8.4796    211.0852    202.1777   7.5500018892e+01  -2.2606100636e-01    0.2264453    0.1770442 -62.72 0.0006931401    2.055    0.513
       135  -9.1675    243.1269    200.7003   6.9240101969e+01  -4.7425894599e+00     0.328776     0.162237 -36.72  0.000943967    1.824    0.452
       136  -9.0429    140.1319    200.5638   9.0665012244e+01   1.2109347239e+01     0.388586    0.2575788 -77.33  0.001240399    2.438    0.590
       137  -8.6133     80.1418    201.6453   1.0526832200e+02   2.1578448657e+01    0.3002559    0.1884063  71.59  0.001228277    1.898    0.473
       138  -8.4522     48.3801    202.2438   1.1285720241e+02   2.5639037045e+01    0.1881611    0.1106555 -88.67 0.0008822391    1.738    0.425
       139  -8.3867      9.9729    202.4966   1.2141654164e+02   2.9586998356e+01    0.1646773    0.1105764  36.69 0.0004843796    1.571    0.364
       140  -7.9808    221.9758    201.2171   7.3208279177e+01  -1.7475118332e+00    0.1761714     0.140792 -47.26 0.0005925469    1.591    0.371
       141  -9.1908    237.0972    198.8591   6.9962082059e+01  -3.6027199581e+00    0.2981251    0.1671345 -39.64 0.0009329718    1.733    0.423
       142  -9.5432    149.5937    198.5005   8.8086311092e+01   1.0886031763e+01    0.4801423     0.337805 -79.88  0.001585126    2.336    0.572
       143  -8.8521    124.0316    199.3694   9.4298161918e+01   1.5136775628e+01    0.3339166    0.2318929  89.78  0.001498895    2.155    0.536
       144  -9.4290    112.7689    198.3518   9.6862435222e+01   1.7253591714e+01    0.4642828    0.2999481  71.48  0.001764976    2.212    0.548
       145  -9.1748     88.7655    198.6013   1.0276752402e+02   2.1007342214e+01    0.4160947    0.2480647  78.97   0.00150515    2.421    0.587
       146  -8.5644    176.9077    199.0824   8.2022622169e+01   5.9919959364e+00     0.204629    0.1935081  51.37  0.000496882    1.279    0.218
       147  -8.2839    202.3440    197.9326   7.6435799353e+01   1.9125188215e+00    0.2201459    0.1954781  60.71 0.0009453245    1.591    0.372
       148  -8.5424    132.9865    196.7229   9.1698189220e+01   1.4172742316e+01    0.3058171    0.1818178 -52.73  0.001379792    1.796    0.443
       149  -9.1608     61.2887    197.0877   1.0925434644e+02   2.5232807567e+01    0.4435757    0.2363649  69.60  0.001723835    2.343    0.573
       150  -8.9637     12.6037    197.3375   1.2050713753e+02   3.0519059735e+01    0.3230004    0.1207633  84.23   0.00130289    3.099    0.677
       151  -8.0394     29.3232    197.6842   1.1680991331e+02   2.8823179747e+01    0.1364758   0.07841668  65.14 0.0005671508    1.664    0.399
       152  -8.8902    185.2084    194.9913   7.9444283159e+01   5.3357702611e+00    0.2522687    0.2263472 -59.04  0.000724019    1.415    0.294
       153  -8.0752     53.4791    196.4930   1.1106058327e+02   2.6363068537e+01    0.1366915    0.1137794  73.17 -7.482444e-06    1.073    0.068
       154  -7.9113     35.9916    196.4993   1.1517641810e+02   2.8392066512e+01    0.1858065   0.07854699  53.44 0.0008073425    2.348    0.574
       155  -8.8006    224.4712    193.9831   7.1341533403e+01  -9.3095338487e-01    0.3226953    0.1908057 -48.75  0.001380067    2.099    0.524
       156  -9.2032    160.9809    194.3603   8.4696628810e+01   9.7196887427e+00    0.3358656    0.2578782  71.96 0.0009365936    1.932    0.482
       157  -9.0069     43.8678    193.5968   1.1304745619e+02   2.8194733736e+01    0.4437761    0.2149745  68.00  0.001899383    2.495    0.599
       158  -8.1679    230.6303    194.2461   7.0248785850e+01  -1.9113692912e+00    0.1824161    0.1075674 -27.69 0.0005090144    1.541    0.351
       159  -8.6232     77.0617    193.9340   1.0500988240e+02   2.3823351227e+01    0.2528637    0.2011161  72.63 0.0006604012    1.250    0.200
       160  -8.7049    216.0704    195.8054   7.3299538209e+01   7.2400902535e-02    0.2894032    0.2015744 -58.28 0.0009458266    2.264    0.558
       161  -8.2219    198.7992    191.6076   7.5927323758e+01   3.6400161935e+00    0.2178674    0.1587091 -40.88 0.0004697788    1.407    0.289
       162  -8.2728    178.8325    191.7840   8.0203563401e+01   7.0629018174e+00    0.1837585    0.1750354  67.24  0.000479846    1.320    0.242
       163  -8.2293    172.4607    192.1032   8.1673176598e+01   8.1289591159e+00    0.2231187    0.2011077  59.06  0.001233625    1.353    0.261
       164  -9.1724    139.5106    190.6390   8.9048770791e+01   1.4343851146e+01    0.3740139    0.2816587 -87.72   0.00102382    1.926    0.481
       165  -7.4964    205.2832    191.6833   7.4622976847e+01   2.5396407186e+00    0.1235367     0.113426 -76.20 0.0002691053    1.582    0.368
       166 -10.4418     92.2846    188.8429   1.0047361133e+02   2.2754943757e+01     1.024587    0.2871731  46.15  0.003083184    3.890    0.743
       167  -9.5787    246.0121    194.0770   6.7474846479e+01  -4.1205423599e+00    0.3970053    0.2825698 -63.14  0.001965635    2.946    0.661
       168  -8.4949    148.3153    189.4268   8.6720226278e+01   1.3022534085e+01    0.2351622    0.1821854 -74.93 0.0007464117    1.735    0.424
       169  -9.2216    155.9522    187.5155   8.4557839102e+01   1.2041805103e+01    0.3537361    0.2395112 -60.68 0.0009029409    1.847    0.458
       170  -8.8176    129.3287    188.6254   9.1161497407e+01   1.6599366961e+01    0.3067353    0.2315026  74.35  0.001083101    1.750    0.429
       171  -9.7806    120.8180    186.6672   9.2923209586e+01   1.8537323496e+01    0.5594561    0.3256178 -75.19  0.002135693    2.731    0.634
       172  -8.7899     34.2656    188.0963   1.1479401266e+02   3.0565568927e+01    0.3445669    0.1685376  73.81  0.001054939    2.412    0.585
       173  -9.2137    248.9669    186.0239   6.5412818220e+01  -3.2757148058e+00    0.3523201    0.1985666 -24.15 0.0009755246    1.632    0.387
       174  -8.2321    237.1725    188.2226   6.7890027478e+01  -1.9077818044e+00    0.1989825    0.1501627 -14.42 0.0006069798    1.146    0.127
       175  -8.2753    230.5482    187.2710   6.8897380428e+01  -7.4691890800e-01    0.2416976    0.1169072 -40.96 0.0008224868    1.965    0.491
       176  -8.9505    216.5194    187.7628   7.1630278288e+01   1.3873964947e+00    0.2457351    0.2155005 -40.17 0.0008401071    1.319    0.242
       177  -8.9878    191.2887    187.2604   7.6629945227e+01   5.7409965761e+00    0.3297102    0.2490273 -60.64  0.001044763    1.817    0.450
       178  -9.1896     54.7846    186.8814   1.0965395592e+02   2.8499374430e+01    0.4470672    0.2293479  75.68  0.001541778    2.667    0.625
       179  -9.0754    182.7008    185.4509   7.8107716205e+01   7.6101062672e+00    0.3893305      0.26463 -23.55   0.00133946    1.581    0.368
       180  -8.6680    164.9453    186.9515   8.2367992002e+01   1.0520709174e+01    0.2711328    0.2254059  78.86 0.0009658649    1.691    0.409
       181  -9.1566    109.5110    186.2456   9.5694679975e+01   2.0572556054e+01     0.391597    0.2724167  74.70  0.001052903    1.911    0.477
       182  -8.8607    210.1488    184.3628   7.2192241227e+01   3.0398409002e+00    0.2533591    0.1844054 -39.43 0.0004330972    1.363    0.266
       183  -8.6947    202.7353    184.8378   7.3772324831e+01   4.2102823097e+00    0.2380277    0.1896707 -52.61  0.000655302    1.538    0.350
       184  -9.0888     66.5393    184.5948   1.0640980223e+02   2.7532341000e+01    0.3637529    0.2192845  62.14  0.001052354    1.835    0.455
       185  -8.2938    242.9971    183.8071   6.5999677175e+01  -2.0554039889e+00    0.1810479    0.1579237  79.48  0.001069604    2.016    0.504
       186  -8.5977    224.1089    183.6753   6.9371110230e+01   8.7263366902e-01    0.2269968    0.1656257 -39.14 0.0005671593    1.360    0.265
       187  -8.8478    174.2739    183.6694   7.9607319816e+01   9.4878867328e+00    0.2784031     0.238843  87.78 0.0009725151    1.650    0.394
       188  -8.2494    196.9979    183.2762   7.4632785128e+01   5.4937649454e+00    0.1941851    0.1553455 -57.94 0.0005927205    1.616    0.381
       189  -9.2829     43.8000    181.7155   1.1180210918e+02   3.1063027899e+01    0.4964252    0.2488725  72.28  0.001673395    2.549    0.608
       190  -7.9127      1.7994    183.6487   1.2197210393e+02   3.4581115899e+01    0.1632983   0.09225372  44.74 0.0009042577    1.723    0.420
       191  -9.2427    147.6057    180.8404   8.5242518670e+01   1.5009523950e+01    0.3613109    0.2815239  84.11   0.00127079    1.850    0.459
       192  -8.7520     21.0801    191.0667   1.1814286417e+02   3.1186052628e+01    0.3360003    0.1373601  62.95  0.001427674    2.734    0.634
       193  -9.6884     25.6733    179.2061   1.1602545250e+02   3.3574094247e+01    0.6373654     0.257573  77.59  0.002280175    3.703    0.730
       194  -7.6674    235.2691    181.6546   6.6929374171e+01  -5.3680449797e-01    0.1221886    0.1013056 -53.55 0.0002976449    1.614    0.380
       195  -8.0735    240.4729    180.0665   6.5696500229e+01  -1.0677037636e+00    0.2023658    0.1124948 -35.02 0.0009447889    1.560    0.359
       196  -8.5999    137.5177    179.3454   8.7414112720e+01   1.7206410509e+01    0.3137473    0.2321321  78.11 0.0009692053    1.964    0.491
       197  -8.8919    205.0673    177.9280   7.1891208860e+01   5.0831689033e+00    0.2880138    0.1856971 -38.50 0.0008315875    1.472    0.321
       198  -9.2870    191.4188    178.4106   7.4804260229e+01   7.4128050733e+00    0.2997432      0.25038  55.17 0.0005424505    1.494    0.331
       199  -8.2300    169.1588    178.5060   7.9715406590e+01   1.1487365480e+01     0.236021    0.2066825 -69.52 0.0008372289    1.424    0.298
       200  -9.1375     36.0960    177.0189   1.1322323710e+02   3.3057366317e+01    0.5793249    0.2398843  78.83  0.001880343    4.320    0.769
       201  -8.5991    250.5056    172.8584   6.2561668611e+01  -1.3921905289e+00    0.2158875    0.1586223 -30.29 0.0008011798    1.142    0.124
       202  -8.9969    249.0046    177.3446   6.3701806184e+01  -1.8960276951e+00    0.2429707    0.2325843 -82.12  0.001009842    1.584    0.369
       203  -8.3577    247.2982    173.6872   6.3258870515e+01  -1.0492248130e+00    0.2362106    0.1107677 -39.40 0.0003953108    1.867    0.464
       204  -8.4273    217.5873    177.5387   6.9358642915e+01   3.0144172739e+00    0.2380687     0.197332 -75.32 0.0007633604    1.942    0.485
       205  -8.5554    231.0577    176.8877   6.6725163756e+01   9.2721290216e-01    0.2384864    0.1702438 -35.09 0.0006655147    1.271    0.213
       206  -8.9766    183.1250    176.4277   7.6173340230e+01   9.3158081338e+00    0.2588632     0.232337 -77.85 0.0006819047    1.470    0.320
       207  -7.7296     97.5083    177.4712   9.7306659023e+01   2.4654429052e+01    0.1450072    0.1421045 -24.68 3.389436e-05    1.103    0.093
       208  -8.6645     88.9620    176.8475   9.9450657772e+01   2.6168967623e+01    0.3030776    0.2189391  80.86 0.0009464141    1.650    0.394
       209  -9.1117     59.0241    176.0241   1.0721197883e+02   3.0630421467e+01    0.5915627    0.2761487  64.09  0.001991949    3.209    0.688
       210  -9.4587     55.9666    171.4372   1.0740487138e+02   3.2161179579e+01    0.4970947    0.2549883  82.46  0.001874769    2.938    0.660
       211  -9.0980     12.7370    176.0814   1.1887860679e+02   3.5490632374e+01    0.3668393    0.1450741  88.73  0.001505676    2.755    0.637
       212  -8.5021    129.0758    177.3568   8.9140272834e+01   1.9206066605e+01    0.2727956    0.2117833  89.64 0.0007705399    1.708    0.414
       213  -9.2500    158.9305    175.2242   8.1413722428e+01   1.4104134559e+01    0.4075605    0.2923492  75.27  0.001367733    2.304    0.566
       214  -9.6164    104.1695    174.8234   9.5099320315e+01   2.4192024120e+01    0.5531254    0.3243953  61.22  0.002200445    2.283    0.562
       215 -10.7619     75.7681    170.0317   1.0188571318e+02   2.9845846177e+01     1.334957    0.5172306 -75.05  0.003760072    4.712    0.788
       216  -8.5528     79.0758    158.4906   9.9058209299e+01   3.2272582149e+01    0.3852224    0.1584645  26.07   0.00131612    3.090    0.676
       217  -8.0981    224.0970    174.3463   6.7478567938e+01   2.4967502191e+00    0.1855419      0.16743  -0.97 0.0005879592    1.109    0.099
       218  -9.4338    175.7596    172.2423   7.6923680615e+01   1.1540556993e+01    0.3688854    0.2452881 -44.45 0.0008500745    1.510    0.338
       219  -8.1914    142.9897    172.7240   8.4751172811e+01   1.7676474483e+01    0.2686498    0.2013631 -67.66 0.0007578369    1.642    0.391
       220  -8.6536    194.3397    172.3610   7.2927599592e+01   8.0553371214e+00     0.227879    0.1635871  -2.54 0.0008389709    1.641    0.390
       221  -8.3653    134.8112    171.7272   8.6591790968e+01   1.9442901237e+01    0.2741977    0.2022309 -86.13 0.0008116774    1.965    0.491
       222  -9.5322    121.3515    170.5377   8.9804489312e+01   2.2206083421e+01    0.3990124    0.2932984 -82.04  0.001024729    1.794    0.443
       223  -9.1883     45.0145    170.6948   1.1020395720e+02   3.3649798144e+01    0.4789493    0.2257112 -83.22  0.001617427    2.450    0.592
       224  -8.4963    205.8678    170.5149   7.0184382921e+01   6.3256070014e+00    0.2771093     0.180299 -53.72 0.0007481592    1.904    0.475
       225  -8.5627    198.5894    170.3240   7.1616598192e+01   7.6734955780e+00    0.2541015     0.218526 -82.65 0.0009096229    1.687    0.407
       226  -8.3152    237.0562    169.4874   6.4154766836e+01   1.2339823839e+00    0.2435446    0.1691736 -46.30 0.0008423182    1.544    0.352
       227  -8.9730    230.1760    169.2354   6.5317144028e+01   2.3895741717e+00    0.4208082    0.1580051 -48.37   0.00147755    3.418    0.707
       228  -8.6059    149.7200    169.5315   8.2443782518e+01   1.7107886503e+01    0.2918027    0.2287758 -80.38 0.0007710573    1.750    0.429
       229  -7.9811    244.2260    169.2101   6.2872746187e+01   1.5638722529e-01    0.1682354    0.1428791 -41.92   0.00052602    1.313    0.238
       230  -8.3866    218.8750    168.3696   6.7212408780e+01   4.4420809289e+00    0.2321229    0.1748378 -42.31 0.0005620611    1.330    0.248
       231  -9.1302    167.0019    168.5446   7.8131573192e+01   1.3988093828e+01    0.3308433    0.2543196  71.68 0.0009052085    1.874    0.466
       232  -8.4919    111.7666    167.6176   9.1760886890e+01   2.4624914958e+01    0.3758912    0.2314321  71.85  0.001383259    2.734    0.634
       233  -8.5375     88.8985    168.9900   9.8159424187e+01   2.8120113406e+01    0.2421259    0.1710665  72.40 0.0008172785    1.719    0.418
       234  -7.9382    211.3511    168.1786   6.8611390502e+01   5.7882752615e+00    0.2025958    0.1226725 -47.09 0.0004849064    1.740    0.425
       235  -9.0648    191.9846    166.8702   7.2252687487e+01   9.5661393480e+00    0.3242947    0.2046782 -47.51 0.0006632814    1.652    0.395
       236  -8.8460    185.0472    166.5050   7.3654919371e+01   1.0948030667e+01     0.274277    0.2020858 -54.86 0.0006995499    1.578    0.366
       237  -9.0662     20.5797    166.2101   1.1605255625e+02   3.7220671378e+01    0.3596042    0.1541353  57.26   0.00126364    2.656    0.624
       238  -8.4442     13.2964    167.6591   1.1802626726e+02   3.7481700045e+01    0.1348492   0.08019808  69.47 0.0007032267    1.661    0.398
       239  -9.8084    136.5462    164.3700   8.4646542385e+01   2.0812634743e+01    0.6509519    0.3253945  55.80  0.001958433    2.926    0.658
       240  -9.9561     94.8066    162.6314   9.5415143658e+01   2.8753249591e+01    0.8260202    0.4673367  79.06  0.002620132    3.865    0.741
       241  -8.3864    233.8457    165.0957   6.3810108468e+01   2.5065043674e+00    0.2016287    0.1685455 -42.35  0.000612217    1.274    0.215
       242  -8.7419    159.5366    164.4578   7.9004273929e+01   1.6320693257e+01    0.3075781    0.2451198 -74.11 0.0008518301    1.659    0.397
       243  -9.5038     33.4948    163.3601   1.1237554190e+02   3.6717284194e+01    0.5676804    0.2363091  54.71  0.002254286    2.878    0.653
       244  -8.0230    239.9993    164.5105   6.2627864344e+01   1.6109014992e+00    0.1767578    0.1317085  36.87 0.0004510423    1.520    0.342
       245  -8.5641    212.9643    163.7581   6.7360016770e+01   6.3214397435e+00    0.2503576    0.1854113 -35.21 0.0005729602    1.234    0.190
       246  -8.3555     56.2790    163.7304   1.0625190947e+02   3.4065799305e+01    0.2748892    0.1765886  -7.65  0.001180657    2.611    0.617
       247  -9.2871    246.0547    163.0221   6.1309900473e+01   9.0454414762e-01    0.4703068    0.1577403 -41.56   0.00183918    2.641    0.621
       248  -9.7721    250.1610    157.8612   5.9590166446e+01   1.1237251011e+00    0.3716757    0.1724885 -39.31 0.0007686332    1.824    0.452
       249  -9.2028    246.5683    155.5355   5.9689211141e+01   2.0802097731e+00    0.3532902    0.1677545 -26.35  0.001387825    2.315    0.568
       250  -8.4725    204.9093    162.8974   6.8749828539e+01   7.9401089685e+00    0.2537767    0.1833675 -44.12 0.0006406516    1.380    0.275
       251  -9.6505      3.3892    162.4406   1.2005141156e+02   3.9502728451e+01    0.3849623    0.1769285  55.51  0.001628198    2.264    0.558
       252  -8.9928    151.5584    161.0324   8.0185073095e+01   1.8647928080e+01    0.3521791    0.2649243 -79.24 0.0008881448    1.916    0.478
       253  -9.0018    177.4715    160.7102   7.4054805091e+01   1.3598843709e+01    0.2804857    0.2494824 -70.72 0.0008804615    1.373    0.272
       254  -8.5324     60.6165    160.3952   1.0455870267e+02   3.4363351994e+01    0.3704437    0.1805122  59.89  0.001374973    2.872    0.652
       255  -8.5385    227.2432    158.9049   6.3679240080e+01   4.7029626702e+00    0.2824403    0.1682315 -47.57  0.001128745    1.758    0.431
       256  -8.3307    237.1744    159.1236   6.1992592610e+01   2.9927566855e+00    0.1848246    0.1469924 -46.71 0.0006898993    1.351    0.260
       257  -8.3998    128.0279    158.9800   8.5713624587e+01   2.3706773026e+01    0.2426012    0.1916248  80.21 0.0004923974    1.645    0.392
       258  -9.5762    105.7021    157.9017   9.1504040476e+01   2.8073540110e+01    0.4862473    0.3563731  84.74  0.001179867    1.818    0.450
       259  -8.4477    196.6684    158.0580   6.9359536168e+01   1.0418338847e+01    0.2312122    0.2086935  59.88 0.0006961089    1.344    0.256
       260  -8.0392    188.2194    158.1002   7.1135677048e+01   1.2035837141e+01    0.2012817    0.1774069 -66.18 0.0005357034    1.380    0.275
       261  -9.1784    167.5583    157.3673   7.5564682089e+01   1.6269109493e+01    0.3433511    0.2835341 -84.09  0.001009991    1.649    0.394
       262  -8.4285    217.8808    156.5664   6.4884840237e+01   6.7715570588e+00    0.2784632    0.1693936 -51.83 0.0008093151    1.912    0.477
       263  -8.7717    157.5564    155.9485   7.7607937094e+01   1.8584637037e+01    0.3387352    0.2152194 -52.08 0.0008903841    1.670    0.401
       264  -9.3251    119.6198    155.4327   8.7199687106e+01   2.6147588214e+01    0.4465624    0.3141889  89.81  0.001643618    2.152    0.535
       265  -9.4453     81.8572    154.9937   9.7644683356e+01   3.2739859793e+01     0.470187    0.2976908  73.60  0.001390735    2.258    0.557
       266  -9.1198     49.6821    155.2165   1.0686287306e+02   3.7031087812e+01    0.3901379    0.2241815  67.92  0.001339148    2.219    0.549
       267  -9.2704    242.9358    154.9834   6.0166210979e+01   2.7597690134e+00    0.2553003    0.2050032 -74.49 0.0004548046    1.943    0.485
       268  -7.7980    204.9662    155.4738   6.7120059636e+01   9.3500120141e+00    0.1980057      0.14441  43.25 0.0004780955    1.490    0.329
       269  -8.3176    144.5061    154.9427   8.0595354575e+01   2.1427825827e+01    0.2842498    0.2162363  58.55 0.0006476716    1.531    0.347
       270  -9.6044    132.8474    153.1042   8.3180181166e+01   2.4164072860e+01    0.4979466    0.3567164  81.94   0.00126893    2.171    0.539
       271  -9.3829    133.4714    148.5089   8.1989255402e+01   2.5123351065e+01    0.4587802    0.2518138 -42.44  0.001800636    1.850    0.459
       272  -9.3708     68.1145    153.8418   1.0138102684e+02   3.5036843420e+01     0.477304    0.2807183  70.36  0.001238445    2.438    0.590
       273  -8.5853    151.5760    152.4160   7.8267767382e+01   2.0580152151e+01    0.2975861    0.1519403 -51.07  0.001117219    2.060    0.515
       274  -8.7632     19.9968    152.7018   1.1480826049e+02   4.0629566853e+01    0.1767831    0.1558784  76.02 0.0005719983    1.130    0.115
       275  -8.3735      9.0521    153.1980   1.1779451317e+02   4.1357537169e+01    0.1507055    0.1026298  21.65 0.0008680109    1.796    0.443
       276  -9.8092     29.3236    150.5536   1.1197885047e+02   4.0350480137e+01     0.580828    0.2782239  74.24  0.002189604    3.018    0.669
       277  -8.7107      2.5743    150.9704   1.1929542377e+02   4.2351645089e+01    0.3760571    0.1370727 -80.28  0.001603376    2.388    0.581
       278  -9.5665    248.8816    149.3323   5.8038004671e+01   2.7535618748e+00    0.3480175    0.1751197 -39.16 0.0008322692    1.672    0.402
       279  -8.9746    189.3528    150.3186   6.9149810444e+01   1.3385872910e+01    0.3267392    0.2395559 -56.60 0.0008176733    1.586    0.369
       280  -7.7591    182.5050    151.4819   7.0879692820e+01   1.4514343345e+01    0.1507788    0.1445241 -31.17 0.0002849536    1.075    0.070
       281  -8.2802    162.6406    150.6799   7.5202327084e+01   1.8713106118e+01    0.2938795    0.1819488 -63.23 0.0009962767    2.284    0.562
       282  -8.7877     98.3545    150.7422   9.2118766794e+01   3.1133058588e+01    0.3229654    0.2412679  76.43 0.0009783672    1.703    0.413
       283  -9.5105    243.1375    149.9736   5.9087808773e+01   3.5826793190e+00    0.3389873    0.2366939  47.05  0.001874418    1.733    0.423
       284  -8.1696    237.2834    150.3201   6.0123629959e+01   4.5026653071e+00    0.2463358    0.1433985   7.32 0.0004064058    3.352    0.702
       285  -8.3122    212.9732    149.9648   6.4361087118e+01   8.8979226937e+00    0.2090696    0.1716546 -66.21 0.0003832342    1.574    0.365
       286  -9.9329     39.8246    147.4663   1.0857285241e+02   4.0103494538e+01    0.6646025    0.3879684  87.43  0.002513895    2.011    0.503
       287  -8.5048    198.7974    149.0068   6.6907644000e+01   1.1787785597e+01    0.2226906    0.1934483 -60.07 0.0006613182    1.334    0.250
       288 -10.0502     89.1910    146.3609   9.3870802191e+01   3.3772271193e+01    0.7151535    0.4262289  86.51  0.002459736    3.206    0.688
       289 -10.8901     55.2068    143.0511   1.0334985015e+02   3.9495176151e+01     1.196647    0.6667234 -70.21  0.003122103    1.760    0.432
       290  -8.9624    233.5048    147.6291   6.0185607787e+01   5.6229894765e+00     0.289706    0.1203066 -38.42  0.001027787    2.094    0.522
       291  -9.1702     78.1960    147.1450   9.7246429535e+01   3.5298121708e+01    0.3651428    0.2444923  86.33 0.0009039591    2.019    0.505
       292  -8.1440    223.3358    146.9773   6.1808040082e+01   7.5450589227e+00    0.2053844    0.1604547 -33.95 0.0004836588    1.130    0.115
       293  -9.7885    139.0021    144.9747   7.9735886990e+01   2.4837827522e+01    0.4948241    0.3115294 -64.17  0.001127782    2.068    0.516
       294  -9.2286    139.5764    137.4247   7.7800776224e+01   2.6469136532e+01    0.4687785    0.2986049  -6.70  0.001604771    2.979    0.664
       295 -10.1682    106.6044    144.0413   8.8355099599e+01   3.1346110048e+01    0.8183411    0.5251513 -83.46  0.002373501    2.553    0.608
       296  -9.3319     12.9700    146.1410   1.1602923881e+02   4.2822315129e+01    0.3594219    0.1924571  72.20   0.00119582    2.123    0.529
       297  -8.0718    206.7539    146.5651   6.4789359163e+01   1.0720962918e+01    0.1806131    0.1437696  57.46 0.0005298919    1.531    0.347
       298  -8.2206    175.7049    146.2211   7.1169099648e+01   1.6991315695e+01    0.2366367    0.1923769 -64.40 0.0008022627    1.470    0.320
       299  -9.8709    240.3513    145.2414   5.8542496886e+01   4.8643338211e+00    0.6829105    0.1565575 -37.04  0.002073073    4.030    0.752
       300 -10.2480    242.7179    143.3494   5.7761268278e+01   4.7897939984e+00    0.7043524    0.2002862 -35.76  0.002385815    3.291    0.696
       301  -9.7569    125.0543    142.9344   8.2965445821e+01   2.8114452357e+01    0.5346705    0.3601925 -84.04  0.001404181    2.494    0.599
       302  -9.0322    246.9676    143.7283   5.7170487146e+01   4.0139141285e+00    0.2476775    0.1644641 -40.70  0.000474324    1.307    0.235
       303  -8.2566    194.2136    144.0048   6.6698103446e+01   1.3684165070e+01    0.2401325    0.1677423 -64.49 0.0006964913    1.974    0.494
       304  -8.7590    165.6932    144.0837   7.2954100932e+01   1.9519728671e+01    0.2554958    0.2189874  61.75 0.0007500564    1.340    0.254
       305 -10.6471     69.8076    141.2936   9.8638950557e+01   3.8021971884e+01    0.5941509     0.512329 -86.45  0.002267567    1.197    0.165
       306  -9.6167     68.5157    134.9749   9.7815034673e+01   3.9824829501e+01    0.5092992    0.3033551 -12.93  0.001883658    3.049    0.672
       307 -10.1364      2.8524    141.3341   1.1833460191e+02   4.4702033414e+01    0.5831532    0.2720774  85.60   0.00256484    2.259    0.557
       308  -8.5403    182.0768    141.8722   6.8753720013e+01   1.6586619375e+01    0.2310798    0.2066816 -73.16 0.0005599129    1.323    0.244
       309  -8.2138    250.5037    140.9734   5.6050281748e+01   3.8962628945e+00    0.2052021    0.1110642 -37.88 0.0007386556    1.535    0.348
       310  -7.8383    238.2681    140.6252   5.7896575548e+01   6.0247092103e+00     0.136796   0.09803319 -57.45 0.0006247079    1.676    0.403
       311 -10.1030     23.2721    137.4462   1.1205573090e+02   4.4204255509e+01    0.7005838    0.3593979  89.25  0.003007892    2.270    0.559
       312  -8.7549    172.2463    138.3236   7.0083900310e+01   1.9381607846e+01    0.3188065    0.2219671 -75.49 0.0008191672    2.326    0.570
       313  -7.7600    218.5411    138.5160   6.0791997436e+01   9.9884428726e+00    0.1440347    0.1280458 -35.33 0.0008085236    1.050    0.048
       314  -8.4230    207.2215    137.9168   6.2739249647e+01   1.2288167346e+01    0.2192846    0.1882727 -53.07 0.0005524556    1.235    0.190
       315  -8.7375    197.5888    137.5517   6.4524745672e+01   1.4283505469e+01    0.2908884    0.2096082 -55.41  0.001002944    1.552    0.356
       316 -10.3209     83.5158    132.9870   9.2774772318e+01   3.8079881962e+01     0.578603    0.3531069 -70.62  0.001272782    1.958    0.489
       317  -9.0379     39.0351    136.1463   1.0712617033e+02   4.3084933705e+01     0.294257     0.192326  76.62  0.000951069    1.838    0.456
       318  -9.0084    248.3877    135.4247   5.5208654183e+01   5.1851936731e+00    0.2767677    0.1827366 -42.64 0.0006630309    1.320    0.243
       319  -8.4643    246.9785    130.5304   5.4386217482e+01   6.2556713849e+00    0.2318124    0.1549824 -44.32 0.0004621841    1.325    0.246
       320  -8.2862    162.6481    136.5190   7.1862684264e+01   2.1803746628e+01    0.2576614    0.1891472 -64.25 0.0007655768    1.683    0.406
       321  -8.2092    188.0000    135.9541   6.6101551413e+01   1.6570345974e+01    0.2509476   0.08297658 -41.52 0.0004134879    2.860    0.650
       322  -9.0585    151.1605    135.7744   7.4458899156e+01   2.4411003745e+01     0.390651    0.2159867  31.28  0.001461701    2.161    0.537
       323  -7.9611    237.5652    133.7950   5.6539199581e+01   7.3412431484e+00    0.1980659    0.1123703 -47.35 0.0009334938    1.694    0.410
       324  -8.5068    179.5069    134.0240   6.7445539667e+01   1.8747884203e+01    0.2710637    0.2235892  75.16 0.0007564929    1.538    0.350
       325  -8.8995    112.7217    133.2161   8.4133290571e+01   3.2861800376e+01    0.3677509    0.2732368  86.44  0.001008813    1.928    0.481
       326  -9.2620    143.0501    131.7613   7.5519192757e+01   2.7037975119e+01     0.336415    0.2539246 -66.15 0.0007420763    1.598    0.374
       327  -9.8744    130.6467    118.4587   7.5401991978e+01   3.2706676249e+01    0.5617257    0.3922479  83.69  0.002153118    2.431    0.589
       328 -10.0895    132.1443    131.0699   7.8212758819e+01   2.9486182045e+01    0.6768717      0.42137 -66.38  0.001800836    2.250    0.556
       329  -9.0188    135.2153    124.5915   7.5762688346e+01   3.0336816505e+01    0.3233085    0.2199556  38.76  0.001395674    1.505    0.335
       330 -10.5399     98.2758    129.3114   8.7453403778e+01   3.6499936197e+01     1.119472    0.3795015 -51.25   0.00338414    2.796    0.642
       331  -8.9798    250.6912    129.9633   5.3717153525e+01   5.7172167075e+00    0.4338282    0.1050415 -37.74  0.001422629    3.535    0.717
       332  -9.3719    153.0278    128.9979   7.2324501815e+01   2.5518618514e+01     0.468825    0.2461696 -54.22 0.0009996054    2.205    0.547
       333  -9.9908     73.4171    129.4943   9.5164729811e+01   4.0518963484e+01    0.4617893    0.3006874  85.46  0.001325847    2.356    0.576
       334 -10.3420     12.7737    128.5168   1.1405793694e+02   4.7244834965e+01    0.6954837    0.3107332 -85.90  0.002575702    2.463    0.594
       335  -7.9361    204.4612    130.2142   6.1481150299e+01   1.4317445643e+01    0.2067405    0.1310559 -49.80 0.0009290003    1.608    0.378
       336  -8.2573    192.7103    130.2167   6.3772991692e+01   1.6738912710e+01    0.2365198    0.1828883 -56.48 0.0007433876    1.410    0.291
       337  -9.0720    168.2681    129.4364   6.8825614118e+01   2.2119388806e+01    0.3139134     0.254803 -72.07 0.0007470764    1.519    0.342
       338  -7.9707    231.4815    134.0392   5.7577932799e+01   8.3944149126e+00    0.2153147    0.1218831 -37.86 0.0003961242    1.537    0.349
       339  -8.1396    211.4439    129.2278   5.9959793419e+01   1.3100964291e+01    0.2077128    0.1265619 -49.24 0.0006457104    1.653    0.395
       340 -10.4379     59.7834    124.9979   9.8584946309e+01   4.3552136618e+01    0.7884445    0.4810989  77.91  0.003090807    2.700    0.630
       341  -8.9372     59.7634    115.1317   9.6505723096e+01   4.6046830508e+01     0.466044    0.2698753 -11.72  0.001766004    2.943    0.660
       342 -10.7963     44.8003    123.4448   1.0315536660e+02   4.5728234567e+01     1.152614     0.607836  78.02  0.003938495    3.855    0.741
       343 -10.3276    148.9997    144.8229   7.7158150970e+01   2.2823188234e+01    0.6639701    0.4553692 -77.68  0.001528217    2.383    0.580
       344  -9.8771    117.8961    125.3313   8.0724775638e+01   3.3743097860e+01    0.5994442    0.3910187  69.93  0.001262511    2.481    0.597
       345 -10.4134     28.5206    122.4739   1.0827323223e+02   4.7555964920e+01    0.7670627    0.3838077  71.59  0.002859183    3.484    0.713
       346  -8.6779    234.3050    124.9654   5.5129657282e+01   9.4797248268e+00    0.2330956   0.08757494 -52.79 0.0007040629    4.221    0.763
       347  -8.0055    228.5157    125.5205   5.6180387064e+01   1.0463878607e+01    0.1415074    0.1231824 -41.51 0.0002700622    1.056    0.053
       348  -8.9045    179.2562    124.7183   6.5229647477e+01   2.0717630380e+01    0.2940484    0.2399256 -78.26 0.0006057275    1.552    0.356
       349  -7.9776    243.6527    124.2274   5.3537032269e+01   7.9119796376e+00    0.1933258    0.1104745 -31.69 0.0005134581    1.622    0.383
       350  -8.8297     85.2188    122.6727   8.9914678056e+01   4.0392702715e+01    0.5299084    0.3097149   2.09  0.001761293    3.485    0.713
       351  -8.8944    158.6457    121.7767   6.9138489149e+01   2.5862406268e+01    0.3715145    0.2808886 -79.08 0.0009236913    1.848    0.459
       352  -7.8719    202.7883    121.9830   5.9855549609e+01   1.6237878547e+01     0.200196    0.1120973 -39.30 0.0004170438    1.648    0.393
       353  -8.0224    195.1981    122.2193   6.1360116274e+01   1.7788860723e+01    0.2414503    0.1034505 -48.32  0.000421563    2.445    0.591
       354  -8.5566    171.9677    121.7815   6.6083413602e+01   2.2917596731e+01    0.2643757    0.2182061 -42.79 0.0005107279    1.171    0.146
       355  -9.7248     70.9907    119.7200   9.3804568801e+01   4.3344063537e+01    0.4732765     0.315202 -88.68   0.00134192    2.239    0.553
       356 -10.0703    141.5261    117.8671   7.2363849955e+01   3.0488926834e+01    0.7110213    0.3268874 -50.40  0.001292764    2.329    0.571
       357 -10.0039      2.9104    117.1068   1.1569015038e+02   5.0675531752e+01    0.5168092    0.2541946  77.81  0.002304568    2.637    0.621
       358  -7.9998    185.7024    116.1575   6.1760229288e+01   2.1030291061e+01    0.2399917    0.1788097 -55.04 0.0005386593    1.417    0.294
       359  -9.9588    109.2936    114.3539   8.0404438703e+01   3.8043595307e+01     0.497965    0.3457318 -71.21  0.001213576    1.960    0.490
       360 -10.8363    248.4985    108.0973   4.9389281692e+01   9.7569503063e+00    0.4797616    0.2386485 -42.00  0.002301719    1.670    0.401
       361 -10.1300     78.5656    112.0997   8.9506448745e+01   4.4077424269e+01    0.6544626    0.4482316  80.64  0.001974396    2.423    0.587
       362  -8.8033     78.9109    104.9074   8.7555089720e+01   4.5759350278e+01    0.3404931    0.2394174  -8.40  0.001129554    1.869    0.465
       363  -8.9124     93.3197    105.0541   8.2851497447e+01   4.3249776300e+01    0.5278416    0.3372914  -1.07   0.00197788    2.637    0.621
       364  -7.5492    167.4696    114.5162   6.5230781917e+01   2.5421118766e+01    0.1567577    0.1495527 -61.53 0.0008084815    1.078    0.072
       365  -8.6442     26.8477    113.6819   1.0737629220e+02   4.9908824426e+01    0.2023897    0.1554715 -28.58 0.0005859685    1.400    0.286
       366 -10.3488    133.7052    109.3407   7.2131546751e+01   3.4082989378e+01    0.7320387    0.3447483 -49.02  0.001958604    2.212    0.548
       367  -9.8310    121.8173    112.3093   7.6213749812e+01   3.5970222850e+01    0.3843502    0.2668301 -47.45 0.0006037508    1.429    0.300
       368 -10.3985     14.1638    110.7707   1.1117079043e+02   5.1571062197e+01    0.5425098    0.3082543 -85.74  0.002022746    1.899    0.474
       369  -8.3405    174.8183    111.9926   6.2971127662e+01   2.4280987728e+01     0.239842    0.1999436 -63.97 0.0005729949    1.319    0.242
       370  -8.5645    159.3362    111.8140   6.6384586491e+01   2.7816286313e+01    0.2894284    0.2265797 -66.59 0.0006908503    1.515    0.340
       371 -10.2469     66.2676    109.7705   9.3067169601e+01   4.6494226904e+01    0.6290201    0.3369796 -60.75  0.002027614    1.888    0.470
       372  -7.5093    149.7220    110.3431   6.8295569872e+01   3.0298649606e+01    0.1597041    0.1259619 -76.35 0.0003054896    1.627    0.385
       373  -7.6777    182.7419    109.3935   6.0657233103e+01   2.3016039207e+01    0.1589472     0.114739 -65.48 0.0005827513    1.698    0.411
       374 -10.0072    119.2272    105.8965   7.5193373087e+01   3.7958055876e+01    0.5368136    0.3123092 -41.77  0.002183411    1.704    0.413
       375 -10.5195    109.0191     98.8895   7.6215374792e+01   4.1625543917e+01     0.824984    0.5001178  68.08  0.001671803    3.115    0.679
       376  -9.1870    107.2518     92.6364   7.4920897002e+01   4.3347207252e+01    0.6903472    0.2980551  31.15    0.0021992    3.183    0.686
       377  -9.2892     42.9364    109.4971   1.0106851781e+02   4.9442092386e+01    0.3500337     0.145163  22.16  0.001377886    2.838    0.648
       378  -7.6293    231.5071    117.5150   5.3917967801e+01   1.1312550922e+01    0.1407276    0.1210856 -45.36 0.0001077171    1.065    0.061
       379  -8.0293    189.1952    108.1230   5.9056246465e+01   2.1821760331e+01    0.2134144    0.1684536 -60.49 0.0004980383    1.365    0.267
       380  -9.4762    110.4920    106.7088   7.7979405023e+01   3.9573026799e+01    0.4831648    0.2928592  14.62  0.001714332    2.749    0.636
       381  -9.6091    150.7520    103.3727   6.6150609643e+01   3.1522561212e+01    0.5027678     0.333206 -70.35  0.001502331    2.292    0.564
       382  -9.3169    139.9264    104.6370   6.9202099290e+01   3.3716589963e+01    0.3763394    0.2897767 -74.84 0.0008069902    1.709    0.415
       383 -10.6045     45.5707    102.2214   9.8567586927e+01   5.0952211454e+01    0.8124648    0.4779797  72.26   0.00308389    3.368    0.703
       384  -9.2382     45.9221     92.6837   9.6185778385e+01   5.3208406448e+01    0.5050992    0.2674999  -5.00  0.001928978    3.163    0.684
       385 -10.7964     22.9535    102.8229   1.0680766177e+02   5.2908004021e+01    0.7350871    0.4138402  71.60  0.002363938    2.889    0.654
       386  -8.4702    166.4870    104.1051   6.2715485594e+01   2.7756307650e+01    0.2382708    0.2084357 -71.20  0.000495228    1.258    0.205
       387  -9.7540    128.3838    101.9154   7.1504960035e+01   3.6863225973e+01    0.3760313    0.2813221 -60.74 0.0007508454    1.553    0.356
       388  -9.1391      6.7195    102.8342   1.1250355948e+02   5.3960957519e+01    0.2876503    0.1783729  62.77  0.001066978    2.082    0.520
       389  -8.0318    175.5992    101.8622   6.0175271405e+01   2.6102148967e+01    0.2269742    0.1360329 -50.67 0.0006515451    1.743    0.426
       390  -8.2973    159.7003    101.0807   6.3422685344e+01   2.9926509382e+01    0.2488953    0.1823032 -56.11 0.0005480416    1.485    0.327
       391  -9.2146     82.0088     99.8680   8.5156106626e+01   4.6437684982e+01    0.3778675    0.2690682 -71.61  0.000871804    1.857    0.462
       392 -10.2271     63.8029     95.5627   9.0342749867e+01   5.0261381569e+01    0.7069916    0.4352829 -74.59   0.00199339    2.489    0.598
       393  -8.6565     65.0329     87.5935   8.7694411640e+01   5.1923454105e+01    0.4827524    0.2684766   2.99  0.001750671    3.193    0.687
       394  -8.3062    192.8992    115.1951   6.0095112363e+01   1.9646668573e+01    0.2252651    0.1952637 -60.22 0.0005069112    1.206    0.171
       395  -9.2876     94.9503     96.9115   8.0043491539e+01   4.4815883899e+01    0.3896092    0.2593808 -57.64 0.0007532545    1.691    0.409
       396  -9.4929     93.5976     91.9882   7.9044182981e+01   4.6163828340e+01    0.3601896    0.2403047  34.69 0.0008403815    1.537    0.349
       397  -8.9661    188.7243     95.2768   5.5886472969e+01   2.4337689302e+01    0.4670847    0.1873849 -36.70  0.001476615    2.461    0.594
       398  -8.5157    150.7511     95.8275   6.4055700746e+01   3.3052116483e+01    0.4161374    0.2476644  -2.11  0.001152296    4.840    0.793
       399 -10.0943     92.7383    112.6181   8.5046944302e+01   4.1562995375e+01    0.5177806    0.3509876 -69.68   0.00119153    1.894    0.472
       400  -8.2593    164.8107     94.0876   6.0378612393e+01   3.0105836875e+01    0.2367027    0.2017043 -62.09 0.0005038618    1.243    0.196
       401  -8.1993    176.4802     93.1448   5.7693857429e+01   2.7554941060e+01    0.2289109    0.1449587 -41.16 0.0006023172    1.527    0.345
       402 -10.1160    123.9038     91.3664   6.9682542295e+01   4.0071060064e+01    0.6136749    0.4445864  38.33  0.001331274    1.397    0.284
       403  -9.7871      5.5300     92.4764   1.1129605631e+02   5.6514523452e+01    0.3124754    0.2134863  55.44  0.001613462    1.887    0.470
       404  -8.1470    157.9766     91.9528   6.1297785862e+01   3.2120691331e+01    0.2400946    0.1867581 -74.81 0.0004873456    1.601    0.375
       405  -9.7509     34.8963     90.0149   9.9727453837e+01   5.4982711079e+01    0.4497806    0.2716775 -89.21  0.001903277    2.817    0.645
       406  -9.1260     22.8947     90.1243   1.0434678293e+02   5.5979685231e+01    0.3081874    0.2211319 -23.23  0.001060788    1.446    0.308
       407  -8.0456    150.8723     89.1296   6.2130267903e+01   3.4334877466e+01    0.2350281    0.2075057 -71.37 0.0003594578    1.246    0.197
       408 -10.0453     86.4765     86.6026   7.9798513502e+01   4.8646247159e+01    0.5157974    0.3861694 -87.67  0.001130657    2.221    0.550
       409  -9.1885     87.0621     81.0000   7.7863968888e+01   4.9731580294e+01    0.5718141    0.2700748  19.56  0.001588431    4.901    0.796
       410  -7.5339    188.3069     87.2892   5.3907087221e+01   2.5873489652e+01    0.1431138    0.1171546  14.78 0.0002359943    1.574    0.365
       411  -9.2394    139.0654     92.4246   6.5959435453e+01   3.6435674489e+01    0.3907861    0.2823073 -79.54 0.0008811557    2.077    0.519
       412  -9.9067     48.6693     84.3623   9.2975723107e+01   5.4826469595e+01    0.5475839    0.3664878  81.02  0.001856922    2.939    0.660
       413  -9.8817    104.7245     83.1087   7.2790258841e+01   4.5859217353e+01    0.5082761    0.3361606 -63.20   0.00115593    2.142    0.533
       414  -8.2612    158.0175     84.2182   5.9112139354e+01   3.3568381314e+01    0.2091324     0.200533  72.55 0.0004050371    1.049    0.046
       415  -9.2588    140.8666     82.6242   6.2632342433e+01   3.7925305771e+01    0.4145594    0.2065048 -48.18  0.001019221    2.198    0.545
       416  -9.6471      9.9856     81.4084   1.0758638368e+02   5.8878134639e+01    0.4002564    0.2590425  72.92  0.001560843    2.282    0.562
       417  -8.5795     63.9392     82.8780   8.6727556105e+01   5.3137929502e+01    0.2099618    0.1781879  83.68 0.0006340187    1.649    0.394
       418  -8.3114     35.3913     82.7789   9.7773317329e+01   5.6623721750e+01    0.2064573    0.1022382 -47.87 0.0009511499    1.682    0.405
       419  -9.6967     24.6477     80.5570   1.0153132852e+02   5.8081972297e+01    0.4256862    0.2730751  89.12  0.001372205    2.435    0.589
       420  -8.4233    150.1871     80.6388   5.9837427058e+01   3.6090523972e+01    0.2691177    0.2032766 -51.94 0.0007873516    1.399    0.285
       421  -8.8940    119.3427     80.1570   6.7546162031e+01   4.3320708163e+01    0.3873469    0.2298767 -45.83  0.001590884    1.760    0.432
       422  -8.8841     74.7381     80.5490   8.2046625447e+01   5.1969789825e+01    0.3306477    0.1998841 -57.53  0.001019808    1.971    0.493
       423  -8.1687    249.6618     80.7014   4.3412698414e+01   1.3936426945e+01    0.1182751     0.100256   3.97 0.0004143355    1.660    0.397
       424  -8.2004    166.9204     79.5162   5.5911487944e+01   3.2290469260e+01    0.2299287    0.1912449 -41.30 0.0004919331    1.195    0.163
       425  -7.8587    184.2591     78.6164   5.2368884987e+01   2.8326244252e+01    0.1550881    0.1062763 -63.54 0.0006972902    1.677    0.404
       426  -8.6637    140.6981     75.7701   6.0618554132e+01   3.9228564464e+01     0.334327    0.2182068 -66.57  0.001061165    2.244    0.554
       427  -9.3304    128.1429     75.5142   6.3699320599e+01   4.2208980910e+01    0.4167151    0.2398395 -52.15 0.0008187068    2.077    0.519
       428  -8.0471    157.1746     76.2408   5.7013635109e+01   3.5206279014e+01    0.2135682    0.1745783 -69.88 0.0005663832    1.382    0.276
       429  -9.7674     82.2982     72.6762   7.6820962443e+01   5.2295649451e+01    0.4185221    0.3198266 -75.89  0.001113609    2.076    0.518
       430  -8.2007    163.4640     73.4389   5.4902825218e+01   3.4176114065e+01    0.2581113    0.1304081 -47.24 0.0008140446    2.082    0.520
       431  -8.9287    115.6321     72.5414   6.6177733916e+01   4.5582622961e+01    0.3311922    0.1799203 -38.04  0.001030716    1.874    0.466
       432  -9.5284    105.9500     71.8603   6.8802825857e+01   4.7805773302e+01     0.307646    0.2166711 -51.42 0.0006690716    1.624    0.384
       433  -8.6558     42.4890     72.4737   9.2075793121e+01   5.8189457898e+01    0.2741589    0.1237689 -54.30 0.0008280802    2.078    0.519
       434  -7.5184    175.4739     72.5344   5.2331222672e+01   3.1439150051e+01    0.1459053    0.1398378 -79.50 3.309343e-05    1.003    0.003
       435  -9.2213     95.0856     71.1172   7.1973458782e+01   5.0176956126e+01    0.3489003    0.2266767 -52.44 0.0009081778    1.821    0.451
       436  -9.0622     28.1745     71.0330   9.7659768263e+01   5.9933908255e+01    0.3867743    0.1445643 -33.85  0.001456207    3.083    0.676
       437  -9.4042     51.5073     69.8026   8.7568722377e+01   5.7669287508e+01    0.3964359     0.261997 -68.52  0.001551068    2.242    0.554
       438  -9.2378     16.7722     70.1897   1.0230089014e+02   6.1006645821e+01    0.3017025    0.2199519  70.29  0.001083709    2.098    0.523
       439 -10.0507     63.1640     73.7765   8.4226621795e+01   5.5215010612e+01    0.4576496    0.3030014 -60.92  0.001061297    1.904    0.475
       440  -8.7429    147.1059     68.3077   5.6878339280e+01   3.8997510210e+01    0.2792833    0.2110679 -47.84 0.0005314177    1.383    0.277
       441  -8.9104    139.0237     66.6491   5.8225591335e+01   4.1216380254e+01     0.479489    0.2558227 -58.60  0.001713597    2.931    0.659
       442  -8.7399     84.0457     65.0405   7.3620340671e+01   5.3451120383e+01    0.5069221    0.2513916  16.21  0.001383498    5.457    0.817
       443  -7.4710    163.6657     65.7102   5.2662324820e+01   3.5411368989e+01    0.1488432    0.1132291  26.87 0.0005647079    1.632    0.387
       444  -8.8880    110.3777     63.9749   6.4860361278e+01   4.8275033112e+01    0.2806077    0.2471092 -61.05 0.0008396101    1.346    0.257
       445  -9.2698     37.3594     63.4066   9.1485869230e+01   6.0678361351e+01     0.551161    0.2200448 -52.04  0.002349661    2.263    0.558
       446  -8.4102     95.8224     64.3967   6.9453462786e+01   5.1277363831e+01    0.2179067     0.129164  32.06 0.0009446167    1.779    0.438
       447  -8.8294     64.1200     63.5533   8.0463510453e+01   5.7140755004e+01    0.2965295    0.1907786 -11.62 0.0009021122    1.901    0.474
       448  -9.0311    121.6180     66.1169   6.2435999009e+01   4.5383689618e+01    0.3163311    0.2406347 -65.87 0.0007112176    1.724    0.420
       449  -9.2358     97.7684     60.5854   6.7509295772e+01   5.1552978654e+01    0.3079858    0.2753555  58.62 0.0009464402    1.288    0.223
       450  -9.6912     73.3351     59.4001   7.5482347841e+01   5.6416993919e+01    0.4502071    0.2427306 -47.66  0.001039012    2.055    0.513
       451  -7.7264    146.8007     59.0214   5.4128722317e+01   4.0579165598e+01    0.1889466     0.116419 -34.86 0.0004421726    1.689    0.408
       452  -8.0209     88.7825     59.5696   7.0075967564e+01   5.3539096930e+01    0.1911005    0.1358107  51.83 0.0006213243    1.588    0.370
       453  -9.6315      7.4455     57.2412   1.0316694345e+02   6.4390677660e+01    0.2886969    0.2110637 -85.19  0.001169704    1.878    0.468
       454  -7.9750    130.7773     57.8071   5.7397540124e+01   4.4622217844e+01    0.1947949    0.1701611 -68.77 0.0005065325    1.316    0.240
       455  -9.8453     23.4301     56.3823   9.5527259422e+01   6.3459182438e+01    0.3992627    0.2834935  88.17  0.002026736    2.671    0.626
       456  -9.2192    119.2747     55.7852   5.9634931248e+01   4.7630247268e+01    0.3950607    0.2573311 -50.64  0.001463019    1.835    0.455
       457  -8.3298    139.9097     56.1303   5.4739924736e+01   4.2696373408e+01    0.2245565    0.1933683 -74.82 0.0005538369    1.315    0.239
       458  -9.2218     62.9329     54.8706   7.7833467635e+01   5.8961778225e+01    0.3027742    0.1886686 -46.88 0.0006095581    1.736    0.424
       459  -8.6315     44.0563     55.5672   8.5967463870e+01   6.1485368259e+01    0.2288248    0.1835047 -56.30 0.0007594114    1.524    0.344
       460  -8.9960     53.8335     53.6555   8.1098696503e+01   6.0549765614e+01    0.3409774    0.2124783 -56.24  0.001326095    2.156    0.536
       461  -8.5951    105.7919     53.3946   6.2544419607e+01   5.1037050766e+01    0.2638593    0.2232944 -69.26 0.0007888976    1.548    0.354
       462  -9.4879     92.4039     50.6655   6.5656634661e+01   5.4306140507e+01    0.3737962    0.2326275 -48.24  0.001094888    1.974    0.493
       463  -8.3757     75.3495     51.3918   7.1790299643e+01   5.7472907165e+01    0.2731944    0.1123622  29.60 0.0009539486    3.173    0.685
       464  -8.3806    144.6647     48.8397   5.1442419045e+01   4.2619608389e+01    0.2042395    0.1254978 -43.31 0.0009376229    1.728    0.421
       465  -8.2791    129.8990     49.1480   5.4782632637e+01   4.6142534240e+01    0.2172973    0.1945984 -77.74 0.0005664346    1.268    0.211
       466  -8.5457    120.9168     47.5035   5.6405024814e+01   4.8500809971e+01    0.2033825    0.1930093 -14.94 0.0004310475    1.110    0.099
       467  -8.4767    112.1908     46.7536   5.8409215507e+01   5.0618744798e+01    0.2378248    0.1892285 -44.61 0.0006777029    1.413    0.292
       468  -9.1046     82.0162     46.2292   6.7450851725e+01   5.7069580367e+01    0.2973971    0.1912307 -41.76 0.0007575752    1.719    0.418
       469  -8.4235     45.0778     44.8331   8.1557825034e+01   6.3343519732e+01    0.1813701    0.1695966 -11.28 0.0005181094    1.270    0.212
       470  -9.0626     16.6374     44.6498   9.5008033991e+01   6.6347052812e+01    0.2173624    0.1774631 -60.29 0.0006617427    1.496    0.331
       471  -8.2638    132.8502     43.5438   5.2274159012e+01   4.6222867270e+01    0.2169662    0.1699017 -41.69 0.0004856443    1.378    0.274
       472  -9.2725     58.0882     41.8897   7.4794464477e+01   6.1961124091e+01     0.477885    0.2020219 -47.49  0.001913111    3.036    0.671
       473  -8.5644     92.9064     42.6459   6.2499245187e+01   5.5422454480e+01    0.2346283     0.156263  31.22 0.0009012544    1.470    0.320
       474  -9.6256      5.1601     41.9292   9.9920484841e+01   6.7643671306e+01    0.3317278    0.2055514 -73.76  0.001766918    2.320    0.569
       475  -8.6788    105.9426     41.3722   5.8186982384e+01   5.2787174050e+01    0.2488677    0.1907826 -49.13 0.0005825093    1.569    0.363
       476  -9.2319     69.5184     41.3876   7.0070925709e+01   6.0131107898e+01    0.2902289    0.2394906 -54.92  0.001038425    1.691    0.409
       477  -8.2823    140.3608     41.2287   4.9935701568e+01   4.4713362673e+01     0.193393    0.1269168 -42.36 0.0008973219    1.637    0.389
       478  -8.5282     36.8369     40.7350   8.3735447613e+01   6.5095939231e+01    0.2274307    0.1686625 -48.59 0.0006212891    1.571    0.364
       479  -7.6724    160.6774     40.2851   4.5869090194e+01   3.9855822768e+01    0.1423655    0.1024038 -74.93 0.0002701802    1.598    0.374
       480  -7.6941    156.2681     39.3332   4.6349809188e+01   4.1062195767e+01    0.1372668     0.104684  28.31 0.0004374952    1.587    0.370
       481  -8.8183     95.4965     37.8628   5.9887516291e+01   5.5547346049e+01    0.2444707    0.2169988 -69.73 0.0009634608    1.497    0.332
       482  -8.6135     80.8133     36.7759   6.4154766944e+01   5.8704841623e+01    0.2273235    0.1714999 -55.92 0.0005087675    1.931    0.482
       483  -9.3301     26.2565     35.5289   8.6828594318e+01   6.7172684406e+01    0.2788592    0.2045339 -57.95 0.0008989956    1.895    0.472
       484  -8.7025    125.3381     35.6454   5.1315914013e+01   4.9053568930e+01    0.3079914    0.1795671  62.82  0.001252468    1.683    0.406
       485  -8.7488    111.9003     34.6859   5.4184312764e+01   5.2320029916e+01    0.2511142    0.1998335 -39.20 0.0005851301    1.407    0.289
       486  -7.8741     88.5025     34.5179   6.0737360336e+01   5.7464740092e+01    0.1349266     0.122929  26.65 9.858971e-05    1.084    0.078
       487  -8.8114     48.5529     33.4885   7.5379041816e+01   6.4738428347e+01    0.2236727    0.1960743 -14.97 0.0007631016    1.203    0.169
       488  -8.5696    119.1730     32.9853   5.1812030445e+01   5.0840069599e+01    0.2346232    0.1586826 -38.69 0.0006701247    1.636    0.389
       489  -8.7167     60.4509     32.5580   6.9952126573e+01   6.3009715297e+01    0.2178171     0.190069 -16.01  0.000514779    1.196    0.164
       490  -8.6315     72.2797     31.3034   6.4903093085e+01   6.1087836183e+01     0.221379     0.188257 -74.08  0.000672391    1.930    0.482
       491  -7.6615    139.3330     31.6712   4.7098916310e+01   4.6159888707e+01    0.1427891    0.1027983 -72.56 0.0007051858    1.719    0.418
       492  -8.7905     12.8724     30.4610   9.1830637134e+01   6.9267888378e+01    0.2426828    0.1600101 -53.91 0.0009525912    1.714    0.417
       493  -8.6355    229.1929     29.5579   3.4613597140e+01   2.5274786434e+01    0.1706575    0.1631297 -56.03 0.0003257751    1.289    0.224
       494  -8.0018     41.9995     30.0116   7.6845670175e+01   6.6199043555e+01    0.1550327    0.1227655 -11.76 0.0003734097    1.070    0.066
       495  -8.3942    101.5865     29.3608   5.4913613540e+01   5.5302185157e+01    0.1890977    0.1607115 -72.51 0.0007632195    1.567    0.362
       496  -9.0313      3.8444     28.1764   9.5945716238e+01   7.0307533675e+01    0.2298809    0.1571334 -64.28  0.001023709    1.956    0.489
       497  -8.8344     81.4793     27.5330   6.0167829558e+01   5.9788185362e+01    0.2465412    0.2156538 -57.45  0.000789342    1.578    0.366
       498  -9.0800     91.8178     26.3074   5.6474810103e+01   5.7790607831e+01    0.3103184    0.1825076 -37.38  0.001068926    1.937    0.484
       499  -7.4573    241.4619     24.5083   3.2526593528e+01   2.3343023715e+01    0.1222818   0.09416445 -66.76  5.78508e-05    1.035    0.034
       500  -8.6101    104.2930     23.0083   5.1801743119e+01   5.5415791028e+01    0.1825664    0.1672927  25.10 0.0005237935    1.080    0.074
       501  -8.9625     63.5436     21.1330   6.3717064232e+01   6.3985185491e+01    0.2776357    0.2045711 -44.54 0.0009661295    1.853    0.460
       502  -8.9162     48.3901     21.5991   7.0134960990e+01   6.6466728068e+01    0.2209686    0.1997529 -30.05 0.0006996657    1.470    0.320
       503  -8.3936    120.6447     20.8733   4.7255464746e+01   5.1849839003e+01    0.1840892    0.1168261 -39.47 0.0009398062    1.788    0.441
       504  -9.1023    175.6018    247.8066   9.0517512429e+01  -2.2672529646e+00    0.2763159    0.2310945  70.44  0.001253952    1.904    0.475
       505  -8.1851     19.2282     21.4180   8.4538576949e+01   7.0216089842e+01    0.1548652    0.1002047  30.31 0.0009476922    1.762    0.433
       506  -8.2253     88.0157     17.9498   5.4201919835e+01   5.9518280932e+01    0.1802628    0.1574082 -70.43 0.0004308441    1.586    0.370
       507  -8.3304     38.7248     17.9594   7.2840512248e+01   6.8377395717e+01    0.2203048    0.1340093 -31.87  0.001282032    1.620    0.383
       508  -8.3107    112.7473     16.9687   4.7569275941e+01   5.4093388637e+01    0.1510182    0.1149875 -16.71 0.0003219593    1.481    0.325
       509  -8.5833    156.2955    248.2210   9.4545489961e+01   5.4867341310e-01    0.2473882    0.1771686  49.75 0.0007558211    1.546    0.353
       510  -7.9217     17.1552     14.1798   8.2295446131e+01   7.1521335720e+01    0.1448526    0.1251703  -2.69 0.0004815165    1.335    0.251
       511  -8.9290    132.1754    247.9846   9.9553045136e+01   4.2373077608e+00     0.273239    0.2055273  74.38 0.0006891814    1.812    0.448
       512  -7.4742     83.6390     11.2847   5.2685350561e+01   6.1094601272e+01    0.1184487    0.1001244 -86.21 0.0004570905    1.681    0.405
       513  -8.4771    113.1395    248.6697   1.0363062663e+02   6.9629575924e+00    0.2052374    0.1666504  89.14  0.001045139    1.480    0.324
       514  -9.4269    103.7556    246.7672   1.0537863999e+02   8.6891807667e+00    0.4399796    0.2482193 -84.53  0.002020458    2.869    0.651
       515  -7.9248     97.1273     15.1950   5.0613995068e+01   5.7815138986e+01    0.1655928    0.1522584 -62.01 0.0005755678    1.369    0.269
       516  -8.9434    242.9421    246.4872   7.7405771999e+01  -1.1175886148e+01    0.2990588     0.141119 -29.95  0.001579662    1.961    0.490
       517  -8.9343    232.7115    247.3655   7.9389541684e+01  -1.0040160165e+01    0.1902921    0.1723376  -4.16 0.0006858879    1.489    0.328
       518  -8.8624    218.7216    246.8019   8.1888980140e+01  -8.1719688849e+00    0.3708233    0.1202368 -32.98  0.001562487    3.319    0.699
       519  -7.9287     63.3276    248.6634   1.1385432445e+02   1.3893523328e+01    0.1315156   0.07265941  61.73 0.0003372061    1.726    0.421
       520 -10.0003    223.8928    244.1120   8.0478908181e+01  -8.4818571213e+00    0.4348757    0.2220128 -44.56  0.002250899    2.581    0.613
       521  -9.3574    210.9447    246.4940   8.3316863721e+01  -7.0908121166e+00    0.1984645    0.1663974 -41.22 0.0008184227    1.651    0.394
