#   1 NUMBER                 Running object number                                     
#   2 MAG_AUTO               Kron-like elliptical aperture magnitude                    [mag]
#   3 X_IMAGE                Object position along x                                    [pixel]
#   4 Y_IMAGE                Object position along y                                    [pixel]
#   5 X_WORLD                Barycenter position along world x axis                     [deg]
#   6 Y_WORLD                Barycenter position along world y axis                     [deg]
#   7 A_WORLD                Profile RMS along major axis (world units)                 [deg]
#   8 B_WORLD                Profile RMS along minor axis (world units)                 [deg]
#   9 THETA_WORLD            Position angle (CCW/world-x)                               [deg]
#  10 FWHM_WORLD             FWHM assuming a gaussian core                              [deg]
#  11 ELONGATION             A_IMAGE/B_IMAGE                                           
#  12 ELLIPTICITY            1 - B_IMAGE/A_IMAGE                                       
         1 -14.0690    200.3733      5.6501   5.9238346967e+01   3.4666464875e+01      1.90919     1.003642  67.24   0.01023705    1.624    0.384
         2 -15.1420    184.1484     29.6295   6.6973112038e+01   3.5828987185e+01     2.418366     1.532862  18.02   0.01072212    2.963    0.663
         3 -12.3047     57.0700      6.1294   8.7381783822e+01   6.5256604299e+01    0.3474225     0.191034  51.10  0.001979943    2.112    0.527
         4  -9.5911    182.5288    242.0244   1.1543430866e+02  -3.1726108290e+00      0.16093    0.1160233 -78.88 0.0008087753    2.449    0.592
         5 -19.4533     36.0778    147.0104   1.3388000480e+02   4.1040325529e+01     20.34938     5.805567 -69.95   0.06948742    3.526    0.716
         6 -12.3314    118.9754    209.0256   1.2349075396e+02   1.4304903519e+01    0.5899307    0.3219524  74.16  0.002136381    3.352    0.702
         7 -12.5488    108.6489    209.2605   1.2578277898e+02   1.6039079985e+01    0.5880479    0.4453295  40.40  0.002109891    1.331    0.249
         8 -12.5448    107.3090    203.6016   1.2524055349e+02   1.7515877754e+01    0.6100053    0.4999498  20.29  0.002459107    1.579    0.367
         9  -9.0513    185.6387    236.3165   1.1390353953e+02  -2.7611564807e+00    0.1297898   0.09991328  66.59 0.0007042309    1.762    0.432
        10 -11.7156    126.1170    209.8754   1.2206133432e+02   1.2857924271e+01    0.2682773    0.1852875  38.98  0.001359114    1.419    0.295
        11 -12.4598     11.9494    206.7935   1.4548392191e+02   2.9662013980e+01    0.5011703     0.377682  38.87  0.003502378    1.624    0.384
        12 -10.5358      3.5046    207.3158   1.4708824470e+02   3.0353784452e+01    0.1099998   0.08268472  79.47 0.0001732642    1.076    0.070
        13 -10.9035     93.0222    206.7777   1.2884059663e+02   1.9173251337e+01    0.3143315      0.23451 -61.75 0.0008166872    1.368    0.269
        14 -10.9496     94.8100    200.2135   1.2752401514e+02   2.0363122105e+01    0.4543592    0.2495287  81.38  0.001762161    2.896    0.655
        15  -9.6461     83.6871    205.9908   1.3076436039e+02   2.0817459330e+01    0.2392383    0.1813915 -43.18  0.001304926    1.711    0.416
        16 -10.2375     87.9630    203.6649   1.2952205877e+02   2.0676398106e+01    0.2660963    0.2430205  75.23 0.0009626983    1.101    0.092
        17 -12.7922    193.9367    193.8037   1.0456743437e+02   3.3820770267e+00     1.057444    0.7133014 -66.68  0.004306838    2.221    0.550
        18 -12.5242    112.7426    196.3230   1.2289094668e+02   1.8209636699e+01    0.6258708    0.4261188   0.75  0.002495591    3.150    0.683
        19 -10.2182    176.9372    235.3736   1.1548283307e+02  -1.1133037231e+00    0.1963854    0.1819522 -65.91 0.0003874575    1.300    0.231
        20 -11.1739    140.7982    199.5167   1.1710786402e+02   1.2385100106e+01     0.261118    0.2049336 -56.32 0.0006926552    1.334    0.250
        21 -11.9645      9.8067    233.4362   1.4766225159e+02   2.4326273016e+01    0.2785504    0.2174577 -27.72   0.00183182    2.696    0.629
        22  -9.2226    211.4790    203.4701   1.0291802938e+02  -1.6144349056e+00    0.1355581    0.1256589   5.25  3.87409e-05    1.040    0.038
        23 -12.0807    103.6101    194.8370   1.2473393015e+02   2.0126730013e+01    0.4250922    0.3523543  31.71  0.001507504    1.386    0.279
        24 -10.3259    164.9680    205.5731   1.1289723897e+02   6.5685262862e+00    0.4282454    0.1976925 -61.15  0.001487246    3.487    0.713
        25 -10.0339    180.0491    193.0133   1.0732048090e+02   6.1975885849e+00    0.2333129    0.1825901  82.83  0.001131622    1.784    0.439
        26 -12.3204    110.4022    183.4420   1.2129567031e+02   2.1587231188e+01     0.430837    0.2571516 -50.46  0.001951316    1.725    0.420
        27 -10.5776     98.7090    187.0555   1.2463852952e+02   2.2757729607e+01    0.2039978    0.1808524 -79.95 0.0006334294    1.068    0.064
        28 -11.6191    207.7049    183.9745   9.9802703577e+01   2.6498346170e+00    0.4008351    0.3204222 -39.48  0.001016133    1.234    0.190
        29 -11.6361    210.9908    180.2780   9.8392160458e+01   2.7285405609e+00    0.4791686    0.2838499 -35.27   0.00219962    1.683    0.406
        30 -10.8609     90.3432    183.8213   1.2608725526e+02   2.4895284222e+01    0.4090464    0.2305377  67.85  0.001697642    2.323    0.569
        31 -10.8677    144.9112    178.8342   1.1235145990e+02   1.6142445932e+01    0.2342608    0.2129725   0.96  0.001198632    1.284    0.221
        32 -10.7021    136.8389    179.1837   1.1429686274e+02   1.7646134492e+01    0.2006305    0.1816885  -8.19 0.0003204778    1.323    0.244
        33 -12.0972    197.7483    174.9599   9.9949306124e+01   6.3341722533e+00    0.5780482    0.3424068 -49.18  0.002178306    1.761    0.432
        34 -11.1828    145.7767    169.0168   1.1018025635e+02   1.8189305627e+01    0.3497007    0.2037427 -43.45  0.001249766    1.794    0.443
        35 -10.9475    202.9699    167.2371   9.7244714563e+01   6.8311575042e+00    0.3931082     0.314786 -73.39   0.00136064    1.612    0.380
        36 -12.9626    117.7069    201.1278   1.2253945225e+02   1.6257131972e+01    0.7236003    0.2992238  41.70  0.002844664    2.287    0.563
        37 -10.4595     78.8347    232.2200   1.3488103704e+02   1.5896203985e+01    0.1979514    0.1618045  69.89 0.0002663522    1.016    0.015
        38 -10.1450     83.1686    229.2380   1.3369396916e+02   1.5863929748e+01     0.195535    0.1531361  43.01 0.0004093196    1.335    0.251
        39 -11.2021    230.1506    166.1670   9.1793084002e+01   1.7679319521e+00    0.1906967    0.1689035 -66.51 0.0005331167    1.346    0.257
        40 -10.6690    157.4774    218.9290   1.1679297609e+02   5.3317576246e+00    0.1975691    0.1386161 -50.83 0.0005740739    1.563    0.360
        41  -8.9972    133.3456    160.6597   1.1142197328e+02   2.2618594600e+01    0.1644251    0.1201213  82.20 0.0007047302    1.784    0.440
        42 -12.9612    100.1355    156.0645   1.1881607827e+02   2.9945992110e+01    0.7303433    0.4725634 -40.09  0.002131137    1.776    0.437
        43  -9.5787    119.3069    155.6383   1.1385296949e+02   2.6550112691e+01    0.1616027    0.1182896  85.41 0.0007039444    1.737    0.424
        44 -11.8892    133.8048    144.9103   1.0787865327e+02   2.6216736002e+01     1.198892    0.3167346 -54.88  0.002843002    5.296    0.811
        45 -11.0668    174.2272    148.2575   9.9103698139e+01   1.6830601044e+01    0.4476725    0.2847098 -58.51  0.001557347    1.791    0.442
        46 -10.8725    163.9950    216.4499   1.1500609860e+02   4.6198267925e+00     0.260929    0.1972868 -27.84  0.001373378    1.582    0.368
        47 -11.9823    144.7951    145.8969   1.0539717182e+02   2.3699289015e+01    0.4484634    0.3790861 -78.78  0.001169311    1.304    0.233
        48 -12.5141    109.9709    140.4792   1.1301269057e+02   3.1944977209e+01    0.6865776    0.4058874 -36.18   0.00255787    2.058    0.514
        49 -12.4077     98.9015    141.0941   1.1608941715e+02   3.3793466747e+01    0.2863775    0.2789388 -32.21 0.0004222878    1.119    0.107
        50 -11.9567    183.2301    215.1505   1.1077820666e+02   1.3554646928e+00    0.3541299    0.2919622  51.13  0.001513567    1.266    0.210
        51 -11.9486    117.3262    130.5297   1.0878594860e+02   3.2899582226e+01    0.4910287    0.3849443  16.74  0.001783207    1.610    0.379
        52 -12.0595    105.2427    128.9141   1.1165682656e+02   3.5572910926e+01    0.6463478    0.3478583 -61.44  0.002208181    2.089    0.521
        53 -11.0589    160.4615    128.0072   9.7408884138e+01   2.4305479494e+01     0.454968    0.3438635 -48.44  0.002114291    1.301    0.231
        54 -11.5844    135.3168    122.6046   1.0216810011e+02   3.1034417367e+01    0.6995783    0.1862392 -48.87    0.0019034    3.858    0.741
        55 -11.3611    125.5120    127.3217   1.0586102101e+02   3.2008183386e+01     0.375012    0.2630385  80.81  0.001236997    2.098    0.523
        56  -9.7992    112.6372    150.2852   1.1443103871e+02   2.9092986882e+01    0.1588358    0.1163776  75.86 0.0002948685    1.687    0.407
        57 -10.5455    111.5383    119.7081   1.0771712385e+02   3.6535506151e+01    0.2655394    0.2497776 -76.92 0.0002863664    1.089    0.082
        58 -10.6785    168.4630    113.2675   9.1892689567e+01   2.5627021818e+01    0.3911198    0.2798207 -73.75 0.0009985886    1.818    0.450
        59 -10.5043    205.5032    110.2587   8.3678581107e+01   1.7673632059e+01    0.3038418    0.2428726  47.16  0.000918086    1.345    0.257
        60 -12.7070    116.2321    211.9236   1.2452525860e+02   1.4159904407e+01    0.7271697     0.418866 -88.32   0.00194095    2.846    0.649
        61 -10.4066    134.5757    103.8697   9.7467776402e+01   3.5285773476e+01    0.4650073    0.1455708 -46.80  0.001399304    3.247    0.692
        62 -10.3109    150.8135    101.6063   9.2868273830e+01   3.2112058579e+01    0.2655387    0.2347478 -76.77 0.0003778008    1.220    0.180
        63 -10.1803    176.5960     74.7459   8.0082002177e+01   3.1047025602e+01    0.2515622    0.1781811  86.41 0.0006222847    1.714    0.417
        64  -9.1990    168.0342    248.0199   1.1919996694e+02  -1.7176432833e+00    0.1491919    0.1320638  35.18            0    1.038    0.036
        65 -13.7573    170.0140     45.5343   7.3380324534e+01   3.7180424437e+01    0.7583162    0.7198914 -15.40 0.0009242932    1.219    0.180
        66 -11.3012    171.6512    240.8869   1.1740665653e+02  -1.1419920583e+00    0.4584856    0.3120925 -83.29  0.001636085    2.784    0.641
        67 -10.3030     87.9737     13.0161   8.0681834774e+01   5.9207027146e+01    0.1855807     0.153599  31.69 0.0003702291    1.028    0.027
