#   1 NUMBER                 Running object number                                     
#   2 MAG_AUTO               Kron-like elliptical aperture magnitude                    [mag]
#   3 X_IMAGE                Object position along x                                    [pixel]
#   4 Y_IMAGE                Object position along y                                    [pixel]
#   5 X_WORLD                Barycenter position along world x axis                     [deg]
#   6 Y_WORLD                Barycenter position along world y axis                     [deg]
#   7 A_WORLD                Profile RMS along major axis (world units)                 [deg]
#   8 B_WORLD                Profile RMS along minor axis (world units)                 [deg]
#   9 THETA_WORLD            Position angle (CCW/world-x)                               [deg]
#  10 FWHM_WORLD             FWHM assuming a gaussian core                              [deg]
#  11 ELONGATION             A_IMAGE/B_IMAGE                                           
#  12 ELLIPTICITY            1 - B_IMAGE/A_IMAGE                                       
         1 -12.6016    200.5658     39.7961   4.4870571970e+01   3.0196558370e+01    0.9366953    0.8894929  25.84  0.006202544    1.304    0.233
         2 -12.4871    211.3419     28.8587   4.1229996229e+01   2.9165388992e+01     0.766403     0.697111  14.19  0.002378512    1.475    0.322
         3  -8.7397     32.4968      9.5110   7.5894833521e+01   7.1539995580e+01    0.1288024    0.1004345   9.90 0.0008105492    1.013    0.013
         4 -10.1774    237.7216      6.0040   3.4497853329e+01   2.6275973960e+01    0.3817144    0.2153752 -44.29  0.002448625    1.456    0.313
         5 -10.7372    233.7038      5.0048   3.4525987395e+01   2.7143479753e+01    0.5114593     0.287102 -44.70  0.003272755    1.471    0.320
         6 -10.3011    240.7111      2.9928   3.3751473807e+01   2.6005155912e+01    0.3634408    0.2306296 -67.77  0.002508651    1.294    0.227
         7  -9.3291     20.8168      7.0161   8.1568933898e+01   7.3555145217e+01    0.1676579    0.1484994 -56.45  0.001083537    2.006    0.501
         8 -14.7823      6.6193    246.2892   1.2959407755e+02   2.0568799655e+01     2.260186      1.23419  22.89    0.0138233    1.956    0.489
         9 -11.3551     27.6725    215.0554   1.2352453270e+02   2.4958420747e+01     1.210806     0.469533  75.79  0.004719488    3.635    0.725
        10 -12.3937     42.8358    199.9991   1.1869962040e+02   2.6770559519e+01     1.276744    0.8018743  64.37  0.004677544    1.629    0.386
        11 -12.2706     53.6750    189.2034   1.1481777049e+02   2.8079434192e+01       3.0894     1.608372  87.60   0.01292958    2.610    0.617
        12  -7.6796     72.1595    188.1487   1.0973508489e+02   2.6039460389e+01    0.1938968    0.1501472  56.86 0.0004299706    1.315    0.240
        13  -8.2783     99.1509    181.0379   1.0137315112e+02   2.3851248221e+01    0.2241709    0.1917274  -7.87 0.0007948987    1.267    0.210
        14  -8.6291     65.7957    179.5701   1.1035205989e+02   2.8912749462e+01    0.2463813    0.2267024  85.80 0.0006171587    1.098    0.089
        15 -10.3289     67.8986    174.7601   1.0910778352e+02   2.9812198896e+01    0.3908076    0.2725393 -29.55  0.001884345    1.770    0.435
        16 -10.4670     72.6004    169.6975   1.0702744537e+02   3.0429439552e+01    0.4570667    0.2928513 -35.32  0.001360919    1.867    0.464
        17  -8.7689     42.0084    179.4879   1.1692645554e+02   3.1708654841e+01    0.2334994    0.1751531 -53.15 0.0005857191    1.399    0.285
        18  -8.9956    114.2202    172.5831   9.5826981048e+01   2.3390435774e+01    0.2236013    0.1397662  20.62 0.0009621219    1.738    0.425
        19 -11.2994     12.3101    189.1833   1.2551596222e+02   3.2139161821e+01    0.2607127     0.234465  75.62 0.0004376039    1.057    0.054
        20 -10.9928     81.1283    160.7475   1.0309275002e+02   3.1439387144e+01    0.6928126    0.4087895  55.65 0.0004841084    2.095    0.523
        21 -11.9851     69.5910    156.0360   1.0577172384e+02   3.4253656520e+01    0.6972032    0.5036959  -6.28  0.001411752    1.750    0.429
        22 -11.8779     68.5930    144.2355   1.0405381644e+02   3.7395386912e+01    0.8494772    0.6422423  71.03  0.002744798    1.600    0.375
        23  -9.1326    134.2960    147.5379   8.5326337132e+01   2.5497886156e+01    0.4312698    0.1466778 -49.44   0.00124424    3.105    0.678
        24 -10.3723     87.9435    154.3411   9.9916273500e+01   3.1997614172e+01     0.585172    0.3977122 -15.24  0.001381851    1.992    0.498
        25 -12.8253     24.3212    226.9211   1.2501223421e+02   2.2777362995e+01     1.729495    0.7077532  63.44  0.003638259    2.583    0.613
        26  -8.4385     35.1426    140.0076   1.1424731379e+02   4.2402887424e+01    0.2531162    0.2015518  -8.36  0.001218719    1.450    0.311
        27  -9.8594     29.3433    142.9795   1.1651234950e+02   4.2163521699e+01    0.3629164    0.2288325 -41.93  0.001785488    1.679    0.405
        28  -9.2059     82.7480    142.4885   9.9230134305e+01   3.5764037144e+01    0.2644296    0.2582391 -74.53  0.000862795    1.067    0.063
        29  -9.5138    101.9466    139.5614   9.2692862862e+01   3.3307416543e+01    0.5229741    0.3248636 -21.22  0.002008421    2.316    0.568
        30 -10.4770     89.5348    139.2569   9.6439981488e+01   3.5490145736e+01    0.3022229    0.2662113 -26.25  0.000425505    1.161    0.139
        31 -11.7164     58.3575    131.7487   1.0514075772e+02   4.1972562526e+01     1.089391    0.5257797 -79.24  0.003642685    3.321    0.699
        32  -9.7704     25.8181    137.4628   1.1696597797e+02   4.3895157549e+01    0.3643478     0.190318  42.96  0.001485286    2.023    0.506
        33 -12.5861     57.0154    239.1282   1.1865402285e+02   1.6886209858e+01    0.7718992    0.5863683  49.28 0.0008354648    1.118    0.105
        34  -8.8387    106.0122    130.9193   8.9498736953e+01   3.4654940078e+01    0.2934425    0.2728956  60.57  0.001512135    1.194    0.163
        35  -9.3009    111.3861    130.0094   8.7674469094e+01   3.3868513975e+01    0.3449927    0.2229489  18.00 0.0008323698    1.902    0.474
        36  -9.1985     98.7203    126.1595   9.0615720628e+01   3.7124441274e+01    0.3247081    0.2564649  -0.09   0.00151476    1.456    0.313
        37  -7.9547     91.1701    124.2081   9.2558437477e+01   3.8931698912e+01    0.2092345    0.1843529  64.99 0.0006366019    1.314    0.239
        38  -8.4843    107.9156    118.9991   8.5997930515e+01   3.7107716788e+01    0.2340689      0.21871  -2.42 0.0003616826    1.047    0.045
        39  -9.9505     33.0491    118.2047   1.1167125626e+02   4.8280216249e+01    0.3876996    0.1547548 -56.01  0.001408458    2.116    0.527
        40  -9.6073    109.0471    202.0143   1.0205431137e+02   1.7693818269e+01    0.4693193    0.2619464 -35.24  0.001551163    2.236    0.553
        41  -8.5991    134.6065    107.7883   7.5409501314e+01   3.4098165923e+01    0.2260408    0.1469718 -51.27 0.0009557647    1.679    0.404
        42  -9.4855     41.9315    104.1405   1.0565097640e+02   5.1020540230e+01    0.3541392    0.1841013  35.90  0.001524599    2.041    0.510
        43  -8.3712    205.9443    110.4634   6.1028513084e+01   1.8571591986e+01    0.1899633    0.1377775  49.42 0.0004984197    1.531    0.347
        44  -8.9301     33.0468    100.6655   1.0845827182e+02   5.2796253556e+01    0.1986351    0.1797418 -22.97 0.0007284736    1.094    0.086
        45  -9.3087    243.5034     98.5000   5.3014311313e+01   1.3607049279e+01    0.1249904    0.1038747 -35.23 -0.0002645695    1.038    0.037
        46  -9.3831     61.8250    199.6219   1.1382864618e+02   2.4686608148e+01    0.3152384     0.224942 -62.55  0.001098541    1.471    0.320
        47  -8.5717    127.9638     95.0365   7.3612160504e+01   3.8170000589e+01    0.2482267    0.1895725   5.58 0.0006241822    1.632    0.387
        48  -8.3300    194.9847    198.7540   8.1718201537e+01   5.0903453401e+00     0.170944    0.1027099  28.87 0.0005198689    1.576    0.366
        49  -8.0771    155.7690     88.0356   6.4848612202e+01   3.3208256582e+01    0.1971554    0.1225329 -38.34 0.0002381915    1.591    0.371
        50  -8.7463    115.8172     84.9924   7.4022516312e+01   4.2865335676e+01    0.2331555     0.170972  62.09  0.001044556    1.636    0.389
        51  -8.2744     30.4367    202.3238   1.2196702797e+02   2.7505987659e+01    0.2324488    0.1148081  46.43 0.0006923473    1.803    0.445
        52  -7.8793     83.7782     61.6098   7.6566545479e+01   5.4162796093e+01     0.210946    0.1362769  50.83 0.0008740122    1.702    0.412
        53 -12.1257    190.4220     46.9563   4.7844450642e+01   3.1549467800e+01    0.8885086    0.6303943   7.75  0.003161824    2.208    0.547
        54  -9.6426     48.7360    216.8889   1.1873069110e+02   2.2377635598e+01    0.4103492    0.3200354 -38.62  0.002484101    1.607    0.378
        55  -9.5161    141.6029     46.9378   5.5616869080e+01   4.3158569958e+01    0.3170362     0.232781 -68.58 0.0007432779    1.639    0.390
        56  -9.5178     58.9981    230.1336   1.1746986108e+02   1.8445028963e+01    0.3000677    0.1801257 -70.80  0.001154502    1.852    0.460
        57  -8.8474    142.4509     40.1127   5.3307857085e+01   4.3852625101e+01    0.3488013     0.217572 -73.72   0.00152101    2.263    0.558
        58  -9.2454     33.0000     38.9608   9.0264106258e+01   6.6785758491e+01    0.3646574   0.07044142 -48.41   0.00106559    5.064    0.803
        59 -15.4364      6.8441    201.4565   1.2754248460e+02   2.9778986545e+01     18.17602     1.288028 -78.31   0.01857522   12.530    0.920
        60  -8.1489    198.3746     23.7567   4.1242009330e+01   3.2535196619e+01    0.1564701    0.1173244 -20.41 0.0005769705    1.603    0.376
        61 -14.4208     29.6650    249.7251   1.2515294965e+02   1.7774755175e+01     10.39991     3.015938  18.47   0.02235933   14.383    0.930
        62  -8.1938     91.3579    215.0517   1.0822081988e+02   1.7469658496e+01    0.1760441    0.1675039  82.32  0.000899228    1.167    0.143
        63  -8.9179     77.2754    225.3844   1.1277617381e+02   1.7190320008e+01    0.3774845    0.2025195 -71.19  0.001740313    2.251    0.556
        64 -10.9309     84.7715    220.9003   1.1050745056e+02   1.7140153590e+01    0.6527328    0.3466142  29.94 0.0008857638    1.666    0.400
        65  -8.3596     59.6576    220.3912   1.1645110004e+02   2.0382405148e+01    0.2536691    0.1932289   4.04  0.001471044    1.613    0.380
