#   1 NUMBER                 Running object number                                     
#   2 MAG_AUTO               Kron-like elliptical aperture magnitude                    [mag]
#   3 X_IMAGE                Object position along x                                    [pixel]
#   4 Y_IMAGE                Object position along y                                    [pixel]
#   5 X_WORLD                Barycenter position along world x axis                     [deg]
#   6 Y_WORLD                Barycenter position along world y axis                     [deg]
#   7 A_WORLD                Profile RMS along major axis (world units)                 [deg]
#   8 B_WORLD                Profile RMS along minor axis (world units)                 [deg]
#   9 THETA_WORLD            Position angle (CCW/world-x)                               [deg]
#  10 FWHM_WORLD             FWHM assuming a gaussian core                              [deg]
#  11 ELONGATION             A_IMAGE/B_IMAGE                                           
#  12 ELLIPTICITY            1 - B_IMAGE/A_IMAGE                                       
         1 -14.8071      6.6736     24.9143   2.9192736926e+02   7.4299914568e+00   0.09420073    0.0534881 -60.10  0.007453962    1.729    0.421
         2 -12.5016     42.2705     33.8300   2.9157404178e+02   7.1151607837e+00   0.04957029   0.03291344  66.57  0.004884965    1.970    0.492
         3 -12.8669     80.3590     31.5599   2.9112320013e+02   6.9125291132e+00   0.03956684   0.02963927  51.04  0.002996989    1.433    0.302
         4 -13.2396     83.2295     22.5027   2.9103421366e+02   6.9985928496e+00   0.04513304   0.03056764  34.92  0.004276327    1.463    0.317
         5 -13.5790    123.6440     10.5141   2.9049668894e+02   6.8922024711e+00   0.07497069   0.04646714  21.52  0.004295237    1.715    0.417
         6 -12.4068     73.4199      1.9242   2.9101924602e+02   7.2921618648e+00   0.02601895   0.01941513  87.54 0.0005010496    1.628    0.386
         7 -12.1756     75.2501     13.3329   2.9106892518e+02   7.1510951374e+00   0.02191997   0.01708983 -80.15  0.001067249    1.422    0.297
         8 -14.6758     85.7129     11.9466   2.9094035598e+02   7.1040463820e+00    0.1691572   0.05522075  19.82   0.01022625    4.866    0.794
         9 -13.6225     86.5846      3.6878   2.9087918910e+02   7.1929651065e+00   0.06416336   0.03121809  10.14  0.004874729    3.270    0.694
        10 -13.9352     96.5714      3.6787   2.9076461990e+02   7.1330302812e+00   0.06391955   0.02764388  29.20  0.005464002    2.281    0.562
        11 -10.5211    175.1125     13.5672   2.8992621772e+02   6.5471126654e+00   0.01429666  0.007582725 -45.13  0.001158124    1.952    0.488
        12 -11.9260    185.9065     11.9701   2.8979278672e+02   6.5001476044e+00   0.02298313    0.0167026  34.88  0.001928696    1.368    0.269
        13 -10.9936    192.9988      6.2849   2.8967635370e+02   6.5220857859e+00   0.02003295   0.01137155 -68.14   0.00189523    1.907    0.475
        14 -12.2310    138.7816      4.3558   2.9028506500e+02   6.8712055816e+00   0.03672599    0.0219566   9.49  0.002686718    2.142    0.533
        15 -10.1184    150.1326      8.3318   2.9017971808e+02   6.7574699989e+00   0.01876102  0.007629898  29.67  0.001548261    2.407    0.585
        16 -11.4985     33.6675      3.7107   2.9148642266e+02   7.5102486457e+00    0.0198779   0.01585258 -23.84  0.001794464    1.389    0.280
        17  -9.4055    204.4772      1.4702   2.8951516167e+02   6.5075720426e+00  0.006470868  0.006422879 -37.60 0.0008094876    1.003    0.003
        18 -11.7506     27.8845    219.6462   2.9288362728e+02   5.0784350987e+00    0.0253239   0.02432496 -12.28  0.003197649    1.057    0.054
        19 -11.6156     81.9281    222.6062   2.9228385679e+02   4.7209416889e+00   0.01894959   0.01188457  52.25  0.001867733    1.822    0.451
        20 -10.9003     68.9311    184.7903   2.9219989452e+02   5.2310791356e+00   0.01951089    0.0126003  33.67   0.00202242    1.530    0.346
        21 -10.3668    147.5973    220.7642   2.9152202532e+02   4.3477679389e+00   0.01178783  0.008599998  89.89   0.00123372    1.673    0.402
        22 -10.6683     49.4902    182.0711   2.9240560188e+02   5.3786504094e+00   0.01355607    0.0115464 -47.54  0.001379377    1.164    0.141
        23 -10.7505     47.0977    176.9774   2.9240164735e+02   5.4512012398e+00   0.01329227  0.009299966 -60.38            0    1.412    0.292
        24 -11.7425     36.5151    179.1097   2.9253587127e+02   5.4901898828e+00   0.02137946   0.01971926 -68.64  0.001689079    1.094    0.086
        25 -10.6923     42.3368    176.0326   2.9245032080e+02   5.4905100253e+00   0.01398959    0.0122994  87.94  0.001045886    1.232    0.188
        26 -11.6441     54.5422    171.3055   2.9228155130e+02   5.4714368785e+00   0.05355055   0.01487002  41.40  0.003590968    3.740    0.733
        27  -9.9126     13.1577    173.2788   2.9276737259e+02   5.6965719796e+00   0.01378918  0.006614541 -47.73  0.001213299    2.091    0.522
        28  -9.7170     35.2590    169.2119   2.9248937719e+02   5.6108446599e+00   0.01110616   0.00708682  61.99  0.001056261    2.018    0.504
        29 -10.8242     80.8663    165.1925   2.9194266393e+02   5.3834800284e+00   0.01960778  0.008263364  39.49  0.001473741    2.351    0.575
        30 -10.1437     48.4615    160.8583   2.9228684683e+02   5.6272689700e+00   0.01272838  0.009759385  11.88 0.0009533338    1.420    0.296
        31 -10.8873      8.9099    159.8321   2.9273335197e+02   5.8756740710e+00   0.02402908  0.008451666  32.69  0.001883076    2.663    0.624
        32 -10.0200     13.1412    153.6879   2.9264711991e+02   5.9206062324e+00   0.01088816  0.009052473 -78.76 0.0004887737    1.286    0.223
        33 -10.3057    103.9418    151.4595   2.9159396485e+02   5.4018880104e+00   0.01170142  0.008543813 -45.05 0.0003022799    1.380    0.275
        34 -10.1994     43.9889    149.6382   2.9226897289e+02   5.7822903200e+00  0.009290783  0.008482531  16.69 0.0005826756    1.115    0.103
        35 -10.8371     56.9977    119.9938   2.9193732336e+02   6.0430768970e+00  0.009477041  0.009309259 -44.70  0.001196609    1.007    0.007
        36 -12.5568     59.7997    146.0978   2.9206614424e+02   5.7280151512e+00   0.09510218   0.04821829  68.22  0.006380043    4.437    0.775
        37 -12.3466     52.3289    144.2646   2.9214038623e+02   5.7937371170e+00    0.0565252   0.02865296  54.43  0.004700614    2.661    0.624
        38 -13.0203     47.9510    125.2083   2.9207309435e+02   6.0377182351e+00   0.04548282    0.0394632 -18.93  0.001654454    1.234    0.189
        39 -12.3462     55.3309    124.4116   2.9198365496e+02   6.0025954875e+00    0.0449831   0.02112059 -41.24 0.0006604595    2.451    0.592
        40 -10.3254     40.9281    143.9538   2.9226901665e+02   5.8655830791e+00  0.009894197  0.009621678 -11.22 0.0004247598    1.036    0.035
        41 -11.4454      6.1865    143.0710   2.9266146656e+02   6.0835285172e+00   0.01976463   0.01620601  16.97  0.001412834    1.269    0.212
        42 -11.2740     81.1326    131.3439   2.9173095043e+02   5.7686467214e+00    0.0191859   0.01382386 -65.78  0.002083919    1.415    0.293
        43 -12.6158      9.8074    130.2333   2.9254099395e+02   6.2085981991e+00   0.02826148    0.0174027  20.91  0.002815577    1.738    0.425
        44 -11.6040    126.1033    128.5899   2.9119923290e+02   5.5299505351e+00      0.02167   0.01484813 -35.13  0.001974675    1.615    0.381
        45  -9.4605     37.1262    123.3136   2.9218541160e+02   6.1242051247e+00   0.01010781  0.005432068  37.77 0.0009422326    1.837    0.456
        46 -11.6698     67.2676    128.3810   2.9187143023e+02   5.8856763601e+00   0.01963109   0.01789447  -8.93  0.001313263    1.148    0.129
        47  -9.2994    155.2950    118.2942   2.9080165461e+02   5.4718686569e+00  0.006721397  0.004937077 -26.94            0    1.560    0.359
        48  -9.2338    163.4865    117.4715   2.9070288022e+02   5.4319322420e+00  0.006566802  0.006344637 -28.95 0.0008095707    1.037    0.035
        49  -9.6950    125.4425    113.8205   2.9111555174e+02   5.7025972890e+00   0.01020884  0.007836659  18.28 0.0005035996    1.367    0.268
        50 -11.0481     79.7000    110.0430   2.9161591103e+02   6.0205746222e+00   0.01641911   0.01132526 -26.98  0.001682373    1.726    0.421
        51 -10.1619      5.4618    108.0635   2.9245427910e+02   6.4878951579e+00   0.01290471  0.009109503   7.26  0.001344119    1.654    0.396
        52 -13.5817     17.5550    101.2234   2.9227352534e+02   6.4937192163e+00   0.02551108   0.02424705   1.99  0.001914501    1.072    0.067
        53 -12.0625     58.8114     98.5935   2.9178451802e+02   6.2766614829e+00   0.02412419   0.01813713 -55.94  0.001635475    1.303    0.233
        54 -13.1539     55.3570     94.6097   2.9179951037e+02   6.3428744617e+00   0.03570159   0.02383627 -26.62  0.001939552    1.830    0.454
        55 -10.6805     32.0549    100.6761   2.9210396830e+02   6.4131935022e+00   0.01573905  0.008590854  30.82  0.001086032    1.804    0.446
        56 -11.1053      5.3915     97.6887   2.9239116543e+02   6.6068376717e+00   0.02091843   0.01237839 -71.26  0.001653085    1.892    0.471
        57 -11.0365    188.2239     94.1079   2.9027544759e+02   5.5495149837e+00   0.01968011   0.01361715  55.01  0.002051274    1.643    0.391
        58  -9.5755    164.3023     92.5009   2.9053907257e+02   5.7120563551e+00   0.01158365  0.005919668 -61.59 0.0008316863    1.945    0.486
        59 -10.3682     69.7061     95.6622   2.9164160241e+02   6.2447940929e+00   0.01228549  0.009520384 -43.99 0.0003058379    1.301    0.231
        60 -10.1108     44.5987     90.0310   2.9189453761e+02   6.4596473174e+00   0.01434514  0.008797938 -42.55  0.001285902    1.710    0.415
        61 -11.1606    152.5385     88.3502   2.9064797206e+02   5.8302991851e+00   0.01237299   0.01113676  49.96 0.0005428666    1.145    0.126
        62 -11.0801    249.6159     86.5156   2.8952699638e+02   5.2654940001e+00   0.01402086   0.01179686 -69.64 0.0006465283    1.218    0.179
        63 -10.9113     89.4611     86.3784   2.9135794576e+02   6.2322184004e+00    0.0170838   0.01198844  32.34 0.0009973128    1.415    0.293
        64  -9.4633      1.1872     86.9888   2.9237342262e+02   6.7541876795e+00  0.008799326  0.005023632 -61.83 0.0003498139    1.742    0.426
        65 -10.8594     26.4054     84.9935   2.9207199224e+02   6.6261373777e+00   0.01412778  0.009221975 -30.86 0.0009494185    1.815    0.449
        66 -11.2678    128.5033     82.9707   2.9088977762e+02   6.0364024657e+00   0.01772277   0.01424587  17.84  0.000993456    1.296    0.228
        67  -9.9188     81.9057     95.2295   2.9149917612e+02   6.1765193382e+00   0.01040004  0.008828257  58.65 0.0007205987    1.266    0.210
        68  -9.4722     54.2972     82.3581   2.9173601782e+02   6.4891417274e+00  0.009432131   0.00579713  37.64 0.0008168723    1.616    0.381
        69 -10.0211    143.5030     81.1372   2.9070673594e+02   5.9670391008e+00  0.009914597  0.006465166 -62.33 0.0009559711    1.533    0.348
        70 -10.2475     67.6146     81.1548   2.9157596813e+02   6.4230091435e+00   0.01327081  0.008196403  44.10  0.001322227    1.684    0.406
        71 -10.8976     41.8175     78.3108   2.9185407216e+02   6.6101550205e+00    0.0171254    0.0113294 -24.91  0.001691692    1.890    0.471
        72 -10.7563    144.5201     73.9741   2.9065075948e+02   6.0426619910e+00   0.01247574  0.009666136  28.37 0.0005129816    1.295    0.228
        73  -8.9750    194.2764     73.6741   2.9007968750e+02   5.7461330544e+00  0.006684731   0.00503008  68.45 0.0003340723    1.588    0.370
        74 -10.0596    120.8665     72.8944   2.9091487595e+02   6.1973631306e+00  0.009784701  0.008729644 -27.39 0.0003261862    1.163    0.140
        75  -9.1238    182.9709     72.2890   2.9020038829e+02   5.8301391632e+00  0.007857384  0.005848572  29.28 0.0003253979    1.345    0.256
        76 -10.6941     83.1405     68.4984   2.9131983851e+02   6.4743076264e+00   0.01161839   0.01028226 -65.45 0.0003327774    1.136    0.120
        77 -10.0810    210.1107     68.5152   2.8986670320e+02   5.7093972702e+00   0.01012148   0.00649233  27.17  0.001027162    1.574    0.365
        78 -12.8699     96.7694     71.6649   2.9118326801e+02   6.3562876793e+00   0.03214828   0.01799694  20.92  0.001162006    1.952    0.488
        79  -9.9032    130.3556     65.8280   2.9076248902e+02   6.2209053689e+00  0.009705366  0.005594731 -50.26 0.0006081985    1.698    0.411
        80  -9.6648     20.4579     66.3154   2.9202492424e+02   6.8750197286e+00   0.01210375  0.005990174  28.10  0.001084432    2.023    0.506
        81 -10.5799    104.0590     64.8175   2.9105740741e+02   6.3906285634e+00   0.02235575  0.008141407  32.26  0.001532544    2.592    0.614
        82  -9.6665     61.0374     65.0097   2.9155159407e+02   6.6467940547e+00  0.008023645  0.007477656  24.30 0.0004178848    1.080    0.074
        83 -11.2436    214.6565     62.0488   2.8977466101e+02   5.7556848567e+00   0.01996481   0.01769451 -64.63   0.00200059    1.132    0.117
        84 -10.3553    170.0103     62.8626   2.9029024834e+02   6.0158345975e+00   0.01107941  0.007467681  -9.94 0.0006934641    1.967    0.491
        85 -10.0072    135.2456     63.3923   2.9069142193e+02   6.2192610514e+00  0.009193439  0.005896152  39.07 0.0003177462    1.560    0.359
        86 -10.5879     52.7751     62.3737   2.9163002058e+02   6.7264350181e+00   0.02342486   0.01192277  14.92   0.00176171    2.532    0.605
        87 -12.9731    125.4008     57.4688   2.9076747988e+02   6.3461129978e+00   0.01598075   0.01424255  11.43 0.0006998428    1.161    0.138
        88 -12.0910     68.8099     55.2738   2.9140231316e+02   6.7112880006e+00   0.02107324   0.01537968  37.50  0.001322498    1.369    0.270
        89  -9.7118    174.8285     56.5064   2.9019573885e+02   6.0592805635e+00  0.009754403   0.00646714  28.14  0.001006975    1.514    0.340
        90 -10.7071    136.7229     55.3260   2.9062456043e+02   6.3023994030e+00   0.01080897  0.009991805 -73.21 0.0002989672    1.104    0.094
        91 -11.2150    132.9967     53.5426   2.9065618265e+02   6.3451820994e+00   0.01875499   0.01188049  26.87  0.001384526    1.596    0.374
        92 -11.4259    210.0158     54.6600   2.8978189137e+02   5.8679604891e+00   0.01496029   0.01134594   3.21  0.001462981    1.517    0.341
        93 -13.0282      3.2614     47.0151   2.9210303618e+02   7.1982000717e+00   0.04032669   0.03006847  65.67  0.002364599    1.591    0.372
        94 -12.7334    190.8409    217.9698   2.9101092317e+02   4.1196217145e+00   0.03763708   0.01535386  25.54  0.003043211    2.585    0.613
        95 -10.4841     60.0756     53.0179   2.9148849643e+02   6.7894413195e+00  0.009461109  0.009340555 -49.17 0.0002836378    1.007    0.007
        96 -11.2456    145.3494     50.7396   2.9049738577e+02   6.3027608388e+00   0.01387876   0.01172858 -70.23 0.0006625073    1.216    0.177
        97 -13.1540    179.5412    222.8112   2.9116979253e+02   4.1323154446e+00   0.05870566   0.04370042  85.41  0.006290163    1.643    0.391
        98 -12.3158     42.0331     42.4848   2.9163027565e+02   7.0178274811e+00   0.02303465   0.01574651  17.74  0.001599285    1.580    0.367
        99 -10.6357    176.5457     45.2097   2.9010607301e+02   6.1777542123e+00   0.01214238   0.01123283  35.99 0.0003656403    1.088    0.081
       100 -11.4575    157.4569     43.6609   2.9031492299e+02   6.3105354723e+00    0.0141028   0.01285937 -22.30 0.0006479968    1.137    0.120
       101 -10.0255    197.0086     41.3394   2.8984800369e+02   6.0983764568e+00   0.01053665  0.009261098 -84.39 0.0006742592    1.215    0.177
       102 -10.5991    102.1190     41.5772   2.9093580177e+02   6.6674818289e+00   0.01144614  0.009015563 -53.56 0.0003639342    1.246    0.198
       103  -9.9299     95.2418     42.6030   2.9102096329e+02   6.6971233598e+00  0.008955942  0.006388281  12.23 0.0004718746    1.568    0.362
       104 -10.6545    217.8343     38.4583   2.8959202825e+02   6.0054191412e+00   0.01390607  0.009237705  22.46  0.001208278    1.572    0.364
       105 -10.4538    139.8814    221.7311   2.9161613244e+02   4.3830885502e+00    0.0154811   0.01134476 -60.26  0.001699685    1.350    0.259
       106 -11.2039     91.2533    222.9549   2.9217940035e+02   4.6610352449e+00   0.03184463  0.009526863  40.13  0.002256674    3.308    0.698
       107 -13.4276     84.0148    209.7175   2.9218074242e+02   4.8557369719e+00    0.0736128   0.04631908  52.13  0.007310791    1.811    0.448
       108 -10.8570    160.9052    222.4042   2.9138011242e+02   4.2490384511e+00   0.04861348   0.02861165  66.40  0.004246534    2.546    0.607
       109 -12.3029     11.4194    209.7497   2.9301121947e+02   5.2900243671e+00   0.03963452    0.0210887  16.24  0.003518271    2.277    0.561
       110 -11.4522      2.2564    209.2526   2.9311298880e+02   5.3504616857e+00   0.02864148   0.01993267 -33.40  0.002551082    1.607    0.378
       111 -10.8734     44.6299    208.2536   2.9262215401e+02   5.1084645597e+00   0.01548534   0.01173211 -70.99  0.001041081    1.385    0.278
       112 -10.0961    144.2193    208.4585   2.9148480721e+02   4.5086531167e+00   0.01646523   0.00610224  30.54  0.001301816    2.593    0.614
       113 -11.3874    176.5836     33.3470   2.9003208487e+02   6.3127823547e+00   0.01300077   0.01202572 -13.37 0.0005872849    1.121    0.108
       114  -9.2166    141.3008     33.6977   2.9043814513e+02   6.5215239074e+00  0.006726553  0.004991737  63.91 0.0001848699    1.587    0.370
       115  -9.1752    109.3270     28.3310   2.9077116918e+02   6.7752237726e+00  0.007059743  0.004894099 -27.15 0.0007051209    1.710    0.415
       116 -13.0156     42.6123     47.4294   2.9165419708e+02   6.9579295833e+00   0.02999841   0.02335458  19.85  0.001101042    1.332    0.249
       117 -11.0986    241.7493     22.9649   2.8922259334e+02   6.0373547104e+00   0.01910342   0.01284894  43.97  0.001301133    1.533    0.348
       118 -11.2072    151.0639     20.4828   2.9024442038e+02   6.6133564852e+00   0.02348367   0.01607666  -4.54  0.002356238    1.884    0.469
       119 -10.7398    139.7447     20.4789   2.9037402381e+02   6.6816215084e+00   0.01165907   0.01141818 -26.24 0.0004300496    1.018    0.018
       120 -11.6419     64.1649     18.0224   2.9122509932e+02   7.1641687885e+00   0.01883613   0.01273054  24.16 0.0007756215    1.519    0.342
       121 -10.0382    208.9137     18.2053   2.8956832556e+02   6.2901195712e+00  0.009930589  0.008824097  50.56 0.0005399884    1.163    0.140
       122  -9.7438    141.9557     16.3163   2.9032288932e+02   6.7157515137e+00  0.008912547  0.008242771  24.40  0.000311812    1.088    0.081
       123  -9.2440     53.9933    224.0878   2.9261233870e+02   4.8713977742e+00  0.007734916  0.007181881 -59.58 0.0003529956    1.069    0.065
       124 -11.7600     35.5906    207.1233   2.9271860445e+02   5.1754904163e+00   0.02606731  0.009008913  31.43  0.002020626    2.729    0.634
       125  -9.5218     53.4907     10.5061   2.9130101437e+02   7.3139292149e+00  0.006502705  0.006401748  69.92 0.0008102983    1.038    0.037
       126 -13.2735     70.5532    201.4791   2.9228401288e+02   5.0306075728e+00    0.0481883   0.03405907 -85.31  0.005019612    1.713    0.416
       127 -12.1975     81.1870    201.2525   2.9216100364e+02   4.9694429504e+00   0.03274611    0.0249634  83.79  0.003556212    1.577    0.366
       128 -10.4899     53.3314    201.0978   2.9247865029e+02   5.1381570200e+00   0.01535113   0.01209259  87.64  0.001707843    1.475    0.322
       129  -9.5892     54.2939    195.6207   2.9243396744e+02   5.1949982562e+00  0.006998354  0.004985003  68.86 0.0006461048    1.749    0.428
