#   1 NUMBER                 Running object number                                     
#   2 MAG_AUTO               Kron-like elliptical aperture magnitude                    [mag]
#   3 X_IMAGE                Object position along x                                    [pixel]
#   4 Y_IMAGE                Object position along y                                    [pixel]
#   5 X_WORLD                Barycenter position along world x axis                     [deg]
#   6 Y_WORLD                Barycenter position along world y axis                     [deg]
#   7 A_WORLD                Profile RMS along major axis (world units)                 [deg]
#   8 B_WORLD                Profile RMS along minor axis (world units)                 [deg]
#   9 THETA_WORLD            Position angle (CCW/world-x)                               [deg]
#  10 FWHM_WORLD             FWHM assuming a gaussian core                              [deg]
#  11 ELONGATION             A_IMAGE/B_IMAGE                                           
#  12 ELLIPTICITY            1 - B_IMAGE/A_IMAGE                                       
         1 -12.4930     61.9368     44.5466   2.9142822476e+02   6.9137533693e+00   0.02180199    0.0140458 -59.03    0.0003728    1.611    0.379
         2 -11.5032     58.2297     18.7534   2.9133447021e+02   7.2344722108e+00   0.01973462   0.01225327  89.63  0.001814599    2.196    0.545
         3 -10.9135     33.6466     12.0962   2.9160596212e+02   7.4516845119e+00   0.01551421   0.01077735  72.26  0.001444643    1.815    0.449
         4 -11.9263     34.1669     18.0868   2.9163198463e+02   7.3791613642e+00   0.01778546   0.01462876  82.64   0.00106036    1.399    0.285
         5 -12.4569     48.5038      9.3652   2.9140515807e+02   7.3988655912e+00   0.03858051   0.02186902  67.96  0.003237084    2.635    0.621
         6 -11.7645     42.2741     14.0726   2.9150870836e+02   7.3796627335e+00   0.02414259   0.01297331 -61.95  0.001808648    1.935    0.483
         7 -10.9061     26.4534     15.1485   2.9171258176e+02   7.4571321896e+00   0.01992669  0.009385808 -49.55  0.001719128    2.198    0.545
         8 -10.9315     64.3290     14.3319   2.9123411816e+02   7.2510615679e+00   0.01784232  0.008191934  52.89  0.001362818    2.860    0.650
         9 -11.1240     13.0309     13.8329   2.9187347761e+02   7.5486487619e+00   0.01370628  0.009716427 -57.80 0.0006404956    1.469    0.319
        10 -11.9102     16.7167      7.5680   2.9179332390e+02   7.6004653499e+00    0.0213774   0.01437066  -2.58  0.001802491    1.753    0.430
        11 -11.7534    178.0247     12.8228   2.8980472604e+02   6.6182320882e+00   0.02415835    0.0116969  37.23  0.001908462    1.902    0.474
        12 -11.9184    176.2812      7.3479   2.8979663006e+02   6.6917594261e+00   0.01457086   0.01164003   4.52 0.0009772837    1.296    0.228
        13 -11.0001     78.1027     11.6040   2.9104695492e+02   7.2041991182e+00   0.01310451   0.00949075 -53.40 0.0007936415    1.436    0.303
        14 -11.1548     74.4953      9.3522   2.9107983694e+02   7.2509186792e+00   0.02098224  0.007522671 -71.23  0.001440152    3.675    0.728
        15 -10.0352    169.8674      8.8009   2.8988464352e+02   6.7117058770e+00   0.00919506  0.007452867  52.71 0.0002370937    1.286    0.223
        16 -11.7044    107.7133      7.4803   2.9065415415e+02   7.0829818643e+00   0.01456513   0.01181096  30.66  0.000583688    1.150    0.131
        17 -11.1736     24.6829      6.9886   2.9169043725e+02   7.5619398292e+00   0.01162735  0.009176636  36.39 0.0004754522    1.200    0.167
        18  -9.8270     61.2989      6.3513   2.9122864070e+02   7.3609847995e+00  0.007208351   0.00495459 -27.96 0.0007036483    1.691    0.409
        19 -11.4492     30.4804      3.6383   2.9159965470e+02   7.5678861782e+00   0.02387631   0.01239543  53.30    0.0020205    2.356    0.576
        20 -11.1778    217.6578      3.2456   2.8925789291e+02   6.5016128003e+00   0.01355915   0.01102132 -37.93 0.0008829355    1.307    0.235
        21 -11.0890    134.4996      4.1616   2.9030120418e+02   6.9682529670e+00   0.01275655  0.008942523  24.61 0.0006429376    1.336    0.252
        22 -11.3521     75.0168      2.6568   2.9103688625e+02   7.3256680559e+00   0.02971048  0.008508059  37.40    0.0020745    3.035    0.671
        23 -10.1026      1.8915      4.1650   2.9196049501e+02   7.7241129992e+00   0.00956086  0.007792487 -21.08 0.0006565179    1.329    0.248
        24 -10.5147    233.3759      2.7879   2.8905939883e+02   6.4164839764e+00  0.009379108  0.006096005 -51.63 0.0004722013    1.596    0.373
        25  -9.9621    118.5813      2.8408   2.9049299481e+02   7.0746840525e+00  0.009081524  0.006652148 -88.68 0.0006669438    1.649    0.393
        26 -11.0026     91.4378      2.4464   2.9083030175e+02   7.2343961428e+00   0.01240897   0.01032361  44.00 0.0008319163    1.187    0.158
        27 -10.9697     38.2429      2.6627   2.9149717247e+02   7.5350697702e+00    0.0127259  0.009516302  59.72 0.0004873928    1.499    0.333
        28 -11.4663    159.6839      1.8963   2.8997417407e+02   6.8502261559e+00   0.01780521  0.009583485  21.53  0.001287003    1.805    0.446
        29 -10.0260     86.6127      2.2445   2.9088956316e+02   7.2642878097e+00  0.007299266  0.004603921  47.96 0.0006938473    1.656    0.396
        30 -10.5892    180.0175      1.4725   2.8971792505e+02   6.7384728788e+00   0.01051939  0.006405945  24.29 0.0003108433    1.544    0.352
        31 -11.2061     68.9023      3.8998   2.9112015883e+02   7.3461072542e+00   0.01261117  0.009087464 -10.42 0.0006502441    1.610    0.379
        32 -10.7502     52.9930      1.5041   2.9130623574e+02   7.4645683300e+00   0.01800966  0.006343298  25.02  0.001339051    2.636    0.621
        33 -12.2944    105.3089    223.6732   2.9185704176e+02   4.5832945536e+00   0.01738811    0.0135935  25.53 0.0005395241    1.196    0.164
        34  -9.8184    205.9617    251.0000   2.9075121730e+02   3.6906554259e+00   0.01182726  0.003700594  24.70 0.0008102467    2.997    0.666
        35  -9.7793    190.9225    250.8032   2.9093731985e+02   3.7789315970e+00  0.008909428  0.005153378  22.55 0.0003195616    1.651    0.394
        36  -9.5939    182.6198    250.2826   2.9103785285e+02   3.8324412643e+00  0.007432786  0.004696974  51.25 0.0007010639    1.723    0.420
        37 -10.7779    160.7322    249.1733   2.9130436797e+02   3.9703918846e+00   0.01387619   0.01085446 -61.75  0.001534858    1.351    0.260
        38 -11.2585    150.3122    248.7826   2.9143202320e+02   4.0344385265e+00   0.01780809   0.01246058 -23.72  0.001416575    1.678    0.404
        39 -12.9312    147.1203    240.4866   2.9142691379e+02   4.1491488771e+00   0.02454608   0.02194438 -74.07  0.002913422    1.211    0.175
        40 -11.6730    139.7104    249.0752   2.9156565571e+02   4.0915544709e+00   0.02793433   0.01846641   4.66  0.002722471    1.705    0.413
        41 -11.6967    142.0731    243.2521   2.9150474142e+02   4.1457966236e+00   0.01807876   0.01241468 -83.70 0.0007271654    1.767    0.434
        42 -12.5456    128.0651    250.2554   2.9171709847e+02   4.1442749394e+00   0.01827335   0.01328691  57.97 0.0006796154    1.535    0.348
        43 -12.3250    122.2203    249.0386   2.9178333933e+02   4.1917677858e+00   0.02282783   0.01556702 -40.47  0.002340581    1.590    0.371
        44 -12.3278    118.9669    248.5024   2.9182097612e+02   4.2165590325e+00   0.01800481   0.01471242 -18.06  0.000867167    1.328    0.247
        45 -13.1935     92.2093    224.3694   2.9202410782e+02   4.6498569470e+00   0.05556208   0.03629991  55.43  0.005491287    1.735    0.424
        46 -12.1671     69.3360    175.6853   2.9204635094e+02   5.3466207548e+00   0.02751827   0.01470588   8.05  0.001746477    2.311    0.567
        47 -13.1957     81.2582    207.7979   2.9207114994e+02   4.9050659791e+00   0.06616741   0.05910314  43.87  0.007872454    1.109    0.098
        48 -13.5085     68.1915    189.8906   2.9213740514e+02   5.1878447385e+00   0.03417303   0.02960747 -25.24  0.003984093    1.220    0.181
        49 -13.0480     74.9776    183.5579   2.9201850995e+02   5.2228918483e+00    0.0426633   0.02335411 -70.76  0.002908206    2.080    0.519
        50 -12.8429    106.6230    248.6998   2.9197584504e+02   4.2846404469e+00   0.03115011    0.0262452 -31.64  0.001693868    1.261    0.207
        51 -13.2329     70.9993    213.5854   2.9223034954e+02   4.8961376297e+00   0.09056477   0.02053542  38.98  0.002519272    3.867    0.741
        52 -12.4880     73.4116    205.1819   2.9215488609e+02   4.9801903417e+00   0.01899447   0.01526527 -62.28 0.0003476689    1.318    0.241
        53 -12.6818     71.7830    198.7653   2.9214054204e+02   5.0641290249e+00   0.06088462   0.02476146  14.16  0.004323655    3.173    0.685
        54 -12.4001     78.4651    221.9802   2.9218257045e+02   4.7559459719e+00   0.01666973   0.01267395  14.63 0.0003693841    1.299    0.230
        55 -13.5389    113.9487    239.0492   2.9183243708e+02   4.3551471292e+00   0.03364813    0.0259716  16.85 0.0008915358    1.259    0.206
        56 -12.5138    118.7786    233.3763   2.9174159366e+02   4.3935970402e+00   0.01869367   0.01418212  79.53  0.001219027    1.585    0.369
        57 -13.2411     89.4582    244.3442   2.9216623908e+02   4.4331193735e+00   0.02065952   0.01357593  27.51 0.0005362847    1.408    0.290
        58 -12.7285     82.7297    230.3512   2.9217458751e+02   4.6342555180e+00   0.02987829   0.01622122   8.87  0.002096184    2.212    0.548
        59 -13.7796     75.1485    240.2469   2.9232249048e+02   4.5622754336e+00   0.03540101     0.017341  41.31  0.001839911    1.981    0.495
        60 -12.8730     67.7829    234.3908   2.9238272423e+02   4.6723409899e+00   0.02013162   0.01633891 -64.25 0.0008839683    1.312    0.238
        61 -14.7145     73.8259    228.5639   2.9227594758e+02   4.7057503179e+00   0.03315827   0.02984497 -74.83    0.0027877    1.203    0.169
        62 -12.9336     62.5302    219.6960   2.9236894803e+02   4.8732295660e+00    0.0128839   0.01226173  41.34 0.0005743845    1.056    0.053
        63 -11.9532     58.8269    215.9986   2.9239518213e+02   4.9373260401e+00   0.02264415   0.01892044 -79.74  0.001420853    1.329    0.247
        64 -13.0294     97.2202    238.3867   2.9203734089e+02   4.4582136818e+00   0.03174519   0.02029737 -29.68  0.002541644    1.874    0.466
        65 -13.5283     88.1264    236.2015   2.9213889159e+02   4.5354474360e+00   0.05585348   0.02992216   8.56  0.003527277    2.278    0.561
        66 -11.2217     91.4764    249.7561   2.9217028906e+02   4.3586577392e+00   0.01422422   0.01069276 -31.30  0.001090534    1.467    0.318
        67 -12.4418     95.5265    247.5910   2.9210813426e+02   4.3607753599e+00   0.01962517   0.01497081  78.95  0.001232551    1.570    0.363
        68 -10.4867     83.6754    250.6774   2.9227247523e+02   4.3923657762e+00  0.008775407  0.005874727  28.95  0.000886437    1.379    0.275
        69 -11.7322     52.5509    250.5086   2.9265947555e+02   4.5714264950e+00   0.01307159  0.007054479  37.22 -1.956267e-05    1.721    0.419
        70 -14.5025     47.4482    198.3149   2.9244170167e+02   5.2078323107e+00   0.09161665   0.04946229  10.53  0.007955044    2.160    0.537
        71 -12.9964     47.2761    229.7351   2.9261330293e+02   4.8431574570e+00   0.03439007   0.01576457  28.39  0.002966305    1.968    0.492
        72 -14.5230     23.2949    199.1363   2.9274749479e+02   5.3355152673e+00    0.0879887   0.06556447  31.80  0.009592366    1.248    0.199
        73 -12.6217     46.9459    244.0306   2.9269444815e+02   4.6786740473e+00   0.02730037   0.01282741 -58.41 0.0008809085    2.144    0.533
        74 -14.4391     33.2500    215.8193   2.9271322391e+02   5.0848163981e+00   0.06958287   0.04796276  53.50  0.006691695    1.581    0.367
        75 -13.7017     36.7589    226.6713   2.9272794049e+02   4.9385859548e+00   0.04376862   0.02835627 -40.94  0.002940301    1.684    0.406
        76 -14.6861     29.3716    223.9248   2.9280526990e+02   5.0125141021e+00   0.07570409   0.05048319  -4.39  0.006844196    1.801    0.445
        77 -14.0748     42.1387    239.1429   2.9272804785e+02   4.7628754504e+00   0.04523991   0.02770039 -22.19  0.003297597    2.135    0.532
        78 -16.1576     10.5514    218.2986   2.9300970118e+02   5.1848260112e+00    0.1150723   0.05355144 -48.16  0.009860693    2.261    0.558
        79 -14.6003      4.0105    200.1166   2.9299340124e+02   5.4335393031e+00   0.07090738   0.03294585 -66.02  0.006067912    2.320    0.569
        80 -16.7960     18.9574    247.7464   2.9306334655e+02   4.7944045600e+00    0.1337401   0.05642161  23.34      0.01087    2.270    0.560
        81 -14.5648      2.9379    247.9716   2.9326424737e+02   4.8826626847e+00    0.0310888   0.01554432 -49.03  0.002766014    2.085    0.520
        82 -15.5186      7.6834    240.6667   2.9316581669e+02   4.9407651208e+00   0.04945432   0.03734601 -24.06  0.005307322    1.487    0.328
        83 -11.2343    100.0720    216.4799   2.9188345652e+02   4.6968411431e+00   0.01879732    0.0140359 -13.32  0.001486012    1.526    0.345
        84 -10.5242    130.0031    206.9615   2.9145882962e+02   4.6368314165e+00   0.01139766  0.009653321 -62.02  0.001077428    1.252    0.202
        85 -12.4176    104.4906    209.0826   2.9178837773e+02   4.7577153571e+00    0.0352886    0.0239167 -89.08  0.002424281    1.863    0.463
        86 -12.4454    132.1675    216.3451   2.9148262850e+02   4.5153204417e+00   0.04417503   0.02463203  87.87  0.002815248    2.796    0.642
        87 -11.2460    128.9678    228.2211   2.9158674503e+02   4.3954343381e+00   0.01131424  0.009814184 -58.19 0.0004911679    1.217    0.178
        88 -12.3525    124.0050    225.1048   2.9163174244e+02   4.4600053037e+00   0.02513795   0.02050694  86.63  0.001709119    1.412    0.292
        89 -12.7039    117.0707    218.8174   2.9168417521e+02   4.5727100666e+00   0.02824581   0.01734543  73.04  0.001943597    2.300    0.565
        90 -11.6267    112.1816    214.1682   2.9171998407e+02   4.6546866183e+00   0.01977629   0.01481516 -74.03 0.0007762068    1.485    0.327
        91  -9.8182    211.6245    228.2173   2.9055727285e+02   3.9230860292e+00  0.009078687  0.006123146 -50.91 0.0002871303    1.540    0.351
        92 -10.7652    201.7089    226.6907   2.9067241869e+02   3.9975670041e+00    0.0147828  0.009779987 -43.74  0.001491105    1.615    0.381
        93 -11.7689    108.5518    215.5417   2.9177266252e+02   4.6594088816e+00   0.01672657   0.01461401  -0.58  0.001631585    1.166    0.143
        94 -11.5484    125.6072    216.5417   2.9156546121e+02   4.5504775495e+00   0.03505683    0.0190406  40.33  0.003250777    1.764    0.433
        95 -10.0878    170.9403    225.4758   2.9104896582e+02   4.1876434526e+00   0.01023689  0.004533291  45.58 0.0008072589    2.413    0.586
        96 -11.7032    162.4188    221.8469   2.9113545953e+02   4.2785470432e+00   0.02186158   0.01355119  77.09  0.001097589    2.292    0.564
        97 -10.8570    162.4648    217.5314   2.9111151646e+02   4.3284718395e+00   0.01217254  0.009525237  28.61 0.0008218129    1.189    0.159
        98 -11.6860    158.0982    224.3505   2.9120284015e+02   4.2741172515e+00   0.01142885   0.01062843 -86.13 0.0003254461    1.168    0.144
        99 -10.5927     53.0590    221.6472   2.9249758605e+02   4.9043989529e+00   0.02480129   0.01163528 -59.87  0.002163796    2.161    0.537
       100 -10.6886    180.3586    222.5225   2.9091566669e+02   4.1681424094e+00   0.01930989   0.01168581 -20.34  0.001549682    2.215    0.549
       101  -9.8569    184.2781    222.6865   2.9086774397e+02   4.1438227682e+00  0.009612908  0.006352572  11.11 0.0003565312    1.598    0.374
       102  -9.8750    149.4275    223.4912   2.9130621339e+02   4.3336432752e+00  0.006761634  0.006413666  10.20 6.475472e-05    1.034    0.032
       103 -11.8534    189.2912    207.4518   2.9072273217e+02   4.2922849574e+00   0.01994354   0.01828104  44.44  0.002396068    1.088    0.081
       104 -11.7880    193.3630    214.5118   2.9071030515e+02   4.1869051584e+00   0.02072357   0.01429795  73.91  0.002056925    1.847    0.459
       105  -9.6505    243.6443    221.2488   2.9012106653e+02   3.8207533295e+00  0.007170136  0.004697477  48.73 0.0006945783    1.598    0.374
       106 -10.0192    250.4471    220.4630   2.9003219026e+02   3.7909148788e+00  0.006826932   0.00635827  32.22  4.35418e-05    1.031    0.030
       107  -9.8529    221.3044    219.6886   2.9039054712e+02   3.9668138001e+00  0.007113619   0.00491546  55.72 0.0004575646    1.613    0.380
       108 -10.9634    206.2896    218.9936   2.9057366332e+02   4.0608360782e+00   0.01225575  0.008903911  34.91 0.0003132048    1.287    0.223
       109 -11.4130    140.6599    218.4377   2.9138811456e+02   4.4424933882e+00   0.01795327   0.01229709  37.80 0.0009295425    1.379    0.275
       110 -12.0680    176.7680    216.3531   2.9092695941e+02   4.2604109772e+00   0.01679103   0.01296157 -13.04 0.0005814758    1.447    0.309
       111 -10.7867    228.9727    216.8542   2.9027974448e+02   3.9558501311e+00   0.01111814   0.01033663 -67.07 0.0007465754    1.151    0.131
       112 -10.7271     49.8652    216.1782   2.9250792212e+02   4.9862060017e+00   0.01712367   0.01046881 -47.59  0.001488246    1.718    0.418
       113 -10.2994    145.9669    215.0159   2.9130345855e+02   4.4519867163e+00  0.009740204  0.009690832 -55.28 0.0004760128    1.072    0.067
       114 -11.0354    230.7268    211.7795   2.9023037667e+02   4.0047802412e+00   0.01630862   0.01243842  76.67  0.001695627    1.569    0.362
       115 -11.9137    217.1065    212.7757   2.9040529032e+02   4.0711971937e+00   0.01565433   0.01290944  27.96 0.0007407412    1.132    0.116
       116 -11.9767    211.4457    208.0823   2.9045029099e+02   4.1581616845e+00    0.0283414  0.008916575  29.70  0.002074951    2.705    0.630
       117 -10.4672    161.0248    212.7280   2.9110343976e+02   4.3925639723e+00   0.01079203  0.008453795  48.46 0.0008581451    1.300    0.231
       118 -10.4400    152.9964    212.7436   2.9120355922e+02   4.4382594151e+00   0.00910401  0.008416772  23.34 0.0002524118    1.014    0.014
       119 -12.2585     95.9680    211.4120   2.9190723904e+02   4.7792000574e+00    0.0152036   0.01222525  -2.18 0.0003373386    1.320    0.243
       120 -11.8260     97.8680    205.1232   2.9184955352e+02   4.8415400826e+00   0.02278457   0.01623232  34.99  0.001476733    1.311    0.237
       121 -11.6667    238.0058    210.4805   2.9013275569e+02   3.9781815832e+00   0.01458181   0.01240717 -44.27            0    1.232    0.188
       122 -10.6686    142.8566    210.8498   2.9131966584e+02   4.5182085262e+00  0.009451777  0.007349984  48.48 -0.0006383859    1.311    0.237
       123 -12.0249    199.5039    204.7918   2.9058112444e+02   4.2647708162e+00   0.01252076   0.01161708  43.68 0.0003708052    1.076    0.070
       124 -10.5853    181.6687    209.1776   2.9082702842e+02   4.3158222178e+00    0.0216521  0.007406842  36.95  0.001628543    2.589    0.614
       125 -10.2390     91.0126    208.5012   2.9195330198e+02   4.8413089309e+00  0.009898748   0.00889648 -65.64 -0.0004273479    1.189    0.159
       126 -11.6651    198.5287    219.5150   2.9067310997e+02   4.0991829413e+00   0.02567787   0.01705085  32.27  0.002639638    1.390    0.280
       127 -11.8592    112.2905    205.3469   2.9167092037e+02   4.7566930033e+00   0.01442939   0.01151798  57.57            0    1.351    0.260
       128 -12.1367    183.2809    204.3575   2.9078081603e+02   4.3626470699e+00   0.01486272   0.01192118 -69.68 0.0002060606    1.351    0.260
       129 -10.0498    144.9926    205.7198   2.9126526883e+02   4.5656771843e+00  0.009204194  0.007801522 -18.19 0.0003371089    1.258    0.205
       130  -9.8030    145.7840    202.4120   2.9123749220e+02   4.5996301165e+00   0.01061291  0.009465895 -43.48 0.0003387835    1.175    0.149
       131 -10.3127    134.6402    205.2948   2.9139200438e+02   4.6297437663e+00   0.01188427  0.007393058  54.35  0.001124247    1.833    0.455
       132 -10.1700    117.5584    204.7057   2.9160176960e+02   4.7340975079e+00   0.01234219   0.00717166  44.43 0.0005983411    1.733    0.423
       133 -10.8715    234.9131    202.7063   2.9012902913e+02   4.0862436778e+00     0.017545   0.01107353  55.81  0.001310488    1.833    0.455
       134 -11.1088    208.8998    202.9667   2.9045423018e+02   4.2322022562e+00   0.01059056  0.009742747  34.16 0.0006486152    1.044    0.042
       135 -11.2257    121.4161    199.1345   2.9152352501e+02   4.7768964584e+00   0.01310611   0.01187059 -77.09 0.0005910398    1.198    0.165
       136 -13.5253     42.7740    210.9940   2.9256841318e+02   5.0868527247e+00   0.05652748   0.03319923  27.95  0.005483785    1.566    0.361
       137 -12.6470    241.2713    200.0081   2.9003526302e+02   4.0811655898e+00   0.02115729   0.01566734  68.78 0.0007950766    1.605    0.377
       138 -11.5712    247.1411    199.9252   2.8996178508e+02   4.0484887512e+00      0.01602  0.008849441  34.02 0.0004046536    1.654    0.395
       139 -10.0599    220.6541    201.3282   2.9029900893e+02   4.1839400668e+00  0.007435895  0.004814024  55.07 0.0007050213    1.752    0.429
       140 -10.2850    166.8768    201.4971   2.9096967525e+02   4.4897224554e+00   0.01021782  0.006359523  26.19  0.000622865    1.493    0.330
       141 -12.6450    216.1358    194.5302   2.9031835359e+02   4.2888319291e+00   0.03173938   0.01459418 -42.68  0.002598979    2.509    0.601
       142 -11.9443    139.4463    197.5014   2.9128989725e+02   4.6929501502e+00   0.02224669   0.01718082  75.87  0.001844592    1.534    0.348
       143 -11.7723    139.9524    194.2497   2.9126597650e+02   4.7278818605e+00   0.01658033   0.01129035 -53.56 0.0003022808    1.521    0.343
       144 -11.1929    106.8379    194.8856   2.9168232510e+02   4.9095020764e+00   0.02144703   0.01262151 -28.85  0.001922619    2.169    0.539
       145 -11.7360    100.3965    198.6123   2.9178281530e+02   4.9028772966e+00   0.02480384   0.01288504  35.53  0.001113088    1.762    0.432
       146 -11.4029     94.5399    195.3824   2.9183839493e+02   4.9738460177e+00   0.01771175   0.01113832  -1.25 0.0009517914    1.960    0.490
       147 -12.3595    205.7747    197.7980   2.9046509403e+02   4.3101792500e+00   0.02632913   0.01409926  41.09  0.001600927    1.805    0.446
       148 -13.0392    188.3606    196.3763   2.9067425933e+02   4.4263823326e+00   0.01612601   0.01576252  -8.37 0.0005929551    1.056    0.053
       149 -12.1136    188.6910    191.1489   2.9064178654e+02   4.4852699308e+00   0.01221705   0.01037005  29.10 0.0003374345    1.101    0.092
       150 -10.1651      9.9397    198.7568   2.9291209351e+02   5.4157332274e+00  0.009283781  0.008002972  25.03  0.000341002    1.087    0.080
       151 -10.8666    169.9247    196.6174   2.9090524805e+02   4.5290413359e+00   0.01557667  0.009060329 -54.88 0.0009094351    1.761    0.432
       152 -10.4713    223.9871    197.7530   2.9023811280e+02   4.2064019334e+00  0.009326955  0.005541291  24.26 0.0005822633    1.583    0.368
       153 -12.3249    248.3786    182.6551   2.8985255481e+02   4.2420567224e+00   0.03508524    0.0170019 -84.47 0.0006548464    3.439    0.709
       154 -12.4586    250.5671    194.6864   2.8989070478e+02   4.0897202148e+00   0.01479874  0.009329361 -62.39 0.0005764495    1.667    0.400
       155 -12.9034    246.2877    190.9209   2.8992348610e+02   4.1580041337e+00    0.0222298   0.01590636  39.27 0.0006002656    1.335    0.251
       156 -10.8704    198.8628    195.1009   2.9053653368e+02   4.3811031989e+00   0.01002462   0.00862658  47.65 0.0003367357    1.170    0.145
       157 -12.0042    113.2366    194.0610   2.9159806444e+02   4.8825932976e+00   0.02028186   0.01596431  33.22  0.001578505    1.189    0.159
       158 -11.2120    233.6826    193.9875   2.9009699459e+02   4.1946158423e+00   0.01231033  0.009938802  12.73 0.0006763587    1.223    0.182
       159 -10.2466     89.7383    193.9799   2.9189070269e+02   5.0175311261e+00  0.008881087  0.008583712 -75.94            0    1.109    0.099
       160 -11.6618     90.2346    188.7859   2.9185642678e+02   5.0751357298e+00   0.03080503   0.01697944  -1.38  0.002169184    2.579    0.612
       161 -11.7658    193.2964    195.1128   2.9060592636e+02   4.4128258959e+00   0.02195582   0.01284911 -43.64  0.002079064    1.854    0.461
       162 -12.4113    163.9805    190.9918   2.9094882379e+02   4.6284523903e+00   0.02254779    0.0197386 -82.87  0.001561747    1.261    0.207
       163 -12.0219    154.5562    192.2331   2.9107301009e+02   4.6678924777e+00   0.01449302   0.01254511  -6.62 0.0003055586    1.201    0.167
       164 -11.8844    149.3144    191.2222   2.9113286985e+02   4.7096068728e+00   0.01674449   0.01260034  64.39 0.0005292242    1.529    0.346
       165 -10.8473    124.0795    191.9364   2.9145135252e+02   4.8454296009e+00   0.01052165  0.009808143  12.66 0.0005342395    1.037    0.036
       166 -13.4403      2.3948    189.6475   2.9295717131e+02   5.5645447865e+00   0.02119677   0.01570233  49.64  0.001373607    1.397    0.284
       167 -11.9794      7.2982    186.4921   2.9287896996e+02   5.5734562220e+00   0.01838485   0.01224213  37.15 0.0008903015    1.412    0.292
       168 -12.6914      1.5214    182.9072   2.9293175440e+02   5.6479422294e+00   0.02033225  0.009057482 -67.27 0.0008433161    2.474    0.596
       169 -10.7255    178.2500    189.8794   2.9076497806e+02   4.5597736810e+00   0.01617186  0.009864083 -71.13  0.001557064    1.846    0.458
       170 -10.7682    120.5265    188.7186   2.9147823780e+02   4.9031439098e+00    0.0147524  0.007081031 -79.98  0.001129847    3.047    0.672
       171 -10.5087     99.3650    184.7321   2.9172060153e+02   5.0702500617e+00   0.01350182  0.009041101  -2.19 0.0008594039    1.766    0.434
       172 -12.7778    106.4514    187.5374   2.9164738704e+02   4.9971973152e+00   0.02412403   0.02193884  55.97 0.0005265244    1.143    0.125
       173 -11.5952    103.5043    181.9847   2.9165409950e+02   5.0786066142e+00   0.01451244   0.01313299   9.79 0.0005297751    1.079    0.073
       174 -12.5617    104.0229    178.0318   2.9162623574e+02   5.1216358599e+00   0.02793848   0.01440492  48.14  0.002145259    2.119    0.528
       175 -11.5098     82.0270    189.2795   2.9196148648e+02   5.1161623581e+00   0.01936564   0.01145461 -41.77 0.0009572555    1.863    0.463
       176 -10.9819     35.6745    178.0157   2.9247906870e+02   5.5109861401e+00   0.01336979    0.0101508 -18.58 0.0007082261    1.486    0.327
       177 -13.2291     32.5119    183.2359   2.9254671707e+02   5.4682087041e+00   0.03659311   0.02422757 -89.19 0.0009897294    1.936    0.483
       178 -11.6347     26.8636    179.4974   2.9259704254e+02   5.5438014708e+00   0.01661335   0.01391005 -78.62  0.001036548    1.321    0.243
       179 -11.3957    194.8018    186.6592   2.9054130573e+02   4.5024916743e+00   0.02123584   0.01200049  65.51  0.001785913    2.562    0.610
       180 -10.7823    190.1803    186.8181   2.9059973698e+02   4.5270974038e+00   0.01357882  0.009270838  25.45  0.001083356    1.368    0.269
       181 -11.5922     60.3506    183.3723   2.9220002631e+02   5.3083238645e+00   0.02539908   0.01906993 -53.63  0.002770945    1.387    0.279
       182 -11.0840     61.6108    179.0288   2.9216083096e+02   5.3516942051e+00   0.02285783   0.01218816  89.23  0.001793554    3.061    0.673
       183 -11.0877    234.0591    185.9846   2.9004883840e+02   4.2854586928e+00   0.01020878  0.009594312  19.65 0.0003404783    1.011    0.011
       184 -11.0287    137.8753    185.3846   2.9124384982e+02   4.8428618570e+00   0.01608382   0.01048349 -13.39 0.0007888883    1.940    0.485
       185 -11.9710     23.7006    184.7615   2.9266492005e+02   5.5005037468e+00   0.01451476   0.01153878 -38.58  0.001611651    1.337    0.252
       186 -11.0765    175.6778    183.9792   2.9076502576e+02   4.6430953210e+00   0.01807847   0.01032353 -59.00  0.001099407    1.802    0.445
       187 -12.2090    123.9111    183.2514   2.9140642640e+02   4.9474220820e+00   0.02971598  0.009856076  40.74  0.002146275    2.898    0.655
       188 -11.9901    118.6795    177.9564   2.9144300025e+02   5.0388818381e+00   0.01766228    0.0130398  -2.38 0.0006498655    1.506    0.336
       189 -10.7869    113.9771    178.5285   2.9150475280e+02   5.0590646855e+00   0.01100059  0.008814055  50.53 0.0003888273    1.286    0.222
       190 -11.7123    218.5433    180.2570   2.9021087580e+02   4.4409393979e+00   0.02230577    0.0176043 -58.00  0.002088594    1.330    0.248
       191 -10.0835    225.4532    183.5099   2.9014251647e+02   4.3635389674e+00  0.006831855  0.006382728  -0.59 -4.209578e-07    1.072    0.067
       192 -12.1684     92.7847    180.1491   2.9177789697e+02   5.1610877765e+00   0.02570884   0.01261278 -47.16  0.001825851    2.167    0.538
       193 -12.1694    230.0936    179.9424   2.9006537115e+02   4.3784043063e+00    0.0266886   0.01628176 -72.39  0.002168257    1.871    0.466
       194 -11.3609     42.1191    179.6585   2.9240749862e+02   5.4552386226e+00   0.01781401   0.01179971 -43.00  0.001801444    1.619    0.382
       195 -11.2836     12.4480    178.7555   2.9277298360e+02   5.6342755944e+00   0.03253486   0.01316051 -38.39  0.002289297    3.474    0.712
       196 -10.2941      9.4453    177.4666   2.9280351599e+02   5.6663122825e+00   0.01218037  0.009239132  32.75  0.001057488    1.230    0.187
       197 -12.1175      4.8110    175.2759   2.9284955792e+02   5.7180960532e+00   0.03149982   0.02057916  53.97  0.002567378    1.706    0.414
       198 -11.1031      3.4587    167.4301   2.9282413610e+02   5.8170691516e+00   0.01264819   0.01111216  43.78  0.000536465    1.125    0.111
       199 -12.2500      7.7651    165.9031   2.9276213098e+02   5.8104124731e+00   0.02297195   0.01612731 -54.20 0.0006595375    1.477    0.323
       200 -11.2886     17.4858    181.4904   2.9272484789e+02   5.5738561635e+00   0.01340818   0.01218873   4.75 0.0009457773    1.090    0.083
       201 -12.0104     18.9103    177.2666   2.9268428526e+02   5.6149235473e+00   0.02574786    0.0159015  67.54  0.001557086    2.178    0.541
       202 -10.0057    143.4236    180.5000   2.9114820431e+02   4.8679772282e+00  0.006781118  0.006385699  31.42 5.500838e-05    1.027    0.027
       203 -11.8794     48.0217    180.0370   2.9233587285e+02   5.4172723184e+00   0.02531397   0.01527752 -61.80  0.002481335    1.730    0.422
       204 -11.2477     54.6888    175.3020   2.9222708378e+02   5.4344473641e+00   0.01921339   0.01216315  57.77  0.001102455    1.869    0.465
       205 -12.2416     48.5428    174.5328   2.9229964039e+02   5.4783587351e+00   0.01190016    0.0109665  46.57 0.0004461469    1.092    0.085
       206 -12.3061     50.1350    170.2452   2.9225660268e+02   5.5191943594e+00   0.02143129   0.01439495  34.33  0.001041207    1.383    0.277
       207 -11.4071    177.6133    177.0517   2.9070332409e+02   4.7125723732e+00   0.01723468  0.008441825 -64.01  0.001511588    2.153    0.535
       208 -11.1773     88.1498    177.6848   2.9182239414e+02   5.2161791365e+00   0.01345082  0.009427245 -20.92 0.0006967349    1.686    0.407
       209 -12.3041    243.2207    172.4325   2.8986117341e+02   4.3904094703e+00    0.0175778   0.01240011  35.35 0.0006193898    1.325    0.245
       210 -12.6718    236.7396    173.0364   2.8994511846e+02   4.4205564704e+00   0.02162681   0.02066168  27.79  0.002077916    1.025    0.024
       211 -11.4943    170.3639    176.6576   2.9079153278e+02   4.7586315460e+00   0.01059691  0.007314155  55.34  0.001067298    1.609    0.379
       212 -11.7025    136.5410    176.2425   2.9121095186e+02   4.9568200534e+00   0.01299848   0.01095209 -41.23 0.0005413754    1.248    0.199
       213 -11.2466    204.6180    174.7569   2.9035442172e+02   4.5846457412e+00   0.01511208   0.01053368  51.01   0.00102005    1.521    0.342
       214  -9.7974    125.5072    175.5786   2.9134496131e+02   5.0275612020e+00  0.006826603  0.006342302  16.07 9.087033e-05    1.029    0.028
       215 -10.6189    194.8589    173.0544   2.9046674601e+02   4.6603276404e+00   0.01234959  0.009128585 -54.78  0.001146764    1.409    0.290
       216 -11.8224    156.7731    172.8604   2.9094034898e+02   4.8805191644e+00   0.01610077   0.01261048  60.80  0.001276338    1.413    0.292
       217 -10.0805    152.4949    174.4911   2.9100253023e+02   4.8860155318e+00   0.00684641  0.006400405  26.76 0.0008105811    1.012    0.011
       218 -10.5565     76.8525    173.8487   2.9194261807e+02   5.3251829416e+00  0.009674416  0.008910477 -11.08 0.0002713102    1.112    0.100
       219 -11.4001     60.4987    173.2205   2.9214332169e+02   5.4256088259e+00   0.01449711   0.01127935  77.64  0.001190603    1.519    0.342
       220 -11.4828     61.2533    167.6127   2.9210359159e+02   5.4865640781e+00   0.01346411   0.01179439 -22.96 0.0004826124    1.202    0.168
       221 -11.8977     35.4160    172.9725   2.9245506926e+02   5.5711425046e+00   0.01605872   0.01283005 -78.63  0.000925634    1.401    0.286
       222 -11.0358     31.4480    169.6823   2.9248684120e+02   5.6319771255e+00   0.01317869   0.01052926  -4.23 0.0005001229    1.342    0.255
       223 -11.2556     24.5580    171.8116   2.9258434935e+02   5.6463356122e+00   0.02672131   0.01238511 -35.51  0.001715193    2.963    0.663
       224 -10.0718    219.4873    172.9468   2.9015941221e+02   4.5204935867e+00  0.009511005  0.006855827 -65.98 0.0004886371    1.487    0.328
       225 -10.6368    129.4859    175.6496   2.9129572359e+02   5.0040154124e+00   0.01359203  0.008534323  48.54 0.0007293531    1.676    0.403
       226 -11.8563     87.3408    171.0934   2.9179682863e+02   5.2974787380e+00   0.01826485   0.01329841 -88.20  0.001645605    1.656    0.396
       227 -11.7045     66.3013    169.7378   2.9205207158e+02   5.4331019932e+00   0.01230418   0.01174576 -77.14 0.0007052782    1.126    0.112
       228 -11.3200    132.0106    169.9753   2.9123348769e+02   5.0555954862e+00   0.01282787   0.01003725 -10.74            0    1.411    0.291
       229  -9.8593    135.6704    168.6891   2.9118087138e+02   5.0496484809e+00  0.007220171  0.006558196  40.33 0.0002636683    1.078    0.072
       230 -11.3411    124.3032    170.1015   2.9133030600e+02   5.0981457457e+00   0.01883749  0.009309783  13.70  0.001551073    2.321    0.569
       231 -11.4862     71.8936    169.1328   2.9197900118e+02   5.4082983851e+00   0.01700897   0.01164534  25.96  0.001551685    1.361    0.265
       232 -10.5393     19.6129    169.7481   2.9263495028e+02   5.6984284784e+00    0.0130264  0.008370135   7.53  0.001253803    1.725    0.420
       233 -10.1626    217.1615    167.6612   2.9015965667e+02   4.5952528035e+00   0.01636422  0.004468498 -61.92  0.001104584    3.544    0.718
       234 -11.7829    170.5542    168.5957   2.9074542041e+02   4.8512865289e+00   0.01446435   0.01081639  18.10 0.0009504556    1.296    0.228
       235 -10.1815    108.7602    169.3783   2.9152028480e+02   5.1952796490e+00  0.009233294  0.006301871  11.17 0.0003505143    1.529    0.346
       236 -10.3988    190.3208    180.7010   2.9056479052e+02   4.5974128702e+00   0.01228478  0.008584885 -87.12  0.001236692    1.758    0.431
       237 -10.8102    193.3114    167.9884   2.9045852095e+02   4.7280827362e+00   0.01166038  0.008588946  37.66 0.0004488681    1.286    0.223
       238 -11.9411    186.3453    164.0962   2.9052418821e+02   4.8132196511e+00   0.02958945  0.009814175 -68.99  0.002013646    3.707    0.730
       239 -11.3313     77.0406    166.2005   2.9189890167e+02   5.4130981023e+00   0.01060017  0.009654537 -56.84 0.0003000028    1.161    0.138
       240 -10.3684     33.7806    157.6303   2.9239263166e+02   5.7589625335e+00   0.01533147  0.006217782  37.69  0.001098791    2.253    0.556
       241 -10.9762     37.4632    160.8003   2.9236377359e+02   5.7011473257e+00   0.01775431   0.01128901 -61.59  0.001341685    1.645    0.392
       242 -12.3696     40.3791    166.0129   2.9235552687e+02   5.6239176941e+00   0.01413918   0.01181409  17.12 0.0004071744    1.149    0.130
       243 -11.1921     36.4821    165.5247   2.9240154254e+02   5.6517501072e+00   0.01086391  0.009971779  82.82 0.0005089124    1.188    0.158
       244 -11.1831    140.2973    165.4011   2.9110534213e+02   5.0614514444e+00   0.01265789   0.01097084  40.56 0.0006437589    1.121    0.108
       245 -12.4863    103.8621    236.5213   2.9194448576e+02   4.4420619949e+00    0.0368418   0.02474047  71.50  0.003597927    1.916    0.478
       246 -11.2838     45.1408    162.1212   2.9227505332e+02   5.6421290222e+00   0.01047376  0.008901414  59.48  0.001194326    1.258    0.205
       247 -10.8808    119.6836    164.7136   2.9135874033e+02   5.1871943829e+00   0.01272781  0.009332526  49.85  0.000587402    1.417    0.294
       248 -10.6237    203.9483    157.4881   2.9026896375e+02   4.7892110286e+00   0.01089045  0.009168079 -20.75 0.0006281143    1.272    0.214
       249 -10.0915    203.9746    164.4597   2.9030650971e+02   4.7080261991e+00   0.01075475  0.009141566  56.73 0.0004152054    1.242    0.195
       250 -10.2996    203.0434    161.0098   2.9029937025e+02   4.7534618531e+00   0.01078652  0.008911331  44.64 0.0009731966    1.199    0.166
       251 -10.9517    195.7009    164.4080   2.9040930477e+02   4.7560207642e+00   0.01326731  0.005838488  29.94 0.0007156639    2.026    0.506
       252 -11.7544    100.8504    163.3230   2.9158618804e+02   5.3108473105e+00   0.01436528   0.01032806 -42.55  0.001329661    1.481    0.325
       253 -10.1180     87.1744    162.8118   2.9175408914e+02   5.3947764163e+00  0.009615188  0.007775105 -18.06 0.0006132193    1.349    0.259
       254 -10.4082     55.2626    162.9302   2.9215306145e+02   5.5751396681e+00   0.01459084  0.006240747  46.55 0.0006877899    2.590    0.614
       255 -11.6567     20.8973    161.0849   2.9257215773e+02   5.7919472667e+00    0.0298459   0.01305551  18.41  0.002371423    2.437    0.590
       256 -12.0366    223.8516    161.4839   2.9004277712e+02   4.6286957779e+00   0.01331667   0.01148253  28.18 0.0003436961    1.085    0.078
       257  -9.7457    212.7344    162.6929   2.9018779772e+02   4.6783683864e+00   0.00681017   0.00501195 -27.71 0.0003758899    1.532    0.347
       258  -9.8347    169.3331    162.3033   2.9072649466e+02   4.9314382496e+00  0.007135431  0.005043289 -22.36 0.0003895437    1.659    0.397
       259 -10.3478    132.7837    162.4025   2.9118279838e+02   5.1392588184e+00   0.01322904  0.005829997  29.85   0.00110849    2.024    0.506
       260 -10.5483     50.1872    162.4523   2.9221384006e+02   5.6095751315e+00   0.01072528  0.005462744  37.64 0.0009522425    1.824    0.452
       261 -10.7777      3.9252    161.0111   2.9278369167e+02   5.8891206134e+00    0.0110324   0.00746987  55.75 0.0005275563    1.658    0.397
       262 -10.8575    196.9219    159.7918   2.9036902019e+02   4.8026875234e+00   0.01118846  0.009937827 -62.25 0.0006520653    1.197    0.164
       263 -10.2281    109.8905    160.1546   2.9145622402e+02   5.2961264083e+00   0.01009451  0.008612064  50.25 0.0004450513    1.197    0.164
       264 -10.8424    128.6392    158.7683   2.9121479646e+02   5.2052036974e+00   0.01051645  0.008233281 -40.86 0.0007393539    1.354    0.262
       265 -11.1999     95.5521    157.3481   2.9161995344e+02   5.4105725488e+00   0.01308422  0.009470499  37.55 0.0005921043    1.308    0.235
       266  -9.8232     66.4872    158.4474   2.9198869450e+02   5.5634085569e+00  0.006844372  0.006360275  27.49 0.0001650327    1.016    0.016
       267 -10.4051    213.2218    157.6192   2.9015415609e+02   4.7345440546e+00    0.0100423  0.006331109  10.66 0.0009526827    1.717    0.418
       268 -10.3411    159.8220    157.3593   2.9081824281e+02   5.0433391904e+00  0.009487296  0.006250785  11.52 0.0002345416    1.598    0.374
       269 -10.8112    123.5548    156.5475   2.9126618770e+02   5.2600734861e+00   0.01425564   0.01155235 -25.14  0.001062271    1.339    0.253
       270 -10.3502      7.9901    149.7898   2.9267237676e+02   5.9966346795e+00   0.01041798  0.008466941  42.08 0.0003394537    1.201    0.168
       271 -11.2883     11.6755    151.9026   2.9263775147e+02   5.9511397086e+00   0.01217884  0.009116553  30.57 0.0002836969    1.241    0.194
       272 -10.6687     20.6485    150.0543   2.9251570570e+02   5.9217111265e+00   0.01265545  0.009591214  16.04  0.000561062    1.291    0.226
       273 -11.6808     11.4171    156.1450   2.9266387810e+02   5.9032417155e+00   0.02306223   0.01350884  33.70  0.001515472    1.566    0.362
       274 -10.3447    182.4949    156.5203   2.9053103791e+02   4.9233402455e+00   0.01271644  0.006552459   8.90  0.001029467    2.436    0.589
       275 -10.4133    171.5081    156.4651   2.9066769107e+02   4.9868735322e+00  0.006847613  0.006383648  27.28 0.0001402455    1.014    0.014
       276 -11.2469    156.3353    155.6352   2.9085236470e+02   5.0833321643e+00   0.01123972   0.00841092 -85.74 0.0005867541    1.576    0.365
       277 -11.0936    145.8228    154.7331   2.9097857254e+02   5.1539355915e+00   0.01725858   0.01178182  73.59  0.001695322    1.880    0.468
       278 -10.6045    139.1502    156.1157   2.9106929839e+02   5.1759971386e+00   0.01421487  0.008494117  20.29 0.0008566405    1.632    0.387
       279 -10.4992     43.5497    156.0190   2.9226194288e+02   5.7221783402e+00   0.01021722  0.006789048 -64.70 0.0007754728    1.601    0.375
       280  -9.9189    199.8708    155.0944   2.9030675899e+02   4.8403976502e+00  0.009320074  0.007587628 -32.72 0.0005196019    1.316    0.240
       281 -10.4700    176.4596    154.9796   2.9059789994e+02   4.9758042902e+00   0.01026752  0.008625325  23.19 0.0003248486    1.119    0.106
       282 -11.6802    114.9872    154.6399   2.9136274782e+02   5.3311812169e+00   0.02113744    0.0121844  46.85 0.0008672694    1.810    0.448
       283 -12.3224    107.1112    154.2575   2.9145895676e+02   5.3805824988e+00   0.02345981   0.01207491 -44.82  0.002077822    2.116    0.527
       284 -11.7330     37.4216    154.1741   2.9232849326e+02   5.7784841109e+00   0.01679379    0.0122953  84.89  0.001439682    1.675    0.403
       285 -10.8247     34.7049    151.3068   2.9234692490e+02   5.8272873810e+00   0.01105113  0.008720481 -69.49 0.0004871965    1.373    0.271
       286  -9.9902    128.9793    153.9936   2.9118466762e+02   5.2587936583e+00   0.00850008  0.007590008  23.82 0.0009925369    1.050    0.048
       287  -9.9734     85.7270    154.6571   2.9172801294e+02   5.4978962636e+00  0.007039846  0.004962402 -29.67 0.0006996306    1.616    0.381
       288 -10.8751     27.6884    154.0721   2.9244948678e+02   5.8349781898e+00   0.01497494  0.008172836  41.79 0.0008126156    1.788    0.441
       289 -12.1160    248.0532    150.8297   2.8968355352e+02   4.6136706768e+00   0.01820572   0.01615192 -87.35  0.001542998    1.245    0.197
       290 -11.3351    225.7557    152.0735   2.8996791097e+02   4.7271322834e+00   0.01256069  0.009556144  17.37 0.0003332243    1.277    0.217
       291 -10.7607    166.2202    152.0213   2.9070949367e+02   5.0688025212e+00  0.009024933  0.008837856  39.53  0.001107586    1.056    0.053
       292 -11.0251    137.9185    151.8266   2.9106139930e+02   5.2329178360e+00   0.01008007  0.008789007  -8.42 0.0003335654    1.193    0.162
       293 -11.8150     18.4797    153.9436   2.9256379372e+02   5.8887705193e+00   0.02527735   0.01378413  13.87  0.001444758    1.997    0.499
       294 -11.3165    178.0751    149.6728   2.9054894437e+02   5.0282521020e+00   0.01096273  0.009565308  84.75 0.0005454513    1.279    0.218
       295 -10.2629    104.2945    149.0138   2.9146569831e+02   5.4576512148e+00  0.009241263  0.008998732 -78.94 0.0007135065    1.101    0.092
       296 -10.5026    201.8950    147.8413   2.9024212517e+02   4.9131027545e+00   0.01826142  0.008142737  56.42  0.001278901    3.493    0.714
       297 -10.4354     91.8031    147.8634   2.9161538013e+02   5.5422858204e+00   0.01011513  0.008953334 -25.38 0.0004053991    1.186    0.157
       298 -10.6879     21.9037    130.2908   2.9239324929e+02   6.1445224423e+00   0.01222584   0.01037006 -24.87 0.0008424538    1.255    0.203
       299 -11.0858     23.7340    135.1600   2.9239669927e+02   6.0774810322e+00   0.01214003      0.01143  41.66  0.000412516    1.061    0.057
       300 -12.1116     21.5997    141.2074   2.9245603807e+02   6.0192442213e+00   0.03158475   0.01918625 -88.48  0.002877882    2.242    0.554
       301 -10.8799     36.1551    146.0194   2.9230024032e+02   5.8805638879e+00   0.01409049   0.01088523  66.40  0.001436659    1.485    0.327
       302 -11.6281    238.8829    145.6662   2.8976961443e+02   4.7262790104e+00   0.01745918  0.006826461  31.71  0.001399334    2.236    0.553
       303 -11.5170    161.5109    144.6311   2.9072809446e+02   5.1816744128e+00   0.02153304  0.008679339  41.72  0.001698349    2.437    0.590
       304 -12.7907    130.6744    140.5946   2.9109084971e+02   5.4049377844e+00   0.03323441   0.01819104  45.16  0.003046736    1.871    0.465
       305 -11.1710    225.2106    143.2758   2.8992685885e+02   4.8324867181e+00   0.01132566    0.0108691  53.15 0.0003312669    1.079    0.073
       306 -11.4990    219.6767    143.0886   2.8999476386e+02   4.8664004778e+00   0.01511393  0.009530943  32.49   0.00076233    1.458    0.314
       307 -12.6085    178.5686    142.4809   2.9050372886e+02   5.1090353056e+00   0.02152614   0.01719072  -5.16  0.001793601    1.349    0.259
       308 -10.4620     52.9885    143.9895   2.9207903661e+02   5.8084509291e+00  0.008344177  0.007734973 -63.78 0.0009932525    1.150    0.130
       309 -11.1750     25.5248    138.5998   2.9239291845e+02   6.0272898284e+00   0.01156486  0.009509974  28.61 0.0001066889    1.135    0.119
       310 -11.3834    231.1204    142.3369   2.8984815559e+02   4.8094964859e+00   0.01213287  0.009046102 -51.67  0.000828283    1.398    0.284
       311  -9.7074     84.7238    143.7168   2.9168129793e+02   5.6308839205e+00  0.006735008  0.005041145 -24.26 0.0001944471    1.507    0.336
       312  -9.9843     13.5365    143.5165   2.9256923072e+02   6.0381543563e+00   0.01365156  0.004828156  36.14  0.001035494    2.491    0.599
       313 -11.7569    241.3456    141.6528   2.8971712235e+02   4.7587723307e+00   0.01525878   0.01080726  44.20  0.001600383    1.400    0.286
       314 -10.8438     61.1929    141.3476   2.9196228669e+02   5.7924915915e+00   0.01585641   0.01023531 -26.71  0.001516062    1.884    0.469
       315 -12.1617     47.4807    139.3678   2.9212282466e+02   5.8935526207e+00    0.0263664  0.009271697  36.51  0.002016964    2.515    0.602
       316 -12.3847     37.0335    137.7643   2.9224464358e+02   5.9716134499e+00   0.02430887   0.01290612  21.15   0.00102857    1.838    0.456
       317 -10.9340    181.0404    137.3616   2.9044509997e+02   5.1543899788e+00   0.01735956  0.009267585  46.79  0.001308698    1.979    0.495
       318 -10.6906    169.1675    138.1527   2.9059743464e+02   5.2131753290e+00  0.009829942    0.0076363  49.67 0.0005995189    1.324    0.244
       319 -10.2641    113.9864    136.7499   2.9127825645e+02   5.5449724808e+00   0.01119822  0.007086648 -64.64 0.0006406854    1.682    0.405
       320 -10.5692    104.2477    136.9107   2.9140068820e+02   5.5986925221e+00   0.01723477  0.009285732  39.86 0.0008039249    1.769    0.435
       321 -11.1307     56.9621    137.0000   2.9199159744e+02   5.8671513722e+00   0.01380355  0.009204602  23.54  0.000799578    1.414    0.293
       322 -11.7267     59.5886    133.7207   2.9194104602e+02   5.8903495804e+00   0.02553055   0.01370636   8.22  0.002165193    2.284    0.562
       323 -11.9201      7.7273    134.6621   2.9259398377e+02   6.1741360518e+00   0.01934871   0.01256415 -34.68   0.00055306    1.758    0.431
       324 -10.2136    248.8238    136.5768   2.8959640922e+02   4.7748154964e+00  0.009823508  0.005780389  36.18 0.0005447607    1.576    0.365
       325 -10.5638    195.5708    134.9404   2.9025081474e+02   5.0992875005e+00   0.01913869  0.009351323 -80.58  0.001487421    3.006    0.667
       326 -11.0166    155.6151    135.5081   2.9075209302e+02   5.3214795992e+00   0.02146681  0.009074855  43.84  0.001708639    2.437    0.590
       327 -10.3103    228.0203    135.4201   2.8984913516e+02   4.9076447432e+00   0.01043613  0.006282538  25.99 0.0003746365    1.545    0.353
       328 -10.8855     77.7354    135.0374   2.9172154835e+02   5.7716759243e+00   0.01262005  0.008990167  35.65 0.0002951267    1.315    0.240
       329 -10.5237    213.9152    132.5952   2.9000946957e+02   5.0213763513e+00    0.0205885   0.00596727 -57.82 0.0009384723    3.202    0.688
       330 -10.6318     98.8873    132.8460   2.9144557269e+02   5.6765555436e+00   0.01016454  0.008716327 -18.49 0.0003625891    1.237    0.192
       331 -11.1007    207.1218    138.1018   2.9012405551e+02   4.9963385523e+00   0.01000282  0.009162557  35.69 0.0003235131    1.052    0.049
       332 -10.3423    143.0569    132.5194   2.9089253040e+02   5.4280589832e+00   0.01071491   0.00645263  23.12  0.001025951    1.575    0.365
       333 -10.8538     48.9835    131.5117   2.9206155436e+02   5.9763974016e+00   0.01420757  0.009275992  48.50   0.00122563    1.601    0.375
       334 -11.0153     50.7097    128.4380   2.9202335907e+02   6.0023317061e+00   0.01394311   0.01127381 -15.57 0.0007178193    1.347    0.258
       335 -10.3481    224.1832    130.8202   2.8987190254e+02   4.9831031251e+00  0.009287526  0.007697906 -26.39 0.0004034271    1.297    0.229
       336  -9.9931    199.4957    131.5192   2.9018329826e+02   5.1165536159e+00  0.006873881  0.006366473  -2.39 0.0001866877    1.087    0.080
       337 -10.2953    112.9937    130.5501   2.9125702539e+02   5.6227432720e+00  0.009694123  0.009057681 -63.17 0.0003250046    1.141    0.123
       338 -11.5151    248.0097    129.1848   2.8956630872e+02   4.8653503469e+00   0.01814497  0.009608922  33.73  0.001670485    1.716    0.417
       339  -9.5959    162.2570    129.9873   2.9063926519e+02   5.3476573862e+00  0.008284135  0.005986608 -65.54 0.0004371968    1.480    0.324
       340 -10.8401     86.5881    129.8666   2.9158299229e+02   5.7813585036e+00   0.01071948  0.008984765   5.92 0.0003738598    1.204    0.170
       341  -9.5401    184.6658    129.7417   2.9035849149e+02   5.2221943477e+00  0.006892395  0.005063575 -16.66 0.0003603944    1.571    0.364
       342 -11.1992     61.3019    129.1459   2.9189488278e+02   5.9338114429e+00   0.01126003  0.009012377   9.50 0.0005539946    1.257    0.204
       343 -10.8079     35.5241    128.9310   2.9221573205e+02   6.0829559357e+00   0.01003263  0.006775918 -63.27  0.001022219    1.565    0.361
       344 -11.1982    228.0375    147.6800   2.8991560486e+02   4.7650984682e+00   0.01441297  0.004952113  32.24  0.001087623    2.490    0.598
       345 -11.2510    190.8170    125.5886   2.9025922970e+02   5.2352188915e+00   0.01344823   0.01075735  75.35 0.0006093933    1.450    0.310
       346 -10.5465     93.1191    125.6210   2.9147842909e+02   5.7934918812e+00   0.01292558  0.009473751 -53.66 0.0007979606    1.419    0.295
       347 -12.2999     68.8542    124.0130   2.9177275555e+02   5.9505082593e+00   0.01684093   0.01173686  27.13 0.0003189562    1.332    0.250
       348 -11.6975    128.5042    130.2284   2.9106168828e+02   5.5378855393e+00   0.01199676   0.01077038  27.29 0.0002851645    1.044    0.042
       349 -11.1180    124.9896    123.9340   2.9107139597e+02   5.6311615003e+00   0.01005743  0.009470571   7.31 0.0003093735    1.045    0.043
       350 -10.0307    108.8786    123.3603   2.9126939942e+02   5.7298499929e+00  0.009743778  0.006228975   9.06 0.0005084674    1.711    0.416
       351 -10.7757    238.6092    122.2091   2.8964537651e+02   5.0003476319e+00  0.009579888  0.006073103 -51.06 0.0007398743    1.635    0.388
       352  -9.6666    120.2634    122.3411   2.9112174483e+02   5.6766856225e+00   0.00697928  0.004955445 -30.43 0.0002958044    1.594    0.373
       353 -11.1922     84.4331    121.1075   2.9156243485e+02   5.8955197842e+00   0.01475106   0.01107852  80.12 0.0009247102    1.613    0.380
       354 -10.2324     58.0154    119.5522   2.9188399147e+02   6.0641137559e+00   0.01053785  0.008883922 -64.03 0.0006654881    1.263    0.208
       355  -9.6033    226.5198    119.5024   2.8978121030e+02   5.1011840083e+00  0.006839604  0.006399093  27.08 0.0008103295    1.012    0.012
       356 -10.4798    171.2033    119.3999   2.9047015438e+02   5.4195111414e+00  0.009917553  0.005721673  35.78 0.0002430959    1.601    0.376
       357 -11.4269    104.3585    118.7360   2.9130075236e+02   5.8094286580e+00   0.01411141  0.008676215  42.66  0.000883545    1.598    0.374
       358 -11.5832     92.5287    118.1294   2.9144518550e+02   5.8839859575e+00   0.01318157   0.01202604 -54.53 0.0007209285    1.157    0.135
       359 -10.9584     48.0353    118.8080   2.9200464974e+02   6.1295643851e+00   0.01564767   0.01181863  17.20  0.001694517    1.287    0.223
       360 -10.6639     25.9679    117.9861   2.9227593958e+02   6.2645768112e+00   0.01108362  0.007454783  52.46 0.0006139557    1.615    0.381
       361  -9.8153      5.0218    119.2119   2.9254432741e+02   6.3692222148e+00  0.009338887  0.005254205  23.89 0.0008482169    1.676    0.403
       362 -10.4801    248.3078    118.6563   2.8950527560e+02   4.9859218919e+00  0.007258345    0.0049113  57.66 0.0007043597    1.694    0.410
       363 -10.4309    107.7251    117.7039   2.9125311747e+02   5.8022124110e+00   0.01270363   0.01007162 -31.12 0.0007603472    1.366    0.268
       364 -11.7441    182.5021    115.5529   2.9030833289e+02   5.3995007523e+00   0.01850833   0.01431225 -77.62  0.001675704    1.455    0.313
       365 -12.2943     87.6916    114.8463   2.9148779567e+02   5.9497563251e+00    0.0148731   0.01267516  40.86 0.0003456212    1.141    0.123
       366 -10.6199     60.4749    115.7679   2.9183277103e+02   6.0941266851e+00   0.01215764  0.007037847 -74.43  0.001115688    2.041    0.510
       367  -9.8306    211.2997    115.2908   2.8994792075e+02   5.2374433499e+00  0.006897569  0.005058761 -22.96 0.0001865078    1.563    0.360
       368 -11.4011    125.9989    114.1001   2.9100541793e+02   5.7397360295e+00   0.01016241  0.009902442 -55.53  0.001248362    1.091    0.084
       369 -11.7137     19.4224    118.2880   2.9235936801e+02   6.2982404637e+00   0.02586563   0.01246411  14.90  0.002124672    2.332    0.571
       370 -11.9346     26.7006    108.1051   2.9221333021e+02   6.3753430611e+00   0.01743034   0.01482597  27.85  0.001836993    1.099    0.090
       371 -11.3591     22.7686    113.3356   2.9229076808e+02   6.3368430828e+00    0.0185537  0.009419889  44.48  0.001629373    2.013    0.503
       372 -12.6224     22.2239    109.1926   2.9227516559e+02   6.3881239567e+00   0.03419195   0.01975218 -14.11  0.002891509    2.500    0.600
       373  -9.9868     95.5997    112.2583   2.9137499382e+02   5.9347409940e+00  0.009230981   0.00612649 -50.07 0.0003820144    1.567    0.362
       374 -10.8422     74.9377    112.0652   2.9163202788e+02   6.0548067670e+00   0.01001808  0.009278235  31.33 0.0003154271    1.031    0.030
       375  -9.7985      6.6578    112.6601   2.9248847194e+02   6.4361526699e+00  0.007368993  0.004957801 -25.10 -0.0002580681    1.774    0.436
       376 -10.4644    239.0040    110.7136   2.8957787110e+02   5.1316014831e+00  0.009443387  0.008317197  22.55 0.0002634724    1.068    0.064
       377 -10.8389    232.7060    110.8279   2.8965693263e+02   5.1664374201e+00   0.01372927  0.009488751  49.13 0.0001630886    1.507    0.336
       378  -9.5301    140.7078    111.7389   2.9080900203e+02   5.6830944773e+00  0.006695395  0.005059012 -19.64 0.0002061705    1.498    0.332
       379 -10.2167     85.4027    109.8005   2.9148902571e+02   6.0214867361e+00  0.009780109  0.008205007  71.85 0.0003783982    1.338    0.253
       380 -10.4042     79.7718    110.3546   2.9156236868e+02   6.0471472556e+00  0.009277605  0.006234995  13.36 0.0003204367    1.526    0.345
       381 -10.9544    147.1408    116.6003   2.9075512926e+02   5.5897820217e+00     0.011043  0.009774256  83.43 0.0008749887    1.253    0.202
       382 -10.6618    153.0635    107.5379   2.9063198508e+02   5.6612386707e+00   0.01686417  0.009552704 -83.47  0.001466147    2.408    0.585
       383 -10.3484    115.8612    108.9414   2.9110397943e+02   5.8576367553e+00   0.01169112  0.009397041  20.76 0.0003513323    1.181    0.153
       384 -10.7142    112.1174    107.5599   2.9114322721e+02   5.8950833068e+00   0.01174215  0.009849688 -70.55 0.0005890805    1.291    0.225
       385 -10.6527      4.1021    109.4894   2.9250327890e+02   6.4875299392e+00    0.0154245  0.006815927  15.85  0.001190564    2.582    0.613
       386 -10.8157     36.9475    108.0658   2.9208505262e+02   6.3175643333e+00   0.01033177   0.00951835  21.93 0.0004365131    1.020    0.020
       387 -10.5911    209.9776    106.9472   2.8991899091e+02   5.3419638021e+00  0.009962915   0.00930919  32.80            0    1.032    0.031
       388 -13.2312    166.2077    102.9362   2.9044296801e+02   5.6394712410e+00   0.02170493    0.0148514 -43.17  0.001250571    1.562    0.360
       389 -10.3276     91.3668    104.6983   2.9138685621e+02   6.0467993596e+00    0.0110253  0.007354105  56.15 0.0009884855    1.701    0.412
       390 -10.4666     16.6717    105.0048   2.9232191162e+02   6.4683596835e+00  0.009245427  0.008898286 -25.17 0.0005106028    1.078    0.073
       391 -11.0534    233.7941    102.7607   2.8959944916e+02   5.2538860500e+00   0.01376857   0.01143975  63.68 0.0009870472    1.320    0.243
       392 -10.8985    190.0799    101.8995   2.9013957500e+02   5.5147266023e+00   0.01607681   0.00889561 -66.80  0.001486017    1.964    0.491
       393 -10.7793     90.2685     95.9636   2.9135318752e+02   6.1546244121e+00   0.01145505  0.008942076  25.85 0.0004786126    1.196    0.164
       394 -11.8512     82.5186    103.8171   2.9149260796e+02   6.1075092339e+00   0.01356894   0.01270633  89.06 0.0003315354    1.158    0.137
       395 -12.0789     85.0259     99.9691   2.9144041361e+02   6.1379548199e+00    0.0188268   0.01473939  27.14 0.0003119499    1.190    0.160
       396 -11.8401     67.5053    101.3617   2.9166687134e+02   6.2216253492e+00   0.01882578    0.0133768  63.96   0.00146942    1.664    0.399
       397 -10.3516     49.9361    103.9785   2.9190059857e+02   6.2912240207e+00   0.01322393  0.007806493  39.21 0.0009611515    1.609    0.378
       398 -12.5056     45.5749    100.6260   2.9193694445e+02   6.3550238062e+00   0.02517699   0.01685284 -21.68  0.002466277    1.817    0.450
       399  -9.9517    100.4324    103.2481   2.9126575369e+02   6.0119305142e+00  0.009051859  0.006723717 -87.15 0.0009417779    1.602    0.376
       400 -11.8521     75.3611    101.9451   2.9157187715e+02   6.1700792143e+00   0.01884842   0.01342703  19.06   0.00178959    1.358    0.263
       401 -11.3878     57.7449    102.9478   2.9179743121e+02   6.2587650969e+00   0.01151631  0.009003887  29.10 0.0002540055    1.190    0.160
       402 -10.4757    208.0159    101.9829   2.8991642045e+02   5.4108893556e+00   0.01099475  0.007474061  54.77  0.000459983    1.633    0.387
       403 -10.2230      1.9753    102.2254   2.9249059699e+02   6.5840784220e+00  0.009423063  0.005329749  25.09 0.0007847409    1.650    0.394
       404 -11.0171    149.6980    101.2169   2.9063962942e+02   5.7539699478e+00   0.02595578  0.009783844  27.57  0.002034416    2.372    0.578
       405 -11.2445    122.0121     99.7765   2.9097741625e+02   5.9290441676e+00   0.01291637  0.008788337 -56.58 0.0006647187    1.524    0.344
       406 -10.8306    109.0341     99.5718   2.9113836992e+02   6.0055640520e+00   0.01674634   0.01064465   1.32 0.0009703409    1.879    0.468
       407 -10.7090     32.7875     98.7677   2.9208671215e+02   6.4493472068e+00   0.01374346  0.008619893 -58.69 0.0009137819    1.649    0.394
       408 -10.7435     33.6165     93.9361   2.9205018953e+02   6.5008211099e+00   0.01827043   0.01035781 -16.80  0.001508123    2.602    0.616
       409 -10.5631     16.3512     99.1189   2.9229407683e+02   6.5386316586e+00    0.0113239  0.008774399  11.64 0.0004438309    1.292    0.226
       410  -9.8796     99.0433     98.0718   2.9125501343e+02   6.0800427992e+00  0.007915426  0.007629817  16.71 0.0003409321    1.029    0.028
       411 -10.5806    118.6453     96.2620   2.9100037040e+02   5.9891396403e+00   0.01197846  0.008210991 -51.04  0.001131952    1.516    0.340
       412 -10.7437    173.0958    105.3636   2.9037023954e+02   5.5718077745e+00   0.01429308  0.008776512  -3.65  0.001285781    2.102    0.524
       413 -10.6633     58.8509     94.2594   2.9173652424e+02   6.3535001960e+00   0.01606929  0.005660498 -43.90  0.001106859    3.453    0.710
       414 -11.5116     52.2013     94.6675   2.9182184421e+02   6.3866089134e+00   0.01467576  0.009879035  65.40 0.0009534053    1.836    0.455
       415 -11.2080      9.3965     97.8417   2.9237411353e+02   6.5929594338e+00   0.01649813   0.01084684 -88.00  0.001596698    1.946    0.486
       416  -9.8797    154.6772     94.2909   2.9053983804e+02   5.8059681677e+00    0.0071508  0.004854483  53.26 0.0007012892    1.610    0.379
       417 -10.4676     83.9742     93.9567   2.9142093794e+02   6.2138592968e+00   0.01136812  0.007664973  57.10  0.001126497    1.693    0.409
       418 -11.0066    225.2604     92.8545   2.8965180939e+02   5.4179397287e+00   0.01110272    0.0101448  33.38 0.0002735217    1.044    0.042
       419 -12.0285    137.3204    103.1529   2.9080463947e+02   5.8022777671e+00   0.02487756   0.01442707  51.49  0.001786204    1.934    0.483
       420 -10.6078    114.5864     91.8282   2.9102697930e+02   6.0638703657e+00   0.01453978  0.009393227 -86.13  0.001389468    1.980    0.495
       421 -10.5422    111.1743     88.8586   2.9105346702e+02   6.1178821685e+00    0.0119281  0.008568772  49.11 0.0003519715    1.441    0.306
       422  -9.6691    183.6518     92.6752   2.9016954878e+02   5.6587537543e+00  0.007316811  0.004998543 -23.51 0.0007049445    1.749    0.428
       423 -10.8379    143.5614     92.3592   2.9066807774e+02   5.8920364737e+00   0.01754149   0.00663337  19.33  0.001265035    2.894    0.654
       424 -11.3114    136.2813     90.7776   2.9075036472e+02   5.9520657253e+00   0.01889283   0.01138244  87.77  0.001677364    2.363    0.577
       425  -9.7779    106.3265     92.3571   2.9113301709e+02   6.1049003969e+00  0.007380991  0.004940574 -26.64 0.0007044707    1.778    0.437
       426 -10.7889      8.2972     90.8186   2.9234986653e+02   6.6808684966e+00   0.02249213   0.01050334  54.84  0.001709738    2.957    0.662
       427 -11.9337    203.1889     89.2098   2.8990705530e+02   5.5869638206e+00   0.01704968   0.01367998 -41.76 0.0009924578    1.316    0.240
       428 -11.5505     77.8824     88.3073   2.9146640717e+02   6.3142747550e+00   0.01558916  0.009702258 -43.11 0.0001486002    1.736    0.424
       429 -10.9613     80.5997     84.3683   2.9141107816e+02   6.3445751811e+00    0.0117243  0.008399305  10.93 0.0005793952    1.437    0.304
       430 -10.0546     24.3356     90.6662   2.9214851157e+02   6.5915835864e+00  0.007391922  0.004833568  55.61 0.0007052135    1.739    0.425
       431 -10.5970    231.1434     89.0040   2.8955753561e+02   5.4288693522e+00  0.009944797  0.009349565  27.48  0.000370989    1.014    0.014
       432 -12.4062    191.8389     87.8858   2.9004137385e+02   5.6674519121e+00   0.01372368   0.01281956  52.56 0.0003870042    1.101    0.092
       433 -11.2452    123.2350     87.4171   2.9089500663e+02   6.0657225422e+00    0.0169973   0.01101115 -85.64  0.001598644    1.963    0.491
       434 -11.4275    119.2036     83.7929   2.9092566294e+02   6.1308870568e+00   0.01829175   0.01065222  28.46  0.001570079    1.575    0.365
       435 -11.5454     43.9754     88.8909   2.9189336500e+02   6.5005826475e+00   0.01041341  0.009945088  87.12  0.001266796    1.128    0.113
       436 -11.4241     63.5586     86.9313   2.9163795633e+02   6.4118955049e+00   0.01710661   0.01268215 -12.77 0.0008268405    1.542    0.351
       437 -11.6613     69.8471     85.1766   2.9154984364e+02   6.3964696782e+00   0.02359351   0.01255171 -32.57 0.0002765852    2.459    0.593
       438 -10.6200    180.9134     86.8990   2.9017227197e+02   5.7415614837e+00   0.01030329  0.009156943  39.82 0.0004326138    1.093    0.085
       439  -9.9391     52.3024     87.3342   2.9178083728e+02   6.4713009563e+00  0.007146076  0.004991869 -26.78 0.0004299594    1.659    0.397
       440 -10.9718    128.7676     86.0253   2.9081835433e+02   6.0502693358e+00   0.02213318  0.008673018  39.02  0.001753082    2.372    0.578
       441 -11.2253     16.4602     85.0514   2.9221658472e+02   6.7015971264e+00   0.02134061   0.01026465 -47.22 0.0008579782    2.208    0.547
       442 -10.4744     11.0267     86.0367   2.9228986084e+02   6.7209832407e+00   0.01064089  0.009937945  27.25 0.0006476824    1.015    0.015
       443 -10.2536    154.7930     85.4212   2.9049015869e+02   5.9083777788e+00   0.00940084  0.006384629   8.79 0.0003443945    1.576    0.366
       444 -10.4175     27.9382     85.4791   2.9207538097e+02   6.6314291679e+00   0.01079696  0.006369485  25.28   0.00102859    1.581    0.367
       445 -10.1723      3.6469     84.8449   2.9237569665e+02   6.7767132975e+00  0.008646044  0.006496693 -86.41 0.0009065154    1.569    0.363
       446 -10.7803    170.2283     84.0187   2.9028990480e+02   5.8362649934e+00   0.01001408  0.007241714 -10.63 0.0005490641    1.606    0.377
       447 -10.5674    105.4884     84.4996   2.9110081771e+02   6.2010253537e+00   0.01364814   0.00640053  24.75  0.001098352    1.996    0.499
       448 -12.2006    132.1729     81.9680   2.9075377855e+02   6.0779493680e+00   0.02105251   0.01392592  55.53  0.002088852    1.709    0.415
       449 -11.1270     85.4295     82.7364   2.9134186624e+02   6.3360027117e+00   0.01324036  0.009075578  27.08  0.001370138    1.354    0.261
       450 -11.2165     53.7684     82.6077   2.9173688929e+02   6.5179095223e+00   0.01370887   0.01079808 -52.97  0.001138608    1.325    0.245
       451 -12.2856     51.7811     77.6804   2.9173501790e+02   6.5865039890e+00   0.02249531   0.01684499 -12.63  0.001655457    1.516    0.340
       452 -10.3530    194.0253     82.1771   2.8998302711e+02   5.7212261817e+00  0.009998553  0.008784026 -13.51 0.0003764526    1.191    0.160
       453 -10.0185     24.4061     82.2043   2.9210181091e+02   6.6895735526e+00  0.008249273  0.006701166 -85.38 0.0003813339    1.401    0.286
       454 -11.0728     95.0284     80.2860   2.9120861991e+02   6.3097184199e+00   0.01753038    0.0115724 -20.00  0.001687347    1.875    0.467
       455  -9.9171     62.5446     81.4607   2.9162096356e+02   6.4812725209e+00  0.006800076  0.006392132  19.49 9.695706e-05    1.010    0.010
       456 -11.1954     49.9980     75.0000   2.9174277835e+02   6.6278123557e+00   0.01626305   0.01025297  42.34 0.0007069157    1.553    0.356
       457  -9.4873    213.7023     80.7295   2.8972980726e+02   5.6251165202e+00  0.006772319  0.005065436 -20.49  0.000232765    1.523    0.343
       458 -10.4528    149.0027     79.7873   2.9053179473e+02   6.0069935535e+00  0.009693928  0.008911171  27.92 0.0006190403    1.023    0.023
       459 -10.7371    113.2159     79.4227   2.9097670844e+02   6.2158954842e+00   0.01319745  0.006055843  30.79 0.0008410431    1.946    0.486
       460  -9.9888    107.8342     77.8629   2.9103546427e+02   6.2647684396e+00  0.009288074  0.007514192  51.86 0.0003928693    1.283    0.220
       461 -11.2546      4.7427     77.4673   2.9232207047e+02   6.8562748163e+00   0.01969389   0.01120316  12.38  0.001126145    1.928    0.481
       462 -10.2309    167.7979     77.3892   2.9028415603e+02   5.9272123527e+00  0.009670321  0.006318397   9.11 0.0003519291    1.660    0.398
       463 -11.5305     62.7923     75.3601   2.9158477631e+02   6.5507799513e+00   0.01542944   0.01147745  74.57  0.001617077    1.627    0.385
       464 -11.8292     57.5449     73.1478   2.9163837631e+02   6.6063810083e+00   0.02144488   0.01442798  65.86 0.0009340783    1.845    0.458
       465 -12.0533     53.2077     68.9740   2.9166996555e+02   6.6795902052e+00   0.02187614    0.0171156 -60.11  0.002166862    1.346    0.257
       466 -11.1918    113.8227     74.2670   2.9094111300e+02   6.2723475220e+00   0.01559899   0.01140676  -5.01 0.0008581553    1.547    0.354
       467 -11.0582     92.4854     74.1627   2.9120714608e+02   6.3954044604e+00   0.02121833    0.0105188 -35.99  0.001725084    2.598    0.615
       468 -10.1841     82.1653     75.2023   2.9134176338e+02   6.4421969485e+00  0.009894126  0.008818178 -10.31 0.0004759311    1.160    0.138
       469 -10.7473     68.9357     73.8437   2.9149975072e+02   6.5334064350e+00   0.01011027  0.009075176  31.18 0.0003789108    1.052    0.049
       470 -12.1088      2.2426     71.9215   2.9232332403e+02   6.9349296821e+00   0.02278485   0.01110296 -50.52  0.002007797    2.109    0.526
       471 -10.7168    231.1049     72.8885   2.8947019486e+02   5.6162077759e+00   0.01001485  0.009580093  11.71 0.0004248985    1.031    0.030
       472 -12.0163     35.2215     72.0906   2.9191177357e+02   6.7456868366e+00   0.02152633   0.01125879  26.77  0.000554523    1.759    0.431
       473 -11.1069     17.7044     72.2964   2.9213196060e+02   6.8428251697e+00   0.01203482   0.01053163  -6.59 0.0002778815    1.180    0.153
       474 -10.9036    166.7963     70.8305   2.9026095946e+02   6.0091445364e+00   0.01525078  0.009121787 -40.89  0.001443458    1.856    0.461
       475 -10.6140    200.0388     70.9452   2.8984686285e+02   5.8171744475e+00  0.009955491  0.009391354   8.58  0.001201936    1.041    0.039
       476 -10.7826    152.9691     69.9160   2.9042857702e+02   6.0989769427e+00   0.01123898  0.007470248  54.46 0.0005808644    1.677    0.404
       477 -11.7010     87.8649     69.3036   2.9123850134e+02   6.4782446128e+00   0.01513518  0.008727087  44.28  0.001421834    1.745    0.427
       478 -11.8050     76.2569     67.4741   2.9137366083e+02   6.5657127846e+00   0.02296202  0.008712215  44.33  0.001708512    2.808    0.644
       479 -10.8230    201.6375     66.5495   2.8980297921e+02   5.8590441085e+00   0.01160426   0.01048233 -44.65 0.0004396771    1.161    0.139
       480 -10.1862    132.9619     67.7838   2.9066680168e+02   6.2382602618e+00   0.00915313   0.00530643  23.58   0.00036501    1.631    0.387
       481 -10.7552     93.6709     67.0306   2.9115359242e+02   6.4715286019e+00  0.009385703  0.008545297 -54.89 0.0004886684    1.159    0.137
       482 -10.2832     36.0210     66.6250   2.9187214787e+02   6.8046736634e+00  0.009392439  0.008199487  23.92  0.001089024    1.074    0.069
       483 -10.6506    142.2957     65.0035   2.9053511336e+02   6.2171546442e+00  0.009425985  0.008920599  32.62 0.0004707501    1.032    0.031
       484 -11.6781     88.6271     63.7398   2.9119875659e+02   6.5385565640e+00   0.01330884   0.01213038 -82.18 0.0007616177    1.196    0.164
       485 -11.6715     28.8910     64.6331   2.9195052595e+02   6.8683574150e+00    0.0153334   0.01137222  64.32            0    1.563    0.360
       486 -10.7064     14.6073     65.2502   2.9213253424e+02   6.9423172750e+00   0.01601981  0.008653947   4.21  0.001323137    2.439    0.590
       487 -11.1907      6.1415     60.5992   2.9221324764e+02   7.0444239115e+00   0.01529032   0.01029181 -62.68  0.001051363    1.566    0.361
       488 -11.0248      2.1788     60.7477   2.9226362867e+02   7.0651763039e+00   0.01732173   0.01158334 -37.26  0.001423597    1.658    0.397
       489 -10.3232    110.0631     64.0474   2.9093254150e+02   6.4125886254e+00   0.01118167  0.007493944  53.26 0.0006806349    1.637    0.389
       490 -10.1290    120.1345     63.1219   2.9080167886e+02   6.3657838050e+00  0.009556615  0.007573176  50.01 0.0007462126    1.298    0.229
       491 -10.5348     78.0665     60.4920   2.9131312756e+02   6.6365377961e+00    0.0101328  0.008907977  20.43  0.001180868    1.074    0.069
       492 -11.4868     75.0429     63.2648   2.9136598415e+02   6.6215540366e+00   0.01002382  0.008844249 -19.57 0.0003311733    1.188    0.158
       493 -10.8698     38.8111     58.5204   2.9179330689e+02   6.8830070156e+00   0.01432541    0.0105337 -51.78 0.0008733617    1.415    0.293
       494 -12.0684     19.3107     55.1591   2.9201901825e+02   7.0328974954e+00   0.03136044   0.01532421  72.70  0.002012953    4.624    0.784
       495 -12.4180      3.1962     51.8259   2.9220257783e+02   7.1630970765e+00   0.02958751   0.02485306  37.07  0.003416602    1.137    0.120
       496 -10.5637     15.7672     59.4044   2.9208635320e+02   7.0036795323e+00   0.01244535   0.01086731  61.70  0.000682188    1.227    0.185
       497 -11.1330     12.7861     55.5780   2.9210291636e+02   7.0650740443e+00   0.01252555   0.00956835  42.42 0.0005884763    1.281    0.219
       498 -12.1542     10.8849     49.7170   2.9209494413e+02   7.1439788258e+00   0.03296717   0.01480479 -64.25  0.002364484    2.346    0.574
       499 -12.3598     16.2817     46.7488   2.9201132742e+02   7.1478325805e+00   0.02650594   0.02222793 -57.63  0.003057706    1.255    0.203
       500 -11.1638     20.5469     44.9674   2.9194829987e+02   7.1443106328e+00   0.02150433   0.01078009 -60.05  0.001589945    2.038    0.509
       501 -10.4425    173.7601     58.8596   2.9010887299e+02   6.1082732571e+00  0.009955162  0.008753574 -23.36 0.0004647461    1.197    0.165
       502 -10.4927    108.3404     56.8292   2.9091482888e+02   6.5063011775e+00   0.01779019   0.01042196  -8.34  0.001519255    2.397    0.583
       503 -10.4697    104.1961     56.1856   2.9096312072e+02   6.5374537203e+00   0.01163242  0.008936786  31.40 0.0002538764    1.211    0.175
       504 -11.0889     52.6102     56.2525   2.9160841847e+02   6.8308461580e+00   0.01540498   0.01169264 -88.39 0.0009629054    1.559    0.358
       505 -11.9667     93.4834     54.6902   2.9108888711e+02   6.6159978593e+00   0.01713212   0.01405066  19.44 0.0009130823    1.161    0.139
       506 -12.6579     41.0797     50.8016   2.9172306119e+02   6.9598054253e+00   0.01919876   0.01257259  48.31 0.0006469149    1.593    0.372
       507 -10.9647     28.5043     54.3085   2.9189939212e+02   6.9905518720e+00   0.01382639   0.01078368  -9.49 0.0006620719    1.412    0.292
       508 -10.8642     32.3282     51.4020   2.9183579463e+02   7.0025940723e+00   0.01647225   0.01056135  64.65  0.001286652    1.983    0.496
       509  -9.7549    180.2868     54.6333   2.9000440299e+02   6.1199257872e+00   0.00720068  0.004943438  60.13 0.0007021606    1.700    0.412
       510 -10.3473     76.5275     53.7899   2.9129596873e+02   6.7231946510e+00   0.01160296  0.007583017  30.18  0.001171212    1.409    0.290
       511  -9.4391    191.4666     53.5351   2.8985892903e+02   6.0685364667e+00  0.006811105  0.006399394  15.21  1.61086e-05    1.025    0.024
       512 -11.0567    120.7873     51.3968   2.9072975524e+02   6.4982712825e+00   0.01090433  0.009602157 -60.69 0.0003131245    1.204    0.170
       513 -11.4177     62.6684     49.9066   2.9144818156e+02   6.8473073335e+00   0.02270339   0.01081137 -56.73  0.001329015    2.111    0.526
       514  -9.7967    200.4222    249.2110   2.9081046372e+02   3.7431286874e+00   0.00884606  0.006697809 -87.67 0.0004710338    1.561    0.359
       515 -10.0838    106.1063     48.8797   2.9089952566e+02   6.6114208493e+00  0.008976178  0.007633991 -22.89  0.001017947    1.252    0.202
       516  -9.9558    134.3016     48.3584   2.9054438568e+02   6.4562613507e+00  0.007258791  0.004947532 -28.10 0.0007037557    1.715    0.417
       517  -9.9422     73.9949     48.5062   2.9129893461e+02   6.7990265805e+00    0.0105605  0.004420953  44.96 0.0007650736    2.542    0.607
       518 -11.2275    180.6487     44.4633   2.8994447581e+02   6.2359351768e+00   0.01141566   0.01052188  27.29 0.0001985233    1.020    0.019
       519 -10.2623    137.9913     45.0409   2.9048023706e+02   6.4736759111e+00  0.008154538  0.007617818  23.60 0.0003253952    1.003    0.003
       520 -10.0437     34.8788     44.8927   2.9176857578e+02   7.0637311363e+00  0.008813377  0.007463784  54.10 0.0009999239    1.233    0.189
       521 -10.8152     25.9395     44.5582   2.9187860628e+02   7.1184288842e+00   0.01209971  0.009158039 -40.81 0.0006279543    1.405    0.288
       522 -10.9976     45.2520     55.6363   2.9169710203e+02   6.8798856538e+00   0.01275192  0.009698053  52.01  0.000721437    1.383    0.277
       523  -9.9114     80.4566     43.5573   2.9119124796e+02   6.8196747555e+00  0.006800849  0.006367888  19.66 0.0001208161    1.011    0.011
       524 -11.2942     37.5839     40.6871   2.9171191293e+02   7.0972121389e+00   0.01507812   0.01188395 -19.37   0.00142428    1.400    0.286
       525 -10.2685    175.2200     39.2230   2.8998367365e+02   6.3279139490e+00  0.009286001  0.007539127  54.49 0.0003694659    1.298    0.230
       526 -11.3010    157.0650     37.9404   2.9020334906e+02   6.4468913105e+00   0.01559621    0.0101258 -68.50 0.0009639787    1.685    0.406
       527 -10.1899    137.2219     38.3607   2.9045348232e+02   6.5556593094e+00    0.0118853  0.008363463  76.06  0.001166721    1.796    0.443
       528 -11.3018     25.8424     38.5122   2.9184702762e+02   7.1892276050e+00   0.01434654   0.01188183   1.81 0.0009217081    1.244    0.196
       529 -11.0217     21.9872     38.0000   2.9189249102e+02   7.2170816928e+00   0.01448475  0.008986085  24.04 0.0009859996    1.516    0.340
       530 -10.6919    147.9524     38.0770   2.9031789809e+02   6.4975120932e+00  0.009914155  0.009347635  25.75 0.0003028321    1.011    0.011
       531 -11.6449      3.7187     35.6385   2.9210832109e+02   7.3482219172e+00   0.02343035   0.01407889 -80.43  0.001662032    2.093    0.522
       532 -10.3781    193.4678     37.1935   2.8974488615e+02   6.2467592001e+00   0.00960234  0.006809552 -64.32  0.001000581    1.501    0.334
       533 -10.4523    129.1014     36.6890   2.9054583711e+02   6.6215462624e+00  0.009527063  0.008551195  19.47 0.0004419815    1.054    0.051
       534 -11.2191    111.1509     37.2659   2.9077330503e+02   6.7174975278e+00   0.01001698  0.008825219   3.43 0.0004706602    1.139    0.122
       535 -11.6698     40.8153     35.7788   2.9164484208e+02   7.1358549703e+00    0.0135231   0.01159152  74.44   0.00082007    1.304    0.233
       536 -10.6837     13.0742     36.9501   2.9199834000e+02   7.2798932630e+00   0.01102191  0.007637654 -27.22  0.000809269    1.674    0.403
       537 -11.6240    149.6153     50.6794   2.9036575272e+02   6.3416362131e+00   0.01462946   0.01163676   2.40  0.000587557    1.316    0.240
       538 -11.1823     55.8369     34.2732   2.9144873127e+02   7.0678465612e+00   0.01496917   0.01222249 -49.62  0.001166674    1.281    0.219
       539 -12.2245     70.5441     29.1053   2.9123667295e+02   7.0440748224e+00    0.0217839    0.0139839 -69.92  0.001332129    1.724    0.420
       540 -12.1876     77.0116     32.7620   2.9117565579e+02   6.9647246240e+00   0.02863464   0.01398855  17.00 0.0006567787    2.184    0.542
       541 -11.4579     76.0646     27.1329   2.9115690005e+02   7.0355051948e+00   0.01408792   0.01017492 -51.74 0.0003740547    1.440    0.306
       542 -10.3235    134.9680     32.5493   2.9044999813e+02   6.6360433250e+00  0.009775646   0.00923219 -63.31 0.0005027013    1.130    0.115
       543  -9.8833    117.5539     33.4922   2.9067274201e+02   6.7247189400e+00  0.006787358  0.006410201  17.39 0.0001376991    1.016    0.016
       544 -11.4239    106.7102     31.6991   2.9079852688e+02   6.8075265179e+00   0.01346229   0.01143706 -34.37 0.0007494809    1.245    0.196
       545 -10.6539     24.0925     31.0363   2.9182836693e+02   7.2860205468e+00   0.01019031   0.00926844  31.50 0.0003128027    1.043    0.041
       546 -10.0581     18.3144     31.3266   2.9190225714e+02   7.3154687627e+00  0.007163545   0.00499885 -25.47 0.0007043385    1.669    0.401
       547 -10.1920     63.2338     30.1690   2.9133389934e+02   7.0733842501e+00  0.009992583  0.007464223  48.26  0.001064754    1.370    0.270
       548 -10.3312    123.0821     28.6779   2.9057744452e+02   6.7490078049e+00   0.00983409   0.00837057  23.06 0.0006541004    1.104    0.094
       549  -9.9525     32.3684     28.6808   2.9171201243e+02   7.2663456174e+00  0.007512464  0.004739759  53.83 0.0007036841    1.789    0.441
       550 -11.3704    187.3509     27.0115   2.8976569668e+02   6.4000507272e+00    0.0127804  0.009450149  25.58 0.0005394436    1.263    0.208
       551 -10.1086    153.4770     26.4853   2.9018574939e+02   6.6004432833e+00  0.006878376  0.006346464  -4.58 0.0008082337    1.097    0.088
       552 -10.7153    100.7223     25.7676   2.9084111437e+02   6.9106187801e+00    0.0121623  0.008627586 -58.65  0.001280252    1.472    0.321
       553 -11.0401      3.4470     23.8468   2.9204778949e+02   7.4867375351e+00   0.02346585   0.01362359   2.13  0.002065576    2.186    0.542
       554 -11.2007     66.1336     24.1163   2.9126472954e+02   7.1271571996e+00   0.01450018  0.009165243  29.01 0.0007585988    1.456    0.313
       555 -10.1854     61.0198     24.0150   2.9132815596e+02   7.1574732467e+00   0.01051741   0.00908093  54.10  0.000452172    1.205    0.170
       556 -10.3845     55.2832     21.5985   2.9138680079e+02   7.2182141427e+00   0.01192568  0.009215612  -7.82 0.0002835443    1.427    0.299
       557 -11.3058    197.3877    234.7532   2.9076990704e+02   3.9285564838e+00   0.02132043   0.01239129 -40.59  0.001044011    1.927    0.481
       558 -10.8528     50.2749     23.3192   2.9145881673e+02   7.2267474069e+00    0.0175451  0.009278065 -59.65  0.001613672    1.938    0.484
       559 -11.5280     17.9934     23.0006   2.9186110338e+02   7.4140036457e+00   0.03230577   0.01095837  43.34  0.002286924    3.101    0.678
       560  -9.9610     14.2092     23.7881   2.9191274541e+02   7.4263443577e+00   0.01277623  0.008489647   7.60 0.0009686172    1.639    0.390
       561 -10.2513    221.3588     23.2451   2.8932091431e+02   6.2483652205e+00   0.00942447  0.006597425 -82.06 0.0009504592    1.703    0.413
       562 -11.2444    109.6776     22.8862   2.9071346895e+02   6.8929045378e+00   0.01215523   0.01028839  15.62 0.0003654411    1.139    0.122
       563 -10.6625    189.4155    242.5058   2.9091114669e+02   3.8840126495e+00   0.01303784   0.01039567 -31.54 0.0008723809    1.355    0.262
       564 -11.6929     38.1488     21.1530   2.9159879907e+02   7.3209077768e+00   0.01473509   0.01198748  55.57 0.0003740275    1.305    0.234
       565 -10.9997    179.0474    248.6628   2.9107355720e+02   3.8716908277e+00   0.01004524  0.009542425   3.30 0.0004063084    1.048    0.046
       566  -9.9553    180.6591     20.1829   2.8981198031e+02   6.5177074959e+00  0.009672659  0.005909661 -52.46 0.0009372552    1.689    0.408
       567 -10.3252    151.0603     20.2945   2.9018220114e+02   6.6861539191e+00  0.009648509  0.008123453  27.04 0.0003772011    1.109    0.098
       568 -10.1848     28.3431     19.9574   2.9171503569e+02   7.3905466393e+00  0.009274372  0.008665537   3.47 0.0007442206    1.060    0.056
       569 -10.0935    101.6879     18.3325   2.9078857894e+02   6.9914337213e+00  0.007239185  0.004898197  56.63 0.0007044218    1.677    0.404
       570 -11.4217    131.3791     16.7515   2.9040880388e+02   6.8399955465e+00   0.01542521   0.01076934   2.81 0.0007373875    1.593    0.372
       571 -11.8388    180.9970    244.4678   2.9102657534e+02   3.9093237959e+00     0.017925    0.0109791 -55.21 0.0007076885    1.679    0.404
       572 -12.2405    186.1349    239.7081   2.9093683530e+02   3.9352951388e+00   0.02673118   0.01603796 -32.33  0.001640961    2.022    0.505
       573 -12.1979    191.2516    235.2117   2.9084877863e+02   3.9583179447e+00   0.01888301   0.01450175 -57.93 0.0009626813    1.364    0.267
       574 -10.7921    112.1393     14.8931   2.9063917939e+02   6.9716318328e+00   0.01023749  0.008785992  55.70 0.0003901379    1.222    0.182
       575  -9.9806     92.6118     14.8549   2.9088315473e+02   7.0836481498e+00  0.009069059  0.006580681 -88.16 0.0004062708    1.669    0.401
       576  -9.9039    196.6486    247.2953   2.9084705322e+02   3.7869761652e+00  0.007335804  0.004788235  52.71 0.0007032954    1.683    0.406
       577 -10.3391      7.5308     15.5074   2.9195142588e+02   7.5604203243e+00  0.006805211  0.006404207  17.02 0.0001851404    1.016    0.016
       578 -10.7628    173.1982     13.8619   2.8987065458e+02   6.6338712736e+00    0.0101014  0.008960025  51.64 0.0003651562    1.155    0.134
       579 -10.1582     86.1962     13.8368   2.9095785856e+02   7.1320946330e+00  0.009216126  0.007653809 -16.78   0.00033408    1.295    0.228
       580 -10.1526    132.6297    247.2938   2.9164423033e+02   4.1526801017e+00   0.00924927  0.006188694 -53.23 0.0009360821    1.547    0.354
       581 -12.0463    136.8195    243.2137   2.9156997959e+02   4.1762293966e+00   0.01964722    0.0128621 -40.70  0.001470117    1.666    0.400
       582 -11.2621    243.0307     12.6595   2.8899297444e+02   6.2464484833e+00  0.009875901  0.008219032  22.61  0.000339494    1.132    0.117
       583 -12.8301    203.0848    241.1735   2.9073378336e+02   3.8213348099e+00   0.01664514   0.01431111 -74.92 0.0006821359    1.270    0.212
       584 -11.3471    128.4466    243.0210   2.9167325128e+02   4.2262492468e+00   0.01396579  0.009909471 -37.89 0.0006530792    1.537    0.349
       585 -13.2163    131.3694    236.3459   2.9160075155e+02   4.2872184285e+00   0.03471352   0.02007382 -12.13  0.002749231    2.503    0.601
       586 -10.9002    161.3480    241.2750   2.9125396585e+02   4.0587244064e+00   0.01558169   0.01158391  74.99  0.001631374    1.629    0.386
       587 -10.4404      2.3016     10.5636   2.9199007891e+02   7.6474940702e+00   0.01253872  0.005865491  30.61 0.0007412721    1.914    0.478
       588 -10.5062    172.4583    240.5010   2.9111141630e+02   4.0042482669e+00   0.01167057  0.009281769  56.42  0.000631574    1.348    0.258
       589 -10.8211    168.6916    238.9206   2.9114976769e+02   4.0441494957e+00   0.01328234   0.00985309  56.62 0.0008306733    1.478    0.323
       590 -10.5312    217.8793    240.5122   2.9054609207e+02   3.7443868060e+00   0.01031185  0.006433443  23.72 0.0009895109    1.512    0.339
       591  -9.8375    237.5752    238.4287   2.9028977168e+02   3.6558756176e+00   0.00678341  0.006315083  31.18 0.0001382302    1.028    0.027
       592 -11.8331    219.0027    233.2955   2.9049298903e+02   3.8218378574e+00   0.01893639   0.01351028 -35.96   0.00061387    1.541    0.351
       593 -11.7029    176.6898    233.0234   2.9101823627e+02   4.0670138038e+00   0.02082972   0.01272708   5.56  0.001107546    1.917    0.478
       594 -11.6465    160.9508    232.1630   2.9120959767e+02   4.1669618674e+00   0.01254151   0.01107757  59.55 0.0004699887    1.198    0.165
       595 -11.2602    149.3815    233.5363   2.9136114665e+02   4.2170740688e+00   0.01298192  0.009621208 -47.35 0.0007404866    1.414    0.293
       596 -11.4062    183.6811    232.5136   2.9092841837e+02   4.0329749008e+00    0.0187797   0.01214968   3.07   0.00154481    1.794    0.443
       597 -10.4688    156.3091    233.0728   2.9127234058e+02   4.1828981703e+00  0.008922489  0.008689528 -89.66 0.0001838617    1.101    0.091
       598 -12.5487    142.6943    231.8237   2.9143519211e+02   4.2751767058e+00   0.01800794   0.01283466  19.90  0.001402644    1.350    0.259
       599  -9.6096    244.0009    231.0318   2.9016972337e+02   3.7050362621e+00   0.00782538  0.007780949   3.67 0.0003262326    1.062    0.058
       600 -10.6764     58.7280    230.3385   2.9247376452e+02   4.7710138524e+00   0.01242016   0.00916607  63.07  0.001299683    1.559    0.359
       601 -12.0815    102.7409    228.7583   2.9191652793e+02   4.5387713867e+00   0.03331939   0.02134597  85.01  0.003128817    2.119    0.528
       602 -12.4553    111.8134    227.8969   2.9179878863e+02   4.4970672365e+00   0.02444979   0.02008805 -76.99 0.0002642313    1.347    0.257
       603 -11.2862    114.8567    223.1479   2.9173518628e+02   4.5349598912e+00   0.01270973   0.01014423   1.67 -0.000430966    1.314    0.239
       604 -12.6415    107.9870    226.3018   2.9183786236e+02   4.5374426668e+00   0.01440205   0.01057293 -48.64 0.0005000306    1.424    0.298
