#   1 NUMBER                 Running object number                                     
#   2 MAG_AUTO               Kron-like elliptical aperture magnitude                    [mag]
#   3 X_IMAGE                Object position along x                                    [pixel]
#   4 Y_IMAGE                Object position along y                                    [pixel]
#   5 X_WORLD                Barycenter position along world x axis                     [deg]
#   6 Y_WORLD                Barycenter position along world y axis                     [deg]
#   7 A_WORLD                Profile RMS along major axis (world units)                 [deg]
#   8 B_WORLD                Profile RMS along minor axis (world units)                 [deg]
#   9 THETA_WORLD            Position angle (CCW/world-x)                               [deg]
#  10 FWHM_WORLD             FWHM assuming a gaussian core                              [deg]
#  11 ELONGATION             A_IMAGE/B_IMAGE                                           
#  12 ELLIPTICITY            1 - B_IMAGE/A_IMAGE                                       
         1  99.0000    174.8285     41.3780   1.3807929532e+01   3.5338189637e+01       3.4418     1.779484  28.92   0.01160725    3.713    0.731
         2 -13.7648    232.9286     48.2926   8.8733351493e+00   2.0993791999e+01     1.514605     1.071177 -25.79  0.006164155    1.315    0.240
         3  -9.9618    211.7442     20.9571   3.8094831831e+00   2.8840211748e+01    0.7734854     0.407288 -40.42  0.003573607    1.603    0.376
         4 -12.9317    200.9462     33.4227   8.2216170293e+00   2.9927193553e+01     1.554311    0.5420199  55.35   0.00504498    3.000    0.667
         5 -14.1981    218.9738     56.5919   1.2408116807e+01   2.2873793501e+01     2.621377     1.372707 -36.66  0.003156827    1.622    0.384
         6 -14.0913    210.2933     59.4454   1.4183631715e+01   2.4387489597e+01     2.051448     1.162337 -72.63  0.008586993    2.693    0.629
         7 -12.7050    218.6052     31.4773   5.9753177903e+00   2.6091691912e+01    0.6312978    0.4293089 -25.78  0.001429309    1.419    0.295
         8 -12.9036    222.9740      8.6742   3.5981725717e+02   2.7590880699e+01     1.091848    0.4599752 -79.06  0.004019098    2.888    0.654
         9 -12.1625    203.3837     18.7404   3.9192323289e+00   3.1038609739e+01    0.8592498    0.6899335  53.85  0.002309336    1.425    0.298
        10  99.0000     38.9116     41.8918   5.6026375840e+01   6.6280567714e+01    0.8313714     0.705654 -54.29  0.004810306    1.149    0.130
        11  99.0000     30.5601     21.2971   5.1757531550e+01   7.1746270647e+01     1.383841     1.089522  38.66  0.008129713    1.441    0.306
        12 -10.4822     41.7916     20.7230   4.4464635319e+01   7.0231762731e+01     1.047144    0.7873476  -8.57  0.005081906    1.441    0.306
        13 -14.0690     57.0129     67.5377   5.6086435956e+01   5.7728053444e+01     2.617449    0.9246369 -47.80  0.009124343    2.702    0.630
        14 -14.1860     10.9107     68.9341   7.7874548800e+01   6.2188890064e+01     1.512638     1.468107  45.55  0.009608228    1.171    0.146
        15 -12.0358     50.2863     32.4193   4.5801135826e+01   6.6607859986e+01     1.182544     1.035482  54.01  0.006779564    1.341    0.254
        16  -6.7241     53.0351     21.2051   3.8604441276e+01   6.8207636036e+01     2.273546     1.626283  85.14   0.00997884    2.852    0.649
        17 -12.3290     11.9382     24.6796   6.6349413004e+01   7.2903712425e+01    0.4144141    0.3718152 -18.98  0.000471061    1.122    0.108
        18 -14.3456     39.3696     54.6403   6.0292110424e+01   6.3256712814e+01      3.59362     1.827905   2.60   0.01241881    3.915    0.745
        19 -13.8097      8.4568     38.7500   7.3158385112e+01   6.9844261372e+01     2.229668     1.061855  77.02  0.008436316    3.800    0.737
        20 -12.9780     14.5991     34.6896   6.8035395699e+01   7.0416009469e+01    0.8216041    0.5592657 -30.32  0.002599691    1.450    0.310
        21 -13.2379     72.9046     25.4860   3.1960373069e+01   6.3485312646e+01     1.334285    0.9346665 -66.10  0.001497131    2.139    0.533
        22 -12.0328     80.0538     22.2069   2.7607320715e+01   6.2386240677e+01     1.412879    0.9994388 -82.84  0.006306613    2.248    0.555
        23 -13.9703    183.8337     58.4211   1.7559515996e+01   3.0679164173e+01     2.110149     1.886274 -79.41 0.0005632308    1.157    0.136
        24 -13.1175    225.9467     22.7236   3.1382347033e+00   2.5465381916e+01    0.8482732    0.5295898 -32.84   0.00118018    1.391    0.281
        25 -14.0073    244.6520      8.1445   3.5844338449e+02   2.3061144105e+01     1.277614    0.5157554 -73.76  0.005276779    2.994    0.666
        26 -13.2660    176.2465     23.5168   8.0712570678e+00   3.7225285314e+01    0.3395222    0.3261648 -39.18 0.0006652721    1.109    0.098
        27 -11.0176    114.7622     13.0077   1.3724531790e+01   5.4807067206e+01    0.5120544    0.2622527 -32.53 0.0008651136    1.964    0.491
        28 -11.0701    116.3537      9.2778   1.1781585826e+01   5.4775792060e+01    0.3993724    0.2024349 -31.75   0.00137242    1.985    0.496
        29 -10.4965    187.1745     13.0174   3.7344907593e+00   3.5604167535e+01    0.2861157    0.1531077 -53.66 0.0006877856    1.787    0.440
        30 -10.9309    125.1593     10.3414   1.0634295270e+01   5.2297883433e+01    0.4854716    0.2930934 -12.13  0.001589782    1.946    0.486
        31 -11.0659    149.9061     12.9008   7.8467020058e+00   4.5343608563e+01    0.3276349    0.2068158 -82.09  0.001192226    1.725    0.420
        32  -9.5379    146.3810      6.4027   5.9589292776e+00   4.6940172885e+01    0.4449786    0.2009815  -5.26  0.001576778    3.376    0.704
        33 -10.3448    142.0003     12.3144   8.7376592957e+00   4.7537014370e+01    0.3121367    0.1921702  10.04  0.001325614    2.306    0.566
        34  -8.0791    131.1425      8.3439   8.8410882302e+00   5.0879045334e+01    0.3263337    0.2766535 -84.11  0.001779716    1.161    0.139
        35 -10.1935     87.9458     11.7469   1.9678135698e+01   6.1878878235e+01    0.2873717    0.2450599  63.04  0.001583542    1.163    0.140
        36 -10.1203     56.5824     12.1131   3.1574442861e+01   6.8964399058e+01    0.2297079    0.1819578  54.60 0.0005504013    1.388    0.279
        37 -10.3380    108.8372     10.0933   1.3659552497e+01   5.6692677089e+01    0.3311997    0.1830498 -34.99   0.00146433    1.850    0.459
        38 -12.0924     78.6861      9.9294   2.1570251537e+01   6.4347516768e+01    0.3074294    0.2435175  45.20 0.0003378674    1.179    0.152
        39  -9.7568     76.8192      4.8685   1.9331956502e+01   6.5369058593e+01    0.2000848    0.1676932  19.89            0    1.186    0.157
        40 -12.4266     57.6949      4.8488   2.6505321744e+01   6.9713595285e+01    0.5101835    0.5018631  24.73  0.002485638    1.164    0.141
        41 -11.3717     65.0444      7.3841   2.5022677109e+01   6.7802004497e+01    0.3645217    0.3314072  87.17   0.00141942    1.345    0.256
        42 -12.0869     69.3255      4.1411   2.1438973257e+01   6.7213670005e+01    0.8273682    0.5650289 -78.22   0.00383138    2.350    0.574
        43 -12.8824    173.1412      6.5950   3.0869727709e+00   3.9824168305e+01    0.4611008    0.2985825 -13.23  0.002128473    1.791    0.442
        44 -12.6152     24.6881     40.7137   6.3748903430e+01   6.8156994059e+01     1.466811    0.5669672 -57.67  0.005806576    2.199    0.545
        45  -9.7755     51.0145      6.7551   3.0885130137e+01   7.0836881202e+01    0.3064521    0.2157763 -48.90  0.001604531    1.775    0.437
        46 -10.3882     47.0548      5.4942   3.2081652038e+01   7.1782790438e+01    0.2252034    0.1492226  42.33 0.0002991358    1.463    0.317
        47 -11.3119     47.5371      1.5458   2.9096967802e+01   7.2213857446e+01    0.3797326    0.1920195  41.63  0.001226062    1.880    0.468
        48 -10.5721     26.5982      9.6440   4.7768499035e+01   7.4485508314e+01     0.296907    0.1996262  -0.03  0.001497952    1.717    0.417
        49  -9.1896    165.3267      9.7141   4.8884059870e+00   4.1560116561e+01    0.1507927   0.09479338 -62.20   0.00031525    1.608    0.378
        50  -9.8221    101.2856      8.3067   1.4496416067e+01   5.8862136602e+01     0.382071    0.1200766 -25.45  0.001305324    3.175    0.685
        51 -11.5051    193.8118      7.5666   1.5810686457e+00   3.4510256537e+01     0.276507     0.230306  75.38 0.0006977869    1.231    0.188
        52  -9.3128    157.0229      7.3284   5.0093266362e+00   4.3995427128e+01     0.154438    0.1237395  77.91 0.0002778556    1.177    0.150
        53 -10.2373     91.1296      7.0065   1.6349009449e+01   6.1608612496e+01    0.2149976    0.1774911 -59.45 0.0005495141    1.384    0.278
        54  -9.4065     12.6415      7.4755   5.7567509189e+01   7.6491854567e+01    0.1242274    0.1020757 -32.94 0.0007924812    1.042    0.040
        55 -11.3856      2.7828      6.0739   6.5761486471e+01   7.7540231010e+01    0.2575199    0.2085238 -25.48 0.0007909455    1.101    0.092
        56 -10.1449    111.5666      4.7226   1.0670060296e+01   5.6501648824e+01    0.2851098    0.2318616  73.47  0.001415331    1.168    0.144
        57  -9.5305    183.4319      3.7644   1.3066665771e+00   3.7460277793e+01     0.343722    0.1718175 -57.11  0.001039585    1.951    0.487
        58  -9.6526    186.8147      1.3935   3.3677760199e-01   3.6830520359e+01    0.3855787    0.2346315 -35.82  0.001990132    1.508    0.337
        59 -10.2814    217.5353      1.9487   3.5844419106e+02   2.9460744986e+01    0.3454702    0.2020529  75.96  0.001817142    1.753    0.429
        60  -9.2411    212.6614      2.6736   3.5892349380e+02   3.0502138811e+01    0.1948133   0.08706468  52.42 0.0006961756    2.772    0.639
        61  -9.6529    207.0128      2.9667   3.5935861480e+02   3.1786120789e+01    0.2186338    0.1696592 -21.24  0.001281148    1.380    0.276
        62 -12.0700     85.5149      1.5351   1.4932483280e+01   6.3570376803e+01    0.4305749    0.1695311  60.00  0.001045995    2.218    0.549
        63 -10.2927    133.1503     11.4194   9.7421505227e+00   5.0025381164e+01    0.2206485    0.1900329 -71.95 0.0003716665    1.163    0.140
        64  -9.2539    115.4784      2.4717   8.9538031828e+00   5.5659576823e+01    0.1475195    0.1268398  48.37 0.0008060357    1.138    0.122
        65 -10.2744    121.1267      4.4097   8.8341834829e+00   5.3963271670e+01    0.2156171    0.1921907  14.77 0.0003586992    1.236    0.191
        66 -10.0498    250.2492      1.4186   3.5664750955e+02   2.2597936466e+01    0.1422436   0.09434389 -68.10 0.0002877319    1.379    0.275
        67 -10.9412     36.3923    248.8522   8.4330891227e+01   1.9463322159e+01    0.1729642    0.1245098 -63.79  0.001305414    1.888    0.470
        68 -13.8357    242.5046     60.8868   1.0952133867e+01   1.7513841637e+01      1.49213    0.8932945 -42.50  0.002092253    1.422    0.297
        69 -11.2953    113.7431    246.3858   6.9179367204e+01   1.0833187544e+01    0.2589384    0.2074658  -1.43  0.001182483    1.562    0.360
        70 -10.3886    180.6745    243.3537   5.6296830315e+01   2.6222160940e+00    0.1586387    0.1168089  45.25  0.001114546    1.724    0.420
        71 -13.1544    209.7061     46.4664   1.0816627642e+01   2.6251333156e+01     2.160682    0.9488952  84.54  0.007626188    3.856    0.741
        72  -9.6365    218.5046    239.5324   4.9320535543e+01  -1.5687182733e+00    0.1074253   0.07602078  12.99 0.0002040797    1.022    0.022
        73 -10.3972     88.4638    238.5497   7.3495466926e+01   1.5208285797e+01    0.1159383    0.0864995  41.16  5.08566e-05    1.002    0.002
        74  -9.8414     15.7213    238.6293   8.7895064341e+01   2.3177454888e+01   0.08631662   0.07895361 -44.59 0.0007010257    1.690    0.408
        75 -12.5023    221.0273     38.4522   7.5476476220e+00   2.4727043609e+01    0.5271029    0.2979602 -46.07 0.0005055771    1.551    0.355
        76  -9.6795    236.7233    146.0149   3.0515436929e+01   7.1526243151e+00    0.1720547    0.1331494 -15.60 0.0003975156    1.075    0.069
        77  -9.6115    184.5234    134.9761   3.7156353819e+01   1.7868006767e+01    0.2060989    0.1317932 -34.82 0.0004864937    1.527    0.345
        78 -10.6861    167.7439     89.9278   2.9383153392e+01   2.9344097821e+01    0.3462252    0.2474722  55.51 0.0007579878    1.467    0.318
        79  -9.9526    249.9915     93.6945   1.7617936993e+01   1.1922828202e+01    0.1672728    0.1528808 -19.09   0.00115317    1.127    0.113
        80 -12.1941      5.1078     87.9485   8.2811240400e+01   5.7615829850e+01    0.4337732    0.3335701  27.45  0.001651417    1.465    0.317
        81 -11.0544    182.0792    117.4939   3.3615110228e+01   2.1351917494e+01    0.3988088    0.3574936  10.45   0.00226171    1.106    0.096
        82 -12.4825     48.1604     85.1737   6.4524532981e+01   5.4552859298e+01    0.5475114    0.3264509  16.68  0.001970537    2.100    0.524
        83 -12.8717    224.3660     86.7935   1.9232581701e+01   1.7595878079e+01     1.038739    0.4559568  33.67  0.003668288    4.152    0.759
        84 -11.4934    237.8847     86.7216   1.7489838101e+01   1.5015971738e+01    0.4939108    0.3075968  66.78  0.001941412    2.115    0.527
        85 -11.0597    232.0940     84.1375   1.7601600305e+01   1.6461885803e+01    0.2894121    0.1829133 -80.76  0.001330633    2.812    0.644
        86 -11.8247    161.6492     84.0757   2.8987054695e+01   3.1811439583e+01    0.7963262    0.4977923  39.28  0.003449094    1.778    0.438
        87 -12.3096    168.7014     80.4854   2.6550244633e+01   3.0774837767e+01    0.4486349    0.3897178  87.44 0.0006326528    1.299    0.230
        88 -10.8346    168.5210     76.4610   2.5430346137e+01   3.1506160944e+01    0.3540079    0.2664873  64.08 0.0006781975    1.427    0.299
        89  -9.7239     72.8874    119.0568   6.2613157734e+01   4.2422323454e+01    0.2186641    0.1822146  70.97 0.0002611732    1.219    0.180
        90 -10.3346    203.6931    115.8985   2.9304099913e+01   1.7291731012e+01    0.4623155    0.2379477  66.49  0.001649588    3.992    0.749
        91 -11.3666     91.3479    115.0459   5.5899459256e+01   4.0339965812e+01     0.455357    0.3004439  69.88  0.001919011    2.025    0.506
        92 -12.8462     37.9796     81.2746   6.7922702272e+01   5.6754148945e+01    0.8545873    0.4881181 -53.99  0.002289311    1.604    0.376
        93 -11.0235     65.8388    112.9595   6.3777169268e+01   4.5015780355e+01    0.3597392    0.1923959  89.38  0.001255281    3.124    0.680
        94 -13.7334     44.0505     73.2038   6.3385359718e+01   5.8109835589e+01     1.252044    0.8383623  29.02  0.006214362    1.603    0.376
        95 -11.3106    137.9872    112.7756   4.2208175621e+01   3.1574228387e+01    0.4063675    0.1972996  35.72  0.001489949    2.355    0.575
        96 -13.1505     33.2387     66.3846   6.6639992128e+01   6.1053254504e+01     1.020046    0.5918508 -44.28  0.004681143    1.694    0.410
        97 -10.5762     95.6378    112.1126   5.3902536635e+01   4.0265539912e+01    0.3866525    0.2553287 -85.38  0.001565968    2.230    0.552
        98  -9.8732    173.5698    112.2290   3.4024405759e+01   2.4054154972e+01    0.3186296    0.1548474  29.29 0.0008716047    3.316    0.698
        99  -9.6267    210.8421    111.8044   2.7165877535e+01   1.6543704313e+01    0.2005372    0.1099531  61.67 0.0008672634    2.579    0.612
       100  -9.3192    201.6405    110.2622   2.8324826028e+01   1.8589398970e+01    0.1320048    0.1094142 -74.47 0.0006980762    1.631    0.387
       101 -13.2953     79.7267     59.3974   4.3997694802e+01   5.5591573013e+01     1.570188    0.7151447  44.79  0.005953251    2.243    0.554
       102 -13.2869      4.1611     55.1914   7.9068012974e+01   6.6009634352e+01     0.846134    0.5459918 -70.46   0.00473729    1.304    0.233
       103 -10.9825    196.6634    108.3654   2.8725541392e+01   1.9898623695e+01     0.458988    0.3324779 -70.10  0.002194378    2.087    0.521
       104 -11.3504    191.7594    103.5801   2.8414047787e+01   2.1697364937e+01    0.5801478    0.2024368 -44.37  0.001982524    3.062    0.673
       105 -13.0480     97.9772     77.5414   4.3724835232e+01   4.7851066613e+01     1.543843    0.8516756 -72.82  0.002115216    4.476    0.777
       106 -12.5078     96.8221     69.2007   4.1371116483e+01   4.9918917189e+01     1.178433    0.4833195 -55.14 0.0008594412    3.302    0.697
       107  -9.7598    234.1574    108.8262   2.3002553884e+01   1.2660232574e+01    0.1754136     0.138391   8.92  0.001053641    1.349    0.259
       108 -11.7335    161.9002    106.7109   3.5078577930e+01   2.7584410676e+01    0.3042213    0.2212467 -42.61   0.00146348    1.368    0.269
       109 -12.7135     81.6553     49.6942   3.9530421218e+01   5.7215698033e+01    0.9475726    0.6841125  11.44  0.003555669    1.889    0.471
       110 -11.9303     75.9696     52.0189   4.2658098349e+01   5.7905597418e+01    0.4143036    0.2535162 -47.50 0.0003253821    1.629    0.386
       111 -12.3355     75.2841     41.6909   3.8650982445e+01   6.0113219962e+01    0.5107803    0.4587376 -53.09 0.0006901399    1.184    0.155
       112 -12.8851     81.5928     40.4928   3.5687672608e+01   5.8997663598e+01    0.6042329     0.341487  44.25  0.001543066    1.766    0.434
       113 -11.9011    147.7018     83.5158   3.1862157539e+01   3.5222470490e+01    0.6839322    0.4073812 -44.56   0.00202972    1.676    0.403
       114 -10.4478     30.9182     85.2885   7.1712743272e+01   5.6434230583e+01    0.2819931    0.1792046 -61.83 0.0007124848    1.402    0.287
       115 -11.4809    246.6330     83.0898   1.5633178599e+01   1.3895363933e+01    0.3955125     0.278925 -82.91   0.00221581    2.130    0.530
       116 -10.4811    250.7074     81.6554   1.4858885682e+01   1.3352127917e+01    0.2876343    0.1560321 -31.32 0.0007105269    1.491    0.329
       117 -10.8825     83.3193     83.9869   5.0695130430e+01   4.9293796756e+01    0.2886462    0.2162856  41.46 0.0004747594    1.355    0.262
       118  -9.9743    241.1005     78.7531   1.5267794320e+01   1.5478491161e+01    0.2674269    0.1516051 -24.59   0.00137654    1.610    0.379
       119 -11.5454     85.5220     73.9292   4.6840259034e+01   5.1212497552e+01     0.683742    0.5901208  80.81  0.002936841    1.325    0.245
       120 -10.1282    161.8938     77.3802   2.6999763103e+01   3.2938611053e+01    0.2591434    0.1975073 -49.84 0.0008630637    1.332    0.249
       121 -10.3102    155.8807     76.6024   2.8010775470e+01   3.4528054700e+01     0.358335    0.2629899  78.20  0.001361698    1.681    0.405
       122 -10.1969    103.8526     75.9075   4.1316011099e+01   4.6943239140e+01    0.2353528    0.2144433 -11.73 0.0006511261    1.209    0.173
       123 -12.2450     72.5735     74.1592   5.1745944125e+01   5.3582632333e+01    0.7214037    0.5570816  49.92  0.003163251    1.367    0.268
       124 -12.2028    215.1584     41.9669   9.0394830317e+00   2.5594598877e+01    0.5002689    0.2896115  78.57 0.0007904564    1.996    0.499
       125 -11.1946    145.3541     53.0785   2.2748641252e+01   4.1182807438e+01    0.7013668    0.4410557  15.96  0.002084534    2.739    0.635
       126 -13.7742    116.8872     62.5294   3.2921171453e+01   4.6665872716e+01     1.185172    0.9938703  63.92  0.002276964    1.239    0.193
       127 -11.3010    135.0693     72.2948   3.1420790279e+01   4.0389077628e+01    0.7020803    0.5211734  84.69  0.001342659    1.753    0.430
       128 -11.9830    143.6090     69.1969   2.8415144693e+01   3.8863797661e+01    0.9293646    0.6286824  33.45   0.00298492    1.773    0.436
       129 -11.2178    155.0713     64.6921   2.4533184346e+01   3.6795623822e+01    0.6589422    0.3600447 -37.82  0.002694624    1.767    0.434
       130 -10.4956    151.9247     59.4940   2.3517619717e+01   3.8455708050e+01    0.3015547    0.2243466 -38.86  0.000927786    1.314    0.239
       131 -10.8849    143.9514     61.6024   2.5885499282e+01   4.0117152772e+01     1.641491    0.7471067  53.92  0.006127273    2.163    0.538
       132 -10.6910    105.9890     71.1673   3.9094325654e+01   4.7477161444e+01    0.2767861    0.2220926 -44.47 0.0006356111    1.243    0.196
       133 -10.9849     78.7057     68.0405   4.7420108430e+01   5.3876166061e+01    0.5396754    0.1866435 -44.97 0.0009299316    2.886    0.654
       134 -11.1541    103.9493     66.3050   3.8075155008e+01   4.8947644871e+01    0.4754917    0.3106493 -15.13  0.001066678    2.394    0.582
       135 -11.0445    127.1964     58.9046   2.8915067811e+01   4.4805867319e+01    0.5880754    0.2969567  38.38  0.002110105    2.467    0.595
       136 -11.5337    100.7116     54.8180   3.4932908572e+01   5.1981875015e+01    0.6449062    0.6160049  13.41  0.002161502    1.082    0.076
       137 -11.9229    156.6386    104.4202   3.5640994396e+01   2.9178099565e+01    0.4417278    0.2850184  31.63  0.001916484    1.805    0.446
       138 -11.0989    161.9515     57.9140   2.1079729820e+01   3.6174407856e+01    0.5093921    0.3867406  18.93  0.001187171    1.698    0.411
       139 -10.8102    159.3020     54.3908   2.0452865358e+01   3.7399424746e+01    0.6609492    0.2125569  53.21   0.00215864    2.986    0.665
       140  -9.9135    160.5193     50.5201   1.8992614830e+01   3.7682534985e+01    0.2642982    0.2329581 -20.86 0.0006132083    1.200    0.167
       141 -10.4954    161.0582     47.2916   1.7857991790e+01   3.8025758353e+01    0.4219771    0.2540716  78.57  0.001156666    1.978    0.494
       142 -10.4308    109.0639     56.1903   3.2888173584e+01   4.9750985063e+01    0.3901355    0.2225637 -36.93  0.001296428    1.782    0.439
       143 -10.6130    174.4894     55.4820   1.8164973303e+01   3.3407601863e+01     0.391434     0.219214 -50.39 0.0008160931    1.873    0.466
       144  -9.8688    209.8667    105.5362   2.5846165808e+01   1.7694199626e+01    0.2289982    0.1776992 -46.50  0.001264952    1.348    0.258
       145  -9.6719    136.8946     52.8401   2.4491770962e+01   4.3396261128e+01    0.2360433    0.2168821  27.14  0.001225321    1.175    0.149
       146  -9.9720    133.2617     53.0116   2.5380815227e+01   4.4297984242e+01    0.3031223     0.224695  54.32 0.0008231982    1.334    0.250
       147 -11.3913     90.4344     51.1100   3.6914642712e+01   5.5036234459e+01    0.2502139    0.2341198  46.93 0.0003146141    1.074    0.069
       148 -11.4521    247.3574     42.8212   6.2953244665e+00   1.8766547511e+01    0.4743508     0.267949 -44.09  0.001915987    1.460    0.315
       149 -10.9867    245.5849     50.2862   8.1826320119e+00   1.8223938532e+01    0.2627945    0.1932144 -67.38 0.0004834559    1.471    0.320
       150  -9.8817    250.5602     49.2623   7.5138561768e+00   1.7394019532e+01     0.315872    0.1598161 -32.45  0.001660202    1.578    0.366
       151 -10.4505    131.7246     33.6679   1.8635013289e+01   4.7693915871e+01    0.3519393    0.2224612 -61.97  0.001133253    1.937    0.484
       152 -10.3844    134.3692     41.6717   2.1060366982e+01   4.5826963613e+01    0.9031252    0.6401521 -43.83  0.003989038    1.419    0.295
       153 -11.9718    144.1618     45.0883   2.0253499737e+01   4.2745064024e+01    0.5498229    0.3544103  26.96  0.001313745    2.161    0.537
       154 -12.4318    149.0673     40.8281   1.7837191824e+01   4.2090016700e+01     0.824266     0.589947  77.65  0.003294328    1.488    0.328
       155 -11.5584    161.2562     39.9924   1.5448330229e+01   3.9018273254e+01      0.68333    0.2786843  51.81  0.001573786    2.485    0.598
       156 -11.6135    160.9942     35.9685   1.4165441006e+01   3.9634844525e+01    0.7785054    0.3060496  63.93  0.002856323    2.469    0.595
       157 -10.5342     99.2223     47.6853   3.2629295612e+01   5.3670152625e+01    0.2886979    0.2349243 -17.01  0.001413888    1.371    0.271
       158 -10.7572    123.0829     43.4085   2.4292005838e+01   4.8489219179e+01    0.4861939    0.2865582  44.44  0.001340013    1.772    0.436
       159 -10.3681    105.4145     43.8051   2.9179610605e+01   5.2870054111e+01    0.2679376    0.2165728  81.28 0.0009757712    1.446    0.308
       160 -10.1556    100.0045     41.6097   2.9907943924e+01   5.4561106073e+01    0.3163739    0.2327677 -32.05   0.00150445    1.393    0.282
       161 -10.5267     94.0064     41.2603   3.1668401020e+01   5.6047657891e+01    0.2834996    0.2219925 -22.07  0.000814532    1.379    0.275
       162  -9.6058    250.5095     38.5210   5.0551406114e+00   1.8654577785e+01    0.1266245   0.09782075 -44.62 0.0002123428    1.059    0.056
       163  -9.6483    114.0443     38.2107   2.4533603787e+01   5.1629982076e+01    0.2590324    0.1767754 -82.74  0.001075311    2.079    0.519
       164 -10.2279     15.4782    106.4907   8.0704437903e+01   5.2197994887e+01    0.1335865    0.1152753 -89.42 4.482907e-05    1.006    0.006
       165 -11.4426     96.4918     36.5417   2.8847933500e+01   5.6260615392e+01    0.2520962    0.2386843  85.91  0.001268451    1.129    0.115
       166 -11.0611     92.3662     33.6602   2.8891579300e+01   5.7720023872e+01    0.3813422    0.3072531  38.69  0.001174234    1.241    0.194
       167 -12.0310    122.7248     33.7553   2.0631961533e+01   5.0054209500e+01    0.3614745     0.238461 -47.84 0.0004557052    1.602    0.376
       168 -10.9345    123.5796     28.7166   1.8435411136e+01   5.0534768955e+01    0.3212401    0.2521969 -55.45 0.0006844284    1.355    0.262
       169  -9.2336    249.0000     34.9548   4.3489874777e+00   1.9350980753e+01    0.1972569   0.05885455 -28.24 0.0005488386    2.787    0.641
       170 -10.6395    112.4426     32.9863   2.2809942177e+01   5.2837281151e+01     0.382636    0.2686624  27.09  0.001592037    1.729    0.422
       171 -10.6944     75.0851     33.6012   3.5064599530e+01   6.1645127698e+01    0.3337463    0.2685789  26.38  0.001730527    1.299    0.230
       172 -11.3652     86.0359     28.7717   2.8743639013e+01   5.9995240334e+01    0.4105611     0.269894  46.31  0.001103748    1.477    0.323
       173 -10.1763     80.0979     30.4872   3.1669272504e+01   6.1079367165e+01    0.2770014    0.1348651  45.60 0.0006979319    2.015    0.504
       174 -10.7997    169.2587     32.2497   1.1731255041e+01   3.7967833243e+01    0.4228403    0.2251895  84.98  0.001693327    2.301    0.565
       175  -9.1294    152.4261     33.5477   1.4734763145e+01   4.2213483496e+01    0.1485236    0.1392161 -71.09 0.0002991278    1.026    0.025
       176  -9.9937    237.6526     30.7434   4.2130417756e+00   2.2095227120e+01    0.2750714    0.2048209  77.78  0.001673835    1.501    0.334
       177  -9.1325    241.8748     29.5083   3.6029187408e+00   2.1373506201e+01    0.2814901    0.1650255 -50.17  0.001299895    1.469    0.319
       178  -9.8777    106.0873     31.3294   2.3786216885e+01   5.4705099383e+01    0.3004574    0.1772338  82.63  0.001119402    2.628    0.619
       179  -9.8326    104.3903     27.7573   2.2691619870e+01   5.5656411848e+01    0.2046695    0.1452653 -14.52 0.0009451922    1.619    0.382
       180  -9.9049    145.3058     26.6871   1.3504437330e+01   4.4997364956e+01    0.2564329    0.1954869  88.45 0.0005928164    1.362    0.266
       181 -10.4577    148.0058     24.2664   1.2193553275e+01   4.4572688370e+01    0.2888656    0.2399992  39.21  0.001509174    1.320    0.243
       182 -11.2153    144.2587    103.2155   3.8195432643e+01   3.2163071898e+01    0.3981714    0.3258626 -20.64  0.001000273    1.351    0.260
       183 -10.1747    113.1363     24.0066   1.8849377935e+01   5.3913149421e+01    0.4058571    0.3174445  23.16  0.001678695    1.461    0.315
       184 -10.8260    234.1930     24.1778   2.8859427911e+00   2.3544114758e+01    0.2664893    0.1836317 -34.89  0.001089097    1.236    0.191
       185  -9.3284    153.3065     25.2455   1.1716371361e+01   4.3037280848e+01    0.1436832    0.1068481  41.09  0.000208845    1.500    0.333
       186  -9.2752    135.6178     25.1417   1.4630879664e+01   4.7789166038e+01    0.1986749    0.1447402  -8.12 0.0009306137    1.638    0.389
       187 -10.7442    126.7549     24.9155   1.6250424227e+01   5.0191009288e+01    0.5417991    0.2615958  81.64  0.001088998    2.979    0.664
       188  -9.8080    124.0000     20.9004   1.5186803029e+01   5.1427750500e+01    0.2620776    0.1625948 -34.88 0.0008056581    1.627    0.385
       189  -9.8623    121.5113     17.4428   1.4257616112e+01   5.2504393280e+01    0.3050399    0.1842256 -63.30 0.0007950992    2.075    0.518
       190 -10.4789    244.2940     18.4514   8.4781278833e-01   2.2082081307e+01    0.3495556    0.1861742 -52.11  0.001060367    1.605    0.377
       191 -11.4057    246.6636     22.6976   1.6820951724e+00   2.1158313188e+01    0.2348373     0.217172  69.01 0.0008578589    1.324    0.245
       192 -11.9817    242.7340     22.6146   1.9202845911e+00   2.1954505012e+01    0.4269027    0.2386879  80.08   0.00150622    2.015    0.504
       193  -9.9079    102.6891     23.2791   2.1147251085e+01   5.6711083953e+01    0.2248692    0.1468464 -32.39 0.0005066401    1.566    0.361
       194 -10.1160     98.6071     21.6868   2.1524435067e+01   5.7960398685e+01    0.3486946    0.3110671  47.34  0.001440674    1.072    0.067
       195  -9.7740    119.6236     22.0156   1.6551933390e+01   5.2456922306e+01    0.2023684    0.1841208 -30.35 0.0004172756    1.145    0.127
       196 -10.9532    130.2069     19.3329   1.3368718974e+01   4.9948812246e+01    0.2673465    0.2246174  62.22 0.0003407276    1.137    0.120
       197 -10.5673    138.6287     18.1054   1.1437025578e+01   4.7818967258e+01    0.3479659    0.2227099  47.81  0.001051069    1.610    0.379
       198 -11.7330     21.4741     65.4107   7.2119224545e+01   6.2370141115e+01     0.288802    0.2525239  70.85 0.0003707359    1.225    0.184
       199  -9.3936    185.2482     18.7058   5.6131441628e+00   3.5479879949e+01     0.141784   0.09120569 -55.44 0.0006242434    1.482    0.325
       200 -12.4240    116.8164     92.8145   4.2541852013e+01   4.0422828695e+01    0.4873628     0.361518 -21.90 0.0008205818    1.690    0.408
       201 -11.7645    111.9606     86.1868   4.2025409720e+01   4.2931478989e+01    0.6173368    0.3323055  57.81  0.002294007    2.266    0.559
       202 -11.2555     94.2437     15.9958   2.0020118526e+01   5.9793000153e+01    0.3081893    0.1915046  53.50  0.001214536    1.497    0.332
       203 -12.3296    114.5274     80.4033   3.9508145398e+01   4.3603331727e+01    0.7488029    0.5926753 -62.19  0.003543375    1.388    0.280
       204  -9.5383    160.0143     14.0822   6.9609591400e+00   4.2517070371e+01    0.1658778    0.1494512 -43.14   0.00045488    1.114    0.102
       205  -9.9841    142.9811     79.5974   3.1788411713e+01   3.7091836216e+01    0.2092577    0.1917686  43.86  0.001075419    1.109    0.098
       206 -11.4809    131.9340    101.3797   4.0790135996e+01   3.5268088647e+01    0.3819768    0.2515645 -51.69  0.001669388    1.598    0.374
       207 -13.9047    130.9468     95.0878   3.9317146794e+01   3.6804460287e+01     1.825392    0.9125739  32.02  0.006205262    2.848    0.649
       208 -10.7472    127.8592     89.8164   3.8626511626e+01   3.8600068413e+01    0.3597426    0.2740999  48.32 0.0006563689    1.312    0.238
       209 -13.1021    124.4466     85.0176   3.8127310190e+01   4.0376678497e+01    0.9117641    0.6602507 -21.80  0.002151587    1.707    0.414
       210 -12.1126    135.4557     81.7886   3.4278358142e+01   3.8462764665e+01    0.8210192    0.5732725  39.81  0.001930816    1.513    0.339
       211 -10.9882    132.9666     77.5120   3.3590818706e+01   3.9893380125e+01    0.3081943    0.2612227 -66.82  0.000489403    1.295    0.228
       212 -13.0140    176.9404     71.2721   2.2396198546e+01   3.0350377994e+01     1.728656    0.6537217 -47.67  0.005339312    3.035    0.671
       213 -11.6508    136.6821     87.8207   3.5766414860e+01   3.6977807525e+01    0.9046196     0.404399  43.59  0.003243689    2.327    0.570
       214 -10.3358     76.2266    103.9779   5.8338182117e+01   4.5658040276e+01     0.199996    0.1217724 -59.35 0.0003609306    1.617    0.382
       215 -11.6977    226.5812     99.3749   2.1902581228e+01   1.5378019039e+01    0.6320041    0.2193398 -41.29  0.002462917    2.708    0.631
       216 -11.7978     82.0000    100.0353   5.5434955202e+01   4.5650599486e+01    0.5653669    0.3417487 -78.26  0.002195726    2.371    0.578
       217 -11.6482     86.8900     98.2875   5.3349687392e+01   4.5200838678e+01    0.5211952    0.3772521  34.46  0.001708542    1.439    0.305
       218 -11.6593    159.0112     99.2221   3.3741324562e+01   2.9634165636e+01    0.9632061    0.2756721  42.35  0.000976776    4.158    0.759
       219 -12.4015    157.1540     95.8136   3.3226559872e+01   3.0696703965e+01     1.207959    0.4561668  48.94  0.003430258    2.661    0.624
       220  -9.9301    215.2773    102.3521   2.4248567458e+01   1.7113849694e+01    0.1381489   0.09940658   0.78 0.0004355653    1.645    0.392
       221 -10.4592     74.3104    101.3251   5.8388289550e+01   4.6634455724e+01    0.1524595    0.1166704 -24.93 0.0007039221    1.657    0.396
       222 -10.6925     33.6176    100.1910   7.3142443078e+01   5.2292465246e+01    0.2085528    0.1119748 -60.69 0.0009528578    1.680    0.405
       223 -10.6895    170.3117     97.3980   3.0883791094e+01   2.7426856484e+01    0.3893078    0.2651133 -48.55  0.001727922    1.533    0.348
       224  -9.5875    244.5430     97.9750   1.9222442332e+01   1.2306217128e+01    0.2031679    0.1061465 -29.12 0.0008856631    1.607    0.378
       225 -11.5319    140.7783     96.1903   3.7134557619e+01   3.4357072890e+01     0.437501    0.3462637 -60.24 0.0009316672    1.404    0.288
       226 -12.4408     11.8786     97.5126   8.1118929316e+01   5.4759021060e+01    0.4720652    0.2880521 -62.37  0.001769656    1.479    0.324
       227 -10.7018    200.1895     96.1877   2.5128705908e+01   2.1120441579e+01    0.3106765    0.2403482 -60.45 0.0009432097    1.541    0.351
       228 -11.6682     95.7901     90.5652   4.8334454036e+01   4.5334625240e+01    0.5658851     0.461913  64.86  0.001440833    1.343    0.255
       229 -12.1710    107.7506     92.3783   4.5088420974e+01   4.2464832951e+01    0.5592376     0.265239  38.44  0.001783039    2.254    0.556
       230 -11.9377    106.9063     96.3401   4.6448191456e+01   4.1744903312e+01    0.3668697    0.2616369 -41.06 0.0007826755    1.454    0.312
       231 -11.8021    102.4219     96.1457   4.7770423322e+01   4.2708159413e+01     0.334477    0.2943631 -56.03 0.0006605468    1.139    0.122
       232 -11.4852     73.1567     96.9395   5.7755567968e+01   4.7917735500e+01    0.3598594    0.2328088  36.11  0.001635176    1.582    0.368
       233 -12.1519     49.1292     95.6971   6.6394413112e+01   5.1722126788e+01     0.376857    0.2930206  13.35  0.001280868    1.522    0.343
       234  -9.5546    232.6992     95.8035   2.0244880749e+01   1.4736139074e+01    0.2810683    0.1092193 -25.13  0.001093792    2.712    0.631
       235 -12.7138     55.6976     93.9481   6.3509588101e+01   5.1309543140e+01    0.4030545     0.340702  61.59  0.001522895    1.223    0.182
       236 -12.7791     62.1179     89.5188   6.0027219996e+01   5.1514703125e+01    0.8401353    0.3568397 -67.89  0.002041496    2.883    0.653
       237 -12.2541     57.9800     88.8842   6.1471607669e+01   5.2281241647e+01    0.4075285    0.3014016 -47.67  0.001808312    1.348    0.258
       238 -10.6236     70.8190     87.8575   5.6318111165e+01   5.0558635687e+01    0.2964657    0.2525983  70.93 0.0005568659    1.270    0.213
       239 -12.7788     67.0744     82.7851   5.6381834231e+01   5.2423575827e+01    0.7027847    0.5647371  69.26  0.003533864    1.416    0.294
       240 -14.4412    193.7623     86.0338   2.3586730037e+01   2.4113744945e+01     3.072028     2.188568  34.87    0.0153556    1.604    0.376
       241 -11.8597    166.0604     65.4219   2.2630798694e+01   3.3942856458e+01    0.9402921    0.5146213  47.03   0.00390212    1.940    0.485
