#   1 NUMBER                 Running object number                                     
#   2 MAG_AUTO               Kron-like elliptical aperture magnitude                    [mag]
#   3 X_IMAGE                Object position along x                                    [pixel]
#   4 Y_IMAGE                Object position along y                                    [pixel]
#   5 X_WORLD                Barycenter position along world x axis                     [deg]
#   6 Y_WORLD                Barycenter position along world y axis                     [deg]
#   7 A_WORLD                Profile RMS along major axis (world units)                 [deg]
#   8 B_WORLD                Profile RMS along minor axis (world units)                 [deg]
#   9 THETA_WORLD            Position angle (CCW/world-x)                               [deg]
#  10 FWHM_WORLD             FWHM assuming a gaussian core                              [deg]
#  11 ELONGATION             A_IMAGE/B_IMAGE                                           
#  12 ELLIPTICITY            1 - B_IMAGE/A_IMAGE                                       
         1 -14.2859     12.7573     23.8565   5.1188628766e+01   7.4447633141e+01     1.999781    0.6708327 -35.82  0.006923776    3.843    0.740
         2 -14.7064      8.8245      5.1404   4.3470419584e+01   7.8455131479e+01     2.118078    0.8759755  30.80  0.008786184    2.338    0.572
         3 -12.9345    177.5235    244.1110   4.4838087337e+01   1.9959622861e+00    0.3904464    0.3286938  -1.90  0.002636682    1.200    0.167
         4 -12.7834    218.8989    229.1257   3.5446483686e+01  -6.0158990700e-01    0.5433684    0.2664778 -12.68  0.002984735    2.331    0.571
         5 -14.7030    191.1790    241.9479   4.2054213903e+01   7.6224062803e-01     1.761167    0.8294611  23.65   0.01024098    1.809    0.447
         6 -14.9714    206.9625    232.1122   3.7893554394e+01   2.9998110249e-01     1.041867    0.8517107  16.37  0.007997966    1.341    0.254
         7  -8.5197     11.5594    241.2419   7.9681709405e+01   2.1145377558e+01    0.2581378    0.1754664 -88.45  0.001417856    1.576    0.365
         8 -13.9678     16.4416    248.9167   7.8898336084e+01   1.9281986109e+01     1.388299     0.276047  26.20   0.00540876    3.855    0.741
         9 -11.6977     85.3236    244.6153   6.3798150593e+01   1.2847011034e+01    0.9739013    0.3709568  32.34  0.004113759    1.977    0.494
        10 -13.7293     91.6784    231.2765   6.1153307781e+01   1.4468568572e+01     1.488356    0.8247821  57.65  0.006911926    2.221    0.550
        11 -11.0348     76.0840    228.4611   6.4458447433e+01   1.6887958627e+01    0.4461626    0.3952821  45.79  0.001893431    1.094    0.086
        12 -10.2607     74.8956    220.2603   6.3990346798e+01   1.8634501986e+01    0.7145177    0.2881712  34.17  0.003277992    1.959    0.490
        13 -14.0600    118.5686    216.0824   5.3304327833e+01   1.3801117010e+01     1.681269    0.8416154 -65.31  0.007663921    2.929    0.659
        14 -12.9029    110.9658    233.5285   5.7082756283e+01   1.1669622230e+01    0.7015751    0.4073751 -44.93  0.003476151    2.038    0.509
        15 -12.9475    115.2015    226.4427   5.5337050468e+01   1.2372863371e+01    0.5906575    0.4147695  57.20  0.002417092    1.755    0.430
        16  -9.7868     42.5285    247.5420   7.3311862330e+01   1.7024329662e+01    0.2078273    0.1284234  47.37 0.0006201831    1.269    0.212
        17 -10.6885     37.8241    244.6796   7.4179142835e+01   1.8024818843e+01    0.3413697    0.1680502  36.45  0.001489614    1.502    0.334
        18 -12.3367    165.0269    227.4413   4.4963326701e+01   5.8405449044e+00    0.5306637    0.3399968  13.44  0.002238392    1.418    0.295
        19 -13.3327    156.3556    223.3250   4.6126102975e+01   7.5688082579e+00    0.9678431    0.6080136 -13.51  0.005297926    1.852    0.460
        20 -13.1986    136.5688    240.9440   5.2479158999e+01   7.2801685126e+00     0.789107    0.5527712   1.02  0.004036187    1.472    0.321
        21 -13.4140    146.6261    231.7343   4.9257592430e+01   7.4763105871e+00    0.7040544    0.5019782 -16.31  0.003486335    1.498    0.332
        22 -12.7273    138.2635    231.2529   5.0934989913e+01   8.6057535817e+00    0.5429138    0.3686064   4.97  0.002296839    1.522    0.343
        23 -11.8484    156.5240    249.8088   4.9554852026e+01   3.6096632798e+00    0.4184586    0.1784397  28.16  0.001969406    1.881    0.468
        24 -11.7614     70.2110    241.7552   6.6886006956e+01   1.5093846021e+01    0.5318956    0.2754596  41.93  0.002411181    1.538    0.350
        25 -11.4686     55.9007    235.1351   6.9606853024e+01   1.7922956685e+01    0.3948249    0.2522415  40.00   0.00142261    1.227    0.185
        26  99.0000     51.6033    240.2702   7.0908177336e+01   1.7418420195e+01    0.6704832    0.3348535  50.58  0.002864963    1.724    0.420
        27 -11.4277     48.4598    230.8279   7.1014362237e+01   1.9563198515e+01    0.6692967     0.223832  46.66  0.002984486    2.416    0.586
        28 -11.4102     18.4526    244.4700   7.8324743181e+01   1.9920583226e+01    0.1989265    0.1507184  43.69 0.0005383401    1.058    0.054
        29 -11.7837     39.6180    238.6482   7.3471724366e+01   1.8975250577e+01    0.4843807    0.2232056  39.50  0.002173328    1.602    0.376
        30 -11.4255    120.0620    238.6027   5.5675607360e+01   9.6810426484e+00    0.3590932    0.2784171  38.68  0.002143844    1.225    0.184
        31 -10.5196     28.3222    237.7453   7.5922323852e+01   2.0267931695e+01    0.2129958    0.1337821  53.43 0.0009817283    1.289    0.224
        32 -10.6546    129.2022    233.1641   5.3090012030e+01   9.4376036674e+00    0.2724115    0.1982154 -27.10  0.001360561    1.556    0.357
        33 -12.1308    132.0037    226.1174   5.1613696140e+01   1.0255840395e+01    0.5164575    0.3484259  23.68  0.002462855    1.259    0.206
        34 -10.8851     36.4975    231.9457   7.3809083702e+01   2.0588790108e+01    0.3293179    0.1040903  37.96  0.001518159    2.179    0.541
        35 -10.7314     31.3305    231.2755   7.4944292570e+01   2.1236305966e+01    0.3081592     0.125856  32.07  0.001554865    1.886    0.470
        36 -11.7024     66.5256    229.2027   6.6731835082e+01   1.7867703313e+01    0.3647633    0.2190401  41.55  0.001432217    1.350    0.259
        37 -12.1433     10.3764    185.2834   7.7853304892e+01   3.3204890596e+01    0.8728801    0.3173842  49.43   0.00359102    2.244    0.554
        38 -12.9720      2.5768    176.3575   7.9576339231e+01   3.5952526617e+01    0.7947863    0.2848616 -81.40  0.003363258    2.593    0.614
        39 -13.7069      9.9164    165.8519   7.7001337704e+01   3.7998787760e+01     2.141824    0.8163771  62.10  0.008627024    2.577    0.612
        40 -13.0354     55.0938    192.7877   6.6390826790e+01   2.6935057396e+01     3.222526    0.8840342  53.13  0.008973354    5.378    0.814
        41 -13.2728     43.7208    164.0202   6.6746730463e+01   3.5255202937e+01     1.653791     1.137269 -70.30  0.007636343    1.450    0.310
        42 -13.5202     33.0143    177.0312   7.1089110781e+01   3.3134852053e+01     1.094654    0.5736066  54.19  0.004030238    1.774    0.436
        43 -13.2410     23.7750    161.7833   7.2596753844e+01   3.7866320582e+01      1.38366    0.4363193  50.32   0.00496276    3.016    0.668
        44 -14.0628     11.1940    142.3325   7.5121990857e+01   4.3998262307e+01     2.272695     1.696601  77.17   0.01008198    1.208    0.172
        45 -12.8991     40.0645    216.7381   7.2080512519e+01   2.3318905801e+01     1.499373     1.038437  32.20  0.009040692    1.267    0.211
        46 -13.1159     29.6804    201.6389   7.3705931679e+01   2.7666131726e+01     1.375863    0.3274666  51.01  0.004727114    3.756    0.734
        47 -13.6673     59.1535    209.9605   6.6894519787e+01   2.2644656618e+01     1.173252    0.4415612  56.41  0.004022748    3.277    0.695
        48 -13.7880     36.0114    194.8388   7.1617483795e+01   2.8577186695e+01     2.901159    0.6137928  51.81  0.008278504    5.255    0.810
        49 -14.5762      3.8992    211.8223   8.0486688916e+01   2.7736433758e+01     1.627334    0.5729288 -75.01  0.007539235    2.867    0.651
        50 -14.4461     16.3628    210.2594   7.7457304986e+01   2.7010824386e+01     1.065626    0.7096716  72.29   0.00615195    1.363    0.266
        51 -11.9403    108.9246    203.3921   5.3900880183e+01   1.7559360494e+01    0.6318097    0.2468746 -44.87  0.002540135    3.017    0.669
        52 -11.9363     93.0578    211.2308   5.8695116627e+01   1.8143116622e+01    0.7371296    0.3423219  29.24  0.003306361    1.889    0.471
        53 -11.9723     97.1147    220.8911   5.8820476677e+01   1.5726070265e+01    0.6076654    0.3101546  41.28  0.002186555    1.709    0.415
        54 -11.4273    103.5946    227.3095   5.8041076445e+01   1.3703366379e+01    0.3546776    0.2543514  86.47    0.0017269    2.016    0.504
        55 -12.1253    104.5804    222.2883   5.7253593948e+01   1.4499832700e+01    0.4390249     0.328494 -84.98  0.002145144    1.823    0.451
        56 -12.6305    104.3461    213.9724   5.6330715963e+01   1.6105880484e+01    0.6725855    0.5586118 -68.65  0.004190634    1.447    0.309
        57 -11.2313     59.3558    225.6401   6.8120572686e+01   1.9387499897e+01    0.3353381    0.2190494 -62.96  0.001347944    1.785    0.440
        58 -13.9111    178.7177    218.5084   4.1002109330e+01   5.4729659033e+00    0.9901575    0.5051299 -32.66  0.004615057    1.994    0.499
        59 -12.1969    132.1465    215.7084   5.0211019377e+01   1.2037452924e+01    0.7065161     0.395694  53.58  0.003294383    2.594    0.614
        60 -13.6108    144.8884    196.3978   4.4546215511e+01   1.3733709204e+01    0.8075754    0.5643858 -41.16  0.004139086    1.503    0.335
        61 -13.7939    132.3148    204.3680   4.8576090045e+01   1.4070355159e+01     1.236599    0.7190362  31.90  0.006319598    1.521    0.342
        62 -12.3215    135.8793    196.7551   4.6623801567e+01   1.4983406695e+01    0.6409925    0.3160762  25.83  0.002880558    2.030    0.507
        63 -12.8509      2.3452    242.2895   8.1649487296e+01   2.1736330464e+01    0.7122614    0.2360987  86.13  0.003422156    3.199    0.687
        64  -9.9613    137.5636    189.3727   4.5069339510e+01   1.6143216671e+01    0.5691832    0.3784695  43.94  0.002968674    1.560    0.359
        65 -12.5649     80.2501    203.6222   6.0990703647e+01   2.1394273028e+01    0.8393667    0.4653678  77.15  0.003596736    2.837    0.647
        66 -12.3824     93.2202    194.9324   5.6670887923e+01   2.1509356442e+01    0.6068766    0.4953045 -41.48  0.003498824    1.384    0.277
        67 -12.4889     87.2877    187.8233   5.7278761273e+01   2.3896897342e+01    0.7097833    0.4914546 -85.05  0.003109101    1.794    0.442
        68 -13.9199    110.5919    190.9160   5.1754357812e+01   1.9869711478e+01    0.9300037    0.7545581  63.90   0.00337708    1.434    0.302
        69 -10.7258     73.8001    174.5068   5.9197293072e+01   2.8860111036e+01    0.3955069     0.202538 -67.04  0.001705806    2.095    0.523
        70 -10.8278     72.4951    169.4506   5.8892014028e+01   3.0264051918e+01    0.3661139       0.1427 -65.38   0.00114246    2.709    0.631
        71 -12.0670     73.8843    191.6578   6.1283845641e+01   2.4850551633e+01    0.6195547    0.4086875 -58.74   0.00322951    1.648    0.393
        72 -11.7297     73.0765    182.0451   6.0358532888e+01   2.7170115269e+01    0.6831998    0.4974268  67.47  0.003057064    1.476    0.323
        73 -10.8648     66.2015    189.3985   6.3076197901e+01   2.6356308115e+01    0.2936395     0.203192  36.36  0.001019685    1.283    0.220
        74 -12.4998     59.0582    182.8898   6.4319210607e+01   2.8774818304e+01    0.9913692    0.4248571  57.78  0.003718377    2.877    0.652
        75 -12.7987    118.5963    180.0788   4.8093100910e+01   2.0938574568e+01    0.8838925    0.6133344  52.96  0.004429321    1.623    0.384
        76 -11.1221    141.0980    182.4628   4.3107726154e+01   1.6942513332e+01     0.309846    0.1953685 -43.17  0.001563344    1.639    0.390
        77 -13.8219    102.4536    196.6779   5.4582209594e+01   1.9841699511e+01     1.010888    0.8691258   0.10  0.005996412    1.255    0.203
        78 -11.0070     65.0618    177.5516   6.2040416743e+01   2.9293866876e+01    0.3657049    0.1902981  50.82  0.001291197    1.915    0.478
        79 -10.8070     81.0497    169.0500   5.6390207723e+01   2.9149785953e+01    0.3357592    0.2354172 -84.92 0.0008573825    1.680    0.405
        80 -11.9950     86.9873    171.1440   5.5030140951e+01   2.7780573812e+01    0.5753582    0.3267752  45.11  0.002579579    1.693    0.409
        81 -12.6459     93.3080    167.8799   5.2773504444e+01   2.7598506823e+01    0.9746147     0.569901 -70.39  0.004249658    2.055    0.513
        82 -11.0644    108.6373    172.8571   4.9452500288e+01   2.4069166500e+01    0.3272742    0.2541494  44.96  0.001722595    1.257    0.204
        83 -12.4005    110.3812    145.5833   4.4010592588e+01   3.0041952481e+01    0.5268263    0.4489709 -39.38  0.002647035    1.219    0.180
        84 -13.5576    112.1915    154.8733   4.5330354266e+01   2.7566598322e+01     1.234964    0.7182241 -27.92  0.004808411    2.557    0.609
        85 -13.2330    101.8691    161.5707   4.9360891201e+01   2.7729781181e+01     1.348489     0.601659 -65.20    0.0048484    2.910    0.656
        86 -10.8756     59.6460    172.1570   6.2945965738e+01   3.1301595015e+01    0.4102299    0.1900919  17.44  0.001543315    2.774    0.639
        87 -11.2293     77.4663    159.2274   5.5958341465e+01   3.2077395687e+01    0.4845804    0.2472212 -69.52  0.001956475    2.205    0.546
        88 -11.8562     72.9724    157.8988   5.7097115708e+01   3.3061277720e+01    0.4488608    0.3870174 -58.56  0.001454852    1.208    0.172
        89 -10.6671     33.8032    157.1158   6.9094890719e+01   3.8103922353e+01    0.3030089    0.1728492  85.56  0.001369436    1.841    0.457
        90 -10.9999     84.0194    156.7351   5.3625763226e+01   3.1712728742e+01    0.3845493    0.2273344  44.87  0.001163337    1.641    0.391
        91 -10.2877     59.4465    157.5013   6.1158723448e+01   3.5014967733e+01    0.1427176     0.137426  70.15 9.370242e-05    1.055    0.052
        92 -13.4539    225.4541    150.0657   2.0829759752e+01   9.5770697806e+00    0.5888907    0.3864589 -44.88  0.002633234    1.572    0.364
        93 -12.8333    131.4798    152.9027   3.9938335399e+01   2.4642410801e+01     1.601383     1.085758  76.83  0.006584083    2.612    0.617
        94 -14.4101    137.6630    138.6170   3.5402643198e+01   2.6598328620e+01     1.894721    0.8136247  35.87  0.006960255    2.519    0.603
        95 -10.4375     67.6698    153.6868   5.8079372351e+01   3.4881203123e+01    0.2361295    0.1466814 -61.94  0.001052933    1.618    0.382
        96 -11.5964     70.0898    149.9520   5.6752699458e+01   3.5495388905e+01    0.3250765    0.2102608 -61.53 0.0004623593    1.552    0.356
        97 -10.3613     70.5298    145.5181   5.5897352108e+01   3.6574291097e+01    0.2417077    0.1754315  69.15  0.001026964    1.534    0.348
        98 -13.6586    210.9279    149.7859   2.3048707184e+01   1.1768525620e+01    0.4128991    0.4005724 -75.09  0.002529796    1.396    0.283
        99 -11.4667     91.6140    151.2204   5.0446390087e+01   3.1873617405e+01    0.6792137    0.2539841  44.98  0.002304889    2.759    0.638
       100 -11.8709     78.6910    148.4910   5.3848334162e+01   3.4591911279e+01    0.5160201    0.4293199 -81.71  0.002666009    1.259    0.206
       101 -10.2713     62.4301    149.5317   5.9098297089e+01   3.6676075862e+01    0.2697658    0.1170232 -53.82  0.001021792    2.318    0.569
       102 -11.2248     40.9143    145.8329   6.5576623728e+01   4.0319168738e+01    0.6506864    0.2687023  43.51   0.00250814    2.273    0.560
       103 -12.5409     33.7208    139.7257   6.7267563980e+01   4.2724720922e+01    0.6603276    0.3721932  81.35  0.002124128    1.961    0.490
       104 -12.5401     30.5291    130.6491   6.7303075181e+01   4.5504983744e+01    0.7671238     0.417306  59.05  0.003275404    1.971    0.493
       105 -12.5663    103.6940    149.5449   4.6659306620e+01   3.0267347531e+01    0.7803188    0.4346723 -69.40  0.003045566    2.386    0.581
       106 -11.4225     56.2817    145.0830   6.0420393553e+01   3.8660222718e+01    0.3551188    0.2462834 -42.26  0.001673798    1.650    0.394
       107 -11.6436     66.3099    137.8036   5.5963711387e+01   3.9200604812e+01    0.7298951    0.3217845 -73.96  0.002494881    2.887    0.654
       108 -12.3357     32.2000    120.4476   6.5346217921e+01   4.8130503785e+01     1.144813    0.3783018  41.33  0.003985988    2.898    0.655
       109 -12.7073     47.7670    138.3721   6.2291232974e+01   4.1518937669e+01    0.7673204    0.4774262  75.27  0.002755591    1.854    0.461
       110 -12.7804     43.0075    129.9290   6.2728913255e+01   4.4365301046e+01    0.8981741    0.5049843  58.07  0.003390478    1.972    0.493
       111 -10.3980     77.5138    136.5141   5.2074135830e+01   3.7840556721e+01    0.2817229    0.1511827 -75.45  0.001041514    2.421    0.587
       112 -11.6076     57.2230    127.0430   5.7194555407e+01   4.3344941260e+01     1.083357    0.5697871  83.22  0.003679191    3.134    0.681
       113 -10.3573     81.7018    132.1113   4.9870251136e+01   3.8298072747e+01    0.2056502    0.1872609 -58.83 0.0004186789    1.105    0.095
       114  99.0000     20.0325    221.9254   7.7095066307e+01   2.4206401378e+01     1.479058    0.5153648 -55.91  0.006261609    3.833    0.739
       115 -13.1559    206.7649    118.5877   1.7175915861e+01   1.7502253258e+01    0.8367763    0.5182209  -1.51  0.003658372    2.859    0.650
       116 -12.5489      4.8239    114.9891   7.5285151592e+01   5.1784358259e+01    0.9470023    0.3521622  57.77  0.003474632    2.996    0.666
       117 -11.6543      2.0242    104.8470   7.5540810878e+01   5.4689036798e+01     0.521349    0.2414658 -78.34  0.002280493    1.890    0.471
       118 -12.3594      3.0707     95.8577   7.4247489482e+01   5.7075400073e+01    0.6268907    0.4522998 -37.93  0.002586446    1.465    0.317
       119 -13.3357      4.3999     87.3101   7.2693405122e+01   5.9318689293e+01    0.7994167    0.7339902  89.54  0.003651718    1.066    0.062
       120 -13.2523     34.2817     89.5985   5.9107466525e+01   5.6326222505e+01     1.771256     0.715043 -71.25  0.006329808    2.619    0.618
       121 -13.3889     10.5707     69.8894   6.6915746448e+01   6.3609074019e+01     1.339696    0.4904495 -72.14  0.005150307    2.495    0.599
       122 -13.4546     16.5872     63.3237   6.2153012025e+01   6.4883362156e+01     1.282324    0.5900292 -72.61  0.005331751    2.204    0.546
       123 -14.1080     27.7522     99.4726   6.3902260197e+01   5.4319513434e+01     2.028514    0.7692469 -80.60  0.006638064    3.263    0.694
       124 -10.7283     10.1864    105.6338   7.2237784334e+01   5.4013992420e+01    0.2645688    0.2021827  -9.27  0.001085711    1.537    0.349
       125 -14.0781     16.3363     96.4054   6.8433590606e+01   5.6116905172e+01     1.319782    0.9311903 -87.99  0.005131824    1.379    0.275
       126 -14.0389    138.5127    145.2617   3.6631330177e+01   2.5017640253e+01     1.088702    0.5362992  44.30  0.004088833    2.086    0.521
       127 -11.3913    207.4939     91.4766   1.0918028287e+01   2.1716993453e+01    0.2939993    0.1132987 -36.58  0.001220709    2.200    0.546
       128 -11.5748    191.0027     87.9902   1.2455776095e+01   2.5529701244e+01    0.2211003    0.1973071 -42.20  0.001218543    1.030    0.029
       129 -10.5286     50.2331     83.5994   5.0444472385e+01   5.5873919223e+01    0.2091364    0.1471983  14.53 0.0009531418    1.665    0.399
       130 -11.6888     18.4022    114.4906   6.9920617676e+01   5.1003922903e+01     1.104311    0.4210806  62.49  0.003588787    3.648    0.726
       131 -10.6813     58.6697     63.3279   4.0232542056e+01   5.9450649151e+01    0.1520465    0.1183627  77.52 0.0007051316    1.711    0.415
       132 -12.2069     20.6857     50.2339   5.6024273431e+01   6.7769566274e+01    0.4066565    0.3149478  61.17  0.001980726    1.606    0.377
       133 -10.9133      1.4794     50.2644   6.8416875673e+01   6.9098054331e+01    0.4763393    0.1235234 -74.29  0.001582719    3.705    0.730
       134 -13.0944    229.2896     47.2897   3.5834414001e+02   2.3804500817e+01    0.5214363    0.3494705   7.93  0.002657988    2.894    0.654
       135 -11.7061     29.1917     48.0838   5.0022115024e+01   6.7351876964e+01    0.4638309    0.3230283 -15.75  0.002329655    1.647    0.393
       136 -12.2508     28.5419     32.0683   4.3557025599e+01   7.0911746308e+01    0.3655258    0.2031974  32.09  0.001762197    1.792    0.442
       137 -13.7214     16.9369     38.1281   5.4226953254e+01   7.0946494622e+01     0.714243    0.5490286  50.09  0.003928673    1.592    0.372
       138 -12.8507     22.5777     34.6321   4.8821039200e+01   7.1124870870e+01    0.3759537    0.3284286  76.93  0.001982053    1.500    0.333
       139 -11.9919    215.4991    247.1220   3.8579477105e+01  -2.4081240438e+00    0.2974927    0.1809966 -28.94  0.002086327    1.578    0.366
