#   1 NUMBER                 Running object number                                     
#   2 MAG_AUTO               Kron-like elliptical aperture magnitude                    [mag]
#   3 X_IMAGE                Object position along x                                    [pixel]
#   4 Y_IMAGE                Object position along y                                    [pixel]
#   5 X_WORLD                Barycenter position along world x axis                     [deg]
#   6 Y_WORLD                Barycenter position along world y axis                     [deg]
#   7 A_WORLD                Profile RMS along major axis (world units)                 [deg]
#   8 B_WORLD                Profile RMS along minor axis (world units)                 [deg]
#   9 THETA_WORLD            Position angle (CCW/world-x)                               [deg]
#  10 FWHM_WORLD             FWHM assuming a gaussian core                              [deg]
#  11 ELONGATION             A_IMAGE/B_IMAGE                                           
#  12 ELLIPTICITY            1 - B_IMAGE/A_IMAGE                                       
         1 -16.4659    220.3562     38.6103   5.4321155283e+01   2.4675342960e+01     5.838282     2.391642 -54.73   0.01937434    3.494    0.714
         2 -16.9599    242.3734     84.0364   6.3422379760e+01   1.3515257029e+01      3.09086     2.012666 -80.09   0.01347171    2.661    0.624
         3 -16.1456     11.4016     32.5624   1.1085228527e+02   6.7991508206e+01     1.280371     0.787132   2.91  0.007963371    2.039    0.510
         4 -16.0821     39.6109     18.1710   9.2077656542e+01   6.8155988661e+01     1.349884    0.5851108  28.03  0.006379562    2.763    0.638
         5 -14.4340    206.1853    197.5272   9.3819420268e+01   4.9322380554e+00    0.7304724     0.563747  10.72  0.004493384    1.270    0.213
         6 -14.1408    196.4746    247.0442   1.0265105892e+02   7.6636526329e-01    0.5445827    0.4683692 -59.73  0.004309609    1.870    0.465
         7 -15.6724    208.3809    235.8715   9.9250216080e+01   1.4947240818e-01      1.24554    0.7537085  23.11  0.007808136    1.531    0.347
         8 -18.6019    128.9700    214.3803   1.1029651707e+02   1.5433969376e+01     4.896492     2.653743  66.79   0.02448843    2.617    0.618
         9 -18.4302     64.3542    225.9718   1.2295328270e+02   2.2645738509e+01     3.002306     1.891365  32.78   0.01754253    1.891    0.471
        10 -17.1841     54.5249    173.3565   1.2051667211e+02   3.3363091069e+01     1.825379      1.20842  70.34   0.01056769    1.327    0.246
        11 -12.5839     16.8166    249.3017   1.3173768848e+02   2.4224721361e+01    0.2911246    0.1148151  69.47   0.00196412    2.030    0.508
        12 -13.0320     18.2962    237.6293   1.3108265914e+02   2.5861028010e+01    0.5055499    0.2501436  86.28  0.003725811    1.762    0.433
        13 -14.9274    187.0833    207.5436   9.8787675551e+01   6.8793549022e+00    0.8297632    0.6282874  42.71  0.003958834    1.157    0.136
        14 -14.2309    194.2264    200.8198   9.6468993941e+01   6.5509485103e+00    0.8008316    0.5313047  63.78  0.004287071    2.295    0.564
        15 -16.2725     26.9635    169.3168   1.2589116870e+02   3.7154947449e+01      1.22128    0.7940838  64.58  0.007886273    1.268    0.212
        16 -16.5088     72.6466    188.2734   1.1826392847e+02   2.8187735352e+01     1.126722    0.8481638 -75.70  0.004854356    1.348    0.258
        17 -13.3368    162.4811    200.3536   1.0220061853e+02   1.2065667112e+01    0.4901147      0.26576  63.48  0.002161235    3.036    0.671
        18 -17.9788     18.1621    191.1422   1.2897167308e+02   3.3802678056e+01     3.010913     1.314974  69.44   0.01764657    1.988    0.497
        19 -13.1288    149.9519    188.8757   1.0288082558e+02   1.6014512324e+01    0.2897123    0.1810434 -35.09  0.001548379    2.101    0.524
        20 -14.5894    145.7849    172.0492   1.0104213463e+02   1.9598042396e+01    0.4766025     0.402025 -40.67    0.0028965    1.365    0.267
        21 -14.8893    144.0054    182.9661   1.0315380785e+02   1.8034000404e+01    0.4720058    0.3960615 -63.38  0.002984823    1.385    0.278
        22 -14.9385    140.4502    176.6897   1.0289181150e+02   1.9740904588e+01    0.6054126    0.3262323 -51.11  0.003017076    2.116    0.527
        23 -14.2458    123.6274    172.8674   1.0579205623e+02   2.3355940853e+01    0.5276791    0.2658365  39.25  0.002510982    1.877    0.467
        24 -16.8602    242.2095    151.3570   7.8968093940e+01   4.4547057104e+00     2.183174      1.26229 -34.73   0.01140638    1.789    0.441
        25 -16.9167    159.5469    155.9259   9.5296007668e+01   1.9849775052e+01     2.447048      1.86152 -78.24   0.01269937    1.834    0.455
        26 -14.6100     26.2538    148.1073   1.2436046789e+02   4.1573322809e+01    0.4818578    0.3273306 -88.91  0.002238924    1.204    0.170
        27 -13.1198     10.9293    146.8885   1.2769277810e+02   4.3154686378e+01    0.2920291    0.1928118  63.22  0.001229911    1.317    0.241
        28 -14.7540    122.7980    145.4623   1.0137784584e+02   2.8802483352e+01    0.8675641    0.3576351  39.14  0.003397626    2.464    0.594
        29 -14.6719    117.4506    142.4319   1.0205799280e+02   3.0379656454e+01     0.649547    0.3777736  36.00  0.003049755    1.834    0.455
        30 -15.4404     56.7439    140.7070   1.1640173273e+02   3.9908768695e+01    0.7390938    0.5967783 -29.42   0.00358995    1.793    0.442
        31 -16.3527     25.5992    126.7114   1.2246980764e+02   4.6239292363e+01     1.326053    0.7335445 -68.13  0.007358019    1.525    0.344
        32 -16.6811     92.6523    113.9728   1.0267312981e+02   4.0731255822e+01     1.946658     1.307916  85.47  0.009147956    2.031    0.508
        33 -15.4346     71.9699    118.2642   1.0907761992e+02   4.2906731320e+01    0.8435709    0.5139681 -34.01   0.00368244    2.458    0.593
        34 -15.4172     64.9162    116.4135   1.1066485084e+02   4.4272743052e+01    0.6962662     0.455075 -77.63  0.002568095    1.530    0.346
        35 -16.8065     73.1343    108.0648   1.0683884997e+02   4.5036391052e+01     2.039065     1.251891 -33.99  0.009496945    2.279    0.561
        36 -15.0510     87.7510    123.8615   1.0592351296e+02   3.9334878604e+01    0.8061093    0.4054976  58.13  0.003379272    2.511    0.602
        37 -13.2128      1.8062    124.9446   1.2820462622e+02   4.8455577657e+01    0.3677036    0.1227196 -76.02  0.001834077    2.295    0.564
        38 -15.7926    241.5308    221.7534   9.1851968855e+01  -3.3999363337e+00     1.299026    0.9221872 -10.60   0.00783657    1.432    0.302
        39 -16.6287    244.5667    107.7854   6.8884171128e+01   9.8074343230e+00     2.299589    0.9219008 -40.20  0.009144315    2.559    0.609
        40 -14.4994    225.1285    219.1275   9.4074453614e+01  -6.5278143987e-01     0.854623    0.6030973  58.59  0.005271678    2.198    0.545
        41 -14.6093     54.0837    111.1607   1.1276688079e+02   4.6805502713e+01    0.6358973    0.3424912 -50.20  0.002971949    1.866    0.464
        42 -14.2076      1.8424    108.0834   1.2680741794e+02   5.2099739901e+01     0.598455    0.1692128 -76.94   0.00265655    2.770    0.639
        43 -13.6876      1.8110    100.6322   1.2611651476e+02   5.3733951687e+01    0.4485155    0.1658378 -81.46  0.001809398    2.280    0.561
        44 -13.5393     11.5014    107.6408   1.2415147454e+02   5.1565630432e+01    0.1970208    0.1407706  36.81  0.001314226    1.627    0.385
        45 -14.0388      2.8298     87.2170   1.2438356117e+02   5.6634994915e+01    0.4500906    0.2247363 -75.65  0.002030051    1.551    0.355
        46 -15.4056      9.1680     74.7868   1.2069152539e+02   5.9027423739e+01    0.8448448    0.4453619 -58.47  0.004719626    1.504    0.335
        47 -15.2558      3.5780     65.3934   1.2117187035e+02   6.1413420691e+01    0.6518769    0.4573511 -75.69  0.003104648    1.159    0.138
        48 -14.2730     23.1295     67.8372   1.1461457823e+02   5.9621165466e+01    0.3730148    0.3451275 -57.91  0.002497104    1.149    0.130
        49 -15.1041    103.9892    115.9182   1.0008676563e+02   3.8376440991e+01    0.6938001    0.6038725   3.95  0.003423403    1.458    0.314
        50 -14.0691      2.0467     42.1198   1.1745248960e+02   6.6517799687e+01    0.4430107     0.120094 -62.45  0.002029741    2.443    0.591
        51 -14.4524    234.5060    214.9476   9.1898790712e+01  -1.6609952841e+00    0.7828701    0.3948821  30.25  0.004509474    1.659    0.397
