#   1 NUMBER                 Running object number                                     
#   2 MAG_AUTO               Kron-like elliptical aperture magnitude                    [mag]
#   3 X_IMAGE                Object position along x                                    [pixel]
#   4 Y_IMAGE                Object position along y                                    [pixel]
#   5 X_WORLD                Barycenter position along world x axis                     [deg]
#   6 Y_WORLD                Barycenter position along world y axis                     [deg]
#   7 A_WORLD                Profile RMS along major axis (world units)                 [deg]
#   8 B_WORLD                Profile RMS along minor axis (world units)                 [deg]
#   9 THETA_WORLD            Position angle (CCW/world-x)                               [deg]
#  10 FWHM_WORLD             FWHM assuming a gaussian core                              [deg]
#  11 ELONGATION             A_IMAGE/B_IMAGE                                           
#  12 ELLIPTICITY            1 - B_IMAGE/A_IMAGE                                       
         1 -13.4834    208.4585     57.2697   6.6427884046e+01   2.6588936991e+01     3.687649    0.8322976 -38.56   0.01188614    4.145    0.759
         2 -14.9690    223.3614     86.2309   7.0794841215e+01   1.8582652835e+01     4.782817     2.964077 -29.95  0.005294485    2.005    0.501
         3 -12.6959    218.4579     70.7435   6.8074234790e+01   2.2242303720e+01     11.17236     1.024016 -46.13   0.02319226    9.167    0.891
         4 -14.1801    212.7182     16.9080   5.7152939590e+01   3.0964498394e+01     1.545517     1.278127  -0.46  0.008661183    2.006    0.501
         5 -15.7725    220.6367     40.2993   6.1220156251e+01   2.6290278520e+01     3.164887     1.301958 -62.49   0.01254794    3.112    0.679
         6 -15.5288    245.6604     71.9427   6.4885021698e+01   1.6287610282e+01     2.477616    0.8060642 -48.29  0.009945242    2.645    0.622
         7 -15.4219    225.6061     27.0528   5.7970867038e+01   2.6936025386e+01     1.645291    0.7252847 -45.10  0.008335968    2.068    0.516
         8 -15.2424    237.3384      9.2588   5.3510889296e+01   2.6581018338e+01     1.157124     0.687307 -45.18  0.005042788    1.631    0.387
         9 -16.4519    242.1368     37.5904   5.8464259668e+01   2.2071766831e+01     2.153579    0.7592716 -50.81  0.009728002    2.463    0.594
        10 -15.3605    248.1953     35.2892   5.7467323887e+01   2.1143817726e+01     1.694505    0.5895799 -62.00  0.006519199    3.656    0.726
        11 -14.8704    247.9523     20.2339   5.4696378035e+01   2.3123316634e+01    0.9450921    0.4376198  80.06  0.005092178    2.018    0.505
        12 -15.5146    247.0077     11.2583   5.3145057240e+01   2.4386227979e+01     1.748111    0.7874845  82.78  0.009477665    2.036    0.509
        13 -14.9609    242.4828     93.1464   6.9619652696e+01   1.3414780131e+01     3.840588     1.098317 -43.23   0.01391045    2.967    0.663
        14 -12.4400    145.9502     74.8413   8.1974306725e+01   3.8436348248e+01     3.130015     2.743848  52.08   0.01715731    1.099    0.090
        15 -10.8587    159.9265      3.5688   6.0035702299e+01   4.4293965422e+01    0.2775199    0.2463773 -43.12 0.0008252678    1.338    0.253
        16 -12.1022    123.2156     35.1413   7.5376991414e+01   4.9446794528e+01      1.37757    0.9368153  -2.93  0.004005646    1.984    0.496
        17 -13.9590    135.4915     12.8528   6.6232206645e+01   4.9040324295e+01     3.841023     3.626651  17.45   0.02688953    1.234    0.190
        18 -12.5814    128.2004     58.4443   8.1345724670e+01   4.5157734698e+01     1.811937     1.261779  15.25  0.005872685    1.995    0.499
        19  -9.1953    163.8823     19.9219   6.3672239961e+01   4.1800974509e+01     0.329288    0.2128251 -33.61  0.001377788    1.774    0.436
        20  -8.9906    166.5997     15.3232   6.2119596588e+01   4.1645970549e+01     0.279415    0.1971511 -34.19 0.0009268847    1.645    0.392
        21  -8.9836    191.8539     13.0785   5.8489913300e+01   3.6064739491e+01    0.2345753    0.1680412 -18.45  0.001393614    2.001    0.500
        22  99.0000    199.8147      8.6734   5.6688289588e+01   3.4731320195e+01    0.3648978    0.2110381 -77.62  0.002027536    1.688    0.408
        23 -10.1843    178.9542      8.1527   5.8817413439e+01   3.9510566664e+01     0.184538    0.1523881 -75.76 0.0003816691    1.155    0.134
        24  -9.2380    165.7836      5.8191   5.9849973067e+01   4.2750926742e+01    0.3029681     0.227215 -13.87  0.001430236    1.823    0.451
        25  -8.6118    184.8747      5.7519   5.7597176884e+01   3.8394366337e+01    0.1382702    0.1068195 -82.01 0.0002366947    1.140    0.123
        26  -8.6453    202.9771      4.4917   5.5494628176e+01   3.4456685973e+01    0.1204056   0.08755764  49.61 0.0004126042    1.715    0.417
        27  -7.7408    175.5435      3.1308   5.8028318511e+01   4.0764898957e+01    0.2477099    0.1460924 -14.58  0.001330058    2.596    0.615
        28  -9.3985    180.6084      1.9686   5.7194990975e+01   3.9720495527e+01    0.1617441    0.1435017  62.80  0.001021827    1.267    0.211
        29 -11.1132    198.1423    136.6584   8.6533081224e+01   1.4397806333e+01    0.7134372    0.4543075 -72.78  0.002496627    2.417    0.586
        30 -11.6465    237.4265    247.4800   1.0088475752e+02  -1.2662347168e+01    0.9555543    0.4418941  35.02  0.004969071    2.069    0.517
        31 -10.8251    191.5038    131.6555   8.6708212898e+01   1.6861264852e+01    0.5669733    0.3844946 -60.30  0.002541913    1.620    0.383
        32  -8.4003    168.2845    114.0587   8.7357177844e+01   2.5725545652e+01    0.2227889     0.203256 -60.50 0.0008298727    1.069    0.064
        33  -7.8881    178.5066    110.4892   8.4304839985e+01   2.4119303226e+01    0.1527091     0.145768 -73.06 -0.0001066317    1.012    0.011
        34  -7.3641    177.4252    105.5082   8.3296760502e+01   2.5363995923e+01    0.1515477    0.1437808 -70.60 0.0001080188    1.016    0.016
        35  -8.3474    144.6031    103.6555   9.0144834509e+01   3.3273214910e+01    0.3192265    0.2526904  12.57  0.001480984    1.665    0.400
        36  -8.5538    104.0252    101.0783   1.0030552542e+02   4.2373119914e+01    0.2167213    0.2057835 -13.30            0    1.051    0.048
        37  -7.9907    180.3056     97.9671   8.0846602670e+01   2.6166612738e+01     0.206745    0.1845502 -54.17 0.0002578366    1.093    0.085
        38  -9.2473    168.3515     97.3111   8.3110804969e+01   2.9075559966e+01    0.3612597    0.2567528 -29.67  0.001659313    1.636    0.389
        39  -8.9671    184.0858     93.1662   7.8928067753e+01   2.6194208225e+01    0.2495026    0.2027505 -54.75  0.001286372    1.192    0.161
        40  -8.4149    175.2939     93.8156   8.0798553142e+01   2.8122825194e+01    0.2984143     0.225404 -82.05 0.0006297402    1.555    0.357
        41  -8.2428    162.8469     93.7660   8.3364612816e+01   3.1042179844e+01    0.2582475    0.2061705 -35.21  0.001101593    1.337    0.252
        42  -8.8640    180.0933     89.8029   7.8850608033e+01   2.7747793926e+01    0.4007064    0.2098258  50.01  0.001204416    1.937    0.484
        43  -8.3202    171.1677     88.8011   8.0348068145e+01   3.0025985110e+01    0.2884009    0.2238527 -34.47  0.001208015    1.396    0.284
        44  -8.8256    173.0531     84.4479   7.8856506091e+01   3.0375659112e+01     0.254713    0.2430391 -68.59 0.0003288501    1.061    0.057
        45  -7.9107    196.1945     87.8075   7.5440640050e+01   2.4370912064e+01    0.3514808    0.2707168  76.70  0.001816399    1.333    0.250
        46  -8.9532    106.4547     87.5182   9.5791787128e+01   4.4686655163e+01    0.2563573    0.2461934  -6.46 0.0006321539    1.016    0.016
        47  -7.9434    166.0665     87.1771   8.0967887992e+01   3.1524294083e+01    0.2735749    0.1938599  53.81 0.0006865902    1.385    0.278
        48  -9.6790    156.3714     80.6757   8.1285455023e+01   3.4980269375e+01    0.3296055    0.2588349 -44.86 0.0006651801    1.302    0.232
        49 -10.3326     50.0612    161.8627   1.2888182058e+02   3.6109196642e+01    0.6475014    0.4239579  54.42  0.003316125    1.645    0.392
        50 -14.4837    243.4232     66.0124   6.3948356760e+01   1.7674573598e+01     1.109066    0.6271166  44.16  0.005265778    2.756    0.637
        51 -11.3002    148.2135     57.3809   7.6585034418e+01   4.0725036193e+01    0.4973816    0.4662428 -80.05 0.0003644039    1.095    0.087
        52 -10.6386     56.4185    157.9117   1.2658055431e+02   3.6304872899e+01    0.5897042    0.4077539 -71.31  0.002426044    1.324    0.245
        53 -10.9316    155.2759     35.6359   6.9205343551e+01   4.2024822076e+01    0.6229161    0.3408679  56.51 0.0008088496    1.604    0.376
        54  -7.3700     94.9563    137.2206   1.1186387266e+02   3.5671075488e+01    0.1936596    0.1251107  38.99 0.0007994278    1.617    0.382
        55  -7.7066    190.5748     75.2761   7.3373085031e+01   2.7852095056e+01    0.3708025     0.203352  61.46  0.001185769    1.800    0.444
        56  -8.4543    189.5507     71.7480   7.2684514835e+01   2.8679604401e+01    0.2563285    0.1829182  72.87  0.000639213    1.393    0.282
        57  -9.7780     44.3234    166.4476   1.3102918888e+02   3.5648910590e+01    0.4471605    0.3272835  23.42  0.002182419    1.694    0.410
        58  -8.4217     62.0277     79.3238   1.0757075598e+02   5.3866435517e+01    0.2167542    0.1605861   4.33  0.001183484    1.475    0.322
        59  -9.0275    104.0911     75.5694   9.2942867724e+01   4.7416411138e+01    0.3173071    0.2109433 -39.39   0.00106448    1.528    0.346
        60  -8.5814    185.0275     84.1316   7.6518525163e+01   2.7618041382e+01    0.2149851    0.2003673  82.06 0.0003911869    1.051    0.048
        61  -8.2783    194.7325     71.1579   7.1694185253e+01   2.7566863151e+01    0.3071805    0.2084865 -33.19  0.001520336    1.670    0.401
        62  -8.1464    171.1504     70.1436   7.5528678843e+01   3.3290643755e+01    0.2308592    0.2207278 -62.93 0.0007776902    1.101    0.092
        63  -7.6923    168.7130     67.3349   7.5252830633e+01   3.4327236733e+01    0.2166581    0.1834221 -86.23 0.0005335304    1.189    0.159
        64  -9.7883    111.8629     70.0297   8.9062714733e+01   4.6815225841e+01     0.329109    0.3113977  65.38  0.001204274    1.151    0.131
        65  99.0000    187.8413     65.6514   7.1475337603e+01   3.0067910026e+01    0.4628912    0.3640396 -11.21  0.001938621    1.830    0.454
        66  -9.2562    157.3179     65.7220   7.7036379324e+01   3.7288415212e+01    0.2833042     0.251124 -66.56  0.000425203    1.157    0.136
        67  -7.5030    198.2572     65.0364   6.9686872780e+01   2.7733558885e+01    0.3817039    0.2124201 -83.65  0.001516958    2.715    0.632
        68  -9.2232    165.2068     62.3817   7.4605733818e+01   3.5945960041e+01    0.4140321    0.2293251 -35.43  0.001736935    1.960    0.490
        69  -8.2360    174.8330     62.6583   7.2929473620e+01   3.3615377650e+01    0.2337368    0.2273175  18.11  0.001394308    1.231    0.187
        70  -9.1853    160.4082     59.4451   7.4729797646e+01   3.7537341151e+01    0.3610903    0.2482983 -53.52  0.001021251    1.560    0.359
        71  -7.6106    169.5901     58.7305   7.2842753722e+01   3.5465008323e+01     0.181528    0.1290468 -50.64 0.0005232401    1.449    0.310
        72  -8.6774    187.1878     57.4754   6.9578297515e+01   3.1485593596e+01     0.207557    0.1714244 -60.34 0.0004470791    1.178    0.151
        73  -9.0824    191.7238     55.1533   6.8320095403e+01   3.0767506089e+01    0.3630518    0.1797825  64.22  0.001627019    1.910    0.476
        74 -11.3561    181.8201     55.3325   6.9902027787e+01   3.3071446663e+01    0.4231017    0.2358703 -52.95  0.001958113    1.890    0.471
        75  -9.2179    202.0624     53.0001   6.6327596195e+01   2.8684722661e+01    0.1878171    0.1658974  88.47 0.0003359087    1.066    0.062
        76  -9.3355    172.6375     52.6726   7.0742818067e+01   3.5637156106e+01     0.448287    0.2305892  73.77   0.00187787    2.237    0.553
        77  -9.3966    198.5763     49.3177   6.5956064791e+01   3.0020453411e+01    0.2367977    0.1721955 -31.35  0.001293111    1.642    0.391
        78  -9.2744    190.7229     45.6577   6.6194008257e+01   3.2360294312e+01    0.4295628    0.2852061  40.23  0.002168978    1.997    0.499
        79  -9.1931    193.4898     43.5943   6.5318022075e+01   3.1998330949e+01    0.1970335    0.1701583 -76.90 0.0001611597    1.064    0.060
        80  -7.3960    176.5929     45.8041   6.8346376534e+01   3.5665782427e+01    0.1364361   0.08895867  48.38  0.000671324    1.627    0.385
        81  -8.5446    198.5605     43.6754   6.4651538108e+01   3.0812224872e+01    0.2234374    0.1361009  69.56   0.00115674    1.505    0.335
        82  -7.8557    184.0471     44.2034   6.6810823592e+01   3.4125030215e+01    0.1765829    0.1457207  85.47 0.0002754399    1.080    0.074
        83  -8.4257    166.2402     40.3652   6.8616362583e+01   3.8841763527e+01    0.2150503    0.1917566 -80.16 0.0004352177    1.102    0.092
        84  -5.2114    195.0262     38.5700   6.3936510858e+01   3.2314254924e+01     0.315556    0.1262044 -51.46  0.001301633    2.662    0.624
        85  -7.9463    189.2953     38.5443   6.4699373734e+01   3.3649531243e+01    0.1252019    0.1108018 -75.58 0.0002045064    1.093    0.085
        86  -7.4078    171.7587     37.2329   6.6927867027e+01   3.7938928976e+01    0.1633917    0.1396087  55.22 0.0004636033    1.207    0.171
        87  -9.4020    191.0829     80.6041   7.4582875531e+01   2.6823254076e+01    0.3484485    0.1900936 -45.54 0.0005229691    1.778    0.438
        88  -9.3518    195.3033     32.6609   6.2535307570e+01   3.3009444337e+01    0.2143097    0.1741798 -44.92 0.0007314788    1.341    0.254
        89  -9.8592    192.2734     30.1041   6.2326465707e+01   3.4025884083e+01    0.2239047    0.1962492 -32.56   0.00143167    1.414    0.293
        90  -7.8914    169.8572     30.8400   6.5587892650e+01   3.9173108507e+01    0.1712841    0.1292051 -55.07 0.0005348735    1.387    0.279
        91 -10.4188    185.0773     27.6027   6.2661686730e+01   3.5995616538e+01    0.1926687    0.1739091 -64.54  0.000260869    1.182    0.154
        92  -8.9921    162.1232     26.9150   6.5751330017e+01   4.1445743241e+01    0.2751365    0.2163293 -69.65 0.0009005675    1.332    0.249
        93  -8.0572    167.1584     24.1522   6.4280805261e+01   4.0576774139e+01    0.1944554     0.168551 -87.79  0.000647884    1.087    0.080
        94  -7.3961    220.0556    209.0230   9.7278233483e+01  -3.9575802252e+00    0.1537859    0.1361129   1.87            0    1.041    0.040
        95 -14.6674    248.7188     28.1690   5.6092336414e+01   2.1971649195e+01    0.6537668    0.3645507 -77.41  0.003732723    1.673    0.402
        96  -7.7443    175.0639     22.9643   6.2871459139e+01   3.8862180201e+01    0.1371426    0.1183096 -51.62 0.0003756708    1.267    0.211
        97  -9.6492    180.1423     21.0195   6.1728048865e+01   3.7897023742e+01    0.1772205    0.1519756  76.86 0.0002597733    1.080    0.074
        98 -10.2868    198.4885     18.1636   5.8893714775e+01   3.4003991996e+01    0.3424059    0.1790798  51.07  0.001170996    2.186    0.543
        99  -8.1230    174.2350     18.6484   6.1922128057e+01   3.9526713529e+01    0.1486111     0.123734  55.46 0.0002795806    1.264    0.209
       100  -7.3065    160.6876    175.6710   1.0324231701e+02   1.3705509771e+01    0.1563845     0.122324  -8.14 0.0007042971    1.670    0.401
       101  -8.1056    176.1112     12.7780   6.0257359367e+01   3.9703675813e+01    0.1765164    0.1304501 -87.89 0.0005099912    1.226    0.184
       102 -14.2253    232.2127     73.5396   6.6856114082e+01   1.8813170407e+01     1.322895    0.7564974 -55.81   0.00664455    1.609    0.379
       103  -9.6841    179.3239    151.4078   9.3785860512e+01   1.5256513980e+01    0.5915908    0.4688415  76.75  0.002135305    1.557    0.358
       104  -9.9978    210.9971    148.8758   8.6765715071e+01   9.2507493830e+00    0.5762718    0.3069263 -33.52  0.002353668    2.051    0.513
       105 -10.1957    207.1646    143.7759   8.6376440271e+01   1.1058135914e+01    0.3771802    0.3205972 -66.90 0.0008963331    1.251    0.201
       106  -9.1764     66.4382    145.0261   1.2158154546e+02   3.8194919726e+01    0.2647285    0.2102152  -1.23  0.001357938    1.648    0.393
       107  -9.8891    196.3189    140.7953   8.7832557684e+01   1.3925747225e+01    0.3719654     0.225502 -59.62  0.001405135    1.940    0.485
