#   1 NUMBER                 Running object number                                     
#   2 MAG_AUTO               Kron-like elliptical aperture magnitude                    [mag]
#   3 X_IMAGE                Object position along x                                    [pixel]
#   4 Y_IMAGE                Object position along y                                    [pixel]
#   5 X_WORLD                Barycenter position along world x axis                     [deg]
#   6 Y_WORLD                Barycenter position along world y axis                     [deg]
#   7 A_WORLD                Profile RMS along major axis (world units)                 [deg]
#   8 B_WORLD                Profile RMS along minor axis (world units)                 [deg]
#   9 THETA_WORLD            Position angle (CCW/world-x)                               [deg]
#  10 FWHM_WORLD             FWHM assuming a gaussian core                              [deg]
#  11 ELONGATION             A_IMAGE/B_IMAGE                                           
#  12 ELLIPTICITY            1 - B_IMAGE/A_IMAGE                                       
         1 -14.6771     68.4603    144.3854   1.0412317878e+02   3.7375307089e+01     5.118287     2.695888  68.59  0.006308332    3.935    0.746
         2 -14.1738    206.4889     36.7764   4.3524940635e+01   2.9277143755e+01     1.622997     1.243042  -5.82  0.007282023    1.807    0.446
         3 -14.0767    221.3495     22.0410   3.8881352850e+01   2.7844356754e+01      1.01723    0.9471651  14.07  0.003562429    1.474    0.321
         4 -13.7506    197.2542     43.1365   4.6058410374e+01   3.0510908746e+01     1.080547    0.9785611  34.34  0.002906675    1.350    0.259
         5 -12.4170    244.5255      2.6404   3.3488314384e+01   2.5329189497e+01    0.5997814    0.2494631  80.50  0.003382752    2.369    0.578
         6 -10.4551      2.4584      3.7814   9.3108871920e+01   7.6048574407e+01    0.2762727   0.09410182 -43.98  0.001303914    2.604    0.616
         7 -10.6543     51.3432      3.8866   6.3395957014e+01   6.8832464830e+01    0.2519951    0.1897245  49.97  0.000624362    1.349    0.259
         8 -10.6490     47.2013      2.2191   6.4237530415e+01   6.9793632356e+01    0.2958955    0.1710375  58.95  0.001285998    2.128    0.530
         9 -13.3197     36.2175    203.7736   1.2066543894e+02   2.6603060720e+01    0.5495809    0.4383369 -14.39  0.001461997    1.643    0.391
        10 -14.5627     84.0841    222.7144   1.1087552227e+02   1.6858536581e+01     4.572031    0.4644196  40.72   0.01160084    6.295    0.841
        11 -14.0139     21.4472    222.6344   1.2539740470e+02   2.3937334646e+01     1.512134    0.5848365  65.01  0.005579626    2.872    0.652
        12 -16.0305     50.3863    246.7787   1.2065905676e+02   1.6160848123e+01     10.10242     2.792809  20.77   0.01001999   10.024    0.900
        13 -15.1426     45.3690    194.1140   1.1750452372e+02   2.7857815225e+01     2.463185     1.618194  64.83  0.009275646    1.567    0.362
        14 -10.3336     60.4657    197.9828   1.1399938782e+02   2.5226557726e+01    0.2577829    0.1909415  18.12 0.0003854458    1.444    0.307
        15 -10.2144    208.5020    196.5059   7.8644298230e+01   3.5056333067e+00    0.2147554    0.1166835 -46.23 0.0009732385    2.239    0.553
        16  -9.6709     92.5247    217.0141   1.0817796735e+02   1.6903033842e+01    0.1917589    0.1647333  35.15 0.0004594336    1.026    0.025
        17  -8.6121     72.3054    188.3069   1.0971639927e+02   2.5983080024e+01    0.1386707    0.1059894 -23.50 0.0002514113    1.606    0.377
        18  -9.1567     79.9765    183.5243   1.0698146526e+02   2.6073684620e+01    0.2200658    0.1320619  32.49  0.001017689    1.560    0.359
        19 -10.3304    150.6637    179.1096   8.7768974619e+01   1.5797622387e+01    0.4217454    0.2623783 -67.06  0.001676959    2.869    0.651
        20  -9.6144     99.6017    180.8318   1.0121739012e+02   2.3829697807e+01    0.2416579    0.1922879  17.62 0.0005991834    1.268    0.211
        21  -8.6000     90.2889    181.3112   1.0382984447e+02   2.5119639257e+01    0.1447092    0.1098757 -20.16 0.0002413804    1.582    0.368
        22 -10.2977    144.2669    178.6780   8.9236823174e+01   1.6975654502e+01    0.2791851     0.236466 -17.73 0.0009047018    1.162    0.139
        23  -9.2589     72.7520    172.6824   1.0742836436e+02   2.9675540012e+01    0.2009889    0.1759265  41.43 0.0002039486    1.105    0.095
        24 -12.1682     63.3873    176.8514   1.1066638957e+02   2.9879304507e+01    0.4760801    0.3145186 -28.36  0.002224711    1.977    0.494
        25 -11.9765     68.2421    171.6473   1.0856925288e+02   3.0531556876e+01    0.3627804    0.2850522 -28.65 0.0007018109    1.470    0.320
        26  -8.8364    218.7238    177.3280   7.3087802158e+01   5.1113500746e+00    0.1161534    0.1013901 -50.28 0.0002644057    1.591    0.372
        27  -9.5032    204.2769    175.9619   7.5518437528e+01   7.5269288549e+00    0.1993561     0.157854 -22.41     0.001162    1.114    0.102
        28 -10.2725    109.7500    201.4590   1.0179467317e+02   1.7706839251e+01    0.2500665    0.2097671 -32.37 -2.756163e-05    1.289    0.224
        29 -12.7740     84.9255    155.6415   1.0106048229e+02   3.2139634003e+01     1.438966    0.7264054 -55.88  0.001599616    1.972    0.493
        30 -13.5726     65.0875    158.1760   1.0748404971e+02   3.4312866682e+01    0.6200767    0.4510489 -39.52  0.001674211    1.482    0.325
        31 -12.3487     77.8494    162.0681   1.0428614205e+02   3.1586553480e+01    0.5703366    0.4937481  42.13  0.000545021    1.141    0.124
        32  -9.3646    173.5133    244.4651   9.3693454043e+01   8.0332829350e-01    0.1951599    0.1030381 -28.52 0.0006606554    2.076    0.518
        33 -11.5604    194.3549    196.5553   8.1440128989e+01   5.5503756868e+00     1.092277     0.673276 -65.74  0.003635357    5.916    0.831
        34 -10.0729    137.2690    167.9478   8.8879038740e+01   2.0465484255e+01     0.280295     0.210395  54.58  0.001332544    1.628    0.386
        35 -10.7888     36.6259    161.6310   1.1650024454e+02   3.6699469878e+01    0.3464037    0.2420144  28.21   0.00175332    1.471    0.320
        36 -11.5015     33.0539    156.2612   1.1694845009e+02   3.8409122715e+01    0.4008789    0.3100499  65.87  0.001431818    1.318    0.241
        37 -10.0023    174.9059    149.0868   7.5896536888e+01   1.7469169759e+01    0.2137647    0.2062213 -66.98 0.0006308327    1.279    0.218
        38 -10.5694    134.0000    145.4741   8.4941186398e+01   2.6013237258e+01    0.7550538    0.2052612 -51.54  0.001981918    4.553    0.780
        39  -9.9589    132.6724    139.2012   8.3855384840e+01   2.7666827897e+01     0.469894    0.1570743 -49.30  0.001445528    3.173    0.685
        40 -11.9375     54.6684    147.5261   1.0905234200e+02   3.8345743435e+01    0.8112029    0.2790228 -51.14  0.002856479    2.746    0.636
        41 -11.0692     48.4824    145.3490   1.1069392365e+02   3.9628389548e+01    0.3786654    0.2131133  -0.02  0.001511657    2.618    0.618
        42 -10.8177    100.0309    140.5955   9.3496910579e+01   3.3390554312e+01    0.6278422    0.3764472 -21.94  0.002328278    2.513    0.602
        43 -12.3666     86.9922    140.4924   9.7493300285e+01   3.5594608605e+01    0.3249589    0.2768783 -36.45 0.0004123848    1.184    0.155
        44 -10.9751     32.0444    143.6585   1.1573348827e+02   4.1744846883e+01    0.3521635    0.2610778  48.73  0.001887044    1.406    0.289
        45 -10.3988    106.0000    131.0247   8.9527240520e+01   3.4632034578e+01    0.4497365     0.273341 -54.11  0.001871676    1.729    0.422
        46 -10.3850    109.6558    130.6970   8.8352509901e+01   3.4031695562e+01    0.3987024    0.2795523   6.75 0.0009901972    1.843    0.457
        47 -15.0091      9.7127    207.1449   1.2718129604e+02   2.8289714103e+01     1.646931     1.108631 -32.68  0.009584441    2.127    0.530
        48 -10.8661    135.7232    127.9985   8.0353515852e+01   2.9536621411e+01    0.6007093    0.1753069 -47.97  0.001712467    3.651    0.726
        49 -11.3406     96.9350    127.0004   9.1376788813e+01   3.7240341878e+01    0.3325185    0.2774401  -8.59 0.0005759281    1.308    0.235
        50  -9.6373    116.2421    124.6126   8.4928155900e+01   3.4190042369e+01    0.2220386    0.1476925  25.51 0.0004827683    1.642    0.391
        51 -11.3593     44.5785    123.3875   1.0840786167e+02   4.5774687900e+01    0.2876955     0.243807 -41.54  0.001177601    1.141    0.124
        52  -9.5561    135.0000    119.8912   7.8502405556e+01   3.1445555644e+01    0.2561311   0.08848091 -44.27 0.0007944872    2.888    0.654
        53  -9.9177    106.9135    119.3167   8.6385246607e+01   3.7226360863e+01    0.2405592    0.2144726 -34.32 0.0003624387    1.110    0.099
        54 -11.4550     22.6455    119.6020   1.1565932916e+02   4.8790451217e+01    0.3550992    0.2417156 -11.64  0.001811707    1.728    0.421
        55  -9.3170    168.2339    113.0600   6.8789570460e+01   2.5797605821e+01    0.2510694    0.1724916 -65.20  0.001078163    2.060    0.515
        56 -10.6520    119.9206    173.1667   9.4409760364e+01   2.2306198240e+01    0.3557363    0.2013453  25.01  0.001481639    1.854    0.461
        57  -9.6012     83.5968    117.6257   9.3487485387e+01   4.1835121216e+01    0.3004122    0.2142514  67.45  0.001154166    1.998    0.499
        58  -9.9403    205.3408    110.2599   6.1081620959e+01   1.8722821282e+01    0.2696516    0.1912389  43.07  0.001008339    1.554    0.357
        59 -12.0018    241.5885     99.9209   5.3548334069e+01   1.3723694036e+01    0.3495696    0.1605155 -40.41   0.00103869    1.790    0.441
        60  -9.4758     31.9602     95.8006   1.0790036068e+02   5.4127035533e+01    0.2292963    0.1475688  50.25  0.001078457    1.944    0.486
        61 -10.4069     53.1366     91.1603   9.8076047831e+01   5.2907799228e+01    0.3337191    0.2112001 -52.72  0.001551464    1.499    0.333
        62 -10.1187     41.9672     91.6215   1.0279929064e+02   5.4152704799e+01    0.2939491    0.2206307 -11.38 0.0008304464    1.414    0.293
        63  -9.7003     18.2250     90.3964   1.1257900811e+02   5.6585428859e+01    0.1732206    0.1235155  29.98 0.0004575323    1.570    0.363
        64  -9.6873     72.5222     83.2959   8.8104092863e+01   5.1811966272e+01    0.3177072    0.2102089  57.65 0.0007935595    2.166    0.538
        65  -9.2775    150.9536     82.9392   6.4467476152e+01   3.5226876343e+01    0.2279555    0.1806211 -77.77 0.0005427386    1.599    0.375
        66  -9.4253    159.8425     82.1742   6.2357162213e+01   3.3303931126e+01    0.2003359    0.1745894  11.08 0.0004501041    1.296    0.228
        67 -10.8137    243.9864     77.0443   4.8483369874e+01   1.6596922675e+01    0.1529458    0.1210034 -43.26  0.000557792    1.044    0.042
        68  -8.9626     92.5126     66.5647   7.5282119610e+01   5.1448717349e+01    0.1488527    0.1412002  25.81 8.226163e-05    1.074    0.069
        69  -9.5938     49.0100     62.8436   9.1312263307e+01   5.9912257403e+01    0.1967812    0.1830369  35.87 0.0003028933    1.279    0.218
        70 -10.4595     13.5134     60.0760   1.0803542661e+02   6.4183845902e+01    0.2477528    0.2073192 -46.69 0.0005449893    1.102    0.093
        71 -10.2385    171.6441    240.1411   9.3440591719e+01   1.7024099179e+00    0.3185039    0.2175831 -57.61  0.001444653    2.420    0.587
        72  -8.9022    185.5989    236.7668   9.0068579668e+01   3.7821942053e-01    0.1494604    0.1163892 -40.05 0.0009421404    1.624    0.384
        73 -14.8683      4.9661    185.0452   1.2708825761e+02   3.3667533794e+01     4.036457    0.7399119 -77.27   0.01303629    4.702    0.787
        74  -9.6545    137.0352     43.0911   5.5303196454e+01   4.4796673143e+01    0.2162935    0.1634069 -75.02 0.0003970461    1.593    0.372
        75 -10.1864    139.9929     37.9196   5.3072572075e+01   4.4734412989e+01    0.2105188    0.1903562  84.37 0.0004001313    1.097    0.088
        76 -12.6205    214.9724     28.7847   4.0890063240e+01   2.8411458409e+01    0.4618531    0.3712445  51.95  0.001100425    1.505    0.336
        77  -9.8134    189.5092     15.0482   3.9963130827e+01   3.5426657542e+01    0.1760841    0.1166127 -33.36 0.0005684336    1.557    0.358
        78 -10.0428     64.7574    223.8242   1.1556800386e+02   1.9057506266e+01    0.2347887     0.160266  75.17  0.001084241    1.666    0.400
        79 -16.4369      8.5599    239.7821   1.2895233433e+02   2.1643358757e+01     10.23806     2.224891 -77.52   0.04110851    4.447    0.775
        80 -10.0986     59.6188    220.4256   1.1646346330e+02   2.0379702801e+01    0.2711303    0.2024098  -0.43  0.001391267    1.727    0.421
