#   1 NUMBER                 Running object number                                     
#   2 MAG_AUTO               Kron-like elliptical aperture magnitude                    [mag]
#   3 X_IMAGE                Object position along x                                    [pixel]
#   4 Y_IMAGE                Object position along y                                    [pixel]
#   5 X_WORLD                Barycenter position along world x axis                     [deg]
#   6 Y_WORLD                Barycenter position along world y axis                     [deg]
#   7 A_WORLD                Profile RMS along major axis (world units)                 [deg]
#   8 B_WORLD                Profile RMS along minor axis (world units)                 [deg]
#   9 THETA_WORLD            Position angle (CCW/world-x)                               [deg]
#  10 FWHM_WORLD             FWHM assuming a gaussian core                              [deg]
#  11 ELONGATION             A_IMAGE/B_IMAGE                                           
#  12 ELLIPTICITY            1 - B_IMAGE/A_IMAGE                                       
         1 -12.0208     59.3607    133.2205   7.9172482931e+01   4.1407300102e+01     1.839499    0.8950869  66.43   0.00656149    3.689    0.729
         2 -11.5965    231.8754     32.7231   1.3999448460e+01   2.3533850815e+01    0.8016962    0.6722474 -72.71   0.00291072    1.036    0.035
         3 -12.0329    214.7010     46.5577   1.9386704331e+01   2.5734804715e+01     1.144758    0.9496132  50.50   0.00613509    1.342    0.255
         4 -10.0501    120.0839      9.2315   2.3772196433e+01   5.3769337767e+01     0.500273    0.3328114  43.13  0.002479724    1.344    0.256
         5  -7.2816     83.7817      8.9922   3.2946398867e+01   6.1681998169e+01    0.1488795   0.09846215 -18.16            0    1.548    0.354
         6  -8.9652      6.7539      8.7774   6.6223611288e+01   7.2375217651e+01    0.1471677   0.07340653  30.08 0.0007257667    2.425    0.588
         7  -8.5756     99.5131      2.9841   2.6074078858e+01   5.8971933887e+01    0.1765295    0.1234637 -14.76  0.000405332    1.536    0.349
         8  -9.2774    122.3505    237.2051   7.9201619835e+01   9.1555637822e+00    0.2233814    0.1743108  49.64 0.0002811045    1.043    0.041
         9  -7.3739    237.3126    250.2804   5.9436797844e+01  -1.0886169984e+01    0.1169709   0.07089069  11.75 0.0002412601    1.568    0.362
        10 -10.3519     97.4694    248.4637   8.5152319441e+01   1.1045893214e+01    0.2471427    0.2365478  38.64 0.0006435715    1.393    0.282
        11 -11.8828     24.4776    195.1824   9.4654481963e+01   3.0988341151e+01    0.8430266     0.568964  11.52  0.003346773    2.617    0.618
        12 -14.2231     35.4263    186.0054   9.1644016666e+01   3.1826038085e+01     6.908037     2.749671  63.90   0.02967902    2.925    0.658
        13  -9.4614     70.5134    232.4076   8.8721850798e+01   1.7823183836e+01    0.2608587    0.1819669  78.30 0.0009811587    1.289    0.224
        14 -12.6439     52.5401    229.1241   9.1822057617e+01   2.0819930920e+01     1.654868    0.8789818  86.85  0.004134456    1.889    0.471
        15  -9.6606    124.4388    230.4836   7.7970621980e+01   1.0004804196e+01     0.290386    0.2123817  71.16  0.001711887    1.476    0.323
        16 -10.8915     14.9395    246.7424   9.9414975465e+01   2.1851319469e+01    0.3091967    0.1855792  76.14 0.0003907414    1.240    0.194
        17 -10.4405     39.8216    211.2973   9.2855238377e+01   2.5926856066e+01    0.5759735     0.213469  63.65  0.002493856    3.007    0.667
        18  -8.1599     85.0053    201.4929   8.2601389073e+01   2.1975872280e+01    0.2653626    0.1639802 -85.73  0.001364086    1.784    0.439
        19 -14.0826      8.6144    237.2020   9.9998283010e+01   2.4227863534e+01     2.295196     1.319744  36.97  0.005436823    1.921    0.480
        20 -11.6247      4.3479    249.3026   1.0119843965e+02   2.2472240846e+01    0.6714635    0.2475741  38.10  0.003760055    2.541    0.607
        21  -8.1958     67.0150    191.0792   8.5304031633e+01   2.6819683639e+01    0.1925841    0.1577677  78.63 0.0003520512    1.035    0.034
        22  -9.6772    135.4469    185.9826   6.9079036017e+01   1.6757407333e+01    0.2474855    0.2358824  64.76 0.0003390472    1.046    0.044
        23  -7.7319    141.2294    183.6169   6.7356258993e+01   1.6167499429e+01    0.2009001    0.1309595  33.35 0.0005386128    1.584    0.369
        24  -7.1414    141.4812    176.5673   6.6024620500e+01   1.7600948573e+01    0.1459974    0.1361543  48.63 0.0001765025    1.020    0.020
        25  -7.9455    248.6657    174.0056   4.3662101923e+01  -2.3323081240e+00    0.2210789   0.09731359 -18.03 0.0007051945    4.374    0.771
        26  -8.8074     78.9617    173.9389   8.0394701711e+01   2.9000801771e+01    0.1986006    0.1737155  84.64   0.00118805    1.016    0.016
        27  -9.9536     55.6708    170.5404   8.5478062285e+01   3.2967911333e+01    0.3745828    0.2783027 -29.62  0.001731873    2.055    0.513
        28  -9.9329     61.3872    165.7646   8.3507046473e+01   3.3352303097e+01    0.2845427     0.263187 -20.87 0.0003749382    1.445    0.308
        29 -12.3229     10.2348    207.2860   9.8180775052e+01   2.9867061716e+01    0.7958432    0.4564524  53.68  0.002368476    1.478    0.323
        30  -7.3843    110.4995    167.5311   7.1753501063e+01   2.5354432399e+01    0.1459367    0.1336574  73.85 0.0003187702    1.018    0.018
        31  -8.7466     95.9807    165.1325   7.4911973219e+01   2.8389915982e+01    0.2278337    0.1918958 -73.84  0.000341073    1.147    0.128
        32 -11.1994     73.8371    158.0234   7.9320172838e+01   3.3482131542e+01     1.022781    0.5111323  54.51  0.002008304    2.212    0.548
        33 -10.4670     54.9601    118.5691   7.7838677177e+01   4.5484362984e+01    0.3492664    0.2285595 -66.68 0.0003762967    1.381    0.276
        34  -8.8428     79.6922    247.9318   8.8365289003e+01   1.3702556022e+01    0.1831608    0.1561518  31.48 0.0009626294    1.543    0.352
        35  -7.7797    222.1746    161.8405   4.5878065989e+01   4.4135232717e+00    0.1963435    0.1837903 -40.95 0.0004073731    1.198    0.165
        36  -7.6631     43.8965    157.8440   8.6769881753e+01   3.7334001670e+01    0.1752251    0.1287296  77.86 0.0002589879    1.271    0.213
        37  -9.5699    117.9273    233.3850   7.9617707813e+01   1.0540963172e+01    0.2953612    0.2030943 -83.48  0.001663233    1.791    0.442
        38  -7.5247    106.3410    155.6476   7.0647998773e+01   2.8842794365e+01    0.1588688    0.1098599  76.59 0.0007042309    1.806    0.446
        39 -11.4221     58.6349    152.9146   8.2429463984e+01   3.6751979285e+01    0.4326952    0.3482617 -48.81  0.001361049    1.380    0.275
        40  -9.0107     51.4564    153.1359   8.4285416846e+01   3.7579154397e+01    0.2498809    0.1610064  59.04 0.0007758713    1.598    0.374
        41 -10.3997     79.8991    151.2849   7.6684738281e+01   3.4205006472e+01    0.5595827    0.3848681 -29.65  0.001691947    2.127    0.530
        42  -7.9485    235.4806    150.9873   4.1119661220e+01   3.7340117926e+00    0.1928228    0.1148256 -12.50 0.0008056159    2.328    0.571
        43  -8.2611     88.7790    149.8015   7.4110783099e+01   3.3185585522e+01    0.1992723    0.1909557 -47.66 0.0006570152    1.172    0.147
        44  -8.1138     30.6535    147.5347   8.8830137279e+01   4.1137350833e+01    0.2625282    0.1333797  63.22  0.001259274    2.255    0.557
        45  -8.7095    148.5302    141.1376   5.7049189401e+01   2.3890668644e+01     0.374091    0.2631725 -22.81  0.001109042    1.886    0.470
        46  -8.9351     96.0057    138.7294   7.0093141710e+01   3.4650057290e+01    0.4800674    0.3449748  -5.45  0.002107812    2.293    0.564
        47  -8.7184     41.9662    139.9644   8.4946632665e+01   4.1795130796e+01    0.2054664     0.175569 -83.33 0.0008014188    1.024    0.023
        48 -10.2989     83.1241    137.2298   7.3311997274e+01   3.7100779651e+01    0.3005336    0.2597726 -58.10 0.0004676863    1.118    0.106
        49  -9.1519     33.7329    132.5587   8.6137054752e+01   4.4394723538e+01    0.2433708    0.1931551  89.08 0.0002417473    1.161    0.138
        50  -9.5887      8.9864    132.7456   9.2707280186e+01   4.6387502081e+01    0.2255247    0.1646851  70.65  0.001475206    1.352    0.260
        51  -9.6896      6.9840    125.6669   9.2483591679e+01   4.8158765786e+01     0.310963     0.188218  75.78  0.001811986    1.695    0.410
        52  -8.1753    245.3402    131.6537   3.5199739245e+01   5.1065861269e+00    0.1409802    0.1056475 -65.44 -0.0002213733    1.786    0.440
        53  -8.0848    107.4463    129.6821   6.5061317040e+01   3.4780107988e+01    0.3189597    0.2224891  -3.55 0.0009721079    2.474    0.596
        54  -7.6354    126.5304    125.5619   5.8967217598e+01   3.2016793535e+01    0.1546879    0.1486772  87.13 4.068789e-05    1.044    0.042
        55  -9.5600    243.5397    123.8895   3.3750991434e+01   6.7615347312e+00    0.2936953    0.1926914  56.66 0.0009358507    1.785    0.440
        56  -7.9819    105.1585    118.6605   6.3154414043e+01   3.7796768479e+01    0.1991221    0.1862524  30.49 0.0003908846    1.136    0.120
        57  -8.1834    230.7998    116.8468   3.4212683390e+01   1.0571205797e+01    0.3510163     0.145229 -54.23  0.001057844    4.125    0.758
        58  -9.3208      1.6598    116.0136   9.2871451331e+01   5.0704903468e+01    0.3360372   0.09434827 -73.38   0.00140132    2.744    0.636
        59  -9.4088      3.4251    110.9858   9.1803546596e+01   5.1755304669e+01     0.370352    0.2075614  57.90  0.002093628    2.112    0.527
        60 -12.0908     68.4191    144.8223   7.8636486184e+01   3.7409157940e+01     1.389795    0.7430604 -74.08  0.005863814    1.989    0.497
        61  -9.0150     54.0506    106.4851   7.5748386781e+01   4.8475730893e+01    0.2422056    0.1294481  35.70 0.0009531276    2.063    0.515
        62  -7.6081      4.6519     97.6662   8.9733371186e+01   5.4725410108e+01    0.1283572   0.06702555 -46.01 0.0007048391    1.773    0.436
        63  -7.2838    133.3465     85.2906   4.6306623302e+01   3.9278715430e+01    0.1590665     0.122201  12.31 0.0005851403    1.661    0.398
        64  -8.0431    200.0689     83.8120   3.1318504759e+01   2.3403197081e+01    0.2149948    0.1907369 -76.26 0.0002303499    1.160    0.138
        65  -7.8636    126.9227     82.0472   4.7047975273e+01   4.1368983875e+01    0.2205736    0.2111082  20.86 0.0004087014    1.045    0.043
        66  -7.3670     95.2731     81.2956   5.6086276603e+01   4.7982970247e+01    0.1442548    0.1115446 -11.63 0.0002383758    1.523    0.344
        67  -9.6246    107.9807    232.1274   8.1435793531e+01   1.2348199384e+01     0.260186    0.1792827 -74.58  0.001357825    1.650    0.394
        68  -7.4396    213.0317     80.7448   2.8328907583e+01   2.0817985768e+01    0.1758122    0.1268614  62.21 0.0002950802    1.437    0.304
        69  -8.3339     97.8512     68.9612   5.1418018760e+01   4.9984636162e+01    0.2083601    0.1945464 -12.96 0.0003082737    1.011    0.011
        70  -7.4459    166.2315     63.0282   3.1933444310e+01   3.5374432518e+01     0.188991     0.127344 -34.29 0.0002787016    1.535    0.349
        71  -9.4821    198.5646     59.9876   2.5236136768e+01   2.7714250078e+01    0.4339705      0.12409 -37.24  0.001393016    3.212    0.689
        72 -10.4704    224.1183     38.9797   1.6345357784e+01   2.4523552670e+01    0.5477928    0.3376549  51.81 0.0009992705    1.808    0.447
        73 -11.2500      2.1496    209.9352   9.9786765488e+01   3.0079386294e+01    0.5995305    0.2174389  85.74  0.003015442    2.548    0.607
        74 -11.1257    205.8982     51.9334   2.1984136912e+01   2.7113375757e+01     0.642155    0.3933257  61.57  0.002271127    1.596    0.373
        75 -11.0893     11.9706    218.2287   9.8478749193e+01   2.7511176413e+01    0.5685643     0.425676  63.31 0.0003911396    1.170    0.145
        76  -7.9044    146.9089     46.4725   3.0856374318e+01   4.2795603206e+01     0.204069    0.1963323 -12.98 0.0004109551    1.097    0.089
        77  -8.9071    183.5973     25.7047   1.8075945526e+01   3.6233343372e+01    0.2573165    0.2258098  71.89 0.0005594893    1.059    0.056
        78  -8.7352     93.9014    239.3042   8.4927382638e+01   1.3193252028e+01    0.2808705     0.144216 -89.43  0.001198674    2.934    0.659
        79  -9.5445     48.8902    237.3151   9.3094719145e+01   1.9715806589e+01    0.3829786    0.1775669 -85.27  0.001498689    2.229    0.551
        80  -8.2169    228.9849    239.3369   5.9159565371e+01  -8.3848634399e+00    0.1700698     0.125285  24.85 0.0005037961    1.111    0.100
