#   1 NUMBER                 Running object number                                     
#   2 MAG_AUTO               Kron-like elliptical aperture magnitude                    [mag]
#   3 X_IMAGE                Object position along x                                    [pixel]
#   4 Y_IMAGE                Object position along y                                    [pixel]
#   5 X_WORLD                Barycenter position along world x axis                     [deg]
#   6 Y_WORLD                Barycenter position along world y axis                     [deg]
#   7 A_WORLD                Profile RMS along major axis (world units)                 [deg]
#   8 B_WORLD                Profile RMS along minor axis (world units)                 [deg]
#   9 THETA_WORLD            Position angle (CCW/world-x)                               [deg]
#  10 FWHM_WORLD             FWHM assuming a gaussian core                              [deg]
#  11 ELONGATION             A_IMAGE/B_IMAGE                                           
#  12 ELLIPTICITY            1 - B_IMAGE/A_IMAGE                                       
         1 -14.4174    193.9100     14.4948   2.8969799027e+02   6.4301284314e+00    0.1185966   0.07564425 -49.78  0.008398006    1.580    0.367
         2 -14.1517    200.4778      7.8678   2.8957991546e+02   6.4655841496e+00    0.1726222   0.08081806 -30.67  0.001462989    3.710    0.730
         3 -10.4683     32.8730      4.1345   2.9153854551e+02   7.5343443908e+00   0.02294059  0.005332052 -65.67   0.00119786    6.074    0.835
         4 -10.0780    228.8679    228.6385   2.9059310402e+02   3.7620612997e+00   0.01969573   0.01085129  86.76  0.001439834    3.365    0.703
         5 -10.9362    163.1206    249.2020   2.9149217356e+02   3.9286204388e+00    0.0148193   0.01290256  36.74  0.001006728    1.127    0.112
         6 -12.3244    140.2270    249.0527   2.9176094804e+02   4.0702431027e+00   0.02647936    0.0207403  45.06  0.002967921    1.291    0.225
         7 -12.1205    111.1146    249.4126   2.9210617029e+02   4.2438833298e+00   0.03244016   0.01855656  18.72   0.00263237    1.905    0.475
         8 -11.7799     98.4510    249.7880   2.9225769453e+02   4.3168473323e+00   0.03006412   0.01809767  46.25  0.002603114    1.743    0.426
         9 -11.7226    102.4736    247.5067   2.9219645836e+02   4.3184846259e+00   0.02267307   0.01767413  59.59 0.0008748146    1.424    0.298
        10 -10.2473     74.1683    250.2794   2.9254689753e+02   4.4592707128e+00   0.01958552   0.01095857 -38.46  0.001408266    2.070    0.517
        11 -11.9921     81.1190    247.8977   2.9245054031e+02   4.4442383516e+00   0.03669265   0.02117586  56.53  0.003308498    2.189    0.543
        12 -11.7020     83.5716    244.2536   2.9239955549e+02   4.4711074062e+00   0.03124044   0.01795089  71.64  0.002418725    2.882    0.653
        13 -11.6409     66.6022    250.0170   2.9263450308e+02   4.5083865261e+00   0.02620329   0.01761122   8.07  0.001860551    1.738    0.425
        14 -11.7814     67.1956    243.4957   2.9258803037e+02   4.5796213836e+00   0.02860424   0.01512803  39.93  0.001434736    1.852    0.460
        15 -13.7383     32.9274    246.0838   2.9300774015e+02   4.7585517275e+00    0.1048442   0.05875364  24.85  0.009927767    1.791    0.442
        16 -15.2554      2.4456     19.3428   2.9199159232e+02   7.5453352451e+00     1.068737   0.09940258 -62.94    0.0338897   16.573    0.940
        17 -15.8573     11.4627    237.7732   2.9321063221e+02   4.9844750905e+00    0.6376505   0.07344052 -57.19   0.03330471    5.513    0.819
        18 -11.7921     77.7096    189.0836   2.9213417042e+02   5.1400631705e+00   0.01678727   0.01210065 -37.56 0.0008918772    1.494    0.331
        19  -8.7499    110.1967    197.3980   2.9180137698e+02   4.8463684958e+00  0.009462002  0.005792312  39.83 0.0004646368    1.604    0.376
        20 -11.1267     85.7458    176.9092   2.9196541668e+02   5.2307601747e+00   0.01255163   0.01111699 -47.71 0.0003925203    1.144    0.126
        21 -13.3497     73.6493    174.5327   2.9209375699e+02   5.3318301961e+00   0.02595457   0.01409963 -38.14  0.001542625    2.170    0.539
        22 -13.8069     10.7264    206.9445   2.9303290315e+02   5.3428853522e+00    0.0629231   0.05155581  25.52  0.002701203    1.200    0.166
        23 -10.9191    125.5904    174.7539   2.9148217634e+02   5.0121417425e+00   0.02033129   0.00933932  20.61  0.001659389    2.451    0.592
        24 -13.3598     50.4530    129.9709   2.9209698798e+02   5.9846315837e+00   0.04802942   0.01986141  27.77  0.002668565    2.352    0.575
        25 -12.8010     91.9821    168.1610   2.9183866672e+02   5.2930913708e+00    0.1190952   0.02001094  37.74  0.006856775    4.735    0.789
        26 -13.2781     58.0996    131.3377   2.9201495520e+02   5.9223414618e+00    0.1028377    0.0364318 -74.26  0.005409217    6.551    0.847
        27 -13.9594     68.9603    146.2309   2.9197719334e+02   5.6852216989e+00    0.1403931   0.06659245  63.44  0.008936576    4.697    0.787
        28 -13.3789     51.1825    230.9708   2.9270102930e+02   4.8209295603e+00   0.04033004   0.03058778 -86.32  0.001133454    1.548    0.354
        29 -12.6176     47.6151    149.0954   2.9224669735e+02   5.7824616313e+00    0.0262933   0.02148618  70.22  0.002972899    1.389    0.280
        30  -9.3882    105.7684    147.2448   2.9154875858e+02   5.4488939301e+00   0.01637584  0.008956987 -38.21  0.001458393    2.146    0.534
        31 -12.2386     92.3445    150.8118   2.9172892594e+02   5.4899573733e+00   0.01423333    0.0120265 -15.49 0.0004778043    1.287    0.223
        32  -9.5232    134.0000    144.4623   2.9119862625e+02   5.3082209242e+00   0.01962089  0.003823835 -62.13   0.00108437    5.239    0.809
        33  -8.7046    192.3322    144.1977   2.9050904499e+02   4.9540320340e+00  0.008820082  0.006325236 -75.57 0.0003164961    1.570    0.363
        34 -10.2912    103.3128    151.2591   2.9160216615e+02   5.4178392308e+00   0.01536888   0.01284346 -41.71  0.000876342    1.228    0.186
        35 -10.2865    113.0848    136.4481   2.9139668525e+02   5.5280440030e+00   0.01673653   0.01148406 -26.45  0.001023949    1.750    0.429
        36 -11.1077     70.5256    135.1472   2.9189133056e+02   5.8028532619e+00   0.02613107  0.009572597  33.73   0.00205946    2.491    0.598
        37 -10.7257    100.6228    133.9742   2.9152875692e+02   5.6325773837e+00   0.01408918   0.01086848 -33.46 0.0007817674    1.402    0.287
        38 -15.3864     58.7345    217.5191   2.9253048448e+02   4.9293432133e+00    0.4122969   0.04879638  34.38    0.0179677    5.188    0.807
        39 -11.9758    173.6462    221.7496   2.9120140721e+02   4.1791205373e+00   0.02384065   0.01581154  11.30  0.002381152    1.716    0.417
        40  -9.8023    118.7064    128.7151   2.9128323709e+02   5.5823794406e+00   0.01485859  0.005814564 -37.41 0.0009567435    4.091    0.756
        41  -9.4402    109.1517    123.8258   2.9136627060e+02   5.6968727634e+00  0.009460414  0.008639152  51.08 0.0003219392    1.117    0.105
        42  -9.0762    152.7467    212.9652   2.9139427533e+02   4.4077193515e+00  0.008923179  0.008337664 -61.25 0.0003425113    1.094    0.086
        43 -11.0312    168.3556    113.4491   2.9060425313e+02   5.4535071915e+00   0.01896518   0.01317017  59.70  0.001338474    1.696    0.411
        44 -11.0173     34.2966    206.1091   2.9274969630e+02   5.2091254748e+00   0.02226499   0.01695644  48.27  0.001819519    1.359    0.264
        45  -9.4008    135.0000    112.9842   2.9099504429e+02   5.6631169845e+00   0.01123646  0.003823585 -62.07 0.0008107718    3.001    0.667
        46  -9.2162    203.6533    111.6760   2.9017717341e+02   5.2573735246e+00  0.007189157  0.005002843 -23.87 0.0007049866    1.743    0.426
        47 -10.7045    193.3380    195.4811   2.9080963050e+02   4.3598414970e+00   0.04156019    0.0204054  87.99  0.002367886    6.060    0.835
        48 -11.7202     73.1749    196.2988   2.9223146169e+02   5.0849055697e+00   0.02229719   0.01271497 -38.17  0.001541806    2.024    0.506
        49  -8.7067    184.6644     77.6696   2.9019342665e+02   5.7635505084e+00  0.007175662  0.004995005 -24.86 0.0007052118    1.730    0.422
        50  -9.1036    154.3101     75.6702   2.9053943703e+02   5.9725982927e+00  0.007031683  0.005014965  62.44 0.0004659439    1.667    0.400
        51 -11.5576    245.4472    246.9931   2.9050973540e+02   3.4501431509e+00   0.02523481   0.01247498  52.68   0.00206085    2.604    0.616
        52 -11.0171    125.8558    249.9338   2.9193561911e+02   4.1479117240e+00   0.01578094  0.009115479  32.11    0.0012007    1.655    0.396
        53  -9.2945    128.0114     23.6584   2.9053231138e+02   6.7295387427e+00  0.009419793  0.008291196  28.85 0.0003928085    1.109    0.098
