#   1 NUMBER                 Running object number                                     
#   2 MAG_AUTO               Kron-like elliptical aperture magnitude                    [mag]
#   3 X_IMAGE                Object position along x                                    [pixel]
#   4 Y_IMAGE                Object position along y                                    [pixel]
#   5 X_WORLD                Barycenter position along world x axis                     [deg]
#   6 Y_WORLD                Barycenter position along world y axis                     [deg]
#   7 A_WORLD                Profile RMS along major axis (world units)                 [deg]
#   8 B_WORLD                Profile RMS along minor axis (world units)                 [deg]
#   9 THETA_WORLD            Position angle (CCW/world-x)                               [deg]
#  10 FWHM_WORLD             FWHM assuming a gaussian core                              [deg]
#  11 ELONGATION             A_IMAGE/B_IMAGE                                           
#  12 ELLIPTICITY            1 - B_IMAGE/A_IMAGE                                       
         1 -13.8138    231.3022     17.7583   3.4186033942e+01   2.6223312366e+01     1.474158     1.101341  28.12   0.00522713    2.205    0.546
         2 -13.7302    204.1564     40.9021   4.2267937858e+01   2.9424955225e+01     1.410127     1.178128  -9.35  0.004873642    1.558    0.358
         3 -13.5566    212.5296     36.2837   4.0168767644e+01   2.8108314256e+01     1.048178    0.8178896 -62.99  0.004134567    1.154    0.133
         4 -12.6552    219.8824     28.5878   3.7605518561e+01   2.7424709002e+01    0.5593356    0.4161627  51.45  0.001240842    1.607    0.378
         5 -10.1846      2.3120      3.1151   8.7360806595e+01   7.4154541568e+01    0.2240858   0.06891961 -38.55  0.001099557    2.588    0.614
         6 -10.6536    249.4308      2.0458   2.9714017847e+01   2.4217237193e+01    0.2667924    0.1816404 -82.88  0.001809028    1.248    0.199
         7  -8.7832    119.7049      1.6765   4.3240455864e+01   5.3886720046e+01    0.1338301   0.08200405  37.80  0.000701997    1.620    0.383
         8 -15.5802     56.4261    246.9458   1.1641922602e+02   1.5669123916e+01     9.272893     2.778286  27.05  0.005100276    9.680    0.897
         9 -13.4202      6.1626    186.1198   1.2216412160e+02   3.3915542148e+01     1.739109    0.7859844  73.36  0.006662745    2.197    0.545
        10 -13.1718     86.9486    224.2558   1.0810052600e+02   1.6058891349e+01    0.9883854    0.6625333  60.65 0.0006157217    1.436    0.304
        11 -16.0188     37.6300    193.2741   1.1576398406e+02   2.9233358588e+01     8.580834     3.337883  79.14   0.02758921    4.883    0.795
        12 -11.6912    183.3446    215.7465   8.6146080132e+01   2.2668767963e+00     0.335744    0.2039406  39.08  0.001722401    1.557    0.358
        13 -10.2009    109.8553    201.3111   9.9982346163e+01   1.7408597598e+01    0.2301359    0.1842288 -78.98 0.0004790698    1.369    0.269
        14 -10.9614    193.4652    195.7350   8.0434529396e+01   4.0898679129e+00    0.8522598     0.453052 -63.59  0.002491396    6.195    0.839
        15 -10.0017    209.9002    199.5000   7.7875952967e+01   7.0341776991e-01    0.2422463    0.1802722 -49.02  0.001148002    1.649    0.394
        16 -14.2251     10.5339    206.7196   1.2259358910e+02   2.8961231028e+01    0.8586953    0.5938036  21.00  0.003785945    1.964    0.491
        17  -9.4042     82.4764    182.4526   1.0377697372e+02   2.5985243662e+01    0.2325155    0.1342092  35.87 0.0005249424    1.740    0.425
        18  -9.2573     99.3643    181.0006   9.9355141438e+01   2.3704026022e+01    0.1993812     0.177166 -70.65 0.0005205592    1.122    0.109
        19 -12.0618     58.2949    178.4012   1.0923150859e+02   3.0293161305e+01    0.4351283    0.2948288 -35.66  0.001430335    2.017    0.504
        20 -12.0135     63.8842    172.8985   1.0709952482e+02   3.0900750118e+01    0.3386079    0.2660835 -46.79 0.0007227158    1.415    0.293
        21  -8.5353    149.5115    177.4549   8.6516142833e+01   1.5638255569e+01    0.1464687    0.1416337  34.01 0.0001172926    1.038    0.037
        22 -11.8043     74.0429    163.2921   1.0302880677e+02   3.1861527597e+01     0.352043    0.3159234  79.82 0.0004069063    1.070    0.065
        23 -13.2664     57.6980    130.5834   1.0205821629e+02   4.2266350026e+01     3.253201    0.9671637 -71.09  0.006339965    9.723    0.897
        24 -12.9880     81.0493    157.1659   1.0012551912e+02   3.2349722528e+01     1.128886    0.8873289  86.91  0.001449308    1.373    0.272
        25 -14.1155     68.3260    144.5316   1.0145676927e+02   3.7351619821e+01      3.99507     1.798826  64.56    0.0102858    6.339    0.842
        26 -10.2706    123.5527    152.2423   8.7774836989e+01   2.6259174092e+01    0.2865187    0.2363307  73.67 0.0005317683    1.416    0.294
        27  -9.2530    175.0418    149.0687   7.4627996910e+01   1.6663897031e+01    0.2383594    0.1925168 -84.20 0.0008257342    1.706    0.414
        28 -10.1835    133.7525    143.4971   8.3208781011e+01   2.6318266601e+01     0.765394    0.2218656 -55.88  0.001758798    5.781    0.827
        29 -11.6446     32.6288    156.5846   1.1310589464e+02   3.8544697051e+01    0.3971684     0.286749  89.61  0.001287382    1.277    0.217
        30 -12.4010     84.4513    141.2182   9.6206798667e+01   3.5798249799e+01     0.342236    0.2646764 -50.40 0.0005560787    1.246    0.197
        31 -10.9529     29.5457    143.5837   1.1232453668e+02   4.2062420319e+01     0.384141    0.2701755 -26.14  0.002083536    1.880    0.468
        32 -10.5143     96.3122    142.9693   9.3195273528e+01   3.3421695015e+01    0.3142501    0.3012025 -50.51 0.0008506408    1.046    0.044
        33  -9.9995     99.4601    139.9984   9.1684545354e+01   3.3611013876e+01    0.3642091    0.2367517 -29.20  0.001247363    2.022    0.505
        34 -10.7716     77.2027    137.9686   9.7661623186e+01   3.7723136304e+01    0.2811714    0.2007381  88.36  0.001183418    1.739    0.425
        35 -11.9170     67.7188    129.2668   9.8761053602e+01   4.1271539040e+01    0.5627517    0.3357414  71.73  0.002211342    2.714    0.632
        36  -9.0405     41.9439    134.4566   1.0745018423e+02   4.3114999000e+01    0.1935917   0.09624381  53.04  0.000808337    2.493    0.599
        37 -11.0009     19.8515    132.0805   1.1358948342e+02   4.5750909126e+01    0.3373413    0.1574788 -57.65  0.001112402    1.775    0.437
        38 -10.7804    107.0697    131.2600   8.7585432164e+01   3.4373249340e+01    0.4483173    0.3259702  37.20  0.001645775    1.427    0.299
        39 -13.4734     60.9767    159.3435   1.0591493224e+02   3.4622653909e+01    0.5581369     0.323976 -43.09  0.001576576    2.004    0.501
        40 -11.1303     95.2848    127.6901   9.0158025671e+01   3.7350971435e+01    0.2942702    0.2473175 -36.67 0.0003673616    1.215    0.177
        41  -9.4415    156.9712    132.5016   7.4857986692e+01   2.3975359164e+01    0.2334409    0.2083079 -42.48 0.0003907101    1.096    0.088
        42  -9.8048    115.5506    125.1407   8.3738562136e+01   3.4221285416e+01    0.2895763    0.2033058  -6.91  0.001147612    2.181    0.541
        43 -10.4994    240.5009    122.4802   5.6344437839e+01   8.7448185985e+00      0.13785    0.1185704 -34.40 0.0003276427    1.012    0.012
        44  -9.7513    105.8955    119.9054   8.5193170796e+01   3.7308704230e+01    0.2228703    0.2112859 -29.41 0.0003147742    1.054    0.051
        45  -9.4784    168.0181    113.0194   6.7417150978e+01   2.5662643391e+01    0.2573662    0.1942066 -78.40  0.001134089    1.796    0.443
        46  -9.1742    135.0000    112.9465   7.5343395573e+01   3.3001444140e+01    0.2681188   0.08855668 -44.67  0.000806019    2.967    0.663
        47 -10.4854     35.3555    111.7948   1.0563521163e+02   4.9422252821e+01    0.3034993    0.1845335  53.53  0.001478083    2.069    0.517
        48 -10.1991    205.1830    110.6643   5.9430726417e+01   1.7904178169e+01     0.326913    0.2542328  32.05  0.001238871    1.497    0.332
        49 -10.3453    245.9989    110.0000   5.2808213041e+01   9.8290063778e+00    0.1991629   0.07840982  53.52 0.0008088775    2.987    0.665
        50 -11.1308     52.7456     91.9442   9.5309740907e+01   5.2308681619e+01     0.511173    0.2393008 -61.05  0.002109156    2.192    0.544
        51  -9.9126     41.8868     92.0753   9.9254834179e+01   5.3518428037e+01    0.2057973    0.1796601 -42.94 0.0005507588    1.024    0.023
        52  -9.4676    161.0601     82.5003   6.0656272135e+01   3.3203619194e+01     0.231984    0.1492771  53.31 0.0006407097    1.563    0.360
        53 -10.8512      7.5021     75.0188   1.0849287941e+02   6.0199283924e+01    0.1973052    0.1004381 -63.02   0.00103466    1.595    0.373
        54  -8.5341     45.6657     68.7307   9.1552382750e+01   5.8316023212e+01    0.1372951   0.09191977 -20.01 0.0002810625    1.591    0.372
        55  -9.0611     33.6259     62.3130   9.4538029156e+01   6.0968664671e+01    0.1733335    0.1259934 -63.87 0.0008365776    1.586    0.369
        56  -9.7689     29.2711     60.2728   9.5772441187e+01   6.1810667389e+01    0.3370943    0.1824025  42.54   0.00152779    2.548    0.607
        57 -11.4273     12.7883     59.8112   1.0277562131e+02   6.3206658649e+01    0.3957667    0.2692791  51.20 0.0009423392    2.187    0.543
        58  -8.4937     55.7051     59.6991   8.4639471447e+01   5.8857199581e+01    0.1382329   0.09450484 -15.53 0.0002138655    1.573    0.364
        59 -15.2827      7.8673    240.1841   1.2491635793e+02   2.2362838092e+01     6.573492     1.301858 -78.75   0.02539412    4.746    0.789
        60 -13.2894     29.4866    205.5664   1.1860065052e+02   2.7340012664e+01    0.5506136     0.479666 -43.74   0.00110915    1.557    0.358
        61 -10.0036    170.7525    233.3942   9.1611232193e+01   1.3116734445e+00    0.2064268     0.155705 -53.08 0.0005757181    1.669    0.401
        62  -9.9354     35.9485    234.1703   1.1940187425e+02   2.0601677707e+01    0.1991743   0.08966168  57.46 0.0005230776    1.938    0.484
        63 -10.2747     34.7433     55.8964   9.2048204904e+01   6.2160967101e+01    0.2104355    0.1750874  21.66 0.0005236956    1.341    0.254
        64 -11.0296     11.5086     52.9124   1.0147276505e+02   6.4726753001e+01    0.2528285    0.1696508  14.74  0.001570961    1.666    0.400
        65 -10.6197    132.4173     39.4669   5.3647526376e+01   4.6929101162e+01    0.2669811    0.2274372 -77.21  0.000772844    1.358    0.264
        66 -10.3282    132.4485     31.7224   5.1066252927e+01   4.7902156817e+01    0.2398899    0.2109391  87.30 0.0004826605    1.227    0.185
        67 -10.1461    189.6317     15.3848   3.7566541527e+01   3.5887167694e+01    0.2288899    0.1890467 -62.83 0.0007281516    1.146    0.127
        68  -9.7570     30.1734    231.8579   1.2035238742e+02   2.1708514762e+01    0.1842896    0.1246557  67.56 0.0007757205    1.191    0.160
        69 -13.3594     15.7498    214.9030   1.2206464231e+02   2.6713918964e+01     0.541671    0.3840574  86.36  0.002937548    1.153    0.133
