#   1 NUMBER                 Running object number                                     
#   2 MAG_AUTO               Kron-like elliptical aperture magnitude                    [mag]
#   3 X_IMAGE                Object position along x                                    [pixel]
#   4 Y_IMAGE                Object position along y                                    [pixel]
#   5 X_WORLD                Barycenter position along world x axis                     [deg]
#   6 Y_WORLD                Barycenter position along world y axis                     [deg]
#   7 A_WORLD                Profile RMS along major axis (world units)                 [deg]
#   8 B_WORLD                Profile RMS along minor axis (world units)                 [deg]
#   9 THETA_WORLD            Position angle (CCW/world-x)                               [deg]
#  10 FWHM_WORLD             FWHM assuming a gaussian core                              [deg]
#  11 ELONGATION             A_IMAGE/B_IMAGE                                           
#  12 ELLIPTICITY            1 - B_IMAGE/A_IMAGE                                       
         1 -14.9591    239.5722     59.0255   2.9784037250e+01   1.7017594437e+01     5.763919     2.052742 -29.48   0.02007055    2.795    0.642
         2  -8.8277     59.5079    233.9927   9.7768163003e+01   2.0708798359e+01    0.1498118    0.0876736 -82.19    0.0010372    1.607    0.378
         3 -12.6371      5.5772    246.6373   1.0632175323e+02   2.4704159689e+01    0.6608796    0.4613901 -87.03  0.005983832    1.438    0.305
         4 -12.5897      3.0114    235.1071   1.0623221715e+02   2.6803904854e+01    0.6280081    0.4620351 -82.20  0.005643916    1.535    0.349
         5  -8.4828     84.3351    215.3135   9.2127444248e+01   2.0571753951e+01   0.09588386   0.09290443  17.81    0.0007046    1.687    0.407
         6  -8.7873     78.0197    210.4855   9.2780265872e+01   2.2334450515e+01    0.1718704   0.09558424  47.58  0.001027405    1.575    0.365
         7  -8.8046    139.3168    207.6765   8.1301356539e+01   1.3108275355e+01     0.129433   0.08629271  71.47 0.0005132407    1.668    0.400
         8 -10.0447    123.9933    206.2215   8.3958185842e+01   1.5988164826e+01    0.1713337    0.1325913  56.02            0    1.076    0.071
         9  -9.8666    128.8657    204.2506   8.2794837701e+01   1.5505666768e+01    0.2097401    0.1679012 -23.46  0.001237714    2.045    0.511
        10  -8.2520    161.3185    204.3254   7.6727528341e+01   9.7229756085e+00    0.1243701   0.09642245  18.14 0.0007045537    1.676    0.403
        11  -9.6949     97.2795    204.1725   8.8663224417e+01   2.0662568236e+01    0.1981066    0.1864331 -55.98  0.001072666    1.509    0.337
        12 -10.0265    124.5666    199.1698   8.2935826696e+01   1.7143790283e+01    0.2311541    0.1600243 -43.95  0.001314139    1.925    0.480
        13  -8.4234    119.3116    200.3104   8.4082516053e+01   1.7827487037e+01    0.1115307   0.09970834  14.64 0.0005120846    1.627    0.385
        14  -9.2577    106.3820    199.7897   8.6460416623e+01   2.0042992602e+01    0.1612839    0.1101676 -54.25 0.0009525513    1.750    0.428
        15  -9.4486    144.3262    197.5188   7.8930990535e+01   1.3957825747e+01    0.2060664    0.1208302 -53.56  0.001024763    1.958    0.489
        16  -8.2385     74.3161    199.3409   9.2375602900e+01   2.4920577782e+01    0.1011312   0.09216227 -46.05 0.0005076267    1.707    0.414
        17  -8.6252    102.2946    197.3472   8.6939825488e+01   2.1147996651e+01    0.1071577   0.09974572 -19.39 0.0007031767    1.672    0.402
        18  -8.9125    114.8371    193.3574   8.4034962440e+01   1.9857326644e+01    0.2483453    0.1375693 -38.06  0.001085754    3.380    0.704
        19  -8.3839     94.6633    194.6464   8.8070776289e+01   2.2847359015e+01    0.1093503   0.09926604 -19.31 0.0007043788    1.797    0.443
        20  -8.2613    110.3100    192.3125   8.4775829097e+01   2.0804494717e+01    0.1108172    0.1022504   3.17  0.000357178    1.628    0.386
        21 -10.3796    103.6624    190.5961   8.5847455234e+01   2.2211528481e+01    0.3223922    0.2442493 -34.23  0.001842142    2.163    0.538
        22  -9.5963    138.1942    191.4076   7.9215618624e+01   1.6150438977e+01    0.1904186    0.1069961  54.03 0.0006905954    1.612    0.380
        23 -10.4263    120.8068    188.2760   8.2177576825e+01   1.9801792520e+01    0.3540517    0.1576473 -51.30  0.001615585    2.543    0.607
        24  -9.0770    142.3270    186.1952   7.7609834824e+01   1.6343909434e+01    0.2480104    0.1174048 -43.47  0.001081645    2.661    0.624
        25  -9.3288    128.9769    185.7419   8.0192858608e+01   1.8849931551e+01      0.24312    0.1659233 -27.62  0.001171249    2.628    0.620
        26 -10.5573     96.5975    183.3206   8.6313420149e+01   2.4752049550e+01    0.4603107    0.2604133 -47.14  0.002327392    2.369    0.578
        27  -8.5093     80.5358    185.4816   8.9735472117e+01   2.6736006337e+01    0.1216086    0.1006113  78.07  0.000149335    1.061    0.057
        28  -9.4954    134.1496    183.5791   7.8834016102e+01   1.8327116758e+01    0.2458408    0.1708533 -38.53  0.001301389    1.924    0.480
        29 -10.6333    110.4390    181.9215   8.3356176263e+01   2.2787957449e+01    0.4988753    0.2623882  29.74  0.002104383    3.081    0.675
        30 -10.0821    145.9059    179.4887   7.5819305907e+01   1.6911994343e+01    0.3297629    0.2248552 -19.56  0.001500905    2.726    0.633
        31 -10.0730    164.2696    177.9989   7.1880631003e+01   1.3635868339e+01    0.1895325    0.1770485  58.25 0.0006376912    1.054    0.052
        32  -9.6392    129.7362    175.5576   7.8477226895e+01   2.0665718026e+01    0.4529871     0.119491 -56.04   0.00144256    4.504    0.778
        33 -10.2150    100.8794    176.1387   8.4497028316e+01   2.5510986286e+01    0.3101147    0.1896574  59.27            0    1.529    0.346
        34  -9.8164    178.7964    177.5906   6.8936468866e+01   1.0826782178e+01    0.2009117    0.1196952  55.00 0.0006614163    1.690    0.408
        35 -10.0891    122.0116    181.3061   8.0933566850e+01   2.0927382539e+01    0.3069007     0.252596   0.98  0.001714412    1.997    0.499
        36  -9.6403     90.1511    181.1032   8.7318408432e+01   2.6188899314e+01    0.2405102    0.1908877 -21.68  0.001354517    2.359    0.576
        37  -8.5660    158.4877    176.4797   7.2772110390e+01   1.5043636951e+01    0.1379648    0.1235178  50.65 0.0002262621    1.035    0.034
        38  -9.2620    152.6067    174.2465   7.3573138690e+01   1.6602319622e+01    0.1801781    0.1315363 -37.24 0.0009418201    1.666    0.400
        39  -9.0366     95.1886    171.4767   8.5029196521e+01   2.7369203611e+01    0.2270127    0.1399212 -43.11  0.001131397    2.302    0.566
        40  -8.5474     77.4939    172.0274   8.8753567437e+01   2.9903893946e+01    0.1659221   0.09365895 -46.14 0.0008099058    2.524    0.604
        41  -8.6953    133.7152    171.6615   7.7022384884e+01   2.0695649076e+01    0.1263028    0.1099874  -4.35 0.0004150293    1.631    0.387
        42  -9.0868    118.6821    170.2714   7.9938717639e+01   2.3695471919e+01    0.2538278    0.1561584 -36.99  0.001171294    2.476    0.596
        43  -8.8992    142.4203    171.7598   7.5234152571e+01   1.9036758338e+01    0.1800983    0.1315965 -40.67 0.0007001703    1.642    0.391
        44  -9.5157    101.1958    170.3624   8.3619106345e+01   2.6638757081e+01    0.2617815    0.1993464 -39.46  0.001472209    1.833    0.455
        45  -9.0343    158.6626    169.6790   7.1523296230e+01   1.6261268006e+01     0.212171    0.1687563   9.72  0.001101649    1.725    0.420
        46  -8.9556    106.8710    173.4794   8.2886770688e+01   2.5068821404e+01    0.2856018    0.1363342 -45.28  0.001223575    2.852    0.649
        47  -9.7751    128.8295    167.8829   7.7417595211e+01   2.2347747277e+01    0.3334004    0.1736003 -43.57  0.001471476    2.367    0.578
        48 -10.0342    179.9583    167.5178   6.6810514933e+01   1.2337427066e+01    0.2222522    0.1289453  47.44 0.0007312808    1.577    0.366
        49  -9.2174     83.7416    170.5158   8.7276430834e+01   2.9312934439e+01    0.2646271    0.1324836 -53.10  0.001295866    2.216    0.549
        50  -9.0051    196.6628    164.3170   6.2891072854e+01   9.4374165699e+00    0.1395034    0.1121959  84.59 0.0004982958    1.701    0.412
        51  -8.6210    187.6727    164.6846   6.4723448579e+01   1.1239476742e+01    0.1446442    0.1078089  14.71 0.0006162893    1.673    0.402
        52  -9.2780    138.8302    163.4445   7.4535919845e+01   2.1351543059e+01    0.2725266    0.1891186 -33.74  0.001335587    1.932    0.483
        53  -8.9466    119.5155    163.9749   7.8750282685e+01   2.4829623016e+01    0.1973549    0.1301829 -55.80  0.000742228    1.572    0.364
        54  -9.1698    100.4221    163.6927   8.2803009766e+01   2.8151009743e+01    0.2097224    0.1708325  21.13    0.0011916    1.762    0.433
        55  -9.9239    182.4320    163.2225   6.5473418284e+01   1.2584179787e+01    0.1904655    0.1367295 -55.60 0.0008824299    1.640    0.390
        56  -8.8349    111.4909    163.0119   8.0317848991e+01   2.6437234760e+01    0.1796036    0.1121815 -36.10  0.000810063    2.502    0.600
        57  -9.6872    208.4255    161.7622   6.0116288435e+01   7.4227843753e+00    0.1896694    0.1339206 -21.17 0.0005462033    1.606    0.377
        58  -9.2579    192.3059    162.3171   6.3335696242e+01   1.0683349797e+01    0.1435769    0.1080663  13.14 0.0005206568    1.629    0.386
        59  -9.1384    153.2860    161.9985   7.1217217386e+01   1.8793383592e+01    0.1956241    0.1829685 -71.77 0.0005747478    1.124    0.111
        60  -8.5082    147.7094    168.3455   7.3542684969e+01   1.8673162264e+01    0.1417441    0.1043671  82.84 0.0007026552    1.659    0.397
        61  -8.5446    124.3862    160.8332   7.7174111905e+01   2.4593931055e+01    0.1907922    0.1261076 -45.28 0.0009484157    1.741    0.426
        62  -9.6060    197.4912    160.4769   6.1946898063e+01   9.9128058394e+00    0.1416122    0.1317868  41.63 0.0002002074    1.052    0.050
        63 -11.0011    184.0108    152.9048   6.3043878351e+01   1.4098996227e+01    0.4036675    0.1841622 -44.36  0.001601937    2.351    0.575
        64  -8.6527    146.5455    163.2410   7.2866273855e+01   1.9891106867e+01    0.1841933    0.1357235 -37.54 0.0008935166    1.628    0.386
        65 -10.3108    191.7929    157.7785   6.2505790708e+01   1.1576090688e+01    0.1942967    0.1720515  84.69  0.001066488    1.346    0.257
        66  -8.3827    114.2950    158.3141   7.8941450491e+01   2.6930196852e+01    0.1249702    0.1106006 -16.33  0.000345013    1.600    0.375
        67  -8.8559     79.3276    158.3482   8.6584768509e+01   3.2529089989e+01    0.1210055   0.09850154 -37.15 0.0004067365    1.756    0.431
        68  -9.6752    175.8184    157.0302   6.5565291519e+01   1.5086605048e+01    0.2282422    0.1685006  -7.77  0.001072972    1.939    0.484
        69  -8.2811     99.6683    157.6676   8.2042886887e+01   2.9548273642e+01    0.1251679    0.1072326 -23.31 0.0007052158    1.726    0.421
        70  -8.8553     91.0052    157.4892   8.3915308940e+01   3.0965639687e+01    0.1623511    0.1208627  10.05 0.0008094629    2.456    0.593
        71  -8.9555    158.6837    153.8165   6.8489829096e+01   1.9280482781e+01    0.2198736    0.1874054 -20.27  0.001036211    1.433    0.302
        72 -10.4224    204.1479    156.3201   5.9793409652e+01   9.2137085234e+00    0.2365694    0.1688981  31.18  0.001181456    1.417    0.294
        73  -8.3749    137.7148    152.6705   7.2793661931e+01   2.3743323176e+01    0.1347744    0.1151971  -5.67 0.0003258818    1.612    0.380
        74  -8.8828    163.4945    151.0160   6.6901542179e+01   1.8819539165e+01    0.2156615    0.1451805 -46.70 0.0008829639    1.575    0.365
        75  -8.5914    122.8049    149.7627   7.5554519248e+01   2.7194452041e+01    0.2198076    0.1583197 -10.15   0.00094754    2.745    0.636
        76 -10.9488    191.6858    148.5747   6.0575509783e+01   1.3222675109e+01    0.2804342    0.1871494 -42.39  0.001064181    1.586    0.370
        77  -8.3397    111.4871    147.5069   7.7700232693e+01   2.9723103605e+01    0.1375552    0.1266532  85.74 5.170728e-06    1.049    0.047
        78  -9.5830    186.7091    146.5147   6.1128841861e+01   1.4676977454e+01    0.2510547    0.1330812 -40.51 0.0007981321    1.988    0.497
        79  -9.1247    171.2402    144.7208   6.3938035900e+01   1.8378557693e+01    0.2254899    0.1221786 -31.64  0.000833081    2.369    0.578
        80  -8.5885    117.4087    144.7851   7.5853376319e+01   2.9247956168e+01    0.1998599    0.1272026 -44.67  0.000948587    1.760    0.432
        81  -8.3691    133.3059    147.0208   7.2682903698e+01   2.5773532910e+01    0.2232207    0.1093176 -32.53 0.0007035729    4.167    0.760
        82  -8.3521    155.6518    144.6856   6.7271399436e+01   2.1715820702e+01    0.1480548    0.1175905   9.68 0.0007047088    1.722    0.419
        83  -8.4000    182.6757    143.3086   6.1249156064e+01   1.6149829926e+01    0.1483461    0.1177426  89.01 0.0007036885    1.650    0.394
        84 -11.6777    210.6409    139.1856   5.4788011035e+01   1.0713903796e+01    0.5917459      0.38441 -85.19  0.002087161    3.706    0.730
        85 -10.8673    203.7708    141.8565   5.6710856638e+01   1.1764702501e+01      0.36412    0.1984112  63.85  0.001372978    2.666    0.625
        86  -8.7136    148.5701    142.2349   6.8313029115e+01   2.3690463217e+01    0.2013809    0.1405095 -35.80 0.0009434721    1.672    0.402
        87  -8.4435    138.5409    142.5329   7.0614398514e+01   2.5675464995e+01    0.1429302    0.1372855  68.43 0.0005599435    1.060    0.057
        88  -8.7709    167.5753    139.2006   6.3511816383e+01   2.0244792561e+01    0.2047011    0.1441137 -30.21  0.000826775    1.666    0.400
        89 -10.8956    200.3698    137.7392   5.6439808579e+01   1.3239414573e+01    0.2608347    0.1951241 -24.08  0.001103094    1.458    0.314
        90  -8.2212    149.3463    135.3162   6.6658473500e+01   2.4946906220e+01    0.1494829    0.1199705   6.81 0.0007048096    1.721    0.419
        91  -8.7260    164.5475    133.9551   6.2992295106e+01   2.1942258603e+01    0.2093202    0.1343274 -18.01 0.0008085395    2.540    0.606
        92  -8.3487    155.4856    134.4794   6.5102595654e+01   2.3809252271e+01    0.1480799    0.1431774  56.00 0.0002472883    1.037    0.036
        93 -11.3733    206.3438    131.6258   5.3861504436e+01   1.2976683566e+01    0.3327064    0.2333024 -48.45   0.00156899    1.567    0.362
        94  -8.1916    178.5033    131.4875   5.9438099881e+01   1.9310355910e+01    0.1508816    0.1447358  32.50 0.0008102282    1.040    0.038
        95 -11.8174    211.4035    128.9680   5.2269966754e+01   1.2297417280e+01    0.4429185     0.323037 -68.05  0.002015134    1.949    0.487
        96  -9.8740    194.0000    128.4469   5.5536529751e+01   1.6352071390e+01    0.3288749   0.08625807 -38.69 0.0009306261    3.902    0.744
        97  -8.7189    182.6860    133.6805   5.9073465387e+01   1.7950446307e+01    0.1533097    0.1184733  11.22 0.0007038453    1.652    0.395
        98  -8.3726    173.6669    128.6813   5.9806652967e+01   2.0944791091e+01    0.1557891    0.1205144  11.53 0.0007048518    1.695    0.410
        99  -8.6017    181.6144    125.2287   5.7304714197e+01   1.9797224595e+01    0.2178761    0.1460639 -28.04  0.000950842    1.707    0.414
