#   1 NUMBER                 Running object number                                     
#   2 MAG_AUTO               Kron-like elliptical aperture magnitude                    [mag]
#   3 X_IMAGE                Object position along x                                    [pixel]
#   4 Y_IMAGE                Object position along y                                    [pixel]
#   5 X_WORLD                Barycenter position along world x axis                     [deg]
#   6 Y_WORLD                Barycenter position along world y axis                     [deg]
#   7 A_WORLD                Profile RMS along major axis (world units)                 [deg]
#   8 B_WORLD                Profile RMS along minor axis (world units)                 [deg]
#   9 THETA_WORLD            Position angle (CCW/world-x)                               [deg]
#  10 FWHM_WORLD             FWHM assuming a gaussian core                              [deg]
#  11 ELONGATION             A_IMAGE/B_IMAGE                                           
#  12 ELLIPTICITY            1 - B_IMAGE/A_IMAGE                                       
         1 -11.9462    121.6095     37.2585   6.5361641359e+01   5.0135116550e+01    0.4176315    0.3889816  40.96  0.001221068    1.066    0.062
         2 -11.6038     13.7396     20.8709   9.8991839185e+01   6.9991690781e+01     0.268086    0.2512091  63.77  0.001381984    1.702    0.412
         3 -11.2116     13.9425     16.1869   9.6953329656e+01   7.0780967661e+01    0.2706944    0.1904356  14.08  0.001015142    1.542    0.351
         4 -11.6226     75.7933     21.1841   7.2323080443e+01   6.1884749258e+01    0.3616681    0.3511848  81.53  0.000957927    1.437    0.304
         5  -9.6154     63.6612     11.3120   7.2085894517e+01   6.5267083187e+01    0.1753046    0.1019802 -47.03 0.0008422161    2.595    0.615
         6 -10.5976     72.0571     12.9616   6.9851530477e+01   6.3598888373e+01    0.3694285    0.2588263  29.75  0.001853466    1.310    0.236
         7 -10.1605     41.0200      6.0432   7.8737312650e+01   6.9385877183e+01    0.1995846    0.1510671  13.25 0.0005618316    1.184    0.156
         8 -10.9006     36.9538      6.6269   8.0907699375e+01   6.9847530306e+01    0.3452225    0.1983489 -43.74  0.001050158    2.155    0.536
         9 -10.5826     22.6847      9.3473   8.9294612864e+01   7.1093794144e+01    0.3577592    0.2081147  -1.35  0.002109403    1.873    0.466
        10 -11.9574     34.6251     12.7999   8.5103454346e+01   6.9271423994e+01    0.5553066    0.2649231 -44.91  0.002832966    2.308    0.567
        11 -11.9745     30.1960      7.2625   8.4473620630e+01   7.0586173716e+01    0.3397831    0.2625955  12.37  0.001046768    1.257    0.204
        12 -10.9966     42.5901     18.1356   8.3999397575e+01   6.7492003279e+01     0.552451    0.2930565 -16.91  0.002613166    2.173    0.540
        13  -9.8435     88.7202      7.5445   6.2070058935e+01   6.0962686311e+01    0.3008657     0.136619 -27.32  0.001390775    2.203    0.546
        14 -11.1650     89.1223     13.4792   6.4605568878e+01   6.0251995894e+01    0.4067989    0.3615181 -56.86  0.001613237    1.511    0.338
        15 -10.0978     92.9566      9.1342   6.1582087138e+01   5.9920421921e+01    0.4068058     0.202085 -10.66  0.001745984    2.364    0.577
        16 -10.4843    126.0985     11.1073   5.4461316452e+01   5.2200649853e+01    0.2109036     0.162046  36.04  0.001160812    1.231    0.187
        17 -11.7914     57.3346      3.5640   7.0618380290e+01   6.7221559334e+01    0.5310862    0.2626215 -20.24  0.002744027    1.955    0.488
        18  -9.6851     15.3109      8.7381   9.2863178903e+01   7.1876998461e+01    0.1511167    0.0956978 -21.85 0.0003170041    1.288    0.224
        19  -9.6370    193.3207      8.3230   4.3324787968e+01   3.5451390063e+01    0.1392289   0.09677712  40.37 0.0007045633    1.675    0.403
        20  -9.6533    156.1757      7.8074   4.7988633815e+01   4.5009099771e+01    0.1881672    0.1457848  41.23 0.0002261339    1.298    0.229
        21 -10.0432    223.9576      7.5079   4.0085855276e+01   2.7969574639e+01    0.1905371    0.1185405  76.90 0.0003779481    1.510    0.338
        22  -9.5701    210.4898      7.4973   4.1321942379e+01   3.1240520708e+01    0.1338832    0.1177815 -80.73 0.0008105972    1.005    0.005
        23  -9.9365    144.2327      7.1489   4.9662381314e+01   4.8097587863e+01    0.2544248    0.1156524  32.30 0.0009558475    2.936    0.659
        24  -9.8806     65.0874      6.8749   6.9390880116e+01   6.5539243405e+01    0.1786674    0.1608946  -9.58 0.0006021138    1.246    0.197
        25 -10.3104     10.0190      1.6739   9.2278736577e+01   7.3403462848e+01    0.1509729    0.1254761 -12.58  0.001174394    1.248    0.199
        26  -9.6135      8.4127      5.3865   9.5032644620e+01   7.2965159477e+01    0.3320888    0.1950398  35.33  0.002095971    2.390    0.582
        27 -10.6654      2.0080      5.4538   9.8700913065e+01   7.3407597318e+01    0.3818127    0.1695088 -49.59  0.001543181    1.930    0.482
        28 -11.0321     71.0933      5.6718   6.6695888880e+01   6.4594117318e+01     0.313002    0.2610326  15.21  0.001482151    1.031    0.030
        29 -10.1752    107.8282      4.9207   5.5991476415e+01   5.7064373623e+01     0.194432    0.1690317  32.72            0    1.009    0.009
        30 -10.7521    102.2534      2.6780   5.6365904154e+01   5.8515387231e+01    0.5074918    0.3434058  78.36  0.001551892    1.944    0.486
        31  -9.5883    120.9892      4.2400   5.2865337161e+01   5.4060084411e+01    0.1887292    0.1574417  48.85 0.0003479435    1.064    0.060
        32 -10.4965    173.0083      2.7643   4.4095117041e+01   4.1165291967e+01    0.2655929    0.1541757  75.61  0.001052649    1.605    0.377
        33  -9.9651    130.0252      3.2788   5.0758370148e+01   5.1962960638e+01    0.1931655    0.1591914  59.02 0.0003763293    1.104    0.094
        34  -9.6002     16.1992      3.8766   8.9975933724e+01   7.2533606843e+01    0.1565662    0.1294293 -17.65 0.0008719519    1.226    0.185
        35  -9.9658     90.4692      2.8914   5.9480268992e+01   6.1043856269e+01    0.2237607    0.1799893  76.86 0.0008948318    1.639    0.390
        36 -10.8637     20.5198      2.0992   8.6723217945e+01   7.2365753485e+01    0.2067106    0.1469473  -7.53 0.0006865811    1.147    0.128
        37  -9.7601    187.1545      1.2765   4.2024668869e+01   3.7695717853e+01    0.1880837    0.1085053  83.74 0.0002514254    1.687    0.407
        38  -9.5677     67.6675      1.4113   6.5760407319e+01   6.5655350805e+01    0.1706295   0.09903463  36.69  0.000936193    1.535    0.349
        39 -11.4717     80.3995      1.7241   6.1822177944e+01   6.3205877084e+01    0.3136852    0.1564868  48.91  0.001077868    1.799    0.444
        40  -9.0154     43.2433    145.2620   1.1655122925e+02   4.0091970161e+01     0.115182   0.08718161 -52.50            0    1.423    0.297
        41 -11.8353     17.5834    248.9551   1.2964202687e+02   2.1640346472e+01    0.2678607    0.2078847  24.06  0.002064494    2.225    0.551
        42 -12.5942      9.8480    228.2470   1.2992521302e+02   2.6063037652e+01    0.4996771     0.266688  81.20  0.001060194    1.454    0.312
        43 -11.4975      2.8045    248.8260   1.3187264572e+02   2.3144310689e+01    0.3943005    0.1897696  54.11  0.002868812    1.482    0.325
        44 -12.4054      3.9354    232.0956   1.3104332577e+02   2.5938266884e+01    0.5736649     0.191523  75.37 0.0006880877    2.833    0.647
        45 -12.1349      9.0629    245.2065   1.3078818906e+02   2.3145497735e+01    0.3811943    0.1990788  27.95  0.002341671    3.082    0.676
        46 -12.5497      4.7132    240.4816   1.3126399700e+02   2.4385989674e+01     0.542092    0.2290916  53.22  0.003632583    1.700    0.412
        47  -9.2320     22.6713    143.2695   1.2137381314e+02   4.2577789566e+01     0.122809    0.0765202  69.56 0.0002262929    1.580    0.367
        48  -9.3043     24.6211    139.1469   1.2044845392e+02   4.3358257397e+01     0.178564   0.08786135 -62.97 0.0009328766    1.691    0.409
        49 -10.1580      4.2157    134.6183   1.2499686957e+02   4.5998124578e+01    0.1596051    0.1344057 -83.68 0.0006484194    1.138    0.121
        50  -9.8872      1.6537    132.6935   1.2544559772e+02   4.6605476294e+01    0.1839126    0.1314569 -71.34 0.0006917171    1.167    0.143
        51 -10.2158    212.6254    133.9122   7.3970391082e+01   1.1369744379e+01    0.2631773    0.2155356  57.26 0.0005882786    1.381    0.276
        52  -9.4366     35.2086    130.8671   1.1671738080e+02   4.4311145053e+01    0.1720938    0.1260509 -55.55 0.0005030094    1.330    0.248
        53  -9.4207     91.0529    129.9964   1.0149151267e+02   3.7257395499e+01    0.1645515    0.1556617  85.82            0    1.051    0.048
        54 -10.8368     11.3233    129.3516   1.2272426992e+02   4.6698000784e+01    0.3379816    0.1755535  68.43  0.001790607    2.113    0.527
        55 -10.3898    248.5070    129.4693   6.6734408235e+01   4.8244704917e+00    0.1393799    0.1221633 -17.96 4.509263e-05    1.009    0.009
        56 -10.0369     28.7237    128.0363   1.1805711017e+02   4.5587224200e+01    0.1770868    0.1307078 -74.97  0.000330581    1.096    0.088
        57  -9.4788     20.3574    125.1749   1.1991264100e+02   4.6971841270e+01    0.1682733   0.09500124 -83.01 0.0009107979    1.560    0.359
        58 -11.6464     23.9286    121.0759   1.1843493161e+02   4.7637990402e+01    0.4245551    0.2463935  81.27   0.00119892    1.885    0.469
        59 -10.2221      8.1262    121.4537   1.2270913521e+02   4.8739461934e+01     0.241752    0.1391958  72.32 0.0007089491    1.825    0.452
        60 -10.0867     17.3260    115.3011   1.1949601531e+02   4.9510535614e+01    0.1231273   0.07671677 -47.64 0.0005076755    1.638    0.389
        61  -9.3201     72.2440    113.0011   1.0324210381e+02   4.4178588772e+01    0.1788748    0.1088536 -58.48 0.0002595494    1.475    0.322
        62 -11.1521     65.8649    110.8022   1.0465780594e+02   4.5581150180e+01    0.3154035    0.2385338  77.25  0.001137506    1.562    0.360
        63 -11.7031      4.4365    108.6708   1.2226807069e+02   5.1910061778e+01    0.3630952    0.2618358 -16.70  0.002237305    1.923    0.480
        64  -9.9986     17.7124    122.0063   1.2023138849e+02   4.7919031636e+01     0.170665    0.1266802 -73.76 0.0004322745    1.064    0.060
        65 -11.1074     57.2634    107.9219   1.0663530007e+02   4.7366552846e+01    0.2702394    0.2011809  22.55 0.0009493379    1.639    0.390
        66  -9.4959     89.3105    105.3378   9.6465154558e+01   4.3353772298e+01    0.1499294    0.1112297 -23.63  0.000631418    1.686    0.407
        67  -9.5759     52.6570    105.3131   1.0750464323e+02   4.8534219756e+01    0.1364335   0.09789589  76.54 0.0007046907    1.705    0.414
        68 -10.3645     19.5203    104.4988   1.1736887879e+02   5.1864675484e+01    0.1879187    0.1190227  -5.01   0.00103825    2.363    0.577
        69  -9.9598    186.9050    103.1692   7.1279732451e+01   2.2861267809e+01    0.2290588    0.2095091 -82.02 0.0005340679    1.209    0.173
        70  -8.8145    161.6418    102.2778   7.6481769481e+01   2.9042404704e+01    0.1601997    0.1261185 -87.16 0.0003937388    1.660    0.397
        71  -9.9072     66.5020    101.5470   1.0244791853e+02   4.7684394616e+01    0.1394212    0.1241334 -59.19 9.717768e-05    1.009    0.009
        72  -9.9807     24.7995    100.9763   1.1523216050e+02   5.2278248913e+01     0.177327    0.1255684  63.17  0.001049884    1.651    0.394
        73 -10.0974     62.1719     97.7868   1.0293606380e+02   4.9138963590e+01    0.2003416    0.1472358 -40.06  0.001075248    1.353    0.261
        74  -9.4214     91.5574     96.5740   9.3557711982e+01   4.4988071436e+01    0.1453976     0.136005 -52.91 3.004759e-05    1.022    0.022
        75 -10.4858      3.1675     95.4694   1.2098657623e+02   5.4998144878e+01    0.2083426    0.1504148 -83.28 0.0004779483    1.205    0.170
        76 -11.9585     20.8002     92.7929   1.1510974601e+02   5.4485072076e+01     0.341912    0.2621675 -32.92 0.0005044952    1.452    0.311
        77 -10.5503     24.1383     88.5797   1.1328069468e+02   5.5202802661e+01    0.2994646    0.1669159 -70.54 0.0005072022    1.568    0.362
        78 -10.8148    125.0447     93.3305   8.3064945105e+01   3.9206345529e+01    0.2713163    0.2201544 -42.60 0.0001697538    1.198    0.165
        79 -10.2228     29.4491     92.4543   1.1227899141e+02   5.3878487778e+01    0.2191056     0.178786 -61.04 0.0005917714    1.015    0.015
        80 -10.8611     57.6522     91.8954   1.0300548492e+02   5.1080927832e+01    0.2648753    0.1941983 -19.00 0.0006954558    1.701    0.412
        81 -10.2554     43.8117     90.6555   1.0723973709e+02   5.2942928300e+01    0.3450269    0.2089552 -83.30  0.001547795    2.154    0.536
        82 -10.5332      9.9979     79.3292   1.1632286357e+02   5.8266157438e+01    0.3384661    0.1743439 -72.29  0.001546913    1.656    0.396
        83 -11.0643     10.9454     90.5537   1.1787205301e+02   5.5666904196e+01    0.4106907    0.2322083 -47.25  0.002389591    1.609    0.379
        84  -9.9772     11.2871     85.0209   1.1686830948e+02   5.6904792037e+01    0.2180865    0.1378735 -78.30 0.0005497508    1.433    0.302
        85 -10.0228     76.3624     89.2156   9.6302386060e+01   4.9116983836e+01    0.2205636    0.1938081   6.01 0.0007741703    1.286    0.222
        86 -10.3539     64.9357     88.4037   9.9777413681e+01   5.0940708083e+01    0.2570503    0.1749442 -48.71 0.0005453975    1.293    0.226
        87 -10.1725     18.8450     87.6542   1.1484563014e+02   5.5806955648e+01    0.3210847    0.1574384 -54.07  0.001367244    1.606    0.378
        88 -11.2695     54.6569     84.5062   1.0219892067e+02   5.3139568770e+01    0.2886221      0.21951 -71.45 0.0009302179    1.389    0.280
        89  -9.5622    113.6405     85.5532   8.3939871566e+01   4.3241468704e+01    0.1522937    0.1380543 -23.72 0.0004291273    1.105    0.095
        90 -10.5624      3.9682     82.6727   1.1888940864e+02   5.7849689137e+01    0.3207726    0.1603742 -72.52  0.001774751    1.608    0.378
        91 -10.1018    124.5583     82.8036   8.0073384026e+01   4.1499631785e+01    0.2652413    0.2175085  43.28 0.0005707965    1.248    0.199
        92  -9.1607     76.6543     82.7607   9.4435828160e+01   5.0515257854e+01    0.1372107    0.1058802 -11.28 0.0003684896    1.564    0.361
        93  -9.3519    250.3226     81.2840   5.5185373033e+01   1.2041801598e+01    0.1328244    0.1061048  12.90 0.0004276542    1.595    0.373
        94  -9.8600     89.3719     80.6613   8.9749979959e+01   4.8887649123e+01    0.2544551    0.1679066 -57.37   0.00058425    1.624    0.384
        95 -10.8622     64.4974     79.3348   9.7513413082e+01   5.3038058281e+01    0.4183025    0.2574023 -58.77  0.001512222    1.594    0.373
        96  -9.4782    124.4078     79.1535   7.8988930425e+01   4.2267217611e+01    0.2121835    0.1408397 -52.12 0.0004241898    1.630    0.386
        97 -11.0538     27.6256     77.3295   1.0982765851e+02   5.7484745129e+01    0.3406157    0.2078121  -8.45 0.0005510552    2.277    0.561
        98  -9.9416    176.8348     76.8347   6.5963767920e+01   3.0154142973e+01    0.2399659    0.2181039  17.78 0.0009392838    1.198    0.165
        99 -10.4386      5.0970     76.9649   1.1758221996e+02   5.9067502743e+01    0.1937292    0.1007463 -45.82 0.0005078463    1.679    0.405
       100 -10.6907     55.4143     75.5538   9.9596764988e+01   5.5050444678e+01    0.2874719    0.2436852 -52.20   0.00093146    1.079    0.073
       101 -10.6359     14.7987     75.3078   1.1391854689e+02   5.8871432268e+01    0.2453993     0.189358  58.18 0.0008960528    1.640    0.390
       102 -11.3419     20.5061     73.1906   1.1145992347e+02   5.8955293787e+01    0.3684337    0.1644999 -46.98  0.001172485    1.848    0.459
       103  -9.4154     42.5366     81.5406   1.0560010610e+02   5.5162619953e+01     0.133517     0.108363 -47.52 0.0008072167    1.068    0.063
       104  -9.9573     37.0261     75.2540   1.0602072892e+02   5.7120128986e+01    0.2130494    0.1688376 -54.22  0.001038897    1.053    0.050
       105 -10.6238     35.5664     72.1748   1.0578867979e+02   5.7940884276e+01     0.462947    0.2502398 -18.86   0.00210758    2.797    0.642
       106 -10.0880    216.9952     72.4602   5.7691726392e+01   2.0969616786e+01    0.2279353    0.1839294 -36.56 0.0005206522    1.176    0.149
       107 -10.3715    106.0416     72.0207   8.1936655716e+01   4.7554469974e+01    0.2402452    0.2101754  36.07 0.0004083361    1.180    0.153
       108  -9.2325     92.4585     72.4806   8.6250245677e+01   5.0057973164e+01    0.1453733    0.1348783 -30.84 0.0001326411    1.020    0.020
       109  -9.8076     99.9659     70.6781   8.3333242785e+01   4.9017641962e+01    0.1913819    0.1832313  22.10 0.0004446653    1.088    0.081
       110  -9.8808     76.3318     70.1769   9.0793134620e+01   5.3270851540e+01    0.3041098    0.1091213 -41.35  0.001090097    2.688    0.628
       111  -9.7336     80.0240     68.4868   8.9014964609e+01   5.3026487898e+01    0.2980888    0.1814007  10.96  0.001227037    2.626    0.619
       112  -9.2981     29.4767     70.9863   1.0771391331e+02   5.8744186853e+01    0.1663051    0.1022125 -86.28 0.0005044125    2.367    0.578
       113 -11.0246     46.3680     69.2836   1.0109797334e+02   5.7475764652e+01    0.2732685     0.213719   5.40 0.0005724696    1.481    0.325
       114 -11.1459      9.9909     60.0603   1.1250004259e+02   6.2502827791e+01    0.1811242    0.1378916 -52.40 0.0003754457    1.015    0.015
       115 -10.8500     10.5663     67.5540   1.1388723298e+02   6.0845261373e+01    0.2867834    0.1582122 -67.84  0.001065332    1.519    0.342
       116 -10.7105      5.5088     69.0246   1.1601671873e+02   6.0801913160e+01    0.1839675   0.09199007 -66.26 0.0007031938    1.550    0.355
       117 -11.2904     15.2193     64.7925   1.1156580166e+02   6.1161981373e+01    0.3898649    0.2784012 -74.67  0.001322783    1.406    0.289
       118 -13.5920     20.0137     57.5652   1.0797839062e+02   6.2386803329e+01     0.406809    0.2519203 -65.08  0.001316738    1.503    0.335
       119  -9.9885      1.4154     66.8907   1.1709987845e+02   6.1470748783e+01    0.1777773   0.08894848 -67.31 0.0006241184    1.542    0.352
       120 -10.0986    133.6857     65.2811   7.2102928401e+01   4.2789686884e+01    0.3198007    0.2188246  12.34   0.00132658    2.085    0.520
       121 -10.4354     34.4058     64.8873   1.0433927557e+02   5.9638899967e+01    0.2769535    0.1578384 -45.74 0.0008167968    1.440    0.306
       122 -11.0576     62.7339     63.0251   9.3271164059e+01   5.6766101954e+01    0.4899858    0.2991586 -33.28   0.00244531    1.606    0.377
       123  -9.9382    193.2955     61.9999   5.8636856181e+01   2.8479934419e+01    0.2062919    0.1857512 -41.27 0.0002602846    1.090    0.083
       124 -11.3230    150.0491     62.0318   6.7127738748e+01   3.9410534448e+01    0.2585166    0.2175118  59.33  0.001294487    1.207    0.171
       125  -9.4770     92.6494     61.2243   8.2453513455e+01   5.2251955866e+01    0.1932934    0.1262719 -32.03  0.000248056    1.499    0.333
       126 -10.7628     39.4924     61.2349   1.0138812511e+02   5.9924926034e+01    0.3882953    0.2293016 -46.37  0.002118147    1.386    0.279
       127 -10.5718      1.9482     59.7994   1.1553423697e+02   6.2978499650e+01    0.1731104    0.1198573  60.29   0.00109314    1.999    0.500
       128 -10.7949     83.7685     56.6436   8.3759293649e+01   5.4725013476e+01    0.2675915    0.2235908 -34.34  0.001061927    1.118    0.105
       129 -12.0652     88.7297     52.9788   8.0799705343e+01   5.4509668782e+01     0.480141    0.3809342  55.60  0.001798024    1.537    0.349
       130  -9.1468     48.3159     58.2852   9.7119116591e+01   5.9578545130e+01    0.1326295   0.08828966 -24.17 0.0002978962    1.584    0.369
       131 -10.3212     33.4938     55.3500   1.0200556236e+02   6.1738517947e+01    0.4273809    0.1662684 -41.05  0.001903902    2.287    0.563
       132 -10.8150    100.9486     60.7041   7.9679975568e+01   5.0752454280e+01    0.3040464    0.1911558 -56.17   0.00132113    2.040    0.510
       133 -11.6509    114.8550     53.7481   7.3164587534e+01   4.9085050078e+01    0.3432614    0.3036947  28.89 0.0007916474    1.113    0.101
       134 -10.1896    106.3562     53.1181   7.5373674458e+01   5.1013528928e+01    0.2633961    0.2093454  53.32 0.0005399066    1.377    0.274
       135 -12.0146     65.8947     52.5425   8.8579788078e+01   5.8392792185e+01    0.5315319     0.234049  35.06  0.002301795    2.483    0.597
       136  -9.8823     19.5491     44.5323   1.0452571471e+02   6.5108007895e+01     0.339918    0.2658803 -34.80  0.002336932    1.082    0.075
       137 -11.4131     12.8994     41.1168   1.0639327782e+02   6.6251244754e+01    0.5366964    0.3855619 -70.91  0.001940769    1.607    0.378
       138 -12.4455      5.8065     50.7424   1.1200189832e+02   6.4702405825e+01    0.4573695    0.2117015 -36.65 0.0002994175    1.975    0.494
       139 -11.1592     13.9839     48.9413   1.0815177811e+02   6.4598375321e+01    0.2757814    0.1937771 -60.28 0.0003075684    1.264    0.209
       140 -10.2630    121.9943     51.1026   7.0287931932e+01   4.7929392623e+01    0.2168456    0.2090676  15.38 0.0003409961    1.030    0.029
       141 -11.4175     77.8283     46.8850   8.2221196377e+01   5.7531679450e+01    0.5179178    0.3249612  -9.91  0.001164208    2.123    0.529
       142 -10.4054     98.2221     48.2254   7.6029592930e+01   5.3514309003e+01     0.256696      0.21119 -10.26 0.0004694397    1.206    0.171
       143 -11.3419     57.3506     46.7440   8.9704934453e+01   6.0704261143e+01    0.3608262    0.2071828 -53.79 0.0007365434    1.980    0.495
       144  -9.6307     53.2899     48.3508   9.1863123322e+01   6.0939834513e+01    0.2541105    0.1647582  -6.03   0.00129895    1.931    0.482
       145  -9.6901    154.8652     47.5215   6.1372717055e+01   4.0517948057e+01    0.2169648    0.1444538  57.12 0.0003306654    1.459    0.315
       146  -9.8957    135.5878     46.2789   6.5196613554e+01   4.5490136458e+01    0.2223826    0.1654723  47.50  0.000330521    1.300    0.231
       147  -9.4847    104.3291     46.3013   7.3470440027e+01   5.2582873950e+01    0.1494379    0.1071033  12.39 0.0005620818    1.645    0.392
       148  -9.7922     65.4032     46.6258   8.6605546510e+01   5.9570980248e+01    0.2313283     0.114592  51.12 0.0006874267    3.164    0.684
       149 -10.0470     31.5002     46.0297   9.9917460566e+01   6.3810387858e+01    0.2443138    0.1818096 -88.79   0.00121834    2.290    0.563
       150 -11.1702     26.4633     43.7848   1.0132253281e+02   6.4703896490e+01     0.326806    0.2311932 -45.68  0.001117754    1.145    0.126
       151 -10.7689     69.3356     42.0369   8.3398061957e+01   5.9779595506e+01    0.2538143    0.2055396   1.16            0    1.204    0.169
       152 -10.8099      2.1906     42.4058   1.1144562528e+02   6.6596110488e+01    0.3330986    0.1798147  -8.83  0.001970907    2.245    0.554
       153  -9.9269      5.5683     39.4238   1.0915262121e+02   6.7022596979e+01    0.1808777    0.1311064 -49.59 4.742295e-06    1.060    0.056
       154 -10.0446    159.4836     41.9507   5.8636987207e+01   4.0150102187e+01    0.2076266    0.1990411  63.54  0.000293791    1.015    0.015
       155 -10.9668    140.1432     40.8920   6.2281596108e+01   4.5170861049e+01    0.2997382    0.2503097 -86.39 0.0006528008    1.430    0.301
       156  -9.2529     95.4097     42.4770   7.4721309332e+01   5.5023136126e+01     0.141559    0.1262222  -2.80 0.0008030169    1.031    0.030
       157  -9.9491     43.0149     40.8295   9.3278798831e+01   6.3610941628e+01    0.1671137    0.1572137 -18.89 0.0004830854    1.231    0.187
       158 -10.4657     35.0899     41.1650   9.6742106487e+01   6.4405318691e+01    0.2672447    0.1752384  18.13  0.001121413    1.704    0.413
       159  -9.1559    181.4490     40.4784   5.4298067019e+01   3.4692405680e+01    0.1476434    0.1377286 -77.31 -4.416526e-05    1.055    0.052
       160  -9.2057     51.2585     40.0323   8.9594703742e+01   6.2747687074e+01     0.166716   0.09679749 -40.65 0.0008721654    1.501    0.334
       161 -10.0731    128.0852     38.7564   6.4314237131e+01   4.8399297319e+01    0.2373291    0.1962927  48.92 0.0004173322    1.168    0.144
       162  -9.7899    229.6782    248.0147   9.2803907948e+01  -8.4335735673e+00    0.1522466    0.1212205   9.31 0.0006919981    1.128    0.113
       163  -9.4137     87.0484     39.0324   7.6045979236e+01   5.7194329828e+01    0.1660541    0.1468371  15.97 0.0004460748    1.079    0.074
       164 -11.1740     19.0905     32.1262   1.0064998156e+02   6.7544868749e+01    0.4729853    0.2251488   6.18  0.002375684    2.833    0.647
       165 -11.3055     26.3750     35.8036   9.8641440923e+01   6.6247398277e+01    0.4178233    0.2161086 -36.63  0.001836331    1.618    0.382
       166 -11.0151      3.2965     35.5366   1.0906688057e+02   6.7910646466e+01    0.4531256    0.2144469 -29.23  0.002545919    2.063    0.515
       167 -10.9531     38.6746     35.3939   9.3069666650e+01   6.5096450534e+01    0.2853251    0.1896937  10.23   0.00167909    1.654    0.395
       168 -12.0570     41.1424     29.8080   8.9769181198e+01   6.5795926193e+01    0.6490962    0.3639789   4.60  0.003198689    2.439    0.590
       169 -11.0050     96.8436     34.4014   7.1107309922e+01   5.5974040125e+01    0.3509298    0.1813716 -35.98 0.0009927314    1.924    0.480
       170 -10.1101    134.1926     34.2707   6.1274469618e+01   4.7547306843e+01    0.2025392    0.1734669  32.45 0.0003398407    1.142    0.124
       171 -10.2213    144.5188     32.6803   5.8499774452e+01   4.5201167058e+01    0.2485379     0.195153 -56.38 0.0005054096    1.455    0.313
       172  -8.8241    185.2976     35.3045   5.2153580194e+01   3.4390671775e+01    0.1455306    0.1091228  31.75  0.000209292    1.585    0.369
       173 -10.0600     73.1329     32.1586   7.8016730924e+01   6.0774398671e+01    0.1997704    0.1588642   1.21   0.00030799    1.185    0.156
       174 -10.0996    129.0060     30.6473   6.1137078704e+01   4.9280729082e+01    0.2818539    0.2119334 -23.81 0.0008733743    1.376    0.273
       175  -9.7974     77.4604     30.9520   7.5981066200e+01   6.0202205805e+01    0.2024595    0.1629404  31.28 0.0006687719    1.233    0.189
       176  -9.4827    114.9581     39.0121   6.7743760234e+01   5.1402888720e+01     0.171923    0.1600735  11.19 0.0004563816    1.010    0.010
       177  -9.8764     84.2489     30.1944   7.3364140621e+01   5.9066500305e+01     0.228155    0.1813487  78.09   0.00112501    2.026    0.507
       178 -10.2985     22.5282     38.4577   1.0128043736e+02   6.6070118689e+01    0.1843925    0.1611351 -45.98 0.0005397432    1.219    0.180
       179 -10.8046      8.2880     28.7874   1.0459842590e+02   6.8925863269e+01    0.2640525    0.2261794  66.04  0.001331497    1.833    0.455
       180  -9.3422    166.3676     31.1477   5.3912714433e+01   3.9819200827e+01    0.1992349     0.127692 -41.00 0.0003829797    1.605    0.377
       181 -10.2842     97.3605     27.3901   6.8108471685e+01   5.6848680193e+01    0.3441314    0.2004096  -8.97  0.001423699    2.133    0.531
       182  -9.6568    146.9445     26.6903   5.5949364841e+01   4.5340126513e+01    0.1943804    0.1828859  51.24 0.0005299339    1.002    0.002
       183  -9.6294     77.4295     26.5444   7.4112186177e+01   6.0851330481e+01    0.2393777    0.1172718 -20.68   0.00102221    2.356    0.576
       184 -10.8568      2.0264     22.0372   1.0536314622e+02   7.0540026452e+01    0.2706517    0.1371315 -55.93 0.0007096918    1.663    0.399
       185  -8.7399     18.6980     24.9140   9.8142015647e+01   6.8890093497e+01    0.3580552    0.1381677 -33.43  0.001689285    2.465    0.594
       186  -9.9646     20.2895     16.8710   9.4012599630e+01   7.0132545366e+01    0.1855397    0.1485078   3.77 0.0003993809    1.281    0.219
       187  -9.7798     57.9760    248.2743   1.2311829049e+02   1.7119471602e+01    0.1516828    0.1072498  58.85  0.000443692    1.080    0.074
       188  -9.9023    224.9425    246.7219   9.3414808783e+01  -7.6038301319e+00    0.1667867    0.1186012  24.61  0.001143792    1.074    0.069
       189 -10.5605    105.0905     27.2200   6.5837763575e+01   5.5223173802e+01     0.510666    0.1843316  60.82  0.001627089    3.930    0.746
       190 -10.7973    113.5007     25.6316   6.2978981967e+01   5.3551265312e+01    0.3604996    0.2397116 -39.62 0.0007736708    1.648    0.393
       191 -10.1360     58.6017     24.4775   8.0175814171e+01   6.4290655447e+01    0.3059531    0.1998726   1.53   0.00165505    1.697    0.411
       192  -9.5263    120.3464     23.1410   6.0332741850e+01   5.2270625936e+01    0.1856718    0.1239595 -35.42 0.0001316291    1.590    0.371
       193  -9.4413     91.2339     22.3988   6.7849943044e+01   5.8758441099e+01    0.1810488    0.1283093  59.66 0.0009462991    1.684    0.406
       194  -9.2028    136.3726    245.7298   1.0909731407e+02   6.3183370507e+00    0.1230525   0.07516661  59.35 0.0006996643    1.676    0.403
       195  -9.5097    202.4717    240.0986   9.6346503629e+01  -3.4099203318e+00     0.151279    0.1149167 -27.39  0.000717747    1.527    0.345
       196  -9.5022     60.6325    241.0000   1.2215851221e+02   1.8035389171e+01    0.2295419   0.05176683  38.87 0.0009205455    3.821    0.738
       197  -9.1986     49.6855    240.6458   1.2400107010e+02   1.9459734961e+01   0.09088792   0.08397859 -54.08 0.0007045491    1.737    0.424
       198 -10.9995     30.5936     21.1178   9.0856756357e+01   6.8429084051e+01    0.3290557    0.2446081  18.73  0.002207273    1.430    0.301
       199  -9.4407     35.6814    240.7011   1.2634113345e+02   2.1095837282e+01   0.08594114    0.0805324 -80.09 0.0007020829    1.617    0.382
       200  -9.7040     26.5168     15.5853   9.0334486034e+01   6.9743138176e+01    0.2329054    0.1666508 -39.49   0.00154656    1.344    0.256
       201  -9.8357     30.5072     16.4155   8.8780275856e+01   6.9192062719e+01    0.1956051    0.1467863  -1.01 0.0007388831    1.215    0.177
       202  -9.6554    148.5165    238.9614   1.0605007116e+02   5.4183997833e+00    0.1567304     0.122423 -53.60  0.000916856    1.590    0.371
       203 -11.1680     14.0723    238.5988   1.2972294360e+02   2.3788912564e+01    0.1932541   0.09951871  76.08 0.0005753215    1.506    0.336
       204  -9.7293     91.1503    237.0232   1.1642388987e+02   1.4586804014e+01     0.159308    0.1243143 -42.84  0.001046906    1.938    0.484
       205  -9.7831    175.6467     21.1909   4.9343291450e+01   3.8609071426e+01    0.1854389    0.1369696 -10.80 0.0004368072    1.604    0.376
       206  -9.8612    165.0137     20.9760   5.0889940028e+01   4.1380790838e+01    0.2142433    0.2038831  46.15 0.0006982179    1.076    0.070
       207 -10.2876     84.8859     21.1031   6.9267669840e+01   6.0184675531e+01    0.3344376    0.1621992  24.52  0.000992361    2.920    0.658
       208 -11.9859     26.2393    235.6171   1.2761169660e+02   2.3044162780e+01    0.2735963    0.2233349  86.15  0.001321716    1.309    0.236
       209  -9.8280    146.1478     19.1690   5.3500730952e+01   4.6406277849e+01     0.226211    0.1852782  33.69 0.0006548963    1.237    0.192
       210  -9.9144     58.0890     19.1395   7.7951733530e+01   6.5144693735e+01    0.1738531     0.155295 -55.86  0.001110062    1.672    0.402
       211  -9.7946    199.7718     17.4078   4.5105567718e+01   3.2850426806e+01     0.194049    0.1176108  60.38 0.0004619884    1.575    0.365
       212  -9.6956    114.9817     17.2729   5.9315687472e+01   5.4191381039e+01    0.1944563     0.153929  50.08 0.0003148862    1.180    0.152
       213 -10.3626    108.3307     16.4135   6.0600377508e+01   5.5803006679e+01    0.2197734    0.1705076 -11.67  0.001227691    1.312    0.238
       214  -9.9982     82.3124     17.1788   6.8358157959e+01   6.1173263144e+01     0.212119    0.1490773   0.25 0.0006653439    1.436    0.304
       215 -11.3446    234.6393     15.0681   4.0976002783e+01   2.4614520630e+01    0.2491802     0.196441 -84.46 0.0001300978    1.165    0.142
       216  -9.3769    204.4935    235.3999   9.5273528193e+01  -3.1283501180e+00    0.1213965   0.09510496  28.04 0.0001977504    1.030    0.029
       217  -9.9582    249.3387    234.0775   8.7282896178e+01  -9.7052782086e+00    0.1852348    0.1221796  20.33 0.0004223233    1.206    0.171
       218  -9.3173    242.9940    230.2088   8.7706988758e+01  -8.3645732908e+00    0.1540387   0.07799207  35.84 0.0008598441    1.692    0.409
       219 -10.2092    154.4511     14.9207   5.0616592142e+01   4.4747877424e+01    0.2457773    0.1838642  65.62 0.0004985553    1.237    0.191
       220 -10.1823     65.9934     13.7911   7.2411052389e+01   6.4564994541e+01    0.2951344    0.1489071  30.80 0.0007552995    2.041    0.510
       221 -10.0129    191.1859     13.6192   4.5059819397e+01   3.5444649371e+01    0.2500675    0.1555418  61.82 0.0008982647    1.497    0.332
       222  -9.7403    209.5135    229.5084   9.3449357871e+01  -3.1626872132e+00    0.1232673   0.09856135  23.36 4.214664e-05    1.004    0.004
       223  -9.2969    100.0210     11.2153   6.0573152239e+01   5.8195573175e+01    0.1785629   0.09993993  53.71 0.0005604741    1.673    0.402
       224 -10.6925    140.2368    227.7677   1.0617485081e+02   8.5437774093e+00     0.360865    0.2350118 -82.97  0.001897385    2.408    0.585
       225  -9.8339    223.4660    226.5493   9.0478702366e+01  -4.9843424975e+00    0.1236992   0.09535216  17.30 6.268365e-05    1.054    0.052
       226 -10.1037      2.3232    219.9944   1.3078400003e+02   2.8297121535e+01    0.2047508    0.0943384  62.40  0.001324242    1.639    0.390
       227 -10.9944      8.5645    218.2061   1.2966070376e+02   2.8046950071e+01    0.2500791    0.2052059  11.10  0.001894269    2.225    0.551
       228  -9.2144    136.6724    215.6741   1.0524891346e+02   1.1199059904e+01    0.1237993   0.09884924   8.77 0.0007050032    1.699    0.411
       229  -9.1770    209.6551    211.2982   9.0395701058e+01  -7.0440420196e-01    0.1178564   0.09945536  63.34 0.0007035302    1.674    0.403
       230  -9.2584    224.3190    210.3518   8.7553815280e+01  -3.0077152300e+00    0.1335865    0.0852385   7.81 0.0007047466    1.743    0.426
       231 -10.0361     20.1728    209.8439   1.2719157283e+02   2.8510305805e+01    0.1768359    0.1065441  68.11 0.0007386961    1.287    0.223
       232 -10.4567     10.0231    203.6361   1.2865171362e+02   3.0720985330e+01    0.1540595    0.1108815  69.37 0.0005522653    1.096    0.088
       233  -9.0456    193.4919    201.5414   9.1747537916e+01   3.5658129395e+00     0.133846    0.1150157  23.93 2.224942e-06    1.015    0.015
       234  -9.8135     23.1335    197.1600   1.2583726347e+02   3.0745948866e+01    0.1622949     0.132637 -81.81 0.0005899546    1.282    0.220
       235 -10.6794     13.9398    192.7283   1.2728843140e+02   3.2550061422e+01    0.1961544     0.121036  82.71 0.0004922239    1.258    0.205
       236 -10.4680      6.5428    191.5108   1.2860453998e+02   3.3473015934e+01    0.2026999    0.1331141  74.09  0.000261067    1.154    0.133
       237  -9.1555     20.6912    188.7171   1.2572348771e+02   3.2733148943e+01   0.09992059   0.08026304 -59.90 0.0001947148    1.565    0.361
       238  -9.5349     22.4965    179.9441   1.2471718624e+02   3.4413175266e+01    0.1668458   0.09320352 -79.52 0.0004449887    1.476    0.323
       239 -10.6631      5.4002    167.4225   1.2731423212e+02   3.8631274748e+01    0.2318426    0.1346931  80.67  0.001103368    1.402    0.287
       240  -9.4616    226.5916    164.1947   7.8156997757e+01   3.4436608617e+00    0.1905398    0.1227619 -21.28  0.000606126    1.597    0.374
       241  -9.9995     14.9691    163.5195   1.2500259709e+02   3.8681378559e+01     0.140527   0.09631474 -24.79 0.0008102545    2.632    0.620
       242  -9.2610     41.2934    157.7012   1.1851716398e+02   3.7420005013e+01    0.1286359   0.08072142  72.91 0.0002934415    1.566    0.361
       243  -9.1126    247.4754    155.5074   7.2658882376e+01   9.6600547231e-01    0.1362277    0.1164551  -7.69  0.000137675    1.011    0.011
       244 -10.3340      2.4698    153.5056   1.2694479428e+02   4.1895751923e+01    0.1962114    0.1118373  28.53  0.001215519    2.182    0.542
       245  -9.4053     23.3227    150.6643   1.2197506487e+02   4.0824731636e+01    0.1294474   0.07450319  71.60 0.0007050628    1.711    0.416
