#   1 NUMBER                 Running object number                                     
#   2 MAG_AUTO               Kron-like elliptical aperture magnitude                    [mag]
#   3 X_IMAGE                Object position along x                                    [pixel]
#   4 Y_IMAGE                Object position along y                                    [pixel]
#   5 X_WORLD                Barycenter position along world x axis                     [deg]
#   6 Y_WORLD                Barycenter position along world y axis                     [deg]
#   7 A_WORLD                Profile RMS along major axis (world units)                 [deg]
#   8 B_WORLD                Profile RMS along minor axis (world units)                 [deg]
#   9 THETA_WORLD            Position angle (CCW/world-x)                               [deg]
#  10 FWHM_WORLD             FWHM assuming a gaussian core                              [deg]
#  11 ELONGATION             A_IMAGE/B_IMAGE                                           
#  12 ELLIPTICITY            1 - B_IMAGE/A_IMAGE                                       
         1  -7.8961     83.5853     10.8227   4.0509004747e+01   6.1411741970e+01    0.1678003      0.11481 -39.23 0.0005570833    1.678    0.404
         2  -8.5768     55.7319      9.8574   4.8848356878e+01   6.7376373397e+01    0.2052582     0.162841 -42.09 0.0006634399    1.578    0.366
         3  -8.2684     91.1372      8.7156   3.7763315939e+01   5.9899726900e+01    0.2004436    0.1524417  86.29 0.0008315583    1.496    0.331
         4  -8.3740     27.8647      9.5918   6.1738323319e+01   7.2277662658e+01    0.1575568    0.1065288  43.57 0.0005603313    1.661    0.398
         5  -8.5157      5.8947      8.1711   7.5224486299e+01   7.5251356428e+01    0.1670873    0.1476165  -0.87 0.0007052561    1.284    0.221
         6  -7.8075    101.3096      7.6899   3.5168675358e+01   5.7642539774e+01    0.1266055   0.09330521 -70.01 0.0005488525    1.622    0.383
         7  -8.6149     33.2389      4.7024   5.5949177815e+01   7.2019855574e+01    0.2581049    0.1465286 -42.47  0.001285082    2.375    0.579
         8  -7.7356    191.9902      4.0210   2.2925360415e+01   3.7010848546e+01    0.1400872    0.1134811 -59.31 0.0003931469    1.104    0.094
         9  -8.4600     79.1777      3.6240   3.8460779917e+01   6.3024774244e+01    0.2439668    0.1436394 -41.21  0.001291855    2.038    0.509
        10  -7.9674     44.4620      3.2131   4.9800474173e+01   7.0200882311e+01     0.155901    0.1102012 -33.65 0.0006705183    1.656    0.396
        11  -8.1250     62.6899      1.4890   4.2131976466e+01   6.6752424055e+01    0.1591364    0.1125479  68.08 0.0009248846    1.556    0.357
        12 -10.0156    223.9581    243.8881   6.8906181948e+01  -5.3719064716e+00    0.4146437    0.2040392 -44.87  0.002273454    2.577    0.612
        13  -9.2178    232.8017    247.3092   6.7920988888e+01  -6.7318560964e+00    0.3336223    0.1682644 -40.85  0.001774633    2.194    0.544
        14  -8.4218     93.9525    249.2859   9.5666759351e+01   9.6515750896e+00    0.2167837    0.1499242  60.99 0.0008850099    1.644    0.392
        15  -7.3406     86.3038    250.6202   9.7441737966e+01   1.0347020701e+01    0.1287251   0.07988293  58.31 0.0007025003    1.777    0.437
        16  -7.4053     72.2924    250.6821   1.0044484681e+02   1.2016361093e+01    0.1246551   0.07718472  56.34 0.0002901282    1.602    0.376
        17  -7.7374     25.6731    250.3239   1.1014825567e+02   1.7151961608e+01    0.1266904   0.06375515  56.31 0.0003268055    1.692    0.409
        18  -9.2017    210.8954    246.3182   7.1579606390e+01  -4.2893605904e+00    0.2128431    0.1534995 -45.83 0.0009083729    1.937    0.484
        19  -9.4506    147.4080    245.9962   8.3891577684e+01   3.4079141579e+00     0.340373    0.2181419  56.16  0.001767241    2.460    0.593
        20  -8.4743     13.0410    247.2116   1.1253687074e+02   1.8962958418e+01    0.1487265   0.07935672  30.79 0.0008713679    1.721    0.419
        21  -9.4123    119.9583    244.9724   8.9576803397e+01   7.1281620833e+00    0.3205147    0.2254768  77.15  0.001448461    2.283    0.562
        22  -8.6312     67.5164    245.0117   1.0098692266e+02   1.3663682492e+01     0.168851    0.1190132 -71.73 0.0008201249    1.594    0.373
        23  -8.5662    201.9340    243.0392   7.2716569481e+01  -2.8223677257e+00    0.2016461    0.1511412 -50.86 0.0007914093    2.015    0.504
        24  -8.7168    139.4289    244.2201   8.5327448020e+01   4.7340793080e+00    0.1509755    0.1234107 -70.61 0.0009410375    1.718    0.418
        25  -9.1762     77.8499    242.8972   9.8543380613e+01   1.2840423395e+01    0.3070083    0.1533786  66.01  0.001340527    3.008    0.668
        26  -8.3751     34.5938    243.8122   1.0794042633e+02   1.7535762870e+01     0.159628   0.09781439  79.39 0.0008524147    1.652    0.395
        27  -8.4885      9.6475    243.4472   1.1305250453e+02   2.0016178426e+01    0.2221307   0.07655342  79.97 0.0009477945    3.392    0.705
        28  -8.8554    169.1263    242.9875   7.9036359873e+01   1.1381483224e+00    0.2049939    0.1845117  17.63  0.000862631    1.249    0.200
        29  -9.1563    194.5587    240.0376   7.3639454204e+01  -1.5234925144e+00    0.2686554    0.1989224 -48.18  0.001365126    1.828    0.453
        30  -9.4104    183.2117    239.6650   7.5762004524e+01  -9.4551716112e-02    0.3416002    0.3106644  74.80  0.002236769    1.902    0.474
        31  -9.4717    160.0272    239.9715   8.0451346705e+01   2.7799365940e+00    0.3268219    0.2404101 -70.41  0.001342095    2.341    0.573
        32  -8.3309    113.4218    248.4072   9.1384181031e+01   7.3567103719e+00    0.1927082    0.1228118 -76.60  0.001025055    2.373    0.579
        33  -8.1446     88.2607    242.0271   9.6168701790e+01   1.1724912516e+01    0.1650402    0.1503967  66.93 0.0005889564    1.166    0.142
        34  -8.9461    240.6206    239.4734   6.5414527009e+01  -6.5121469899e+00    0.2975088   0.09526128 -30.28  0.001383452    2.928    0.659
        35  -8.2693    146.1878    239.2147   8.3228267959e+01   4.7077232765e+00    0.1617561    0.1407924  45.71 0.0005474706    1.364    0.267
        36  -9.1571    135.8391    238.6265   8.5352902031e+01   6.1745428028e+00    0.2717248    0.1847716  55.82  0.001222775    1.987    0.497
        37  -9.0861    230.8608    236.8859   6.6635436586e+01  -5.1658149526e+00    0.2251025    0.1856377 -50.08  0.001292775    2.098    0.523
        38  -8.2047    209.1748    238.2224   7.0651119521e+01  -2.9647009736e+00    0.1429789    0.1269417  -4.46 0.0004653438    1.348    0.258
        39  -8.1977    128.9857    238.4741   8.6812385508e+01   7.1091919452e+00    0.1771596   0.08983059  48.15 0.0008071294    2.363    0.577
        40  -8.9579    217.4771    235.9711   6.8810225086e+01  -3.5846419048e+00    0.2369884     0.195885 -10.53  0.001302032    1.212    0.175
        41  -9.4214    213.6963    231.6709   6.8802860878e+01  -2.5431298183e+00    0.2553601    0.2369094  52.35  0.001100535    1.892    0.471
        42  -8.4196     25.6414    236.7908   1.0941495865e+02   1.9859206792e+01     0.270953    0.1054574  69.53  0.001160865    3.068    0.674
        43  -7.9728     13.9621    238.0000   1.1192634459e+02   2.0721574177e+01    0.1812842   0.05840435  27.02 0.0007991206    2.920    0.657
        44  -8.9100    203.3136    234.8302   7.1196488262e+01  -1.7923555688e+00    0.2444185    0.1900409 -57.55  0.001004944    2.194    0.544
        45  -9.8422    175.6707    233.1716   7.6270561345e+01   1.8753115618e+00    0.4435932    0.2506844 -56.12  0.002198372    2.699    0.629
        46  -8.3323    170.3665    235.2442   7.7651544352e+01   2.2210427641e+00    0.1548179    0.1165209 -49.69 0.0005228806    1.660    0.398
        47  -9.2580    108.6707    234.1715   9.0751977664e+01   1.0605946594e+01     0.330174    0.2302759  60.99  0.001221998    1.765    0.433
        48  -8.4716     99.9188    234.2896   9.2730772165e+01   1.1734249086e+01    0.2329731    0.1643533  66.10  0.001288462    1.752    0.429
        49  -9.1410     78.6453    234.4750   9.7549488307e+01   1.4409773613e+01    0.2218645    0.1596527 -80.28   0.00107589    1.603    0.376
        50  -8.5231    122.7985    234.0394   8.7591352452e+01   8.7459560851e+00    0.1951099    0.1632789  53.34  0.001110103    1.345    0.257
        51  -9.8624     68.6740    231.9425   9.9559711622e+01   1.6145690545e+01    0.5867446    0.2979546  68.86  0.002583913    2.796    0.642
        52  -8.8821    194.3849    232.5927   7.2522690254e+01  -3.8267404409e-01    0.2089381    0.1718846 -33.07 0.0007076478    1.373    0.272
        53  -8.2626    144.3755    232.6807   8.2701569719e+01   6.0876858483e+00    0.2745494    0.1434569  51.06  0.001197035    2.849    0.649
        54  -8.6241    140.2288    230.0944   8.3230875909e+01   7.1129273279e+00    0.2901402    0.1883045  46.77  0.001130313    1.748    0.428
        55  -8.5624    132.5555    232.3297   8.5216661457e+01   7.7467937909e+00    0.2080714    0.1301116 -58.15 0.0006595122    1.956    0.489
        56  -9.5028    186.5344    230.5046   7.3709063126e+01   9.1825273324e-01    0.3202986    0.2404021 -69.16  0.001753736    2.653    0.623
        57  -8.3636    157.9300    231.9633   7.9723611745e+01   4.3975022556e+00    0.1829182    0.1508804  56.24 0.0007146328    1.683    0.406
        58  -8.3813     92.6068    231.6673   9.4086959719e+01   1.3203829211e+01    0.2731926     0.157953  58.82 0.0007788102    2.120    0.528
        59  -9.1545    236.1160    229.9418   6.4647185017e+01  -4.7850131651e+00    0.3417994    0.1299455 -34.57  0.001426797    2.255    0.557
        60  -8.7205      1.4477    230.6168   1.1418883726e+02   2.3346977405e+01    0.2111426    0.0960469  87.51  0.001117049    2.072    0.517
        61  -9.0171    151.4880    228.9782   8.0643922765e+01   5.7823106840e+00    0.2604823    0.2165709 -89.76  0.001416654    1.911    0.477
        62 -10.0230    148.7998    224.4647   8.0550182904e+01   6.9588430822e+00    0.4928571    0.3450589  86.80  0.002255807    3.195    0.687
        63  -9.4927      9.2887    229.2744   1.1249011570e+02   2.2952945111e+01    0.4062302    0.1018709  65.47  0.001213775    6.212    0.839
        64  -8.3512    229.6016    228.3198   6.5481508725e+01  -3.8583834635e+00    0.2013758   0.09629364 -39.64 0.0007884382    2.027    0.507
        65  -8.8626    162.3680    227.7093   7.8157760062e+01   4.5344356505e+00    0.2839106    0.1978692  50.78  0.001386486    1.963    0.491
        66  -8.7369    127.7846    227.1270   8.5558796732e+01   9.3683753016e+00    0.2888994    0.2068467  58.28   0.00156416    1.805    0.446
        67  -7.9193    223.3721    227.1853   6.6369453033e+01  -3.0041437631e+00    0.2375673   0.09634648 -34.94 0.0008773264    2.183    0.542
        68  -9.2528    225.2435    221.6934   6.5144090402e+01  -2.4279716748e+00    0.2805488    0.2292016   0.44  0.001991908    1.170    0.146
        69  -7.7475    177.3158    227.3016   7.5032452018e+01   2.6199839917e+00    0.1300817    0.0850921  -5.68 0.0007021586    1.617    0.382
        70  -8.0628     49.5802    226.4808   1.0342504549e+02   1.9515819605e+01    0.2418183    0.1230377  68.57  0.001127597    2.324    0.570
        71  -8.7897    206.0067    225.4671   6.9202913321e+01  -7.1496383184e-01    0.2488069    0.1510167 -43.83 0.0009107021    1.844    0.458
        72  -8.1677    200.0658    225.6644   7.0342171213e+01  -1.7265974207e-02     0.195971    0.1525431 -33.96  0.000674478    1.360    0.265
        73  -9.0494     94.1272    224.1393   9.2868086261e+01   1.4534771281e+01    0.3614482    0.2206874  62.99  0.001750956    2.117    0.528
        74  -8.9555    216.4127    223.4002   6.6976214583e+01  -1.6505279506e+00    0.2172738    0.1876686 -37.76 0.0009601922    1.543    0.352
        75  -8.9240    180.2912    223.9161   7.3899215169e+01   2.7887428631e+00     0.214774    0.1925473  18.94 0.0006431322    1.255    0.203
        76  -8.6417    173.0967    223.1328   7.5228919408e+01   3.8761323019e+00    0.2018004    0.1717158 -81.13 0.0007074843    1.979    0.495
        77  -8.1296    113.9522    223.9500   8.8260152969e+01   1.1890891079e+01    0.2019515    0.1496884  59.70 0.0005430091    1.615    0.381
        78  -8.8136    104.8587    223.4382   9.0289507203e+01   1.3237420285e+01    0.3253243    0.2080274  73.27  0.001530286    2.429    0.588
        79  -8.0271     38.3548    224.2142   1.0580388531e+02   2.1223399067e+01    0.1744786    0.1043968  84.83 0.0005007657    1.743    0.426
        80  -8.4163    162.6775    222.3335   7.7262486300e+01   5.4277912377e+00    0.2306291    0.2202707  61.38  0.001514605    1.425    0.298
        81  -8.8163    158.9835    220.0587   7.7687157498e+01   6.3419113878e+00    0.2552477    0.2067009  72.94  0.001220932    2.018    0.505
        82  -8.9350    238.8618    221.3685   6.2795259225e+01  -3.9021120798e+00     0.236779    0.1362064 -36.09 0.0009552279    1.588    0.370
        83  -9.3100    192.3214    221.1454   7.1082680870e+01   1.6735190469e+00    0.2802333    0.2340374 -58.43   0.00109691    1.813    0.448
        84  -7.9549    140.7007    222.5796   8.2039228716e+01   8.4327552619e+00    0.1832961    0.1109855  39.19 0.0007069168    1.607    0.378
        85  -8.7936     82.8569    220.2427   9.5060630537e+01   1.6830866166e+01    0.3161032    0.1866607  71.72  0.001340696    2.375    0.579
        86  -8.2785     73.7512    221.1260   9.7308374013e+01   1.7801532296e+01    0.2378421    0.1139033  61.68 0.0009530345    2.919    0.657
        87  -8.1796     27.5807    220.7380   1.0800451723e+02   2.3082109054e+01    0.2231708    0.1052508 -70.08  0.001119889    2.087    0.521
        88  -9.2021    120.4433    218.9832   8.6091200751e+01   1.1977871430e+01    0.4501103    0.2403225  56.43   0.00185625    2.880    0.653
        89  -8.5342    209.9612    218.7146   6.7363168481e+01  -1.6723063667e-01    0.2113853    0.1540546 -49.46 0.0008920089    1.866    0.464
        90  -8.5717    249.0835    218.0500   6.0600936756e+01  -4.5372990587e+00    0.2041888    0.1541249  49.51  0.001297672    2.633    0.620
        91  -9.3215    132.8657    215.8227   8.2788559894e+01   1.0838451070e+01    0.4557274    0.3022111  72.84  0.001958036    2.881    0.653
        92  -8.7420     51.6211    217.1671   1.0215596227e+02   2.1318042561e+01    0.2565432    0.1761976  76.48 0.0008917772    1.506    0.336
        93  -8.7190    169.2499    215.8154   7.4843447592e+01   5.6697233858e+00    0.2505774    0.2072712 -73.11 0.0008527627    1.895    0.472
        94  -8.7342    142.8441    216.2346   8.0606275347e+01   9.3290314529e+00    0.2615744    0.1951539 -71.32 0.0009533819    1.928    0.481
        95  -8.3711    111.8666    217.0296   8.7812529801e+01   1.3579394692e+01    0.2145158     0.151278  75.08 0.0008536713    2.052    0.513
        96  -8.5611     62.0254    216.9055   9.9659520321e+01   2.0160314652e+01    0.2881554    0.1492699  59.42 0.0009950177    2.177    0.541
        97  -7.5300     18.5166    216.4794   1.0978958670e+02   2.4890526211e+01    0.1233292    0.1025645  66.01 0.0008100969    1.003    0.003
        98  -8.7629    232.3183    214.2696   6.2695885663e+01  -2.1629687731e+00    0.2275276    0.1791813 -40.78 0.0009615014    1.593    0.372
        99  -8.0266    154.5551    214.8099   7.7807511590e+01   7.9235544918e+00    0.1655041    0.1296503 -60.83 0.0005634032    1.657    0.397
       100  -9.0048     92.9820    213.6242   9.1850533377e+01   1.6909061416e+01    0.3805031     0.190819  53.99  0.001602302    2.447    0.591
       101  -9.3423     73.1898    211.7624   9.6426190480e+01   1.9925397391e+01    0.6670071    0.2383729  54.66   0.00209049    4.472    0.776
       102  -7.9825    224.8768    212.5487   6.3671024561e+01  -1.0388113901e+00    0.1843341    0.1235162 -35.15 0.0006738948    1.401    0.286
       103  -9.4431    213.8999    211.9627   6.5506852262e+01   3.8840698454e-01    0.2893033    0.2631494  44.18   0.00148306    1.677    0.404
       104  -9.3698    175.7400    210.1669   7.2560214048e+01   5.7616263399e+00    0.3685857    0.2838349  76.57  0.001721703    2.637    0.621
       105  -8.6175    161.6431    212.0283   7.5828951690e+01   7.4249326413e+00    0.2232968    0.1728875 -62.35  0.001242862    1.763    0.433
       106  -8.0394    106.6846    212.5855   8.8428651917e+01   1.5234200435e+01    0.1928372    0.1142868  40.89 0.0009353387    1.585    0.369
       107  -8.9697    204.2594    210.6144   6.7042490959e+01   1.8268399287e+00     0.229242    0.1832896 -44.68 0.0007785127    1.533    0.348
       108  -8.5889    148.0206    210.4608   7.8545205772e+01   9.6878331958e+00    0.2589493    0.2110824  86.06  0.001222854    1.895    0.472
       109  -9.1238    116.2723    210.0611   8.5791048354e+01   1.4397995429e+01    0.3383114    0.2225225  57.75  0.001375979    1.925    0.481
       110  -9.4219      6.7426    209.3051   1.1206082453e+02   2.7537640989e+01     0.511647    0.1475494  68.83   0.00165529    4.910    0.796
       111  -8.2977    192.2256    210.2112   6.9267337737e+01   3.4838918969e+00    0.1594273    0.1455639 -38.63 0.0005986045    1.386    0.279
       112  -8.5349     85.7992    209.6104   9.3091050162e+01   1.8757342265e+01    0.2604523    0.1650609  72.83  0.001217184    2.118    0.528
       113  -8.2542     46.6055    209.4754   1.0266993352e+02   2.3618745482e+01    0.2549776    0.1309254  70.53  0.001132493    2.341    0.573
       114  -8.3769    202.6147    219.7696   6.8896847361e+01   5.8212653095e-01     0.156348    0.1085739 -42.12 0.0003945321    1.588    0.370
       115  -9.1352    236.5327    208.1420   6.0950487160e+01  -1.7550364034e+00    0.2576617    0.2018411 -50.58  0.001162302    1.918    0.479
       116  -8.4128    185.7229    214.3067   7.1240874483e+01   3.6715974155e+00    0.2096741     0.154257 -48.87 0.0009908738    1.645    0.392
       117  -9.4936    246.4338    207.1290   5.9180626139e+01  -2.7307768721e+00    0.2575174    0.1669987 -29.26 0.0006043672    1.243    0.196
       118  -9.3941    250.1282    201.8630   5.7698636947e+01  -2.3916734267e+00     0.357839    0.1439255 -34.88  0.001203322    1.994    0.499
       119  -8.0880    156.5727    207.8320   7.6231101145e+01   8.9404100641e+00    0.1729837    0.1302053 -59.85 0.0006142656    1.702    0.413
       120  -8.2729    139.2229    207.8714   8.0110833034e+01   1.1486021628e+01    0.2503722    0.2017403  77.16  0.001283684    1.809    0.447
       121  -8.0112    126.4382    208.2398   8.3123405840e+01   1.3295466488e+01    0.1732536    0.1353003 -71.30 0.0005480028    1.613    0.380
       122  -9.1191     99.2701    205.6496   8.9267985380e+01   1.7777729004e+01    0.3981527    0.2492689  83.55  0.001150759    2.581    0.613
       123  -8.6009     56.3636    205.1767   9.9863050337e+01   2.3492626926e+01    0.3018051    0.1980129  74.09  0.001087376    1.662    0.398
       124  -8.7470     12.1941    206.6129   1.1065835000e+02   2.7686934110e+01    0.1569291    0.1177892  12.15 0.0009493937    1.660    0.398
       125  -8.9914    183.8789    203.8651   6.9819529938e+01   5.7266899981e+00    0.2793756    0.2492391  74.30     0.001272    1.767    0.434
       126  -8.1467    109.3256    204.9066   8.6707275724e+01   1.6500250157e+01    0.2495511    0.1331922 -67.83 0.0008522042    2.451    0.592
       127  -9.1423    194.8924    203.4873   6.7580959169e+01   4.2563938553e+00    0.2495858    0.2292618  17.33  0.001102365    1.287    0.223
       128  -9.7966    192.4956    197.1900   6.6923892549e+01   5.6762481389e+00    0.4750054    0.3645462 -78.47  0.002047734    2.667    0.625
       129  -9.6324    163.8279    202.7447   7.3797502044e+01   8.8345101769e+00    0.4132529    0.2837552  49.98   0.00106815    1.883    0.469
       130  -8.6926    131.2999    203.7174   8.1278374907e+01   1.3506378761e+01    0.2832823    0.2179768  67.34  0.001072107    1.780    0.438
       131  -7.6000     24.7151    204.6631   1.0757114577e+02   2.6996642634e+01    0.1222974   0.09146636 -46.04 0.0006540008    1.627    0.386
       132  -9.2367    243.1281    200.4818   5.8556466557e+01  -1.3965295829e+00    0.3372416    0.1381501 -37.89  0.001034064    2.041    0.510
       133  -8.4849    210.8827    201.5516   6.4238172959e+01   2.4275205523e+00    0.2252388    0.1567442 -50.59 0.0007623613    1.862    0.463
       134  -8.8054    140.7056    201.0170   7.8654261835e+01   1.2642335091e+01    0.3637811     0.243615  63.87  0.001397169    2.428    0.588
       135  -8.5042     80.2075    201.1002   9.3412814031e+01   2.1431448402e+01    0.3523056    0.1848519  62.90  0.001403113    2.714    0.631
       136  -8.3206     48.4139    202.1724   1.0154611991e+02   2.5112278405e+01    0.1903855    0.1169024  86.66 0.0009409336    1.772    0.436
       137  -8.1164    222.0160    200.9922   6.2158974668e+01   1.0819946021e+00    0.1715809    0.1425975 -48.81  0.000615999    1.645    0.392
       138  -9.3526    149.7684    198.6169   7.6183158579e+01   1.1747372826e+01    0.4193757     0.303603  73.75  0.001512324    2.468    0.595
       139  -8.8025    123.7801    199.0291   8.2312596894e+01   1.5623028173e+01    0.3202182    0.2293938  69.33  0.001315665    2.023    0.506
       140  -9.3685    113.0262    198.3737   8.4823268234e+01   1.7381165747e+01    0.4572084    0.2697749  63.00  0.001863893    2.685    0.628
       141  -9.2177    237.1299    198.5950   5.9190875921e+01  -4.1039268932e-01    0.2156269    0.1427832 -41.30 0.0008392732    1.563    0.360
       142  -8.4507    177.0618    198.8255   7.0319329997e+01   7.6126158688e+00    0.1866508    0.1788366  37.87 0.0005300328    1.328    0.247
       143  -9.1937     88.7779    198.0415   9.0839437839e+01   2.0965473954e+01     0.416047    0.2687569  83.34  0.001588056    2.172    0.540
       144  -8.4692    202.2131    197.4858   6.5114356029e+01   4.2666980364e+00    0.2316022    0.1991087 -73.25  0.001105027    1.940    0.484
       145  -9.1892     61.4919    197.0269   9.7692086894e+01   2.4790919552e+01    0.4619678    0.2310473  65.25  0.001839427    2.727    0.633
       146  -8.4606     53.8492    196.5708   9.9603243013e+01   2.5816405922e+01    0.2805349      0.14641  63.78  0.001125138    2.295    0.564
       147  -7.4244     29.6338    197.3164   1.0580923996e+02   2.8251042663e+01    0.1462008   0.08012957  58.50 0.0007038831    1.775    0.437
       148  -8.3041     12.5134    196.6071   1.0997451105e+02   2.9991846958e+01    0.2356926    0.1020227  84.45  0.001030103    2.404    0.584
       149  -9.9198    245.9940    192.7686   5.6748701587e+01  -5.9487051794e-01    0.4664164    0.2101833 -40.15  0.001748602    1.936    0.484
       150  -8.7515    216.0367    195.4895   6.2225759379e+01   2.7317653919e+00    0.2387177    0.1868729 -56.08  0.001131449    1.868    0.465
       151  -8.1281    133.0904    195.8379   7.9567113180e+01   1.4878309146e+01    0.2046403    0.1861046  61.69 0.0006106965    1.287    0.223
       152  -8.8220    224.6893    193.7641   6.0405324029e+01   1.8797410184e+00    0.2954427    0.1430796 -44.19  0.001157151    2.079    0.519
       153  -7.3658    209.3241    195.6212   6.3459028374e+01   3.6080732771e+00    0.1163361     0.102717 -70.45 0.0007023346    1.834    0.455
       154  -8.8586    185.1372    194.6336   6.7918741823e+01   7.1907144360e+00    0.2352037    0.1960134 -59.53 0.0007056221    1.624    0.384
       155  -9.0183    160.7960    193.8996   7.2901800913e+01   1.0989616214e+01    0.2830237    0.2483378  83.04  0.001105495    1.637    0.389
       156  -8.2809    230.8867    193.8323   5.9371502155e+01   1.0817194107e+00    0.2286038    0.1240977 -44.16 0.0009125564    1.894    0.472
       157  -8.7728     76.9943    193.7609   9.3289396647e+01   2.3577784384e+01    0.2678406    0.2096721  74.48 0.0006050104    1.387    0.279
       158  -8.8795     43.8800    193.0399   1.0180760729e+02   2.7798300459e+01    0.4721421    0.2256849  65.70  0.001926639    2.610    0.617
       159  -8.2627    172.6815    191.7354   6.9953843107e+01   9.5866320110e+00    0.2401255    0.1662124 -66.16 0.0009549417    2.311    0.567
       160  -7.7571    241.4848    191.5548   5.7240812711e+01   1.2481879668e-01    0.1218812   0.09240634 -18.31  0.000118684    1.017    0.016
       161  -8.0530    198.8457    191.5820   6.4675878607e+01   5.7496150889e+00    0.1612766    0.1209253  40.88 0.0005721287    1.605    0.377
       162  -8.2068    179.1786    191.2526   6.8511967153e+01   8.6936045663e+00    0.1714976     0.157872 -54.67 0.0006854355    1.373    0.272
       163  -9.1764    139.4645    190.3220   7.7114310108e+01   1.5046510303e+01    0.3468263    0.2691467  81.39  0.001397113    1.962    0.490
       164 -10.3625     92.4613    188.7109   8.8558516271e+01   2.2615943130e+01     1.030892    0.2648169  42.80   0.00308107    3.969    0.748
       165  -7.9731     22.9491    192.0000   1.0706782312e+02   3.0168014526e+01    0.2002608   0.07154105  24.21 0.0007989232    2.918    0.657
       166  -8.7789      6.6530    189.5582   1.1097208019e+02   3.2155099699e+01    0.2319027     0.105263 -80.94  0.001099135    1.979    0.495
       167  -8.6018    237.2252    188.4635   5.7365114103e+01   1.1188945766e+00    0.2252669    0.1366942 -33.56 0.0005840976    1.349    0.259
       168  -8.9626    216.6148    187.8900   6.0734286884e+01   3.8982679641e+00    0.2710652    0.1933898 -47.53 0.0007826716    1.621    0.383
       169  -7.6692    210.2695    189.6141   6.2188150392e+01   4.4814080533e+00    0.1183341    0.0989623 -58.07 0.0005646997    1.705    0.414
       170  -8.3232    148.5066    189.1409   7.4803236308e+01   1.3863052762e+01    0.2158286    0.1937602  61.67  0.001091633    1.376    0.273
       171  -8.7319    129.2461    188.5166   7.9241050570e+01   1.7046870889e+01    0.2754674    0.2203071  71.76 0.0006917317    1.663    0.399
       172  -9.5918    120.7042    186.0740   8.0920751881e+01   1.8934269592e+01    0.5200023    0.3027285 -73.58  0.002045607    2.763    0.638
       173  -8.9309     34.3201    187.4229   1.0375621404e+02   3.0181975956e+01    0.5097185     0.215485  89.76  0.001935139    2.996    0.666
       174  -8.9346    191.6175    187.2497   6.5267922392e+01   7.5662409633e+00    0.2791608    0.2212513 -64.19  0.001407933    1.860    0.462
       175  -9.3469    155.9506    187.1983   7.2760707886e+01   1.3079138673e+01    0.3490762    0.2236895 -55.80 0.0007823332    1.824    0.452
       176  -9.1154     54.8894    186.8287   9.8252961232e+01   2.8059207200e+01    0.4806068    0.2315949  65.20   0.00148745    2.890    0.654
       177  -8.4070    230.8051    187.1017   5.8164823499e+01   2.1453196923e+00    0.1798299    0.1488055 -35.95 0.0005978516    1.313    0.239
       178  -8.7620    165.0194    186.7375   7.0672023609e+01   1.1737452757e+01    0.2554593    0.2262265 -70.04  0.000805901    1.482    0.325
       179  -9.1021    109.5372    185.9078   8.3710278987e+01   2.0713433678e+01    0.3825021    0.2758486  72.90   0.00111762    1.894    0.472
       180  -9.1376    249.4328    185.1976   5.4869299550e+01   1.2233577441e-01    0.2369407    0.1783712 -42.23  0.000935687    1.483    0.326
       181  -8.5663    202.6906    184.4652   6.2623309771e+01   6.4359042089e+00    0.2286079    0.1872951 -57.90 0.0007918407    1.660    0.398
       182  -8.5862    182.9272    184.6615   6.6515066119e+01   9.3504082285e+00    0.2572694    0.1850858 -47.21 0.0007658948    1.475    0.322
       183  -9.1273     66.6323    184.2839   9.4791710643e+01   2.7231984294e+01    0.3909014    0.2304239  62.71  0.001011872    2.026    0.506
       184  -8.7510    224.1499    183.3176   5.8581737311e+01   3.6281935374e+00    0.2292872    0.1539728 -36.44 0.0006487579    1.309    0.236
       185  -8.8401    210.1365    183.6772   6.1105368003e+01   5.5045192518e+00    0.2821795    0.1595094 -31.58 0.0009105619    1.573    0.364
       186  -8.9092    174.2478    183.3166   6.8054503731e+01   1.0952021821e+01    0.2762662     0.226081 -59.57  0.000727783    1.541    0.351
       187  -7.9732     11.6806    184.3514   1.0937164379e+02   3.3014540210e+01    0.1433814   0.07858507  61.89 0.0007047716    1.743    0.426
       188  -8.1830    196.8156    183.3537   6.3525255351e+01   7.4934198076e+00    0.1801333    0.1526324 -31.24 0.0003825358    1.150    0.130
       189  -9.2462     44.5109    182.0607   1.0050604924e+02   3.0433860011e+01     0.412095     0.236347  67.79   0.00114878    1.978    0.495
       190  -8.8457     19.4913    182.5130   1.0721621209e+02   3.2803761499e+01    0.2422747    0.1108482  87.09  0.001030643    2.330    0.571
       191  -8.0247      1.7592    183.5561   1.1183271015e+02   3.3978357919e+01    0.1731078    0.1010436  42.32 0.0009423658    1.613    0.380
       192  -8.4153    235.2119    180.7474   5.6276895038e+01   2.5776308897e+00    0.2245475    0.1453743 -31.11 0.0009411355    1.247    0.198
       193  -9.1754    147.5811    180.4299   7.3414559256e+01   1.5827025008e+01    0.3358204    0.2720369  76.48  0.001050811    1.778    0.438
       194  -7.7105     90.4868    181.4650   8.7976544299e+01   2.4630803169e+01    0.1427481    0.1378688 -13.11 0.0004245231    1.086    0.079
       195  -9.5902     25.5620    178.5307   1.0527170337e+02   3.3247581259e+01    0.6715308    0.2634536  75.94  0.002243989    3.914    0.745
       196  -8.0920    240.4908    179.9985   5.5301173779e+01   2.0165051818e+00    0.1916717   0.09854323 -37.36  0.001032287    1.597    0.374
       197  -8.7020    137.6620    179.2827   7.5547351202e+01   1.7701274269e+01    0.2922284    0.2323315  72.44  0.001149033    1.737    0.424
       198  -9.3262    191.4086    178.1519   6.3575454530e+01   9.2522690483e+00    0.2785731    0.2246906 -47.49 0.0006168519    1.369    0.269
       199  -8.5626    250.5204    172.7943   5.2451318269e+01   1.8589778254e+00    0.2362024    0.1325944 -33.81 0.0007893325    1.390    0.281
       200  -9.1328    249.0072    177.0248   5.3451950270e+01   1.4041291677e+00    0.2376031     0.201289 -38.27  0.001163579    1.366    0.268
       201  -8.2897    247.4569    173.5314   5.3041904352e+01   2.1314026592e+00    0.2234921    0.1269603 -35.19 0.0005806382    1.394    0.283
       202  -8.7860    205.1052    177.5804   6.0862926591e+01   7.2874537413e+00    0.2314475    0.1637637 -43.14 0.0005590806    1.400    0.286
       203  -8.2728    169.0971    178.1081   6.8151067901e+01   1.2790073208e+01    0.2064857    0.1774627  89.80 0.0007056762    1.703    0.413
       204  -8.6168    129.2204    177.0304   7.7191823439e+01   1.9587954480e+01    0.3424945    0.2398675 -87.41 0.0009987183    2.361    0.576
       205  -9.1036     36.0085    176.5467   1.0224037014e+02   3.2727788049e+01    0.5498742    0.2331092  71.33  0.001856191    3.724    0.731
       206  -8.4292    231.1245    176.7299   5.6189430339e+01   3.7573325994e+00    0.2153581    0.1435159 -40.36  0.000754716    1.388    0.280
       207  -8.4802    217.6923    176.8802   5.8477337967e+01   5.5855575444e+00    0.2284201    0.1594435 -47.91 0.0009485317    1.592    0.372
       208  -9.0785    183.0858    175.8087   6.4778346171e+01   1.0991330973e+01    0.3118106    0.2144433 -52.11 0.0009203213    1.648    0.393
       209  -8.2232     97.7044    177.3901   8.5394545477e+01   2.4533241899e+01    0.2033624    0.1398996  19.17 0.0009426482    1.625    0.385
       210  -8.6714     89.2751    176.8305   8.7573728628e+01   2.5933516578e+01    0.2855119    0.2059503  56.98 0.0007834864    1.524    0.344
       211  -9.9210     57.5394    173.1974   9.5844763095e+01   3.1155142515e+01    0.8902487    0.4117006  75.67  0.002650744    4.658    0.785
       212  -9.0733     12.8366    176.4384   1.0850061258e+02   3.4878886089e+01    0.3390569    0.1650189  64.45  0.001115225    2.121    0.528
       213  -8.1549    211.5506    176.0060   5.9391060273e+01   6.6160234080e+00    0.2010668    0.1122326 -38.80 0.0007333568    1.570    0.363
       214  -9.1885    158.8321    174.7781   6.9757888735e+01   1.5147517055e+01     0.390897    0.2766353  77.99  0.001364211    2.790    0.642
       215  -9.2279    104.4275    174.5785   8.3125564543e+01   2.4165209402e+01    0.5706951    0.3192249  62.01  0.001746466    2.882    0.653
       216 -10.6281     75.9610    170.1882   9.0213373735e+01   2.9498553234e+01     1.262625    0.4931046 -75.11  0.003584187    4.626    0.784
       217  -8.6779    224.5336    174.2592   5.6810616563e+01   5.0619306059e+00    0.2333749    0.1069368 -42.96 0.0007337605    1.989    0.497
       218  -7.8569    241.5108    173.5037   5.3939692592e+01   2.8977633534e+00    0.1249643    0.0962211 -23.16 0.0008105463    1.014    0.014
       219  -9.4839    175.6972    172.1078   6.5571217335e+01   1.2896933778e+01    0.3408979    0.2329561 -43.49  0.001094354    1.408    0.290
       220  -8.3894    143.0232    172.5215   7.2976012608e+01   1.8278159921e+01    0.2682922    0.2059323 -67.65 0.0007865711    1.633    0.388
       221  -8.3399    134.8122    171.5167   7.4769227423e+01   1.9886839028e+01    0.2737167    0.1976226 -70.13 0.0007365426    1.807    0.446
       222  -9.3308     45.3525    171.0838   9.9023510355e+01   3.3123092249e+01    0.4089963    0.2422049  71.92  0.001550077    1.976    0.494
       223  -8.4824    205.9113    170.2352   5.9284813499e+01   8.4628533794e+00     0.227936    0.1738211 -53.90 0.0006683585    1.596    0.373
       224  -9.6076    121.3892    170.0806   7.7869470829e+01   2.2469611310e+01    0.3967611     0.300004 -86.10  0.001035562    1.825    0.452
       225  -8.7276    230.5034    169.6326   5.4945085208e+01   4.9933298273e+00    0.2467338    0.1461413 -31.34  0.001034372    1.407    0.289
       226  -8.2864    198.6392    170.0847   6.0603203674e+01   9.6078170269e+00    0.2074922    0.1568294 -50.93  0.001046324    1.497    0.332
       227  -8.5068    149.9036    169.4256   7.0743574601e+01   1.7776445700e+01    0.2655815    0.2069665 -68.32 0.0009743465    1.642    0.391
       228  -8.5219    244.6269    169.0738   5.2637681220e+01   3.1846204001e+00    0.1904451    0.1249959 -41.75 0.0005747147    1.413    0.292
       229  -8.2640    237.2804    169.0956   5.3767113233e+01   4.1546795512e+00    0.1816202    0.1306202 -34.05 0.0008602781    1.159    0.137
       230  -9.1260    167.0924    168.3940   6.6663194208e+01   1.5068293851e+01    0.3248486     0.252783  65.86 0.0008678911    1.859    0.462
       231  -9.0956    156.9994    168.5487   6.8936114079e+01   1.6750213936e+01    0.2545405      0.19917 -40.43  0.001329192    1.226    0.184
       232  -8.2175     88.8429    168.7724   8.6372140749e+01   2.7983334983e+01    0.2081038    0.1692486  64.73 0.0006707403    1.349    0.259
       233  -8.5028    218.7875    167.8706   5.6549637303e+01   6.9544401815e+00    0.2493739    0.1563876 -44.69 0.0007444467    1.548    0.354
       234  -8.9770    191.9291    166.4577   6.1161570663e+01   1.1339057460e+01     0.286787    0.1787624 -44.17 0.0005087506    1.524    0.344
       235  -8.5179    185.0151    166.4685   6.2527828174e+01   1.2461043065e+01    0.2506333    0.1817866 -52.47 0.0004120282    1.541    0.351
       236  -8.6413    111.3651    166.8980   7.9893175373e+01   2.4881078791e+01    0.2809017    0.2240577  83.81  0.001033301    1.594    0.373
       237  -9.2435     20.5566    165.8277   1.0549721094e+02   3.6926866696e+01      0.40541    0.1961174  62.68  0.001348044    2.303    0.566
       238  -8.2959     13.3169    167.6540   1.0768171646e+02   3.7057853758e+01     0.145414   0.08411163  63.10 0.0007048427    1.722    0.419
       239  -9.7010    136.9695    164.2165   7.2798736326e+01   2.1148035475e+01    0.6416756    0.3370606  55.01  0.002349127    2.851    0.649
       240  -9.8628     95.0156    162.2316   8.3501319495e+01   2.8658236454e+01    0.9003612    0.5509486  85.20  0.003163044    2.917    0.657
       241  -8.3197    233.8802    164.5812   5.3437800145e+01   5.3480977148e+00     0.237594    0.1358482 -46.74 0.0005842774    1.778    0.438
       242  -9.4547     33.3265    162.9316   1.0153298132e+02   3.6496793113e+01    0.5553591    0.2391241  55.61  0.002126146    2.764    0.638
       243  -9.2952    246.0239    162.9394   5.1275849470e+01   3.9600284445e+00    0.2458186    0.1363082 -36.52 0.0004558277    1.429    0.300
       244  -8.5857    240.1030    163.7290   5.2312031179e+01   4.6298920135e+00    0.2172683    0.1372268 -40.67 0.0006241295    1.383    0.277
       245  -9.7413    241.9261    154.1502   5.0198572280e+01   5.9100211291e+00    0.3670006    0.2766439 -87.35  0.001990602    2.758    0.637
       246 -10.1882    242.5634    149.9994   4.9299815772e+01   6.4852549389e+00    0.3201077    0.2742293  87.84  0.002075434    1.844    0.458
       247  -9.6992    250.2057    157.4998   4.9641708345e+01   4.2538998231e+00    0.3180204    0.1370998 -38.55 0.0008813377    1.823    0.451
       248  -9.1985    246.5664    155.4630   4.9775153162e+01   5.0617841487e+00    0.1932958    0.1535095 -29.89    0.0006081    1.047    0.045
       249  -8.6298    212.9178    163.5838   5.6717583210e+01   8.5691099219e+00    0.2487894    0.1690199 -41.38 0.0006118814    1.344    0.256
       250  -8.5222    159.3904    164.0371   6.7479039298e+01   1.7283031675e+01    0.2454161    0.2078489  70.91  0.000987127    1.578    0.366
       251  -8.3816     56.7275    163.7215   9.4784915280e+01   3.3690515614e+01    0.3813356    0.1923574   1.79  0.001219809    4.213    0.763
       252  -8.5224    204.8354    162.3326   5.7905276847e+01   1.0040639733e+01    0.2268959    0.1625124 -44.45 0.0006124466    1.359    0.264
       253  -9.4625      3.5410    162.2695   1.0997769117e+02   3.9151989113e+01    0.4283426    0.1976766  50.82  0.001303159    2.144    0.534
       254  -8.8400    151.7684    160.8513   6.8564349925e+01   1.9291513134e+01     0.341421    0.2543664  89.74  0.001106498    2.232    0.552
       255  -9.1103    177.4904    160.4528   6.2826095613e+01   1.4891945593e+01    0.2674694    0.2381386 -65.04 0.0009258006    1.373    0.272
       256  -8.7379     60.9794    160.0451   9.2995158964e+01   3.4110949181e+01    0.4279247    0.2178024  64.17   0.00128105    2.971    0.663
       257  -8.6525    227.5285    158.9642   5.3354281858e+01   7.1800811158e+00    0.2502618    0.1783487 -51.70 0.0009976604    1.615    0.381
       258  -8.5595    237.2738    158.8056   5.1797215158e+01   5.8114698193e+00    0.1977674    0.1330656 -45.22 0.0007010276    1.453    0.312
       259  -8.3672    128.0164    158.7795   7.3942553579e+01   2.3950331302e+01    0.2620216    0.2015703 -72.93 0.0008249184    1.616    0.381
       260  -9.5897    105.7706    157.7009   7.9651825728e+01   2.8029556868e+01    0.4873729    0.3364973  78.02  0.001194562    2.184    0.542
       261  -8.5781    196.4682    157.7624   5.8518149281e+01   1.2221865972e+01    0.2432105    0.2095684 -64.68   0.00102476    1.484    0.326
       262  -8.2467    188.0694    157.4395   6.0064895261e+01   1.3681444307e+01    0.2258709    0.1805711 -50.35 0.0007207544    1.335    0.251
       263  -9.2673    167.7150    157.1408   6.4201768282e+01   1.7255450442e+01    0.3458335    0.2677042 -88.61  0.001170679    2.081    0.520
       264  -8.4985     79.6600    157.7138   8.7100446139e+01   3.2140518688e+01    0.2588492    0.2089793  17.28 0.0008302619    1.366    0.268
       265  -9.4171     81.6926    154.7052   8.5970275619e+01   3.2608773312e+01    0.5134664    0.3182184  70.28  0.001663593    2.379    0.580
       266  -8.3738    218.0361    156.5117   5.4425564325e+01   9.0174836065e+00    0.2521665    0.1602192 -50.05  0.001020075    1.699    0.412
       267  -8.7496    157.8794    156.3575   6.6215756987e+01   1.9164687934e+01    0.2708095    0.2043615 -61.63  0.001055149    1.579    0.367
       268  -9.2293    119.5163    154.7529   7.5332765144e+01   2.6385066743e+01    0.4320112    0.2895914 -78.56  0.001285331    2.246    0.555
       269  -9.2492     49.7646    155.0758   9.5631850625e+01   3.6786260075e+01    0.4474825    0.2240358  57.23  0.001740702    2.509    0.601
       270  -8.0165    204.6181    154.8761   5.6423712983e+01   1.1421582486e+01    0.1930325    0.1140397 -48.01 0.0008517363    1.702    0.412
       271  -8.5899    144.7842    154.7126   6.8924090582e+01   2.1876092254e+01    0.2686863    0.1989229 -78.03 0.0009081243    1.979    0.495
       272  -8.0159    232.9423    153.9016   5.1504428279e+01   7.2313656466e+00    0.1851208    0.1434224 -58.75 0.0006671163    1.679    0.404
       273  -9.6218    132.8055    152.7922   7.1471319652e+01   2.4473896868e+01    0.4887515    0.3452541  69.82  0.001674441    2.120    0.528
       274  -9.1700    133.4962    148.0290   7.0267909168e+01   2.5437619450e+01    0.3944619      0.23383 -39.06  0.001669558    1.717    0.418
       275  -9.4419     67.9642    153.4500   8.9853339256e+01   3.4903394326e+01    0.4401157    0.2710264  64.52  0.001496279    2.099    0.524
       276  -9.6790     29.5468    150.6051   1.0123291000e+02   4.0095405928e+01    0.5083624    0.2447809  68.83  0.001912961    2.808    0.644
       277  -9.2422     19.9845    152.2108   1.0432649651e+02   4.0515551699e+01    0.2183873    0.1653974  67.70 0.0009006127    1.306    0.234
       278  -8.3860     10.9568    153.0000   1.0710014445e+02   4.1013680881e+01    0.2009044   0.07734957  18.92 0.0008046345    2.958    0.662
       279  -9.2418      2.7657    150.7782   1.0932646822e+02   4.2151800242e+01     0.398735     0.161493 -77.85  0.001715565    2.112    0.527
       280  -8.0101    182.4397    150.9539   5.9810295757e+01   1.5904408567e+01    0.2156277    0.1288598 -43.56 0.0005828727    1.546    0.353
       281  -8.7863     98.3244    150.6599   8.0357158416e+01   3.1005538377e+01      0.31518    0.2417458  75.08 0.0008683922    1.649    0.393
       282  -9.5362    248.9191    149.0922   4.8219007196e+01   5.7419068321e+00    0.2941153    0.1427748 -37.72 0.0007393985    1.612    0.380
       283  -8.8890    189.3951    149.7878   5.8191873389e+01   1.4918813207e+01    0.2669068    0.2146036 -65.79 0.0008066015    1.600    0.375
       284  -8.0954    162.6359    150.3425   6.3855045695e+01   1.9571801549e+01    0.2144323    0.1778834 -85.30 0.0006342925    1.659    0.397
       285  -8.1806    213.0131    149.3663   5.3819053139e+01   1.1054161283e+01      0.17674    0.1611651 -23.26 0.0004857912    1.103    0.094
       286  -8.3450    198.8165    148.9543   5.6241158080e+01   1.3465826903e+01    0.2050977    0.1711043 -53.49 0.0005544963    1.327    0.246
       287 -10.0434     89.3361    146.1728   8.2087601690e+01   3.3600245306e+01    0.7209402    0.4267978  87.53  0.002434158    3.336    0.700
       288  -9.8834     39.9470    147.7845   9.7635700865e+01   3.9807435613e+01    0.5581913    0.2661165  57.24  0.002133342    2.687    0.628
       289  -9.4905    233.5021    147.3419   5.0119062040e+01   8.2318558872e+00    0.2678682    0.1663655 -33.99  0.000893287    1.317    0.241
       290 -10.8534     55.1232    143.1086   9.2114263541e+01   3.9303508429e+01      1.16636    0.6439151 -74.68  0.003846184    1.953    0.488
       291  -8.3206    223.3313    146.8252   5.1596739661e+01   9.8655467291e+00    0.1861105    0.1816689  75.25 0.0005912259    1.337    0.252
       292 -10.3752    148.8905    144.8219   6.5782848322e+01   2.3292558428e+01    0.5603005    0.4025135 -85.01  0.001572263    2.324    0.570
       293 -10.2385    106.7992    143.6945   7.6495780853e+01   3.1284562523e+01    0.8545685    0.5811419 -74.95  0.002398201    1.935    0.483
       294  -9.2529     13.5604    146.1159   1.0566088247e+02   4.2621656754e+01    0.3493604    0.2084015  61.27  0.001127559    1.772    0.436
       295  -8.2288    206.9497    146.3009   5.4225938014e+01   1.2590298412e+01       0.1816    0.1647784 -25.72  0.000530837    1.076    0.071
       296  -8.2529    175.7662    146.0313   6.0100959117e+01   1.8068163835e+01    0.2182815    0.1870071 -63.09 0.0006872946    1.361    0.265
       297  -9.7810    139.2217    144.8434   6.8128660172e+01   2.5098310116e+01    0.4340783    0.2875483 -69.17  0.001421776    2.131    0.531
       298 -10.1840    240.2546    144.9752   4.8650131904e+01   7.6253639304e+00    0.9814196    0.1781144 -35.09  0.002306231    7.945    0.874
       299  -9.2460    242.6819    142.6669   4.7847341332e+01   7.6446507493e+00    0.2741881    0.1535255 -30.74 0.0008385542    1.541    0.351
       300  -9.3692    242.5070    139.5025   4.7247520409e+01   8.1786062912e+00    0.2678509    0.1951021 -58.03   0.00160123    1.680    0.405
       301  -9.8674    124.9311    141.9280   7.1135310064e+01   2.8431595735e+01    0.6710042    0.3886161 -64.03  0.002077455    2.250    0.556
       302  -8.9094    247.0895    143.6400   4.7419115852e+01   6.8574235927e+00    0.2394685    0.1418439 -32.50  0.000577199    1.368    0.269
       303  -8.0011    250.4702    140.5332   4.6352666333e+01   6.8689858308e+00    0.1478526     0.114596  21.47 0.0007086362    1.589    0.371
       304  -8.7449    165.7139    143.8711   6.1752662869e+01   2.0351931993e+01    0.2892976    0.2333653  74.95  0.001063216    1.709    0.415
       305  -7.8238    194.2874    143.6674   5.5949275830e+01   1.5230333241e+01     0.135406    0.1072187 -66.06 0.0003510472    1.623    0.384
       306  -9.0547     78.1156    146.8675   8.5600765575e+01   3.5160591103e+01    0.3539313    0.2309417  86.78  0.001007146    2.176    0.540
       307  -7.8372    230.6407    142.2975   4.9539808989e+01   9.5015964899e+00    0.1226362   0.09559649 -64.37 0.0007034162    1.707    0.414
       308  -9.8305     73.3172    129.2643   8.3611404421e+01   4.0442014694e+01    0.4826961    0.2855304 -70.05  0.001852858    1.928    0.481
       309 -10.6724     69.4691    140.7477   8.7134377643e+01   3.8013224025e+01    0.5966728    0.4225967  78.26  0.002232779    1.792    0.442
       310  -9.4047     70.6005    133.8354   8.5432785759e+01   3.9656451989e+01    0.5102558     0.267945   5.59  0.001603412    3.906    0.744
       311  -9.3492      2.5693    141.2953   1.0859710633e+02   4.4626203108e+01     0.416261    0.1998246  74.25   0.00141082    2.293    0.564
       312  -8.4031    181.9554    141.2189   5.7786050243e+01   1.7898305470e+01    0.2118969    0.1894995 -64.15 0.0005442481    1.288    0.224
       313  -8.3657    134.0000    140.0041   6.8346972540e+01   2.7176119018e+01    0.2599924   0.08500278 -48.20 0.0008041447    2.954    0.662
       314 -10.0083     23.5829    138.1287   1.0158960434e+02   4.3937782720e+01    0.5477335    0.2621077  58.96  0.001925583    2.616    0.618
       315  -7.5476    235.3159    138.6347   4.8104736220e+01   9.3945621343e+00    0.1276785    0.0901978 -58.95   0.00048344    1.771    0.435
       316  -7.9186    218.6159    138.2655   5.0586077126e+01   1.2091481115e+01    0.1861206    0.1089224 -32.88 0.0007763366    1.513    0.339
       317  -8.2641    207.7142    137.8666   5.2305727858e+01   1.3981312207e+01    0.2455116    0.1639897 -52.45 0.0008909032    1.591    0.372
       318  -8.5327    197.4687    137.1173   5.3942471094e+01   1.5897103551e+01    0.2687097    0.1687246 -49.38 0.0008452415    1.581    0.368
       319  -8.3884    172.1849    137.9335   5.9038861708e+01   2.0358101423e+01    0.2232371    0.1884524 -64.98 0.0007056063    1.375    0.273
       320  -9.2389    140.1046    136.5670   6.6024609900e+01   2.6785900190e+01    0.3235826    0.1957452 -29.54  0.001312072    1.982    0.496
       321 -10.4596     83.2716    133.1814   8.1259001490e+01   3.7886424026e+01     0.659039    0.4157324 -58.97  0.001490998    1.557    0.358
       322  -8.6710    250.7945    129.9272   4.4240309621e+01   8.4837158782e+00    0.3775076   0.08940682 -36.29  0.001309198    3.687    0.729
       323  -9.0723    248.4835    134.7471   4.5490573975e+01   8.0631029777e+00    0.2844353    0.1650054 -40.26 0.0008488792    1.365    0.267
       324  -8.6320    246.9307    130.1154   4.4784023275e+01   9.0228319154e+00    0.2576918    0.1370233 -38.77 0.0006596582    1.473    0.321
       325  -8.1975    162.7840    136.1700   6.0646580725e+01   2.2502700492e+01    0.2237281    0.1985874 -62.13 0.0008024276    1.235    0.190
       326  -9.0087    150.9100    135.6722   6.3219316529e+01   2.4895395373e+01    0.3235465    0.2483212  19.37  0.001560434    1.517    0.341
       327  -9.4956     39.1387    135.7725   9.6142454092e+01   4.3091802889e+01    0.3008111    0.2224868  70.13 0.0008110217    1.493    0.330
       328  -7.8407    231.4851    133.9753   4.7720183389e+01   1.0757474394e+01    0.1968632     0.106369 -37.49 0.0003815972    1.512    0.339
       329  -8.6742    179.4285    133.8060   5.6625305159e+01   1.9821364111e+01    0.2628051    0.2177041 -69.09 0.0007563719    1.466    0.318
       330  -8.9658    112.8735    133.0083   7.2389506493e+01   3.2783551513e+01    0.3711935    0.2798592  81.96 0.0009206063    1.862    0.463
       331  -8.2720    237.4505    133.2180   4.6704926388e+01   9.9557066895e+00     0.182588   0.09880333 -46.31 0.0006522853    1.666    0.400
       332  -9.3006    143.1983    131.5804   6.4093899683e+01   2.7290086809e+01    0.3605765    0.2622481 -65.75 0.0007420426    1.681    0.405
       333 -10.0595    132.2967    130.4427   6.6547967563e+01   2.9678702597e+01    0.6914506    0.4080247 -59.34  0.001408708    1.999    0.500
       334 -10.2110     97.8423    129.6786   7.5995924643e+01   3.6315549383e+01    0.7551326    0.2627608 -51.79  0.002168782    2.730    0.634
       335 -10.2827     12.8147    128.3920   1.0397180265e+02   4.7354255182e+01    0.7017827    0.3301109  88.66  0.002359511    2.417    0.586
       336  -8.1349    204.7924    130.1516   5.1133844455e+01   1.5879207277e+01     0.207103    0.1698971 -51.31 0.0006283785    1.230    0.187
       337  -7.8872    192.6561    129.8647   5.3210016491e+01   1.8120354859e+01    0.2043071    0.1166689 -48.18 0.0004765654    1.687    0.407
       338  -9.4576    168.3658    129.3643   5.7864669975e+01   2.2823893875e+01    0.2964024    0.2338652 -77.58 0.0007986468    1.694    0.410
       339  -9.0504    161.8359    130.1287   5.9446604438e+01   2.3941182790e+01    0.2109603    0.1750383 -10.20 0.0004588043    1.349    0.259
       340  -9.2416    152.9062    129.1345   6.1214731178e+01   2.5906966819e+01    0.3948993    0.2607867 -61.73 0.0009830768    1.866    0.464
       341  -7.9436      1.4183    130.1806   1.0795121134e+02   4.7597329850e+01    0.1907524    0.1104768  87.68  0.000934091    1.648    0.393
       342  -7.6640    220.5208    129.5263   4.8447728629e+01   1.3286017226e+01    0.1339774    0.1117407 -36.59 0.0001313201    1.020    0.020
       343  -8.1780    211.5027    128.9740   4.9760673782e+01   1.4915764326e+01    0.2094561    0.1156811 -42.17 0.0007169703    1.557    0.358
       344  -8.0530    186.6405    129.3233   5.4205766037e+01   1.9339051250e+01      0.14404    0.1113043 -75.55 7.935931e-05    1.775    0.437
       345 -10.7747     45.1036    123.4736   9.2038123863e+01   4.5713198128e+01     1.222219     0.618677  73.40  0.003846951    4.115    0.757
       346 -10.5380     60.1359    124.7511   8.7077657516e+01   4.3502042884e+01    0.8624485    0.5060692  81.71  0.003084867    2.951    0.661
       347  -9.8586    118.0510    124.4983   6.8908177547e+01   3.3819612750e+01    0.6496323    0.4697975 -60.39  0.001865238    1.497    0.332
       348  -7.8968    228.5114    125.4802   4.6399074371e+01   1.2650334741e+01    0.1316724    0.1077487 -38.65 0.0008100275    1.033    0.032
       349  -8.8545    179.2719    124.5152   5.4514093519e+01   2.1670237120e+01    0.2808146    0.2249807 -64.33 0.0007919365    1.435    0.303
       350 -10.2228     28.5909    122.1608   9.7646627812e+01   4.7751004622e+01    0.7914687    0.3764881  70.25  0.002687972    3.670    0.728
       351  -7.4051    244.3367    124.1925   4.3945717864e+01   1.0353451675e+01    0.1809188   0.09105326 -44.11 0.0005133335    1.646    0.392
       352  -7.9692    188.6020    123.7862   5.2573011643e+01   2.0021988965e+01    0.2018545    0.1214324 -49.51 0.0004161082    1.628    0.386
       353  -8.4750    135.5864    124.2100   6.4194466678e+01   3.0429225915e+01    0.2192632    0.1409961 -35.82 0.0005399264    1.608    0.378
       354  -8.9106     85.0647    122.5573   7.8314221410e+01   4.0288657898e+01    0.5002993    0.2578204  16.07  0.001627643    3.364    0.703
       355  -7.8372    195.0081    121.9627   5.1000393604e+01   1.9155313026e+01    0.1719739    0.1439136 -38.53 0.0003992264    1.054    0.051
       356  -8.5999    171.9153    121.3514   5.5232553234e+01   2.3733425718e+01     0.241941    0.1888301 -51.23 0.0004466465    1.260    0.206
       357  -9.5662    158.5752    121.3165   5.8047865392e+01   2.6413351170e+01    0.3352542    0.2595464 -75.70  0.001241682    1.689    0.408
       358  -8.5703    167.3582    121.1994   5.6134811013e+01   2.4671435573e+01    0.2242035    0.1279091 -50.81  0.000947919    1.782    0.439
       359 -10.1727    141.5922    117.8083   6.1106503413e+01   3.0614910602e+01     0.668038    0.3298489 -51.57  0.001505266    2.126    0.530
       360  -9.7673     71.1357    118.5476   8.1988495112e+01   4.3531102031e+01    0.5696679    0.3126007 -56.40  0.001656265    1.726    0.421
       361  -9.6634    130.7125    118.2385   6.3945640714e+01   3.2738995275e+01    0.3883997    0.2904654 -82.39  0.001046206    1.894    0.472
       362  -9.7677      3.0617    117.0254   1.0602515953e+02   5.0950462691e+01    0.5835195    0.2617086  66.70  0.002297244    2.994    0.666
       363  -7.8023    231.4736    117.5114   4.4312938842e+01   1.3481773805e+01    0.1312137    0.1055121 -43.97 0.0008086497    1.082    0.076
       364  -8.2774    185.8076    115.8055   5.1229377725e+01   2.2062930192e+01    0.1957552    0.1584017 -61.32 0.0004815598    1.333    0.250
       365  -9.8761    109.3490    114.0501   6.8743193651e+01   3.7948283299e+01    0.5116654    0.3471575 -72.95  0.001460907    2.065    0.516
       366  -8.6957    250.0610    114.7417   4.1328995275e+01   1.0958976429e+01     0.163626    0.1428385 -36.33  0.001141259    1.123    0.109
       367  -8.2153    193.0854    115.0473   4.9748378761e+01   2.0791973719e+01    0.2137188    0.1590909 -65.02 0.0004501157    1.590    0.371
       368 -10.1588     92.6636    112.2610   7.3360667756e+01   4.1507961505e+01    0.5812104    0.3465192 -65.95  0.001460126    2.125    0.529
       369  -9.8417     78.7856    112.0803   7.7858528888e+01   4.3951892273e+01    0.5797953    0.3949783 -86.79  0.001686351    2.225    0.550
       370  -8.4807     79.0844    104.7124   7.5876528941e+01   4.5713943311e+01    0.3265242    0.1965207   3.90  0.001150739    3.006    0.667
       371  -8.3411    167.4825    114.0403   5.4364034474e+01   2.6072570868e+01     0.226824    0.1372965 -41.75 0.0005231414    1.531    0.347
       372 -10.1962    133.7168    109.2723   6.0851409940e+01   3.4083243236e+01    0.6745279    0.3078716 -49.12  0.002218295    2.210    0.547
       373 -10.0928    121.7242    112.1784   6.4765591748e+01   3.5916442482e+01    0.3935627    0.3246168  86.27 0.0005345522    1.528    0.346
       374  -8.5477    174.8275    111.5810   5.2291275706e+01   2.5055075641e+01    0.2806054    0.1751674 -55.83 0.0005945218    1.765    0.433
       375  -8.8730    159.1517    111.5825   5.5504790441e+01   2.8279610142e+01    0.2569249    0.1930232 -52.05 0.0005571223    1.320    0.243
       376 -10.2072     66.5248    109.5625   8.1484666862e+01   4.6510023791e+01    0.6865426    0.3105091 -60.44  0.002113953    2.272    0.560
       377  -9.8844     14.4068    110.6116   1.0105921535e+02   5.1933845755e+01     0.524817     0.281506  84.69  0.001945588    2.295    0.564
       378  -7.6504    199.7011    111.6949   4.7848703429e+01   2.0133511598e+01    0.1341853    0.1054697  -6.65 0.0004906817    1.589    0.371
       379 -11.1083    248.5813    104.9947   3.9554290793e+01   1.2692452212e+01    0.7331538    0.2208006 -36.87  0.002983779    2.719    0.632
       380  -8.9597    110.0162    107.1024   6.6709207356e+01   3.9418273324e+01    0.4591966    0.2634875  17.24  0.001529579    3.253    0.693
       381  -9.6334    139.9131    104.2993   5.7998304626e+01   3.3826285109e+01    0.4647188    0.2978374 -60.39    0.0014721    1.881    0.468
       382 -10.7219     22.7372    102.3428   9.6501349843e+01   5.3464145124e+01    0.7713658    0.4162341  73.51  0.002642486    2.921    0.658
       383  -9.6110    150.7103    103.0490   5.5158073896e+01   3.1774677568e+01    0.4965907    0.2909413 -62.80  0.001489429    2.405    0.584
       384 -10.7738    108.9834     98.6183   6.4663210495e+01   4.1528132650e+01    0.9035549    0.5170421  67.07  0.001577336    3.321    0.699
       385  -9.2161    107.6142     92.6147   6.3335813297e+01   4.3116149668e+01    0.6934726      0.36049  26.14  0.002344338    3.098    0.677
       386 -10.5211     45.7971    102.0998   8.7412679018e+01   5.1203174310e+01    0.8071015    0.4642118  66.58  0.003040639    3.010    0.668
       387  -9.3085     45.8680     92.6487   8.5125758922e+01   5.3569571201e+01    0.5936825    0.3203032 -15.53  0.002155524    3.134    0.681
       388  -8.5962    166.7686    103.9465   5.1984807013e+01   2.8187830054e+01    0.2662463    0.1869687 -56.93  0.000593024    1.515    0.340
       389  -8.8657     94.8017    103.7457   7.0425797629e+01   4.3138662344e+01    0.4667138    0.2299161  24.25  0.001533643    3.168    0.684
       390  -9.3014      6.5503    102.5759   1.0289337444e+02   5.4519594577e+01    0.2908282    0.1901238  77.42 0.0009067899    1.739    0.425
       391  -7.9830    175.5123    101.9712   4.9787774758e+01   2.6731881689e+01    0.2209339    0.1327503 -41.83 0.0004655116    1.523    0.344
       392 -10.2500    128.7887    100.8741   5.9843118677e+01   3.6911928075e+01    0.5627038    0.3520502 -34.79  0.001691066    1.686    0.407
       393  -8.3405    159.9101    100.9223   5.2612631895e+01   3.0225315230e+01    0.2315982    0.1719308 -68.07 0.0005791205    1.618    0.382
       394  -9.2600     82.0729     99.8094   7.3536791415e+01   4.6377336416e+01    0.4170344    0.2804248 -70.40  0.001093794    1.935    0.483
       395  -9.2485     95.0816     96.8755   6.8417789045e+01   4.4668073285e+01    0.3157231    0.2467478 -68.71 0.0006730355    1.514    0.340
       396 -10.1807     64.0211     95.6931   7.8867725480e+01   5.0323297107e+01    0.6017702    0.4014471  84.25  0.001666639    2.629    0.620
       397  -8.8191    151.4247     94.8717   5.2818578626e+01   3.3230186648e+01    0.2702897    0.1933122   9.81 0.0008799428    2.166    0.538
       398  -8.2605    164.9461     93.9308   4.9767908487e+01   3.0469157009e+01    0.2282528    0.1712151 -72.57 0.0004792689    1.618    0.382
       399  -8.3221    189.2569    107.6125   4.8670752056e+01   2.2898251970e+01    0.2728151    0.1493277 -48.45 0.0008803259    1.741    0.425
       400  -7.4067    188.6822     93.3550   4.5331723431e+01   2.5556851993e+01    0.1485094    0.1014643 -66.29 0.0007045942    1.748    0.428
       401  -8.4809    176.5962     92.9080   4.7309301148e+01   2.8160969105e+01    0.2853993    0.1568401 -51.13  0.001086277    1.842    0.457
       402  -9.7108    139.0717     91.5361   5.4699478619e+01   3.6590128744e+01     0.541912    0.2683098 -47.04  0.001380312    2.011    0.503
       403 -10.3551    123.8905     90.9100   5.8302429215e+01   4.0032475793e+01    0.5500727    0.4638675  32.51  0.001104986    1.263    0.208
       404  -9.5706      5.2843     91.7909   1.0178029776e+02   5.7352905757e+01    0.3536396    0.1971146  51.26  0.001076283    2.264    0.558
       405  -8.0559    157.6858     91.3595   5.0548063520e+01   3.2528313199e+01    0.2246496    0.1664684 -72.60 0.0007060043    1.667    0.400
       406  -9.4051     34.8148     89.6658   8.8934197343e+01   5.5569271618e+01    0.4314032    0.2721165  86.39  0.001533279    2.441    0.590
       407  -8.0487    151.0168     88.9795   5.1301943716e+01   3.4443683878e+01    0.2321517    0.1731289 -68.72 0.0005332938    1.594    0.373
       408 -10.1608     86.4656     85.7632   6.7962881435e+01   4.8788795322e+01    0.6601161    0.4152169 -58.95  0.001811941    1.861    0.463
       409  -7.5984    164.0000     86.9220   4.8104114499e+01   3.1957752615e+01    0.2351776   0.07885212 -38.96 0.0004917349    2.819    0.645
       410  -9.7423     48.6733     84.1746   8.1741351252e+01   5.5270623965e+01    0.5463057    0.3722809  80.42  0.001914027    2.485    0.598
       411  -9.8370    104.7984     82.9311   6.1256196173e+01   4.5736066395e+01    0.4750968    0.3244357 -66.60 0.0009812162    1.988    0.497
       412  -9.0636    105.5200     76.6719   5.9077828810e+01   4.6841285302e+01    0.4609148    0.2641002  22.57  0.001650048    2.957    0.662
       413  -8.3323    158.0965     83.7328   4.8402043516e+01   3.3837048302e+01    0.2540063    0.1819859 -50.85 0.0004916423    1.368    0.269
       414  -9.2462    140.9145     82.2414   5.1630774581e+01   3.7958849573e+01    0.3626862    0.1908263 -49.12 0.0009785837    1.971    0.493
       415  -9.1811     22.7688     89.9079   9.4069222230e+01   5.6639553736e+01    0.3322047    0.2336684 -35.73   0.00103643    1.370    0.270
       416  -9.7088     24.6587     80.1489   9.1055862841e+01   5.8894124255e+01     0.486418    0.3093746 -89.75  0.001472792    2.240    0.554
       417  -9.4601      9.6134     80.5711   9.7917454353e+01   5.9916186221e+01    0.3601354    0.2271658  62.57  0.001408691    2.163    0.538
       418  -8.7315    150.3634     80.3691   4.9045821073e+01   3.6173895921e+01    0.3134098     0.210259 -46.52 0.0009992309    1.446    0.309
       419  -8.6680    119.4861     80.3310   5.6318966236e+01   4.3100737686e+01    0.3121901    0.2241334 -72.92 0.0008809707    1.921    0.479
       420  -8.9211     74.6514     79.9750   7.0320835936e+01   5.2214117100e+01    0.3868447    0.2437578 -67.00  0.001111017    2.283    0.562
       421  -8.1134    166.9478     79.2838   4.5513212605e+01   3.2652281280e+01    0.1921555    0.1792179 -52.74 0.0005600954    1.024    0.024
       422  -8.6260    183.8608     78.1643   4.2340753977e+01   2.9148274782e+01     0.186499    0.1602503 -18.79 0.0005788587    1.337    0.252
       423  -9.2581     66.0573     86.9481   7.5647861946e+01   5.2083527477e+01     0.556009     0.258371  17.45  0.001705506    4.073    0.754
       424  -7.7900    174.6259     77.7798   4.3762524421e+01   3.1214627674e+01    0.2052694    0.1178556 -47.72 0.0004735095    1.651    0.394
       425  -8.7741    140.8647     75.3785   4.9648093369e+01   3.9219622314e+01    0.2801431    0.1935397 -56.28 0.0006749597    1.569    0.362
       426  -9.5310    128.0734     74.8029   5.2442486893e+01   4.2227435728e+01    0.4749232    0.2590307 -46.52  0.001994556    1.866    0.464
       427  -7.7765    157.2779     75.7068   4.6353042342e+01   3.5433142585e+01    0.1437291    0.1075723 -69.87 0.0002120421    1.527    0.345
       428  -9.9508     63.0645     73.1317   7.2539415272e+01   5.5667687897e+01    0.5102916    0.2769468 -56.19  0.001337794    2.071    0.517
       429  -9.7018     82.4754     72.4314   6.5070963431e+01   5.2368249176e+01    0.4221382    0.2921002 -68.52 0.0009390564    2.105    0.525
       430  -8.3556    151.4673     73.0405   4.6745392525e+01   3.7210119367e+01    0.2250478    0.1375184 -39.83 0.0006937049    1.584    0.369
       431  -8.5613    115.6841     72.6494   5.4941720760e+01   4.5399601324e+01     0.276537    0.1802929 -43.69 0.0005110483    1.539    0.350
       432  -8.2303     42.7365     72.5693   8.0901838608e+01   5.8739375169e+01    0.2277719    0.1773964 -82.14  0.000694908    1.733    0.423
       433  -7.9524    175.5931     72.2388   4.2151760345e+01   3.1916317929e+01    0.1897174    0.1307651 -27.99 0.0006993418    1.585    0.369
       434  -9.1378    106.0772     71.5704   5.7270827727e+01   4.7705376521e+01    0.2924217    0.2248892 -69.54 0.0007616134    1.657    0.397
       435  -9.2746     95.1521     70.8617   6.0339127893e+01   5.0152431624e+01    0.4033566    0.2448418 -55.89  0.001020574    2.013    0.503
       436  -9.3440     51.5395     69.3116   7.6040773234e+01   5.8270412259e+01    0.4387887    0.2592039 -67.77  0.001334846    2.527    0.604
       437  -8.8465     28.9618     70.2193   8.6488602824e+01   6.0847226355e+01    0.3277855    0.1473716 -29.56  0.001239938    2.882    0.653
       438  -8.9086     16.5075     69.8989   9.2329715016e+01   6.2025536686e+01     0.273437    0.2097932  80.90 0.0009497588    1.721    0.419
       439  -7.6386    203.2720     66.6937   3.6751604211e+01   2.6867156183e+01     0.134363   0.08783115 -61.54 0.0003399347    1.541    0.351
       440  -8.5488    138.6159     65.8401   4.7297669466e+01   4.1383429011e+01    0.2853809    0.1996026 -62.52 0.0007700276    1.664    0.399
       441  -8.8220    121.7682     65.7032   5.1153428274e+01   4.5279477513e+01    0.2826508    0.2223019 -59.34 0.0005983344    1.403    0.287
       442  -8.1180    163.4944     73.0455   4.4455294000e+01   3.4481754871e+01    0.2181221    0.1318277 -41.91  0.001012463    1.561    0.359
       443  -7.7512    130.6953     64.3457   4.8595243323e+01   4.3464058365e+01    0.1511587    0.1112845 -71.82 0.0007041411    1.692    0.409
       444  -9.2022    110.2412     63.2380   5.3348386487e+01   4.8307164959e+01    0.3599908    0.2366256 -49.78 0.0008433257    1.647    0.393
       445  -8.1332     95.3263     64.3324   5.8069305246e+01   5.1349113691e+01    0.1521341    0.1138878   6.93 0.0006347581    1.712    0.416
       446  -9.0008     65.8856     62.0419   6.7618113269e+01   5.7491588509e+01    0.5308056    0.3046147   3.69  0.001817877    3.716    0.731
       447  -8.8013     37.2129     63.7344   8.0643101619e+01   6.1395965003e+01    0.2666673    0.2140035  89.60 0.0009550112    1.806    0.446
       448  -8.6296    147.0860     68.0113   4.6176349929e+01   3.9065198183e+01    0.2785851    0.1933272 -49.20 0.0005222562    1.435    0.303
       449  -7.9555    158.0486     61.6974   4.2278181211e+01   3.7558653051e+01    0.1898955     0.173697 -89.29 0.0004173972    1.067    0.063
       450  -7.3781    213.6832     61.6688   3.4325236809e+01   2.5495202733e+01    0.1182064    0.1003128   8.93 0.0007046941    1.686    0.407
       451  -9.1922     97.5589     60.2419   5.5962995092e+01   5.1610480417e+01    0.3132634    0.2237956  61.58 0.0008901944    1.594    0.373
       452  -9.6732     73.4539     59.3842   6.3753753617e+01   5.6636561371e+01    0.3939244    0.2662177 -55.76  0.001124263    1.806    0.446
       453  -8.5535     89.0740     59.6648   5.8418644940e+01   5.3501671071e+01    0.1997861    0.1816844  38.22  0.000540408    1.082    0.076
       454  -7.9663    147.0222     58.9737   4.3528667834e+01   4.0539433894e+01    0.1701759    0.1601439 -61.00 0.0004167966    1.037    0.036
       455  -8.4766    130.5940     57.6933   4.6527022857e+01   4.4575018221e+01    0.1932771    0.1309097 -46.95 0.0004016072    1.512    0.339
       456  -9.8747     23.4866     56.3214   8.4986108413e+01   6.4511129134e+01    0.4311696    0.3055466  84.44  0.002024306    2.421    0.587
       457  -9.5145      7.4383     56.8391   9.3549404818e+01   6.5674924517e+01     0.314811    0.2142259  80.43   0.00131777    2.213    0.548
       458  -8.5698    139.9892     55.7903   4.3951961283e+01   4.2675932006e+01    0.2544092      0.16586 -50.91 0.0005252442    1.600    0.375
       459  -8.7163    119.2745     55.6911   4.8502749123e+01   4.7518909832e+01    0.2942272    0.2193975 -71.17  0.000780769    1.690    0.408
       460  -8.6966     44.0369     55.4145   7.4575569213e+01   6.2261513725e+01    0.2386877    0.1927428 -61.84 0.0009975035    1.516    0.340
       461  -9.4284     62.8483     53.3876   6.5617483485e+01   5.9680783684e+01    0.5969447    0.1987837 -45.50  0.002108566    3.106    0.678
       462  -9.1015     54.0220     53.5379   6.9379411852e+01   6.1132644177e+01    0.3731561    0.1958836 -54.66  0.001179734    2.390    0.582
       463  -7.4556    163.2756     53.3034   3.9033168951e+01   3.7620974183e+01    0.1286423    0.1076973  21.75 0.0002820973    1.542    0.351
       464  -8.6900    105.6120     52.8340   5.1044334466e+01   5.1086974690e+01    0.2637166     0.204438 -64.59  0.000654084    1.579    0.367
       465  -9.4584     92.5907     50.4660   5.3954170862e+01   5.4333158049e+01    0.4075564    0.2436618 -52.43  0.001072334    2.086    0.521
       466  -8.1993     74.6450     51.6565   6.0413619533e+01   5.7812704302e+01    0.1513221    0.1063162   6.17 0.0007038331    1.821    0.451
       467  -8.1094    144.8353     48.8308   4.0898915547e+01   4.2569981675e+01    0.1931261    0.1521304 -62.53 0.0004123456    1.315    0.239
       468  -8.1549    129.7962     48.8018   4.3853839799e+01   4.6119316975e+01    0.1930374     0.159229 -68.72 0.0005068924    1.314    0.239
       469  -7.9097    150.0000     47.9906   3.9724132503e+01   4.1474510468e+01    0.2164188   0.07726068 -33.14 0.0005236703    2.844    0.648
       470  -8.7281    120.8687     47.3112   4.5323897443e+01   4.8431679269e+01    0.2284872    0.1879728 -47.26 0.0005351893    1.263    0.208
       471  -8.4684    112.2296     46.7436   4.7184799656e+01   5.0520582127e+01    0.2349222    0.1786181 -47.05  0.000611359    1.400    0.286
       472  -8.9277     82.1100     46.1634   5.5673336706e+01   5.7236820929e+01    0.2765052    0.1946424 -41.63  0.000570778    1.508    0.337
       473  -8.5382     45.0336     44.4772   6.9862646649e+01   6.4226731911e+01    0.2320834    0.1857366 -56.15 0.0006529402    1.558    0.358
       474  -9.1885     16.7672     44.2636   8.4520047834e+01   6.7688940220e+01     0.257635    0.1989561 -81.79 0.0009180245    1.912    0.477
       475  -8.1811    132.6355     42.8194   4.1343466375e+01   4.6297057524e+01    0.1933468    0.1207347 -44.69 0.0003906277    1.644    0.392
       476  -8.9403     92.9950     42.3520   5.0777821284e+01   5.5504427777e+01    0.2571306    0.1936857   7.43  0.001244103    1.610    0.379
       477  -9.4192     69.7485     41.4209   5.8138907418e+01   6.0468642764e+01    0.3643986    0.2599623 -65.48  0.001236946    2.244    0.554
       478  -8.6490     58.4332     42.5733   6.3101248633e+01   6.2372950028e+01    0.2712956    0.2178293 -74.77  0.001084826    1.976    0.494
       479  -9.6398      5.3575     41.8053   9.0296624910e+01   6.9087739047e+01     0.365359    0.2274641 -81.02  0.001445837    2.444    0.591
       480  -8.5498    105.8815     41.1156   4.6776560468e+01   5.2792129868e+01    0.2074615    0.1852032 -74.95 0.0004930206    1.259    0.206
       481  -8.5389     36.9222     40.5003   7.2177194042e+01   6.6121665191e+01    0.2293562    0.1832194 -57.60 0.0008014223    1.605    0.377
       482  -9.0113     95.7438     37.9055   4.8286235960e+01   5.5534272108e+01    0.2460379    0.1833098 -52.91 0.0007855157    1.581    0.368
       483  -8.3878     80.7489     36.4845   5.2252449289e+01   5.8989041491e+01    0.2350204    0.1605101 -43.96 0.0005870062    1.647    0.393
       484  -9.4731     26.2292     35.0619   7.5550206800e+01   6.8489251540e+01    0.3296967    0.2150829 -55.90  0.001023806    1.884    0.469
       485  -7.6598    133.6470     35.7460   3.8871181596e+01   4.6990940982e+01    0.1381789   0.09698589  39.27 0.0003800947    1.602    0.376
       486  -8.4384    125.9853     35.3196   4.0200035882e+01   4.8865823462e+01    0.1916351    0.1666526  64.64 0.0003763695    1.078    0.073
       487  -8.6035    111.9915     34.5597   4.2925592600e+01   5.2261303635e+01    0.2548214    0.1782746 -50.35  0.000716765    1.597    0.374
       488  -7.8829     88.5550     34.4751   4.9009983208e+01   5.7594358594e+01     0.134845    0.1260258  36.45 0.0001998887    1.025    0.024
       489  -8.4776    119.3935     33.1885   4.0820044636e+01   5.0695473294e+01    0.1893189    0.1198597 -44.35  0.000519657    1.682    0.406
       490  -8.6581     60.7908     32.4974   5.7769374583e+01   6.3542668560e+01    0.2260094    0.1782718 -30.27 0.0005754246    1.307    0.235
       491  -8.8940     48.4988     32.8125   6.3186251437e+01   6.5670662246e+01    0.2233323    0.2081519 -30.98 0.0005300365    1.261    0.207
       492  -8.9187     72.2645     31.1226   5.2859843246e+01   6.1496269565e+01    0.2267147    0.1780863 -48.64  0.000662281    1.539    0.350
       493  -9.1154     13.0417     30.1784   8.1242600910e+01   7.0794120598e+01    0.3046187    0.1960469 -65.75  0.001191376    2.247    0.555
       494  -8.4854    101.7572     29.0900   4.3333309292e+01   5.5318969472e+01    0.1995188    0.1769385 -68.97 0.0005374242    1.276    0.216
       495  -8.0171    156.9081     27.8435   3.2753044983e+01   4.2437078326e+01    0.1888486    0.1675222  49.50 0.0004604313    1.255    0.203
       496  -8.9888     81.5243     27.2743   4.8169055356e+01   6.0061083419e+01    0.2721399    0.2240989 -66.00 0.0008662823    1.582    0.368
       497  -9.1432      3.8694     27.7465   8.6134314789e+01   7.2014215723e+01    0.1920077    0.1597198  81.47 0.0007238523    1.949    0.487
       498  -8.9427     91.8874     26.2446   4.4759685915e+01   5.7905973733e+01    0.2716062    0.1746122 -46.18 0.0006596792    1.819    0.450
       499  -8.8710    104.0770     22.5360   4.0291719075e+01   5.5542231598e+01     0.208708    0.1216652  62.18  0.001027319    1.587    0.370
       500  -8.8320     63.5788     20.8196   5.1318429601e+01   6.4582717405e+01    0.2639586    0.1938686 -53.92 0.0008212157    1.897    0.473
       501  -8.8815     48.5030     21.4660   5.7762856512e+01   6.7334538504e+01     0.225277     0.219668 -51.62 0.0006814247    1.381    0.276
       502  -8.4224    120.8501     20.8630   3.6258208006e+01   5.1772070941e+01    0.1807622    0.1474833 -74.31 0.0007939831    1.312    0.238
       503  -8.1203     19.6002     20.8319   7.2800075736e+01   7.1740044223e+01    0.1596284    0.1121704 -49.25 0.0006345213    1.718    0.418
       504  -8.8321     74.0514     19.0948   4.6933184658e+01   6.2633113764e+01    0.2806629    0.1760413 -38.49 0.0007598113    1.804    0.446
       505  -8.3709     88.0353     17.2504   4.2088362987e+01   5.9778410807e+01     0.218789    0.1593085 -46.11 0.0005943987    1.611    0.379
       506  -8.2474     38.9523     17.8045   6.0394553273e+01   6.9451133865e+01    0.2071525    0.1523829 -40.42 0.0007444259    1.609    0.378
       507  -7.5338    112.5946     16.5018   3.6265803012e+01   5.4176615338e+01    0.1282096    0.1177671  67.73 0.0001055117    1.025    0.024
       508  -7.9253     30.3559     16.1060   6.4000195610e+01   7.1023478301e+01    0.1599417    0.1089695 -41.49 0.0006996538    1.707    0.414
       509  -8.1378     97.3764     15.1572   3.8948333630e+01   5.7864847180e+01    0.1762081    0.1144288 -39.66 0.0005320475    1.714    0.417
       510  -7.9821      7.6723     15.3076   7.7829626393e+01   7.3929725668e+01    0.1032642   0.09360514  43.87 0.0004838205    1.656    0.396
       511  -7.9317     17.2131     14.1457   7.0781724836e+01   7.3081677921e+01    0.1480411    0.1379206   0.68 0.0005658667    1.358    0.264
       512  -9.3004    243.2203    245.8520   6.5976341502e+01  -7.5782158105e+00     0.374313    0.1551134 -25.27  0.002052084    2.204    0.546
       513  -9.4823    246.5718    228.6457   6.2731802385e+01  -5.6995960673e+00    0.4007057    0.1664832 -34.89  0.001759164    2.018    0.504
       514 -10.1420    248.8134    242.9262   6.4626023768e+01  -7.7524082067e+00    0.6827136    0.1744477 -39.47  0.002718331    3.715    0.731
       515  -8.7906    248.0786    234.1408   6.3369009828e+01  -6.5685467012e+00    0.2275916    0.1236585 -25.26 0.0009420347    1.465    0.317
       516  -8.1750    191.7948    249.5934   7.5583251177e+01  -2.5894791856e+00    0.1580659   0.09405652  33.58 0.0006310117    1.693    0.409
       517  -9.0980    175.8898    247.5886   7.8353795477e+01  -4.0731870327e-01    0.2733899    0.2227457  65.74  0.001301856    2.263    0.558
       518  -9.5623    155.7660    247.3843   8.2356813398e+01   2.1193457911e+00    0.3032468     0.247316  80.23  0.001443503    2.153    0.536
       519  -9.2481    103.8590    246.7155   9.3256165523e+01   8.8787099121e+00    0.4191667    0.2412611 -84.74  0.001967727    3.106    0.678
       520  -8.7642    218.5348    246.9030   7.0310981564e+01  -5.1971937755e+00    0.3020317   0.09573404 -38.84   0.00142158    2.991    0.666
       521  -8.8887    132.2150    247.7759   8.7305665909e+01   5.0584102473e+00     0.209997    0.1703576  53.85 0.0006582625    1.488    0.328
