#   1 NUMBER                 Running object number                                     
#   2 MAG_AUTO               Kron-like elliptical aperture magnitude                    [mag]
#   3 X_IMAGE                Object position along x                                    [pixel]
#   4 Y_IMAGE                Object position along y                                    [pixel]
#   5 X_WORLD                Barycenter position along world x axis                     [deg]
#   6 Y_WORLD                Barycenter position along world y axis                     [deg]
#   7 A_WORLD                Profile RMS along major axis (world units)                 [deg]
#   8 B_WORLD                Profile RMS along minor axis (world units)                 [deg]
#   9 THETA_WORLD            Position angle (CCW/world-x)                               [deg]
#  10 FWHM_WORLD             FWHM assuming a gaussian core                              [deg]
#  11 ELONGATION             A_IMAGE/B_IMAGE                                           
#  12 ELLIPTICITY            1 - B_IMAGE/A_IMAGE                                       
         1 -13.9406     22.7819     27.6018   8.3630919722e+01   6.8700043310e+01     1.969146    0.6942102 -30.98  0.008105748    3.177    0.685
         2 -13.6371      4.6748     37.5124   9.7036954077e+01   6.8430289743e+01    0.9506126    0.8063509 -35.40   0.00523415    1.195    0.163
         3 -12.8388    214.9052     36.6272   3.6443720348e+01   2.7876780736e+01    0.9291364    0.6342902 -88.58  0.005453873    1.411    0.291
         4 -12.9840    208.9602     28.3181   3.5209335513e+01   3.0192136770e+01    0.9769527    0.4243737  87.25  0.004056076    3.011    0.668
         5 -12.9713    234.1287     30.5874   3.3334331642e+01   2.4613494279e+01    0.6776006    0.6130702 -72.32  0.002580773    1.198    0.165
         6 -13.3353     40.8928     21.4473   7.1862398491e+01   6.7373996323e+01    0.7929097    0.6629482  11.51  0.005405299    1.147    0.128
         7 -13.1952    115.2141     15.7108   4.5382812908e+01   5.3440711134e+01     1.139377    0.7586898  42.28  0.006352442    1.390    0.280
         8 -13.6326    117.9503      4.1974   4.0926408181e+01   5.3807455273e+01     1.627077    0.6713285  68.12  0.007263152    2.199    0.545
         9 -12.3348    199.7882     18.2359   3.3851000245e+01   3.3374193047e+01    0.3630592    0.3071949 -50.20   0.00243828    1.228    0.186
        10 -13.8763    177.5197      9.1514   3.3993329697e+01   3.9378975546e+01      1.61767    0.8044812  73.39  0.008279357    1.750    0.429
        11 -12.9171    139.4202      3.5465   3.7235632170e+01   4.8829300642e+01    0.8855061     0.364596  69.27  0.004044374    2.067    0.516
        12 -13.6126    139.9103     10.0082   3.9095941990e+01   4.8161521554e+01    0.9927881    0.4909319  69.43  0.004834172    1.777    0.437
        13 -10.9199      3.4969      2.5606   8.3192657025e+01   7.4258189602e+01    0.2758031   0.09221524  23.54  0.001373736    2.815    0.645
        14 -11.5976     50.2284    173.7640   1.0733879295e+02   3.2365882879e+01    0.2747076    0.2542143 -54.62 0.0004593055    1.160    0.138
        15 -11.0351    247.7494    249.8444   7.4761400200e+01  -1.1548357518e+01    0.4200797     0.144025  25.28  0.001958233    2.939    0.660
        16 -12.4497     83.5474    248.6924   1.0784131788e+02   1.1169362670e+01    0.4683674    0.3119561  31.89  0.002089742    1.408    0.290
        17 -11.1188     59.7786    245.9089   1.1254424608e+02   1.4812332300e+01    0.2427099      0.15212  85.23   0.00080186    1.726    0.421
        18 -12.4619     37.0659    249.4691   1.1737182030e+02   1.6801966424e+01    0.7836242    0.1330952  32.75  0.002736207    4.674    0.786
        19 -14.5821     47.5476    205.3831   1.1156037407e+02   2.5039944833e+01     3.155892     1.272149  71.09  0.009921581    4.888    0.795
        20 -15.4504      4.0007    184.8232   1.2002309443e+02   3.4130974076e+01     8.164989      1.75174 -80.06    0.0261972    4.651    0.785
        21 -14.6622     11.9100    131.8168   1.1303205084e+02   4.6547584302e+01     2.625175     1.307348 -76.09    0.0126106    1.778    0.438
        22 -13.3814      8.5804    207.2349   1.2047414574e+02   2.8606488468e+01    0.4985887    0.4134056 -35.96 0.0009926407    1.670    0.401
        23 -14.7820     15.7450    202.0731   1.1856742664e+02   2.9130625403e+01     1.096737    0.9279861 -68.40  0.003602302    1.271    0.213
        24 -10.5774     63.3458    163.6255   1.0230684885e+02   3.3296240660e+01    0.2476097    0.2268159 -48.89 0.0004324129    1.135    0.119
        25 -12.8971     48.3720    160.0853   1.0602182028e+02   3.6038369077e+01    0.5329467     0.314938 -35.92  0.001502199    2.149    0.535
        26  -9.0946    133.2208    159.9203   8.2333137587e+01   2.2733040274e+01      0.19637    0.1270426 -51.35 0.0003467423    1.570    0.363
        27 -11.8051     72.0746    156.0504   9.8575566626e+01   3.4037399878e+01    0.6356196     0.475391 -59.60  0.003208966    1.271    0.213
        28 -13.6443      3.3937    124.9997   1.1483771744e+02   4.8765131296e+01     2.789418    0.2705874 -70.51  0.007486878    5.721    0.825
        29 -12.1383     67.8661    143.5268   9.7594842330e+01   3.7827724804e+01    0.7318512    0.4474874  61.54  0.002762694    2.164    0.538
        30 -12.4204     36.6845    145.7626   1.0739871455e+02   4.0949703303e+01    0.5361869    0.3943431  28.06  0.002035212    1.510    0.338
        31 -10.0852     88.8601    143.8881   9.1332987925e+01   3.4578508625e+01    0.2392712    0.2074087 -27.68 0.0006978184    1.231    0.188
        32 -11.5406     76.2935    141.7735   9.4692886657e+01   3.7068861270e+01    0.3203669    0.2741366 -45.82 0.0003813059    1.142    0.124
        33 -10.7334     35.2357    139.5441   1.0693725098e+02   4.2680921033e+01    0.2490122    0.1263359  31.62 0.0009853769    2.099    0.524
        34 -12.3114     89.9800    129.5261   8.7888102040e+01   3.7984577092e+01    0.6748149     0.358995 -53.46  0.001158125    1.815    0.449
        35 -10.4222    105.0785    131.1782   8.3708127318e+01   3.4919200966e+01    0.4155086    0.2971764  11.50  0.001801973    1.790    0.441
        36 -12.9430     83.4416    121.4559   8.8077231369e+01   4.1056903803e+01    0.6883081    0.5561116 -16.86  0.002612627    1.391    0.281
        37 -10.9995     54.3833    121.4379   9.7627677624e+01   4.5206661410e+01    0.4568897    0.2053501 -56.56  0.001856158    1.962    0.490
        38 -13.5493     28.0189    113.3420   1.0507566371e+02   4.9958706120e+01     1.161026    0.9898167 -75.96  0.006107884    1.162    0.140
        39 -11.7014     24.4822    104.0176   1.0464669654e+02   5.2545016333e+01    0.5281852    0.2901991   3.43  0.002096396    2.303    0.566
        40 -12.4252     32.7514    101.4624   1.0113274769e+02   5.2464024550e+01    0.6322575    0.5259436 -66.16  0.003039411    1.177    0.150
        41 -10.2083    102.6488    119.6535   8.1637865049e+01   3.8138297477e+01    0.2657906    0.2387087  22.68 0.0002004402    1.140    0.123
        42 -10.3700     70.0013    119.7246   9.2056980580e+01   4.3551204206e+01    0.2118934    0.2013308  12.13  0.001178126    1.102    0.092
        43 -12.0436     84.3276    110.3699   8.5074121926e+01   4.3592831922e+01    0.3465599    0.3243176  89.53  0.001866218    1.218    0.179
        44 -11.4687     51.5398     89.1030   9.1154642320e+01   5.3372673450e+01    0.4252689    0.3534383 -46.87  0.001897419    1.127    0.112
        45 -12.0249     46.7382     94.6476   9.4384146939e+01   5.2657851496e+01    0.7514846    0.4898202 -61.15  0.003250715    1.529    0.346
        46 -12.1025     47.7845    107.3016   9.6928370678e+01   4.9498311394e+01    0.6244764    0.4848991 -84.37  0.002593577    1.541    0.351
        47 -11.5662     46.3541    101.9005   9.6237584568e+01   5.0972830236e+01    0.4612388    0.3027901  22.16  0.001727942    1.660    0.398
        48 -12.8617     65.1238    102.4548   8.9612135102e+01   4.8451098919e+01     0.670682    0.6395496  49.86  0.003854053    1.185    0.156
        49 -10.4350     86.7485     96.6357   8.0590876994e+01   4.6352247155e+01     0.418768    0.2285596  38.88  0.001752501    1.867    0.464
        50 -10.9758     29.8771     91.9657   1.0019385990e+02   5.4993444773e+01    0.5199531    0.3088231 -23.83  0.002546153    1.880    0.468
        51 -12.5262     64.0946     88.2851   8.6209504410e+01   5.1868748467e+01     0.582449    0.5348187  87.80  0.003299989    1.370    0.270
        52 -11.9412     80.4778     86.2351   7.9721107754e+01   4.9722736365e+01    0.6516548    0.5635906 -62.24  0.003486313    1.347    0.258
        53 -11.7485     26.3879     78.0098   9.8331929901e+01   5.8508991428e+01      0.56699    0.4517697  15.15  0.002852253    1.366    0.268
        54 -11.8453     68.1733     78.7254   8.1884972146e+01   5.3331869436e+01    0.4995055    0.2630411  21.94  0.002060401    2.282    0.562
        55 -10.9098      4.1126     75.6565   1.0707664278e+02   6.0509100377e+01    0.3697242    0.2441536  -0.52  0.002206916    1.682    0.405
        56 -12.1388      4.8656     68.8470   1.0533777158e+02   6.1990123408e+01    0.6490662    0.2617363 -44.21  0.002680606    1.920    0.479
        57 -10.1417     22.2256     64.8728   9.6693931375e+01   6.1723043584e+01    0.2595901    0.1375666 -20.36  0.001248191    2.093    0.522
        58  -9.7418     14.6803     60.1502   9.8819422453e+01   6.3282852530e+01    0.2370604    0.1358974  -3.18   0.00126758    1.891    0.471
        59 -11.3541    161.7254    248.3207   9.1158547573e+01  -6.1527126462e-02    0.2559212    0.2306425  40.19  0.001695616    1.275    0.216
        60 -11.1040    132.0502    247.4972   9.7341011494e+01   4.4548649590e+00    0.1833453    0.1764536   8.81 0.0007926583    1.153    0.132
        61 -12.5585      2.4842     50.1829   1.0191474051e+02   6.6066515869e+01    0.8575863    0.2424095 -59.77  0.003603281    2.895    0.655
        62 -13.1761      9.8442     49.9031   9.8227528182e+01   6.5704135479e+01    0.9982644    0.4380911 -31.69  0.004768327    2.083    0.520
        63 -11.3324     92.7318     46.5186   6.2323191047e+01   5.4682828600e+01    0.3773011    0.2916563  48.39  0.001749278    1.280    0.219
        64 -11.5623     35.3884     43.0914   8.3508324056e+01   6.4698460123e+01     0.596626    0.3313607  20.83  0.002881768    1.791    0.442
        65 -14.3811     10.8360    151.3109   1.1549650797e+02   4.1753349862e+01     2.512815    0.9842901 -79.65   0.01060597    2.376    0.579
        66 -15.1542    101.8141    227.8757   1.0150049289e+02   1.2734614893e+01     3.251577     1.007812  33.97   0.01193065    2.898    0.655
        67 -11.9378     76.1833     37.8818   6.4546728334e+01   5.9210770466e+01    0.3497589    0.2482636  18.22  0.001904189    1.411    0.292
        68 -12.9498     23.6505    226.9762   1.1857937357e+02   2.2853008480e+01    0.5780009    0.3741268  69.59  0.002164805    1.334    0.250
        69 -14.2605     68.5278    226.0184   1.0882178616e+02   1.7801327121e+01     1.462176     1.091192 -87.28  0.007080985    1.379    0.275
        70 -10.4793     74.3621    211.1063   1.0583709807e+02   2.0307228726e+01    0.2630504    0.2539741 -85.64  0.000888365    1.126    0.112
        71 -12.3106     78.5800    222.7276   1.0619275012e+02   1.7155809241e+01    0.7184908     0.343915  36.63  0.002639776    1.863    0.463
        72 -10.9042     33.2949    209.8856   1.1524301777e+02   2.5604445700e+01    0.3915848    0.1657045  54.05  0.001784539    2.290    0.563
        73 -10.1187     40.7484    230.9968   1.1530818433e+02   2.0149308422e+01    0.1754381    0.1424069  76.23 0.0008668102    1.079    0.073
        74 -11.4117     58.8011    202.2122   1.0854630209e+02   2.4407805993e+01    0.4970313    0.2188047  46.13   0.00217041    2.135    0.532
        75 -11.4404     42.3679    180.2765   1.1018842408e+02   3.1643811738e+01    0.2922077    0.2559599 -32.82 0.0005624551    1.379    0.275
