#   1 NUMBER                 Running object number                                     
#   2 MAG_AUTO               Kron-like elliptical aperture magnitude                    [mag]
#   3 X_IMAGE                Object position along x                                    [pixel]
#   4 Y_IMAGE                Object position along y                                    [pixel]
#   5 X_WORLD                Barycenter position along world x axis                     [deg]
#   6 Y_WORLD                Barycenter position along world y axis                     [deg]
#   7 A_WORLD                Profile RMS along major axis (world units)                 [deg]
#   8 B_WORLD                Profile RMS along minor axis (world units)                 [deg]
#   9 THETA_WORLD            Position angle (CCW/world-x)                               [deg]
#  10 FWHM_WORLD             FWHM assuming a gaussian core                              [deg]
#  11 ELONGATION             A_IMAGE/B_IMAGE                                           
#  12 ELLIPTICITY            1 - B_IMAGE/A_IMAGE                                       
         1  -7.9567      7.4241     15.2117   9.4732328248e+01   7.1750928042e+01    0.1458835   0.09601216 -50.65 0.0009423572    1.624    0.384
         2  -7.8187     83.4417     11.2320   5.9195054666e+01   6.1454625368e+01    0.1646183    0.1159204 -32.82 0.0008545108    1.613    0.380
         3  -8.3754     55.8106     10.2014   6.8395965818e+01   6.6660893916e+01    0.1722452    0.1536141   3.76 0.0006133716    1.234    0.190
         4  -7.6501     28.0060      9.9819   8.1037828720e+01   7.0618240863e+01    0.1441685    0.1076184 -12.58 0.0004326236    1.054    0.051
         5  -9.0557     90.7546      8.9318   5.6080291322e+01   6.0165616508e+01    0.2237981    0.1683493 -40.18 0.0008874816    1.640    0.390
         6  -7.6947     13.2750      8.6821   8.8398644690e+01   7.2316084008e+01   0.09379059   0.08580449 -29.83 0.0002133917    1.569    0.363
         7  -8.6005     33.3691      4.9594   7.5730128285e+01   7.0612609444e+01    0.2733718    0.1587654 -46.30  0.001447398    2.766    0.638
         8  -8.4192     79.2492      4.3072   5.7367182104e+01   6.2958698123e+01      0.22891    0.1533869 -28.14  0.001325855    1.648    0.393
         9  -7.9846     44.5493      3.4680   6.9716976874e+01   6.9202734321e+01    0.1196748   0.09490441   6.50 0.0001701224    1.050    0.048
        10  -7.9195     15.6908      3.2943   8.4275866871e+01   7.2866533893e+01   0.09304912    0.0858987  -7.48 0.0002562212    1.588    0.370
        11  -7.5704    101.4964      8.4929   5.3098558960e+01   5.7879073814e+01    0.1283335    0.1163618  42.78 -8.205191e-05    1.100    0.091
        12  -8.4435     62.2986      1.5056   6.1623570304e+01   6.6444819279e+01    0.1985128    0.1120686  52.13 0.0003983477    1.853    0.460
        13  -7.6118     39.4288      1.4887   7.0975480217e+01   7.0182186570e+01    0.1179654   0.09228367   3.97 0.0001163701    1.051    0.049
        14  -8.9697    120.0729    245.4634   1.0698232620e+02   7.9724998567e+00    0.3271607    0.2062008  84.66  0.001482139    2.497    0.600
        15  -8.3603    248.5967    249.5319   8.3312300253e+01  -1.1334592875e+01    0.2800813    0.1580012  -3.42  0.001679474    1.774    0.436
        16  -9.3355    211.2153    247.0980   8.9576596517e+01  -6.0318294085e+00     0.301867    0.2018203 -56.91  0.001642613    2.952    0.661
        17  -8.3329    183.9608    250.4600   9.5188931898e+01  -2.5060784033e+00    0.1900173   0.09806211  34.90 0.0006397231    1.575    0.365
        18  -8.5517     94.0122    249.6412   1.1247665412e+02   1.1034607764e+01    0.2680916    0.1240558  61.38  0.001255753    2.639    0.621
        19  -9.2300    139.4231    243.7992   1.0295655588e+02   5.3069841462e+00    0.2561138    0.1582384 -61.41   0.00142838    2.126    0.530
        20  -8.2232     67.5287    245.0272   1.1708042544e+02   1.5422272702e+01    0.1605741    0.1058235 -78.74  0.001030193    1.589    0.371
        21  -8.5399      9.6797    244.1796   1.2730949636e+02   2.2110083679e+01    0.2003574   0.07474969  88.83  0.001068439    2.564    0.610
        22  -9.3298    248.5347    242.3658   8.2158178238e+01  -1.0499784191e+01    0.2567621    0.1850353 -34.57  0.001013746    1.750    0.428
        23  -8.7635    202.0023    243.5823   9.0749164027e+01  -4.2317121623e+00     0.193257    0.1702485 -50.14 0.0008599114    1.666    0.400
        24  -8.6117    168.9554    243.4073   9.7076815453e+01   7.9622324784e-01    0.1940851    0.1750969 -80.38 0.0006133708    1.559    0.359
        25  -7.9324     49.7678    243.7383   1.2026997648e+02   1.7861101894e+01    0.1692521   0.07934584 -89.58 0.0008146322    2.404    0.584
        26  -8.7915    213.4882    242.6522   8.8461428692e+01  -5.7758674730e+00     0.224431    0.1567854  19.06 0.0006501504    1.169    0.144
        27  -8.4852    195.3270    242.6764   9.1872956465e+01  -3.1167092993e+00    0.2268668    0.1833861  38.55 0.0007233493    1.319    0.242
        28  -8.6562    194.3051    239.6838   9.1607757393e+01  -2.5410511480e+00    0.2250489    0.1666399  49.70 0.0005176468    1.672    0.402
        29  -9.3621    182.9015    240.6191   9.3949907231e+01  -9.3760726015e-01     0.500154    0.2908268  45.38   0.00209767    1.744    0.427
        30  -8.4179     77.3581    242.9871   1.1504640863e+02   1.4504809215e+01    0.2162476    0.1255605  58.64 0.0006922373    1.535    0.349
        31  -9.4920    160.0916    240.4927   9.8412072222e+01   2.6248214898e+00    0.3052358    0.2320482 -79.32  0.001487406    2.098    0.523
        32  -8.0757    153.4066    242.1857   9.9971295139e+01   3.4001084924e+00    0.1459973    0.1219067 -72.36 0.0005210575    1.613    0.380
        33  -8.1234     88.1624    242.1671   1.1288658056e+02   1.3179258040e+01    0.1643582    0.1170967  68.90 0.0004926327    1.350    0.259
        34  -8.8546    241.6418    238.3094   8.2682478619e+01  -9.1164310938e+00     0.466592     0.206856 -11.78  0.001865159    4.013    0.751
        35  -8.1699    191.3305    249.6504   9.3675150692e+01  -3.4866290003e+00    0.1711455    0.1328704  53.88 0.0009823438    1.738    0.425
        36  -9.0493    135.6369    239.0921   1.0311201107e+02   6.6771100799e+00    0.2169047    0.1466062  48.90 0.0008117121    1.346    0.257
        37  -8.3444    129.0755    239.0156   1.0442134847e+02   7.7061681377e+00    0.1996798    0.1335949  61.55  0.001070381    1.692    0.409
        38  -7.9173      2.0168    240.0000   1.2840645026e+02   2.3600228872e+01     0.149658   0.05053851  33.92 0.0007941734    2.885    0.653
        39  -8.8906    230.9936    237.0912   8.4368524148e+01  -7.5220430588e+00    0.2320502     0.189856 -49.74  0.001095823    2.019    0.505
        40  -9.8230    214.7989    233.4753   8.6735845063e+01  -4.7333268365e+00    0.4267375    0.3368307 -84.95  0.002223516    3.305    0.697
        41  -8.7720    203.2233    234.9082   8.9150812554e+01  -3.2097351103e+00    0.2436889    0.1914826 -60.90  0.001127951    2.144    0.534
        42  -9.8689    175.7343    233.3651   9.4260486676e+01   1.2782906960e+00    0.4388781    0.2558258 -58.07  0.002166974    2.695    0.629
        43  -8.2009    170.3655    236.1757   9.5749722453e+01   1.6881835035e+00    0.1524414    0.1216989 -59.24 0.0005058959    1.699    0.411
        44  -8.6636    152.9423    235.2253   9.9103574734e+01   4.6018232954e+00     0.225987    0.1603278  88.53 0.0009211945    2.491    0.599
        45  -7.8645     25.3127    236.6340   1.2423410392e+02   2.1936422533e+01     0.122418   0.05902443  65.11 0.0007038694    1.764    0.433
        46  -9.0342    247.4422    234.7771   8.1081262213e+01  -9.4484407002e+00    0.2561262     0.172586 -12.34  0.001041441    1.290    0.225
        47  -9.2819    246.2673    228.9545   8.0292153101e+01  -8.5689598182e+00    0.3616305    0.1724418 -33.09  0.001294744    2.061    0.515
        48  -8.9887    108.6233    234.3521   1.0799510224e+02   1.1648196663e+01    0.3181665    0.1877969  61.39  0.001191178    1.868    0.465
        49  -8.3116     99.8661    234.7202   1.0980668445e+02   1.2875734929e+01     0.230744      0.14038  73.11  0.001123386    2.054    0.513
        50  -8.8450     78.6160    234.4675   1.1402347525e+02   1.5921804941e+01    0.2615493     0.145814  68.51 0.0009997505    1.973    0.493
        51  -8.7314      7.9868    235.0259   1.2718215505e+02   2.3969281006e+01    0.1339843   0.09372529  77.57  0.001001851    1.088    0.081
        52  -8.6070    162.3497    234.1880   9.7059392662e+01   3.2746073913e+00    0.2957433    0.1335732  26.01  0.001222597    2.704    0.630
        53  -8.2814    122.8862    234.1405   1.0506832658e+02   9.5154950303e+00    0.1985299    0.1476352  58.83 0.0006822243    1.339    0.253
        54  -8.5656     92.3412    232.5666   1.1109328932e+02   1.4366572052e+01     0.312766    0.1914301 -88.38  0.001688848    2.044    0.511
        55  -8.4489    194.2126    232.8103   9.0545112848e+01  -1.5317657859e+00    0.1778791    0.1540233  29.47 0.0004828916    1.196    0.164
        56  -8.1495    145.3186    233.6500   1.0042972826e+02   6.0773368357e+00    0.2341912    0.1454353  62.38    0.0011591    2.228    0.551
        57  -8.6408    140.3749    230.3066   1.0098107133e+02   7.4411093679e+00    0.3172555    0.1796912  57.38  0.001127357    2.194    0.544
        58  -8.4286    132.7856    232.9575   1.0289484599e+02   8.1807574506e+00    0.1954466    0.1390844  78.16  0.001066007    1.954    0.488
        59  -8.8530     67.7951    232.0058   1.1593006695e+02   1.7832586373e+01    0.3897453    0.1864178  71.28  0.001763873    2.670    0.625
        60  -9.1920    186.5193    230.7158   9.1714508527e+01  -1.7325390247e-02    0.2993835    0.2446433 -80.34  0.001492572    2.121    0.528
        61  -8.4798    157.7922    232.3203   9.7707341951e+01   4.3077653837e+00    0.1673819    0.1514289  41.80 0.0005298168    1.141    0.123
        62  -8.8045    236.0224    230.8756   8.2425462656e+01  -7.4189093131e+00    0.1960794      0.14865 -18.77 0.0005306563    1.273    0.214
        63  -8.7680      1.7144    230.8764   1.2807283527e+02   2.5334874894e+01    0.2010937    0.1013523  75.47 0.0007791941    1.589    0.371
        64  -9.9461    149.8144    226.4102   9.8480511009e+01   6.5970791552e+00    0.5820143    0.3664367 -88.13  0.002373776    3.870    0.742
        65  -7.9882    229.8356    229.0479   8.3226527686e+01  -6.3107664638e+00    0.1619354    0.1436174 -58.19  0.001008254    1.961    0.490
        66  -8.9232    162.1933    227.8890   9.6156194738e+01   4.3331213706e+00    0.2892927    0.2035655  55.96  0.001209253    1.685    0.407
        67  -8.9188    127.8498    227.3419   1.0317298386e+02   9.9645512710e+00    0.2845869    0.1989735  73.80  0.001147862    1.881    0.468
        68  -8.1003    119.9702    227.7675   1.0486728086e+02   1.1124993725e+01    0.2132504    0.1232626  58.31  0.000844571    1.937    0.484
        69  -9.0147      8.3907    228.2138   1.2679009499e+02   2.5230528581e+01    0.1565592   0.07746631  83.12 0.0009295056    1.715    0.417
        70  -8.6839    206.0411    226.2541   8.7190361316e+01  -2.3941827223e+00    0.2320118    0.1745983 -44.88  0.000804035    1.703    0.413
        71  -8.0541     49.7819    227.1971   1.1904878134e+02   2.1023011041e+01    0.2167534   0.08713228  63.84 0.0009583908    2.834    0.647
        72  -8.1679     18.9907    228.0000   1.2488480184e+02   2.4244370190e+01    0.1620699   0.05523301  33.57 0.0007939897    2.884    0.653
        73  -8.4224    200.0221    226.3301   8.8362793669e+01  -1.4734050520e+00    0.1777584    0.1439179  26.84 0.0005646084    1.125    0.111
        74  -8.7478    180.5782    224.3688   9.1880143488e+01   1.9239294816e+00    0.2302004    0.1905214  47.60 0.0005635117    1.355    0.262
        75  -8.9091    104.7273    223.6558   1.0754119722e+02   1.4245496247e+01    0.3233083    0.2064192  78.68  0.001662932    2.047    0.512
        76  -8.9152     94.0679    224.2501   1.0983619261e+02   1.5713969800e+01    0.3684145    0.1854608  63.60  0.001652222    2.537    0.606
        77  -8.7936    216.4084    223.4014   8.4737707754e+01  -3.5623087261e+00    0.2225585    0.2077435  61.58 0.0008498621    1.665    0.400
        78  -8.6826    173.0009    223.4341   9.3262358306e+01   3.3094352471e+00    0.2155661    0.1870281 -72.17 0.0007483974    1.608    0.378
        79  -8.1497    113.8660    224.1337   1.0568220892e+02   1.2754606469e+01    0.2053706    0.1531982  62.33 0.0007741658    1.349    0.259
        80  -8.0671     59.6084    223.7910   1.1683243995e+02   2.0496655193e+01    0.1623642   0.09972347  88.01 0.0005848805    1.646    0.392
        81  -9.3723    192.5465    221.4817   8.9017209244e+01   4.4922581914e-01      0.31183    0.2622809  80.47  0.001162563    1.989    0.497
        82  -8.3796    162.9794    222.7636   9.5210037292e+01   5.0675689260e+00    0.2147931    0.1395226  58.07  0.001071459    2.020    0.505
        83  -8.1152    140.3439    222.6961   9.9917017533e+01   8.7986338525e+00    0.2015423    0.1428527  66.38  0.001028144    1.794    0.442
        84  -8.6047    238.8305    221.6062   8.0320845772e+01  -6.5915348570e+00    0.2025935    0.1513958 -41.75 0.0005918968    1.787    0.440
        85  -9.3429    225.3355    222.0581   8.2843703758e+01  -4.7054780905e+00    0.2945153    0.1971657 -21.46  0.001029603    1.436    0.304
        86  -8.7975    158.8144    220.4862   9.5719330341e+01   6.1480122225e+00    0.2341127    0.1925598  63.65 0.0007550963    1.479    0.324
        87  -9.1897    120.3808    219.3001   1.0367371502e+02   1.2654028209e+01    0.4297297    0.2303797  63.09   0.00170459    2.705    0.630
        88  -8.7479     82.8032    220.6830   1.1179127250e+02   1.8033193067e+01     0.243095    0.1409547  74.70  0.001217468    2.086    0.521
        89  -8.2318     73.0336    220.5674   1.1380537202e+02   1.9398928894e+01    0.2540851    0.1167703  71.33 0.0009984634    3.371    0.703
        90  -7.9316     27.5119    221.0503   1.2288784403e+02   2.4747417444e+01    0.1681692   0.09567084 -81.35 0.0008648393    1.581    0.368
        91  -8.2004    210.0149    219.4339   8.5264627829e+01  -2.0035441272e+00    0.1875204    0.1548643 -15.20 0.0004497555    1.188    0.159
        92  -8.2914    202.5382    219.9818   8.6802037897e+01  -9.1271621786e-01    0.1768795    0.1225799 -35.52 0.0005802399    1.554    0.356
        93  -8.8596    248.6241    218.2159   7.8000167106e+01  -7.5041476830e+00    0.3313186    0.2185651  55.96  0.001653532    3.324    0.699
        94  -8.0401    150.6747    218.6919   9.7148349464e+01   7.8175559903e+00    0.1327819   0.09931987   4.73 0.0005831536    1.652    0.395
        95  -9.3364    132.9708    216.1674   1.0054039852e+02   1.1214435141e+01    0.5006414     0.307386  75.24  0.002132511    2.949    0.661
        96  -8.8693     51.6541    217.1842   1.1786420094e+02   2.2817536726e+01    0.2838008    0.1578863  89.05 0.0009455741    1.845    0.458
        97  -8.8286    142.8977    216.5726   9.8475879921e+01   9.4970999449e+00     0.301442    0.2051534  74.52  0.001453832    2.290    0.563
        98  -7.9932    111.8328    217.0705   1.0520825385e+02   1.4435578089e+01    0.2141955    0.1396565  76.62  0.001065006    2.041    0.510
        99  -8.1982     61.7189    217.1272   1.1580590035e+02   2.1581625739e+01    0.1995694    0.1275446  76.95  0.001051275    1.541    0.351
       100  -8.3021    154.3295    215.3718   9.5861080314e+01   7.8029829208e+00    0.2045731    0.1631984 -79.92 0.0007739598    1.745    0.427
       101  -8.4066     18.4076    216.2692   1.2431559851e+02   2.6635666337e+01    0.1609759   0.08575317  85.60 0.0008630751    1.640    0.390
       102  -8.6192    232.2984    214.8004   8.0283975630e+01  -4.7151182091e+00    0.2410533    0.2006453 -36.86  0.001128064    1.520    0.342
       103  -8.6697    233.4939    210.4419   7.9277075481e+01  -4.2740833064e+00    0.2214018    0.1679661  11.52   0.00051014    1.124    0.111
       104  -9.0595    236.4040    208.2583   7.8351277629e+01  -4.3949244015e+00     0.250198    0.2016935 -36.28 0.0009332688    1.490    0.329
       105  -8.4335    185.6818    214.3969   8.9191377318e+01   2.7071029719e+00    0.2062886    0.1648394 -52.53 0.0006388194    1.601    0.375
       106  -8.8354     93.3065    214.0907   1.0882128074e+02   1.7853978753e+01    0.4008986    0.1747335  58.13  0.001535878    2.929    0.659
       107  -7.7762     41.3760    215.6873   1.1980801331e+02   2.4328459690e+01    0.1324651   0.06844287  63.01 0.0007029877    1.792    0.442
       108  -9.4465    213.8086    212.2592   8.3272147555e+01  -1.5207591803e+00    0.3116909    0.2686056  61.25  0.001626777    1.774    0.436
       109  -8.6863    161.8971    212.4763   9.3795335589e+01   7.0427520930e+00    0.2255002     0.193747 -80.94   0.00080904    1.561    0.359
       110  -8.1796    106.8385    212.9340   1.0574802974e+02   1.6036997714e+01    0.2144118    0.1409387  65.46  0.001107221    1.703    0.413
       111  -7.6579    242.6546    212.2697   7.7972282091e+01  -5.8679799355e+00    0.1044332   0.09825167  38.83 0.0005558397    1.615    0.381
       112  -9.5310     73.2225    212.0839   1.1289877422e+02   2.1115280142e+01    0.6617468    0.2272373  56.64   0.00230629    3.997    0.750
       113  -9.1507    204.0607    211.0083   8.4933463259e+01   2.3189832600e-01    0.2676373    0.2456446 -43.81 0.0008189833    1.418    0.295
       114  -8.3554    203.3697    207.1876   8.4381338618e+01   9.5139107941e-01    0.1796016    0.1555778 -13.97 9.298933e-05    1.142    0.124
       115  -9.3186    175.3478    210.0401   9.0566713249e+01   5.1820038363e+00    0.4089016     0.310378  79.80  0.001516526    2.281    0.562
       116  -8.4187    192.1453    210.2630   8.7167116169e+01   2.3118364284e+00    0.2162492    0.1771475 -74.54 0.0007232848    1.991    0.498
       117  -8.8584    148.0941    210.6728   9.6450730705e+01   9.7196396113e+00     0.270035    0.2050519  77.50  0.001392723    1.846    0.458
       118  -8.9857    116.1850    210.2894   1.0334946259e+02   1.5092026964e+01     0.311231    0.2135934  79.75 0.0008703533    1.921    0.479
       119  -8.3944     32.3754    210.5667   1.2121915653e+02   2.6382547795e+01    0.2260894   0.08733734  87.79 0.0008187089    3.207    0.688
       120  -8.8881      5.5718    206.6248   1.2619989795e+02   2.9801767734e+01    0.3580257    0.1160326 -84.68  0.001656853    2.819    0.645
       121  -8.5706     85.4340    209.4467   1.0997616932e+02   1.9961465247e+01    0.3038549    0.1854426  82.36  0.001228318    2.021    0.505
       122  -8.2510    126.1381    208.7675   1.0094414234e+02   1.3773776973e+01    0.2046659    0.1665203  56.95 0.0006962915    1.206    0.171
       123  -8.7547    169.4333    216.2108   9.2829047094e+01   5.1159228192e+00    0.2616899    0.2109916 -85.08 0.0008228718    1.916    0.478
       124  -9.2430    246.3338    207.2828   7.6413016809e+01  -5.7059799537e+00    0.2444915    0.1753557 -24.82 0.0006231533    1.286    0.222
       125  -7.8850    156.4444    208.1610   9.4247783207e+01   8.7586571468e+00    0.1706685    0.1336357 -67.68 0.0005095912    1.662    0.398
       126  -8.5612    138.9812    207.9626   9.8003679835e+01   1.1781320495e+01     0.215584    0.1584474  68.42 0.0006989271    1.711    0.416
       127  -9.1613     99.3462    206.2160   1.0651733889e+02   1.8571228905e+01    0.3412438    0.2228902  77.48  0.001277087    1.898    0.473
       128  -8.5751    109.0377    205.3356   1.0424251195e+02   1.7242762722e+01    0.2342224    0.1736941  75.96 0.0005957642    1.532    0.347
       129  -8.6315     56.5737    205.5264   1.1578771842e+02   2.4664806088e+01    0.3188874    0.1434062  62.23  0.001420954    2.514    0.602
       130  -9.3871    194.6885    203.5060   8.5441969271e+01   3.0044633434e+00    0.3713464    0.2712264 -36.50  0.001221274    1.442    0.306
       131  -9.0996    192.3798    197.5244   8.4806419272e+01   4.4165473142e+00    0.2986604    0.2375729 -61.26 0.0009259025    1.766    0.434
       132  -8.8090    183.6785    204.1124   8.7800555770e+01   4.7824838629e+00    0.2487111    0.2001042  60.37 0.0007086973    1.638    0.389
       133  -8.9405    131.3687    204.1912   9.9096618367e+01   1.3809876659e+01    0.2954072    0.2233145  83.21 0.0008905704    1.728    0.421
       134  -9.6389    163.9427    203.1464   9.1790464748e+01   8.3839288018e+00    0.4541024    0.2611913  54.23  0.001093665    2.178    0.541
       135  -9.5194    249.9724    201.8583   7.4772923443e+01  -5.4720424129e+00    0.3779422    0.1776373 -36.96  0.001897074    2.066    0.516
       136  -9.8550    245.6257    193.5606   7.3948596035e+01  -3.6460927210e+00    0.3650172    0.2724975 -46.81  0.001423409    1.797    0.443
       137  -8.3871     48.2724    202.2503   1.1725130578e+02   2.6372890738e+01    0.2504113    0.1215774  81.69 0.0007432316    2.476    0.596
       138  -8.0980     17.2964    202.9483   1.2369999273e+02   2.9503744501e+01    0.1941797   0.06570233  80.31 0.0007033863    4.202    0.762
       139  -9.1681    243.0504    200.6354   7.5747448700e+01  -4.2884367255e+00    0.3154736    0.1661112 -33.63 0.0008178566    1.782    0.439
       140  -8.9237    140.7280    201.3106   9.6558134861e+01   1.2781829525e+01    0.3469729    0.2384815  71.64  0.001109867    2.107    0.525
       141  -8.6794     79.9287    201.2936   1.1022650723e+02   2.2481606860e+01    0.3191253    0.1794778  77.38  0.001212089    2.355    0.575
       142  -7.6466     40.6259    202.3228   1.1887674221e+02   2.7233388625e+01    0.1360932   0.07216461  64.20 0.0007029888    1.816    0.449
       143  -7.7618    221.9905    201.4947   7.9742658954e+01  -1.1739455949e+00    0.1533384    0.1147737  59.63 0.0004742098    2.195    0.544
       144  -9.3626    237.0100    198.7816   7.6470021291e+01  -3.1093133786e+00    0.3165542    0.1648304 -39.99  0.001313059    2.012    0.503
       145  -9.4981    149.5237    198.5399   9.4144311520e+01   1.1790750639e+01    0.4484424    0.3104962  85.22  0.001649203    2.540    0.606
       146  -8.9094    124.0009    199.2644   9.9987001882e+01   1.6051189541e+01    0.3217845    0.2201742 -83.97  0.001223759    2.031    0.508
       147  -9.1759    112.8174    198.5168   1.0241486786e+02   1.8059192697e+01    0.4464082    0.2636915  68.59  0.001515295    2.432    0.589
       148  -9.1509     88.8298    198.7538   1.0790855213e+02   2.1744684374e+01    0.3835137    0.2281712  81.08  0.001614575    2.261    0.558
       149  -8.3025    177.0202    199.0065   8.8271020428e+01   6.8429408308e+00    0.1995037    0.1698081  74.62  0.000477096    1.628    0.386
       150  -8.4702    202.3072    197.8360   8.2862688529e+01   2.6576622402e+00    0.2275213    0.2091912 -74.49  0.000913289    1.568    0.362
       151  -8.5871    133.2992    196.8188   9.7492420985e+01   1.4968183356e+01    0.3218708     0.181631 -61.70  0.001187802    2.160    0.537
       152  -9.2127     61.3091    196.6976   1.1385947863e+02   2.5991864632e+01    0.4914399    0.2512694 -89.18  0.002242896    2.376    0.579
       153  -8.6692     13.0187    197.8256   1.2422518661e+02   3.0988772514e+01    0.2695415    0.1128842  64.81  0.001347919    2.304    0.566
       154  -8.0673     29.5151    197.4963   1.2081488493e+02   2.9469637084e+01    0.1239861   0.09349216  74.54 0.0008089509    1.089    0.081
       155  -8.7427    215.8429    195.6240   7.9796120098e+01   7.4729843368e-01    0.2407308    0.1834418 -42.12 0.0008487398    1.505    0.336
       156  -8.8878    185.2051    194.9983   8.5814539781e+01   6.1163883257e+00    0.2493997    0.2229887 -59.59 0.0007324864    1.419    0.295
       157  -8.6727    224.2897    193.6259   7.7811911557e+01  -3.2004336785e-01    0.2901204    0.1633072 -44.37  0.001207905    2.045    0.511
       158  -8.9917    160.9630    194.3988   9.0896061472e+01   1.0558393811e+01    0.2809371    0.2238606  75.22 0.0008224972    1.730    0.422
       159  -9.0808     44.1296    193.7246   1.1735805827e+02   2.8721058405e+01    0.4127984    0.1985313  69.49  0.001908237    2.389    0.581
       160  -8.5806    231.1777    193.9599   7.6603156419e+01  -1.4764480135e+00    0.2547809    0.1605805 -15.69  0.001098214    1.616    0.381
       161  -8.8223     77.0771    193.8581   1.0997025746e+02   2.4513023878e+01    0.2670032    0.1954422  70.05 0.0007487913    1.341    0.254
       162  -7.9580    205.0317    191.9714   8.1201987389e+01   3.1746129370e+00    0.1669084    0.1450346  -7.53 0.0004900836    1.063    0.059
       163  -8.3616    198.8934    191.6021   8.2359050341e+01   4.3029116622e+00    0.2436106    0.1805399 -55.03  0.000653088    1.795    0.443
       164  -8.0411    179.4140    191.9163   8.6453557729e+01   7.7057841356e+00    0.1783395     0.125884 -70.59 0.0004726502    2.396    0.583
       165  -8.3634    172.3619    191.8304   8.7945617995e+01   8.9925229606e+00    0.2480747    0.2135247  89.87 0.0009605371    1.605    0.377
       166  -9.0394    139.4290    190.6125   9.5055278375e+01   1.5166420016e+01    0.3446853    0.2477412  74.90  0.001047053    1.955    0.489
       167 -10.5704     92.2133    188.8212   1.0578805516e+02   2.3423951493e+01    0.9468378    0.2979989  48.32  0.003213396    3.428    0.708
       168  -8.7237    148.6224    189.4422   9.2757869196e+01   1.3758055634e+01    0.2671754    0.2124458 -87.63 0.0007849932    1.703    0.413
       169  -9.1052    129.2597    188.5402   9.7045853932e+01   1.7391728809e+01    0.3479762    0.2446426 -87.08 0.0009616889    2.033    0.508
       170  -8.3969    237.1190    188.6782   7.4501279888e+01  -1.6064168808e+00    0.2138312     0.158314 -33.45 0.0005686019    1.348    0.258
       171  -8.9163    216.7764    188.0756   7.8150993718e+01   1.8168360967e+00    0.2798545    0.2424032 -55.85 0.0008311237    1.581    0.368
       172  -9.3032    156.0762    187.7541   9.0772177218e+01   1.2742679630e+01    0.3762943    0.2450588 -63.20 0.0009719041    2.050    0.512
       173  -9.8465    120.8766    186.7854   9.8713544531e+01   1.9219088934e+01    0.5451366    0.3066962 -74.69  0.002161437    2.783    0.641
       174  -9.2761     34.0988    187.7455   1.1901837917e+02   3.1149473880e+01     0.415808    0.1874322 -88.64  0.001833151    2.367    0.577
       175  -8.4972    211.2079    201.9466   8.1885368471e+01   5.0013936037e-01    0.2456853    0.1729302 -46.63 0.0005277702    1.745    0.427
       176  -8.7745    191.2941    187.4320   8.3103508687e+01   6.3827035429e+00    0.2948614    0.2371688 -66.38  0.001106751    1.784    0.440
       177  -9.3735    109.7781    186.1381   1.0123211636e+02   2.1229762143e+01    0.4535737    0.2711881  72.73  0.001240325    2.588    0.614
       178  -9.1974     54.8276    187.1393   1.1429375322e+02   2.8942193903e+01    0.4314749    0.2266625  72.08  0.001684703    2.272    0.560
       179  -7.9817    230.4205    187.2785   7.5438110780e+01  -3.1760402545e-01    0.1768626    0.1177298 -41.99 0.0009387183    1.649    0.393
       180  -8.8979    164.8963    186.6752   8.8608121708e+01   1.1338539521e+01    0.3090409    0.2329348 -69.92  0.001171598    1.847    0.458
       181  -9.4232    248.7671    185.3547   7.1810516624e+01  -2.9098328567e+00    0.3288324    0.2367057  -0.19  0.001922902    1.308    0.235
       182  -8.8791    182.9998    185.1735   8.4399697707e+01   8.2984467013e+00    0.2875576    0.1934934 -51.77 0.0007495198    1.761    0.432
       183  -9.0601     66.6638    184.7099   1.1126493953e+02   2.7994538949e+01    0.3554436    0.2062795  66.82   0.00117701    1.929    0.482
       184  -8.6264    210.1422    184.3654   7.8700896469e+01   3.5762600161e+00    0.2226117    0.1724157 -18.56 0.0004601454    1.230    0.187
       185  -8.6713    202.7866    184.7796   8.0240602872e+01   4.7987237821e+00     0.256858     0.188284 -48.07 0.0008057648    1.598    0.374
       186  -8.2511    224.0129    183.5323   7.5879487725e+01   1.3391755470e+00    0.2028325    0.1614159 -23.12 0.0003690204    1.160    0.138
       187  -8.9021    174.1806    183.4076   8.5947883762e+01   1.0255577115e+01     0.289959    0.2227489 -56.46 0.0005807569    1.566    0.361
       188  -8.2616    196.8230    183.3765   8.1167917927e+01   6.1120193695e+00     0.185519    0.1718293 -24.15 0.0005187161    1.155    0.134
       189  -8.9084     44.3212    182.3653   1.1620318249e+02   3.1262259888e+01    0.3389426    0.1858035  71.48  0.001062762    1.974    0.494
       190  -8.1599      2.0275    183.6793   1.2558208199e+02   3.4977135270e+01    0.2010894   0.07835469  38.74  0.001064264    2.407    0.585
       191  -8.9035    192.7242    181.9957   8.1734962243e+01   7.1035095343e+00    0.2272115    0.1917142  25.61  0.000311956    1.118    0.105
       192  -9.3731    191.2252    178.2167   8.1285869985e+01   8.0693116572e+00    0.3165619    0.2588122  65.39 0.0007765456    1.661    0.398
       193  -9.3823    147.4948    180.7730   9.1429564260e+01   1.5740324759e+01    0.3566828    0.2818809 -85.07 0.0009686556    1.700    0.412
       194  -8.6018     21.1670    191.3038   1.2209693239e+02   3.1647437262e+01    0.2763334   0.08551717  52.95  0.001166751    3.111    0.679
       195  -8.9720     26.7752    181.1462   1.2006712372e+02   3.3376415507e+01    0.3124735    0.1587124  63.58  0.001608061    1.968    0.492
       196  -8.9578     24.3683    176.5742   1.2021363121e+02   3.4647171854e+01    0.3554613    0.1630154  85.48  0.001435081    2.332    0.571
       197  -7.6697    235.2832    181.6459   7.3437396325e+01  -2.2124002734e-01    0.1211114    0.1045317 -56.63 0.0003900322    1.662    0.398
       198  -8.1440     90.6640    181.6008   1.0511822835e+02   2.5291335653e+01    0.2557457    0.1343683  30.42 0.0009351886    2.118    0.528
       199  -7.8447    240.4533    179.9500   7.2179492700e+01  -7.8987073395e-01    0.1972368    0.1156932 -34.26  0.001016425    1.567    0.362
       200  -8.4858    137.4308    179.2802   9.3500764829e+01   1.7903406259e+01    0.2973497    0.1929127  67.95 0.0007965512    2.268    0.559
       201  -8.2157    169.1512    178.6845   8.6124187817e+01   1.2112542580e+01    0.2358035     0.199548 -55.32 0.0007082196    1.348    0.258
       202  -9.0260     35.8376    176.6133   1.1758630960e+02   3.3503645682e+01    0.5245577    0.2078064  80.33  0.001757181    4.508    0.778
       203  -9.5065    248.6915    176.9094   7.0146143145e+01  -1.6255411710e+00    0.4362991    0.2304039 -45.63  0.002070216    2.254    0.556
       204  -8.6326    250.4948    172.8750   6.9028888981e+01  -1.2913622357e+00    0.2112455    0.1642467 -34.96 0.0007076403    1.299    0.230
       205  -8.3426    217.7624    177.6764   7.5877371645e+01   3.3794014134e+00    0.2296707    0.1743796 -59.57 0.0009355114    1.935    0.483
       206  -8.7539    205.0202    177.5492   7.8337566710e+01   5.6650524581e+00    0.2572063    0.1911955 -50.73 0.0008364222    1.624    0.384
       207  -8.5878    129.1165    177.2182   9.5100434391e+01   1.9854775859e+01    0.2658879    0.1881271 -88.34 0.0007123014    2.034    0.508
       208  -8.5102    231.1588    176.8144   7.3206714153e+01   1.2299072066e+00     0.231817    0.1642623 -38.86 0.0007736697    1.438    0.305
       209  -9.1015    183.1062    176.4238   8.2634891391e+01   9.9201647865e+00    0.2588552    0.2416674 -44.82 0.0004946127    1.203    0.169
       210  -8.1928     97.7322    177.2634   1.0273722790e+02   2.5183700186e+01    0.1849861     0.165216 -23.17 0.0006869528    1.357    0.263
       211  -8.8586     89.0198    176.7824   1.0480174050e+02   2.6649927735e+01    0.2867866    0.2068967  82.60 0.0009192551    1.562    0.360
       212 -10.0195     57.1964    173.1126   1.1210846428e+02   3.1898449825e+01    0.8366218    0.3790906  80.64  0.002767551    4.341    0.770
       213  -9.0516     13.0109    176.6623   1.2275804817e+02   3.5640720845e+01    0.3120621    0.1377301  74.55  0.001479518    2.409    0.585
       214  -7.9543    211.5343    176.4886   7.6835845753e+01   4.6810803707e+00    0.1399594    0.1244041  -3.10 7.225815e-05    1.020    0.019
       215  -9.2599    158.9000    175.2495   8.7747460910e+01   1.4742132380e+01    0.3866149     0.277804  75.95  0.001396949    2.201    0.546
       216  -9.4670    104.0962    174.7735   1.0076882732e+02   2.4724872051e+01    0.5069389    0.3018751  63.85  0.001632102    2.180    0.541
       217 -10.8175     76.1156    169.6946   1.0695629490e+02   3.0205974226e+01     1.456994    0.5086369 -68.88  0.004933489    3.460    0.711
       218  -9.5632     81.6197    154.8145   1.0318309434e+02   3.2980864272e+01    0.5017018    0.3324129  76.96  0.001583779    1.923    0.480
       219  -8.7339    224.4665    174.4700   7.3957109177e+01   2.7528621592e+00    0.2166384     0.184909 -61.70 0.0007601234    1.663    0.399
       220  -7.7819    241.4694    174.4383   7.0888776630e+01  -9.1933568602e-02    0.1336879     0.111501  -8.82 8.195714e-05    1.010    0.010
       221  -9.3238    175.6950    172.3678   8.3409947371e+01   1.2110892161e+01    0.3522129    0.2414506 -44.42  0.001139164    1.513    0.339
       222  -8.5751    143.0777    172.7102   9.0927356436e+01   1.8265651245e+01    0.2496137    0.2053416 -66.46 0.0007314368    1.383    0.277
       223  -8.1760    194.4876    172.4526   7.9425782632e+01   8.5248213984e+00    0.1461224    0.1295429   2.32 0.0001722497    1.051    0.049
       224  -8.4126    134.9061    171.9312   9.2728551975e+01   1.9956745026e+01    0.2321432    0.1776751  75.21 0.0006655953    1.676    0.403
       225  -9.6474    121.2832    170.6476   9.5806140270e+01   2.2716147493e+01    0.4097153    0.2966684 -74.85   0.00107381    1.664    0.399
       226  -9.1497     45.1146    171.1183   1.1480829225e+02   3.3786294845e+01    0.3673607    0.1959085  84.67  0.001331632    2.160    0.537
       227  -8.3241    237.2166    169.8595   7.0695918892e+01   1.3387144397e+00    0.1936789    0.1677581 -33.73 0.0005418235    1.247    0.198
       228  -8.7266    230.4769    170.0457   7.1939210107e+01   2.4511117572e+00    0.2021276    0.1730288   0.19   0.00109716    1.057    0.054
       229  -8.3644    205.6784    170.1818   7.6681156944e+01   6.8540385619e+00    0.2126872    0.1706629 -47.54 0.0007222809    1.414    0.293
       230  -8.3818    198.0101    170.1359   7.8217976569e+01   8.2906645647e+00    0.2034654    0.1988337 -75.10  0.000538855    1.270    0.212
       231  -9.1108    167.1193    168.7298   8.4564942664e+01   1.4492190791e+01    0.3178025    0.2592664  80.81  0.001036923    1.691    0.409
       232  -8.6287    149.6989    169.6915   8.8771266021e+01   1.7655431014e+01    0.2765593    0.2274858 -80.20 0.0007202605    1.538    0.350
       233  -8.1358    244.2546    169.2328   6.9343804873e+01   2.7483543858e-01    0.1679528    0.1473815 -40.49 0.0005573232    1.353    0.261
       234  -8.6824     88.5789    168.7928   1.0367411861e+02   2.8585051077e+01    0.2465256    0.1702502 -73.91 0.0008615531    1.510    0.338
       235  -8.3535    218.9244    168.3573   7.3726164911e+01   4.7626366174e+00    0.1928018    0.1686715  11.69 0.0005390383    1.089    0.082
       236  -7.9519    211.4135    168.2204   7.5139506773e+01   6.1477719511e+00    0.1925611    0.1281809 -46.77 0.0005483445    1.664    0.399
       237  -8.8134    111.6992    167.3846   9.7596213916e+01   2.5142076047e+01    0.3685046    0.2452113  80.89  0.001226805    2.203    0.546
       238  -8.6023     12.9906    167.4915   1.2204554987e+02   3.7729752778e+01    0.2604379   0.09877786  69.01  0.001032584    3.429    0.708
       239  -8.7707    191.8925    166.7378   7.8764535498e+01   1.0084787358e+01    0.2715949    0.2041358 -44.15 0.0005402975    1.391    0.281
       240  -8.8468    184.9941    166.5498   8.0182169117e+01   1.1450808989e+01    0.2668381    0.2038771 -55.51 0.0006710099    1.559    0.359
       241 -10.1420     94.9614    162.8293   1.0105505736e+02   2.8997550192e+01    0.8797132    0.4884867  77.67  0.002998947    3.643    0.726
       242  -9.1787     20.4498    166.2766   1.2020824011e+02   3.7377856724e+01    0.3319095    0.1499678  62.50  0.001135381    2.430    0.589
       243  -9.8881    136.9825    164.5989   9.0795633724e+01   2.1181836488e+01    0.7005947    0.3211865  54.39   0.00238705    3.004    0.667
       244  -8.1636    233.8967    165.0900   7.0291203739e+01   2.6803557144e+00    0.1958755    0.1730977 -41.01 0.0005574279    1.304    0.233
       245  -8.7035    159.4227    164.3692   8.5414299922e+01   1.6893355399e+01    0.2955482    0.2415559  81.68  0.000852591    1.636    0.389
       246  -8.2525     55.3828    164.7719   1.1150164444e+02   3.4100756131e+01    0.1950801    0.1071307 -57.67  0.000592509    1.716    0.417
       247 -10.1073     33.6108    163.5083   1.1677378040e+02   3.6797176149e+01    0.5686302    0.2338547  56.54  0.002350871    2.838    0.648
       248  -8.1508    239.9868    163.9784   6.8989957958e+01   1.8234804578e+00    0.1899223    0.1612254 -57.08 0.0005776289    1.591    0.371
       249  -8.8049    212.9410    163.6853   7.3879745518e+01   6.6686375103e+00    0.2686341    0.1920979 -41.43 0.0006617143    1.417    0.294
       250  -8.6805    204.8555    162.6623   7.5246473595e+01   8.3674108782e+00    0.2650563    0.1796434 -52.28 0.0005169385    1.782    0.439
       251  -8.9858     60.4689    160.1317   1.0957454149e+02   3.4589561449e+01     0.320514    0.1997701  88.41 0.0009793536    1.817    0.450
       252  -9.4180      3.3296    162.4315   1.2386698299e+02   3.9632694926e+01    0.3726394    0.1604886  56.29  0.001849276    2.342    0.573
       253  -8.7557    151.6965    161.2932   8.6578385906e+01   1.9061927363e+01    0.3010676    0.2413634  83.39 0.0008497129    1.673    0.402
       254  -8.8891    177.4881    160.7808   8.0572751210e+01   1.4056026842e+01    0.2685474     0.233588 -87.74 0.0008137374    1.513    0.339
       255 -10.3083    250.1529    157.8651   6.5997802205e+01   1.1055065544e+00    0.7055722    0.3649758  32.53   0.00334549    2.220    0.550
       256  -9.1740    246.5663    155.5317   6.6099372954e+01   2.0768027734e+00     0.326618     0.190427 -21.45  0.001587195    1.754    0.430
       257  -8.5399    227.5110    159.3416   7.0219512707e+01   4.7659746802e+00     0.275382    0.2065621 -61.52 0.0009339698    1.950    0.487
       258  -8.5279    128.2899    159.0707   9.1834591568e+01   2.4059012358e+01    0.3325841    0.2360054  85.48 0.0009962966    2.092    0.522
       259  -9.7732    105.9508    158.1886   9.7373547840e+01   2.8276937168e+01    0.5148919    0.3384239  72.01   0.00126567    2.112    0.526
       260  -8.5461    236.9434    158.9842   6.8466639843e+01   3.1611792183e+00    0.1995026    0.1633022 -57.89 0.0007205162    1.634    0.388
       261  -8.5212    196.5903    157.9497   7.5893310574e+01   1.0834391913e+01    0.2652457    0.1732768 -49.83 0.0007846942    1.716    0.417
       262  -8.1604    188.0842    157.9914   7.7676910341e+01   1.2502158552e+01    0.2201536    0.1839339 -77.63 0.0006337191    1.654    0.396
       263  -9.1254    167.6138    157.4150   8.2048011025e+01   1.6712760501e+01    0.3334533     0.274482 -81.63  0.001084035    1.634    0.388
       264  -8.4227    217.9869    156.5523   7.1376870858e+01   6.9925246824e+00    0.2658993    0.1826773 -49.25 0.0006876705    1.656    0.396
       265  -8.7644    157.5357    155.6672   8.3996129148e+01   1.9105209793e+01    0.4020632    0.2445187 -43.60  0.001525335    1.659    0.397
       266  -9.3557    119.4439    155.1476   9.3291186134e+01   2.6598914551e+01    0.4636473    0.2952436 -72.80  0.001576554    2.106    0.525
       267  -9.3822     50.0079    155.6019   1.1167134979e+02   3.6943862519e+01    0.4545254    0.2240393  61.79  0.001752843    2.608    0.617
       268  -8.8049    246.0051    163.1127   6.7781554479e+01   9.5718848819e-01    0.2273835    0.1707252 -29.91 0.0005442115    1.184    0.155
       269  -8.0417    242.8343    155.1298   6.6638544473e+01   2.7770009463e+00    0.1876239    0.1395029 -12.52 0.0004831066    1.302    0.232
       270  -8.0434    204.6720    155.2096   7.3657540280e+01   9.7707954263e+00    0.2054653    0.1267456 -30.75 0.0006096021    1.606    0.377
       271  -9.2734    144.4805    154.4240   8.6853859549e+01   2.1979190128e+01    0.3703083     0.254877 -42.63 0.0009196299    1.476    0.323
       272  -9.7574    132.8519    152.9970   8.9432296705e+01   2.4570923970e+01    0.4728645    0.3502311  83.62  0.001316091    1.913    0.477
       273  -8.9838    133.6130    148.2168   8.8212701449e+01   2.5508169924e+01     0.370876    0.2302273 -46.37  0.001593714    1.614    0.380
       274  -9.8060     68.0877    153.7624   1.0662438693e+02   3.5146872564e+01    0.4968249    0.2824856  71.58  0.001465323    2.483    0.597
       275  -7.7956    239.9322    153.0166   6.6679444824e+01   3.6262219580e+00    0.1628804    0.1411767 -15.06  0.000418596    1.016    0.016
       276  -9.6100    233.2535    147.4626   6.6625260125e+01   5.7486767561e+00    0.3976414    0.1651766 -38.07  0.001132166    2.172    0.540
       277  -8.7349     19.8695    152.7749   1.1906563668e+02   4.0599745492e+01    0.1733745    0.1241016  70.70   0.00066706    1.340    0.254
       278  -8.5204      8.8417    153.1788   1.2182428013e+02   4.1369684306e+01    0.1634544    0.1258474 -57.86 0.0008776271    1.342    0.255
       279  -8.7984     98.2824    150.8902   9.8016268639e+01   3.1308829453e+01    0.3253281    0.2227715 -86.16 0.0009191109    1.908    0.476
       280  -9.8253     29.2426    150.5133   1.1643849900e+02   4.0317838312e+01    0.5219619    0.2434253  76.94  0.002073657    2.942    0.660
       281  -8.9292      3.1048    150.7018   1.2300647043e+02   4.2351746620e+01     0.293901    0.1285477 -87.01  0.001442414    2.041    0.510
       282  -9.7560    248.8421    149.5364   6.4455194717e+01   2.6570441712e+00    0.3468812    0.1928483 -33.04 0.0008838536    1.568    0.362
       283  -9.3451    242.7346    149.8776   6.5533665297e+01   3.6540399321e+00    0.3073102    0.2775811  42.35  0.001895541    1.323    0.244
       284  -8.3936    237.2298    150.2634   6.6548424996e+01   4.5602776494e+00    0.1996507    0.1675735  40.33 0.0004509084    1.344    0.256
       285  -8.8794    189.3294    150.2366   7.5685438793e+01   1.3761687860e+01    0.3461785     0.243976 -57.93 0.0009653052    1.774    0.436
       286  -8.0814    182.0534    151.0486   7.7424047824e+01   1.5080348470e+01    0.2326646    0.1897079 -84.76 0.0007500541    1.743    0.426
       287  -8.0090    162.7570    150.7842   8.1696735239e+01   1.9082177770e+01     0.206094    0.1829022 -88.02 0.0006149494    1.372    0.271
       288  -8.1774    212.9810    149.7448   7.0825378499e+01   9.1601399928e+00    0.1937062    0.1791002  -1.08 0.0003161026    1.047    0.045
       289 -10.0361     39.7015    147.4065   1.1330950812e+02   4.0053717843e+01    0.6554076    0.3443936  81.69   0.00229266    2.459    0.593
       290  -8.5915    198.8413    149.1087   7.3464438078e+01   1.2061943063e+01    0.2173028     0.199237 -58.72 0.0005446198    1.268    0.211
       291 -10.2893     89.1163    146.2343   9.9616941115e+01   3.3919008764e+01    0.6697469    0.3912266  87.74   0.00243448    3.093    0.677
       292 -10.3942    106.7041    143.8671   9.4347961413e+01   3.1550136276e+01    0.8513229    0.5813467 -77.16  0.002198395    1.870    0.465
       293  -9.1638     78.2635    147.2054   1.0277420466e+02   3.5328022630e+01      0.35443    0.2295989  84.45  0.001041581    2.059    0.514
       294 -10.2599     54.8784    144.8934   1.0883402415e+02   3.8990899281e+01      0.78127    0.3820491  69.29  0.002795618    3.597    0.722
       295  -8.2498    223.3644    146.7587   6.8226443202e+01   7.7066110646e+00    0.2462045    0.1642844 -27.46 0.0005857354    1.426    0.299
       296 -10.2027    148.9603    144.9057   8.3651807686e+01   2.3173821817e+01    0.5912623    0.4071871 -84.93  0.001475404    2.540    0.606
       297  -9.9539    139.1195    145.1151   8.6136330247e+01   2.5119709906e+01    0.4716061    0.3326914 -84.36  0.001132991    2.225    0.551
       298  -9.4051     13.5232    146.3833   1.2003299826e+02   4.2620267370e+01    0.3319205    0.1897784  64.86  0.001362421    1.836    0.455
       299  -9.5212    240.1799    145.2246   6.4955396481e+01   4.8749161897e+00    0.2414385    0.1834689 -42.90 0.0006233267    1.326    0.246
       300  -7.9933    175.5135    146.4745   7.7817972266e+01   1.7347513438e+01    0.1509901    0.1463252  -7.60 9.492603e-05    1.032    0.031
       301  -9.0205    165.4698    144.3240   7.9596994102e+01   1.9882725456e+01    0.2908585    0.2656746 -89.51   0.00074569    1.291    0.225
       302  -9.8955    125.1224    142.8649   8.9224827559e+01   2.8384410987e+01    0.5101978    0.3539116  89.20  0.001347803    2.284    0.562
       303 -10.8922     69.2529    141.0079   1.0419024336e+02   3.8118197902e+01     1.053705    0.6625456  88.74  0.004701031    2.083    0.520
       304  -9.4698     68.5346    134.9806   1.0331478678e+02   3.9701530158e+01    0.5677875    0.3226049   4.18  0.002093619    3.545    0.718
       305  -9.3426    246.9626    143.8667   6.3545409325e+01   3.9009121572e+00    0.2394856    0.1686101 -31.41 0.0006014471    1.230    0.187
       306  -7.7075    194.3696    144.1763   7.3252110402e+01   1.3910484555e+01    0.2100041    0.1339441 -49.37 0.0005565991    1.698    0.411
       307 -10.8686    243.1144    142.0349   6.3774995034e+01   4.8807308415e+00    0.7163329    0.2277397 -43.60  0.002511358    3.183    0.686
       308  -9.4979      2.6798    141.7818   1.2235441080e+02   4.4461178787e+01    0.3770272    0.1718532  76.68  0.001707326    2.433    0.589
       309  -8.8082    151.9151    152.3091   8.4594623414e+01   2.0957705964e+01    0.3607337    0.1970885 -31.79  0.001355846    2.290    0.563
       310  -8.2794    182.0936    141.8515   7.5303151046e+01   1.6911349005e+01    0.2253877    0.2058546 -74.16 0.0005556364    1.295    0.228
       311  -8.5820    250.3460    140.9973   6.2386795616e+01   3.7788000618e+00    0.1963658    0.1477943 -30.18 0.0004875505    1.138    0.121
       312  -7.8768    206.7695    146.4013   7.1273545431e+01   1.0988747907e+01    0.1935341    0.1730545 -33.82 0.0005512041    1.106    0.096
       313 -10.1421     23.4344    138.1978   1.1654001683e+02   4.3795852967e+01    0.5341542    0.2605814  69.64   0.00235045    2.696    0.629
       314  -8.0696    218.6373    138.7552   6.7287116628e+01   1.0037298584e+01    0.2036107    0.1245361 -44.27 0.0005526594    1.617    0.381
       315  -8.6061    172.3222    138.4678   7.6662105399e+01   1.9660424308e+01    0.3163535    0.2432701 -89.00 0.0008283819    1.944    0.486
       316  -9.1499    139.4669    137.7361   8.4358921721e+01   2.6708494084e+01    0.4278709    0.2663753 -12.41  0.001469179    3.103    0.678
       317  -8.2802    207.3205    138.0369   6.9249330938e+01   1.2429510539e+01    0.2097407    0.1755476 -38.55 0.0004604744    1.156    0.135
       318  -8.6899    197.5026    137.5838   7.1080617340e+01   1.4531292596e+01    0.2804864    0.2279489 -56.72 0.0007590165    1.407    0.289
       319  -9.4916     39.0391    136.1811   1.1195626682e+02   4.2863872083e+01    0.3222249    0.1926159  88.36 0.0007022501    1.880    0.468
       320  -9.0516    250.6788    129.9847   5.9947009933e+01   5.5086377438e+00    0.4739384     0.119065 -36.03  0.001548898    3.483    0.713
       321  -9.4054    248.2794    135.2831   6.1474748245e+01   5.0719778099e+00    0.3139462    0.2065129 -37.57 0.0008708887    1.336    0.251
       322  -8.4562    246.8690    130.1303   6.0566995493e+01   6.1708568325e+00    0.2466309    0.1701671 -36.12 0.0006804785    1.261    0.207
       323  -7.4673    192.3340    136.6823   7.1922595100e+01   1.5784183971e+01    0.1501214    0.1220867 -80.03 0.0007048264    1.695    0.410
       324  -8.2242    162.4249    136.2195   7.8397157015e+01   2.2236071771e+01    0.2205208     0.146183 -55.03 0.0008447435    1.698    0.411
       325 -10.4759     83.3994    132.9191   9.8618131992e+01   3.8061318641e+01    0.5710909    0.3362912 -71.07  0.001446357    1.979    0.495
       326  -7.7332    187.5824    135.5011   7.2632411319e+01   1.7017790954e+01    0.1508112     0.143438 -32.46 0.0001820857    1.058    0.055
       327  -8.5135    179.5191    134.0498   7.4011761067e+01   1.9026625662e+01    0.3067846     0.242703 -66.23  0.001012336    1.574    0.365
       328  -8.4548    151.7169    135.5930   8.0804971316e+01   2.4640252756e+01    0.2984161    0.1501904  39.34  0.001125288    2.051    0.512
       329  -8.2035    237.5739    133.8181   6.2876139745e+01   7.2665120876e+00    0.1999196    0.1168437 -45.11 0.0009364621    1.689    0.408
       330  -8.0612    231.4576    133.9663   6.3935128209e+01   8.3951714612e+00    0.2126366    0.1258325 -36.85 0.0003595265    1.517    0.341
       331  -9.1291    112.8642    133.3386   9.0377693405e+01   3.2937821557e+01    0.3697002    0.2690471  78.73  0.001061672    1.922    0.480
       332  -9.8307    142.6952    131.3586   8.2023094951e+01   2.7467223920e+01    0.4864972    0.3234538 -76.22   0.00141637    2.495    0.599
       333 -10.1419    132.3513    131.2460   8.4654744546e+01   2.9625381288e+01    0.6736753    0.4392785 -70.99  0.002024289    2.235    0.552
       334 -10.2909    130.6030    118.1429   8.1862199523e+01   3.2947313299e+01    0.7117954    0.3841594 -62.00  0.002488195    2.690    0.628
       335 -10.4206     98.0514    130.3011   9.3849112437e+01   3.6314256648e+01    0.7240523    0.3112908 -54.76   0.00180665    2.263    0.558
       336  -8.7731     99.4478    120.5185   9.1200202600e+01   3.8415318967e+01    0.4405698    0.2733369  -9.54  0.001409537    3.272    0.694
       337  -9.3992    168.2714    129.4545   7.5401735476e+01   2.2398243113e+01    0.3607778    0.2790178 -68.92 0.0008037259    1.652    0.395
       338  -9.3249    152.8421    129.0482   7.8940825078e+01   2.5822883126e+01    0.4454962    0.2742094 -58.83 0.0009535749    2.007    0.502
       339  -8.1297    153.7689    123.2312   7.7261124256e+01   2.6875314226e+01    0.2898849    0.1933559 -23.45  0.001040307    1.859    0.462
       340 -10.2797     12.8971    129.0399   1.1836250364e+02   4.6802580085e+01    0.5590816    0.2695728  83.86  0.002433527    2.431    0.589
       341  -7.6613    220.6586    130.2797   6.4974409902e+01   1.1151154544e+01    0.1386497    0.1137994 -73.91 0.0007008002    1.626    0.385
       342  -8.0815    204.2572    130.2156   6.8005470361e+01   1.4519138562e+01    0.2009636    0.1756099 -66.92  0.001036651    1.358    0.264
       343  -8.1845    192.8107    130.1341   7.0261301510e+01   1.6954452896e+01     0.227733    0.2009483 -58.17 0.0005785815    1.253    0.202
       344  -9.8176     73.1429    129.0844   1.0084457951e+02   4.0516858324e+01    0.4504087     0.282838 -82.23  0.001439785    2.067    0.516
       345  -8.0476      1.7351    130.5378   1.2156287807e+02   4.7162351862e+01    0.1535816    0.1020206  46.55 0.0009461815    1.680    0.405
       346  -8.0896    211.6756    129.3224   6.6386969073e+01   1.3146117959e+01    0.2231511    0.1720969 -69.39 0.0008736172    1.757    0.431
       347 -10.7682     45.0021    123.7187   1.0827247456e+02   4.5315278470e+01     1.092446    0.5552697  77.37   0.00385884    3.884    0.743
       348 -10.0075    118.1900    125.4146   8.7051491634e+01   3.3784040272e+01     0.604026    0.3990924  77.38  0.001421469    2.637    0.621
       349 -10.4060     59.9186    125.1796   1.0403580010e+02   4.3239538213e+01    0.6923061    0.4117103  79.55  0.002552176    2.652    0.623
       350 -10.4256     28.5345    122.6632   1.1303718703e+02   4.7140227405e+01    0.6935126    0.3418711  73.61  0.002764756    3.265    0.694
       351  -7.9066    228.4896    125.5461   6.2520940199e+01   1.0428575842e+01    0.1423754    0.1281807 -31.78 0.0003619667    1.039    0.038
       352  -8.9611    179.1857    124.7871   7.1817790530e+01   2.0964127176e+01    0.2971019    0.2539343 -74.61 0.0007559673    1.420    0.296
       353  -7.9497    244.3422    124.2550   5.9658506834e+01   7.6058905730e+00    0.1985133    0.1106048 -41.78 0.0005031225    1.617    0.382
       354  -8.0099    188.6321    123.8841   6.9595383080e+01   1.9072543199e+01    0.2215661    0.1351462 -49.46 0.0006113192    1.739    0.425
       355  -9.0311    158.5555    121.7560   7.5736916569e+01   2.6139958752e+01    0.3591799    0.2675707 -84.37  0.001073265    2.009    0.502
       356  -7.7631    202.7814    122.0697   6.6332659706e+01   1.6355884056e+01    0.1995998    0.1159214 -39.27 0.0003808085    1.621    0.383
       357  -8.0270    194.6504    121.8524   6.7871436077e+01   1.8152892221e+01    0.2169321    0.1328281 -47.07 0.0004908321    1.659    0.397
       358  -8.6236    171.9700    121.7725   7.2649075124e+01   2.3167553394e+01    0.2730612    0.2163873 -41.22 0.0005479471    1.235    0.190
       359  -9.5054     71.1759    119.9391   9.9565426535e+01   4.3036738770e+01    0.4695328    0.3111845  84.31  0.001814931    2.211    0.548
       360  -9.8945    141.5014    118.2564   7.9043178798e+01   3.0614005217e+01    0.5868144      0.31412 -56.23  0.001081396    2.281    0.562
       361  -8.9982     16.2096    119.0524   1.1618784969e+02   4.8969617723e+01    0.2484902    0.1295388 -28.91     0.001178    2.661    0.624
       362  -9.8115      2.9745    117.2098   1.1983091196e+02   5.0239300050e+01      0.51899    0.2433539  75.36  0.002371203    2.746    0.636
       363  -7.9730    231.5542    117.8114   6.0227277269e+01   1.1156152053e+01    0.2045708    0.1191449 -46.40 0.0009341953    1.683    0.406
       364  -7.9141    219.3057    116.6815   6.2019731124e+01   1.3845549217e+01    0.1449483    0.1109407 -65.77 0.0001900077    1.631    0.387
       365  -7.9758    185.4676    116.2354   6.8338200182e+01   2.1262802662e+01     0.210328    0.1415143 -50.30 0.0004698883    1.564    0.361
       366  -9.9210    109.2253    114.0780   8.6763957003e+01   3.8138759721e+01    0.5432308    0.3733477 -76.09  0.001571051    2.106    0.525
       367  -9.1293    109.7515    107.7337   8.4957832263e+01   3.9494337825e+01    0.4640702     0.288459  15.23  0.001661481    2.532    0.605
       368  -8.9489     59.0795    115.3663   1.0237206366e+02   4.5752268408e+01    0.3990483    0.2398477   4.09  0.001712809    2.607    0.616
       369 -10.9920    248.4699    107.4960   5.5293859490e+01   9.5750502738e+00     0.562777    0.2832251 -35.94  0.002607642    1.719    0.418
       370  -8.9386     84.9058    122.7091   9.6008543749e+01   4.0317010440e+01    0.4230764    0.2241949  17.99  0.001536187    3.041    0.671
       371 -10.0844     78.8847    112.4493   9.5512090993e+01   4.3727566377e+01    0.6596037    0.4140657 -83.92  0.002579469    2.595    0.615
       372  -9.0504     78.0332    105.4793   9.4108076551e+01   4.5519214981e+01    0.3794561    0.2322232  11.62  0.001573535    2.411    0.585
       373  -7.8494    167.4422    114.5003   7.1802585421e+01   2.5662885667e+01    0.1554163    0.1507692 -44.69 0.0001039364    1.045    0.043
       374  -9.9756    121.9738    112.4999   8.2742413019e+01   3.5991516790e+01    0.4100571    0.3091747 -63.07 0.0008944754    1.513    0.339
       375 -10.2638     92.9658    111.3657   9.0905451340e+01   4.1710228459e+01    0.9393155    0.4321269 -52.84  0.002867122    2.092    0.522
       376  -9.1528     27.3101    113.6774   1.1204490164e+02   4.9425029485e+01    0.2639957    0.1783492  -7.40 0.0008867224    1.986    0.496
       377 -10.0254     14.1456    111.3152   1.1576485402e+02   5.0965270851e+01    0.4171834    0.2269131  75.57  0.001583973    2.390    0.582
       378  -8.4983    174.8094    111.9454   6.9500601695e+01   2.4508406623e+01    0.2816753    0.2078667 -58.03 0.0006656172    1.545    0.353
       379  -8.5967    159.0949    111.6215   7.2975337269e+01   2.8138053808e+01    0.2943904    0.2133678 -55.97 0.0006289865    1.533    0.348
       380  -9.8194    133.5675    109.1239   7.8695489111e+01   3.4315045581e+01    0.6076809    0.2954459 -45.86   0.00156932    2.037    0.509
       381 -10.2088     66.4528    109.8418   9.8847715073e+01   4.6139479045e+01      0.65104    0.3355938 -59.39  0.002387876    1.819    0.450
       382  -8.4426    236.3487    111.3158   5.7965539093e+01   1.1305030518e+01     0.141675    0.1062246   4.89  0.000704752    1.727    0.421
       383  -7.8588    182.5613    109.4986   6.7215721480e+01   2.3225537402e+01    0.1538251     0.146621 -47.96 0.0001652944    1.056    0.053
       384  -9.4012     43.1280    109.5228   1.0630265881e+02   4.8980122607e+01    0.3070736     0.142371  19.89  0.001314405    2.746    0.636
       385  -8.3739    189.5254    108.1093   6.5438710142e+01   2.1910352485e+01    0.2986732    0.1777167 -52.61 0.0008414975    1.894    0.472
       386 -10.2575    119.1775    105.7659   8.1721895913e+01   3.8067231727e+01    0.5102125    0.4316343 -63.11  0.002532813    1.296    0.228
       387 -10.5243    108.7958     98.8098   8.2799679858e+01   4.1682485251e+01      0.76881    0.4687555  64.20  0.001050917    2.636    0.621
       388  -9.1405    108.3512     92.4295   8.1106189119e+01   4.3162758023e+01    0.5956476    0.2802503  28.89  0.002000796    3.042    0.671
       389  -9.5482    150.8329    103.5986   7.2788862091e+01   3.1664634378e+01    0.5246167    0.3440111 -72.93  0.001558547    2.571    0.611
       390 -10.5483     45.7662    102.5069   1.0403462389e+02   5.0398638797e+01    0.7716169    0.4407269  71.04    0.0030741    3.247    0.692
       391 -10.6159     22.8783    102.7014   1.1167287312e+02   5.2412494809e+01    0.7090439    0.3859021  73.73  0.002824293    2.861    0.650
       392  -8.4622    166.6918    104.3278   6.9276760073e+01   2.7880474281e+01    0.2793344    0.1803335 -49.70 0.0005865179    1.625    0.385
       393  -8.2007    192.9220    115.1898   6.6559891835e+01   1.9804487945e+01    0.2269473    0.1988407 -61.94  0.000471562    1.252    0.201
       394  -8.2187    232.6586    103.3200   5.6676959815e+01   1.3390594377e+01    0.1448862    0.1040997 -65.56 0.0003496608    1.718    0.418
       395 -10.0616    128.5045    102.2277   7.8161330853e+01   3.6893353178e+01    0.3687166    0.3151336  84.10 0.0008782865    1.442    0.306
       396  -9.1125      6.6423    102.8777   1.1694041541e+02   5.3422420873e+01    0.2751604    0.1750932  61.98  0.001257561    1.909    0.476
       397  -7.9876    175.5302    102.1209   6.6752358610e+01   2.6266545256e+01    0.2369156    0.1488355 -40.57 0.0006708879    1.548    0.354
       398  -8.2736    159.8921    101.1582   6.9964259670e+01   3.0082239727e+01    0.2360924     0.209554 -69.12  0.000480007    1.253    0.202
       399  -9.2512     82.0324     99.9234   9.1410826864e+01   4.6196999843e+01    0.3838122    0.2725456 -79.72 0.0008303153    1.993    0.498
       400 -10.2170     63.7761     96.0539   9.6469507223e+01   4.9776821348e+01    0.6028281    0.3773191 -79.32  0.001742723    2.435    0.589
       401  -9.2194     95.0285     97.1015   8.6515729402e+01   4.4641946275e+01     0.327379    0.2304739 -59.80 0.0005297176    1.566    0.361
       402 -10.1059    247.4488     93.0287   5.2178040025e+01   1.2090806937e+01    0.3067566    0.2208287  36.86  0.001660015    1.728    0.421
       403  -8.1045    188.6151     93.8209   6.1886439811e+01   2.4772633327e+01    0.2217637    0.1332226 -47.30 0.0004632511    1.683    0.406
       404  -8.2860    176.5238     93.2773   6.4154499601e+01   2.7711142359e+01    0.2803984    0.1436698 -42.61  0.000623249    1.909    0.476
       405  -8.2034    164.8810     94.1713   6.6898020012e+01   3.0286870483e+01    0.2348765    0.2071532 -68.02  0.000409288    1.249    0.200
       406 -10.4802    123.7845     91.0962   7.6263537341e+01   4.0259177631e+01    0.7144693    0.5360293 -10.23  0.002571563    1.665    0.399
       407  -9.3014    138.9670     92.3605   7.2578442413e+01   3.6649669686e+01    0.3574576     0.273771 -85.76 0.0008496658    1.863    0.463
       408  -8.9758     46.4769     92.5234   1.0159577801e+02   5.2690286233e+01    0.3878633     0.223363   8.28  0.001792111    2.363    0.577
       409  -9.6464      5.4560     92.3429   1.1580654644e+02   5.5951603468e+01    0.2832726    0.2028525  69.38  0.001225975    1.676    0.403
       410  -8.1463    157.8135     91.8057   6.7831641102e+01   3.2404269209e+01    0.2128315    0.1817531 -66.45 0.0004027677    1.318    0.242
       411  -9.5579     34.7528     89.7479   1.0512052169e+02   5.4500897683e+01    0.4659395    0.2656064 -83.72  0.001790187    2.546    0.607
       412  -9.3012    139.9428    104.8244   7.5855972115e+01   3.3850283905e+01    0.3821616     0.300414  89.29 0.0008520791    1.745    0.427
       413 -10.1787     86.5522     85.9614   8.6052099708e+01   4.8593202083e+01    0.6759023    0.4317484 -50.94  0.002496655    1.551    0.355
       414  -8.6679     64.6262     87.8884   9.4060020762e+01   5.1543755469e+01    0.3419915     0.190371   3.92   0.00128297    3.236    0.691
       415  -9.9787     48.3140     84.0591   9.8881641042e+01   5.4444406404e+01    0.5295634    0.3570928 -77.01  0.002219443    1.938    0.484
       416  -9.8118    104.5574     83.1549   7.9477152588e+01   4.5871631883e+01    0.4523791    0.3478846 -76.37   0.00102334    1.869    0.465
       417  -8.1517    158.0206     84.0064   6.5544956913e+01   3.3832950867e+01    0.2346843    0.1850007 -70.64 0.0004273338    1.557    0.358
       418  -9.0424    140.6586     82.9722   6.9372847739e+01   3.8110694931e+01    0.3746893    0.2478971 -56.38  0.001162851    1.818    0.450
       419  -7.2248    170.6904     83.7097   6.2711039059e+01   3.0855696632e+01    0.1531171    0.1201571  16.33 0.0002574215    1.581    0.368
       420  -9.4776      9.9503     81.1656   1.1236237203e+02   5.8288218130e+01    0.3683324    0.2060945  61.26  0.001459808    2.769    0.639
       421  -7.8982    185.2927     82.6426   5.9516776262e+01   2.7548124851e+01    0.1582805    0.1140346 -66.49 0.0007029913    1.691    0.409
       422  -9.1775     23.0664     90.3476   1.0938633519e+02   5.5319327682e+01    0.3144396    0.2403803  -9.70  0.001454969    1.524    0.344
       423  -9.6857     24.6563     80.6118   1.0681541807e+02   5.7450270160e+01    0.4177051    0.2738127  87.22  0.001492335    2.149    0.535
       424  -8.7305    199.7946     80.9516   5.6459037425e+01   2.4409671154e+01    0.2308737    0.1995842   3.97  0.001213281    1.371    0.270
       425  -8.4353    150.1947     80.6730   6.6368606055e+01   3.6310774452e+01    0.2744248    0.2023059 -49.42 0.0008137762    1.429    0.300
       426  -9.0327    119.4742     80.1135   7.4141465763e+01   4.3408612815e+01    0.3931973    0.2649094 -46.05  0.001228347    1.522    0.343
       427  -8.9655     74.4691     80.3328   8.8476255918e+01   5.1785073218e+01    0.3290915    0.2218884 -64.23  0.001145353    1.863    0.463
       428  -8.2521    166.8540     79.6830   6.2368224364e+01   3.2500899714e+01    0.2510746    0.2022464 -25.46  0.000359411    1.307    0.235
       429  -9.3184    128.1708     75.3714   7.0264005098e+01   4.2404832601e+01    0.3669765    0.2399688 -52.70 0.0006443682    1.769    0.435
       430  -8.7540    105.7380     77.1196   7.7229865392e+01   4.6863524078e+01    0.2934024    0.1911246  16.01  0.001020391    2.111    0.526
       431  -9.8747     63.5018     73.9948   9.0493371453e+01   5.4762058040e+01    0.6131696    0.2875445 -60.17   0.00234406    2.835    0.647
       432  -8.7124     64.1535     63.8507   8.7036120755e+01   5.6770547652e+01    0.4902233    0.2621215 -17.22  0.001846036    3.148    0.682
       433  -8.6521    140.5941     75.5868   6.7141236659e+01   3.9509433054e+01    0.2878176    0.2134842 -75.25  0.000606932    1.907    0.476
       434  -8.1869    163.4260     73.3406   6.1248912657e+01   3.4443492645e+01    0.2721924    0.1501805 -31.40 0.0007227925    1.911    0.477
       435  -9.6197     82.3616     72.7035   8.3379708703e+01   5.2106374650e+01    0.3754107    0.2692703 -64.67  0.001052101    1.885    0.470
       436  -8.8720     83.3139     65.7611   8.0763342998e+01   5.3324479554e+01    0.5437663    0.2921588 -15.39  0.001831901    3.672    0.728
       437  -8.0170    151.4955     73.5093   6.3916933136e+01   3.7297392584e+01     0.150396    0.1492451  88.06 0.0008103768    1.033    0.032
       438  -8.8542    115.5307     72.3877   7.2810481158e+01   4.5747273543e+01    0.4219006    0.1475492 -37.47  0.001382655    2.934    0.659
       439  -9.4375     95.1666     71.2009   7.8628415649e+01   5.0100396226e+01     0.482715    0.2526279 -53.28  0.001131714    2.373    0.579
       440  -8.6496     42.3459     72.3541   9.8020500524e+01   5.7705140915e+01    0.2489125    0.1560182 -76.74 0.0009479683    2.422    0.587
       441  -8.6354    175.1577     71.5492   5.8364551003e+01   3.1891070594e+01    0.3295257     0.177962 -48.88  0.001327655    2.000    0.500
       442  -8.8160    105.8483     71.7526   7.5464596410e+01   4.7892089589e+01    0.2800622    0.2112011 -46.16 0.0005706518    1.380    0.275
       443  -9.5834     51.4756     69.6581   9.3713075922e+01   5.7254849706e+01    0.4571244    0.2584552 -66.97  0.001409203    2.546    0.607
       444  -9.0955     16.8309     70.3344   1.0753586549e+02   6.0313733943e+01    0.2657562    0.1966272 -85.07  0.001139433    1.639    0.390
       445  -7.8602    157.2608     69.6462   6.1468775800e+01   3.6575232780e+01    0.1541124    0.1156701 -65.01 0.0002852074    1.616    0.381
       446  -8.8581    147.0737     68.2784   6.3332200589e+01   3.9270155396e+01    0.3248405    0.2085003 -42.48 0.0007601868    1.593    0.372
       447  -8.6734    138.8288     66.2793   6.4661036202e+01   4.1577373091e+01    0.3238308    0.2000809 -50.60 0.0008389777    1.862    0.463
       448  -8.7085    121.7347     66.1517   6.9031580421e+01   4.5533665322e+01     0.330071    0.2186843 -56.16  0.000930069    1.925    0.480
       449  -8.8333     37.3428     64.4568   9.7768976349e+01   5.9916877350e+01    0.2502234    0.2068981 -77.30  0.000842241    1.560    0.359
       450  -8.8316    110.1060     63.6140   7.1477489082e+01   4.8518280892e+01    0.3180046    0.2284097 -47.93 0.0008090351    1.531    0.347
       451  -8.1208    157.8784     61.8381   5.8976011899e+01   3.7717420917e+01    0.2046986    0.1752035 -70.41 0.0003537501    1.303    0.232
       452  -9.0635     29.2156     70.6751   1.0272001337e+02   5.9315294529e+01    0.4711448     0.215606 -19.93  0.001855038    3.490    0.713
       453  -9.6922     97.8579     60.0191   7.3972731182e+01   5.1677220046e+01    0.4756497    0.3151266 -24.46  0.002088449    1.600    0.375
       454  -9.6362     73.3833     59.5533   8.2146931022e+01   5.6192187758e+01    0.3887626    0.2373164 -49.69  0.001065828    1.773    0.436
       455  -7.8796    146.9818     59.0267   6.0457590320e+01   4.0827176526e+01    0.1860524    0.1627908 -31.28 0.0004892612    1.172    0.147
       456  -9.8225     23.5213     56.5749   1.0126757693e+02   6.2799650793e+01    0.4153802    0.2825625  89.68   0.00213744    2.585    0.613
       457  -8.3632    130.8526     57.9191   6.3915784119e+01   4.4852209581e+01    0.2294572     0.179941 -71.24 0.0006409839    1.683    0.406
       458  -9.3451      7.4829     57.2645   1.0832603735e+02   6.3700406582e+01    0.2741869    0.2084725  87.81  0.001142983    1.752    0.429
       459  -9.3484    119.1914     55.2427   6.6046468660e+01   4.7962794462e+01    0.5443292    0.2237426 -41.85   0.00156006    2.578    0.612
       460  -8.4611    140.0318     56.3214   6.1175282466e+01   4.2933921415e+01    0.2073828    0.1911755  54.76 0.0004229325    1.075    0.069
       461  -9.2144     54.1879     55.2053   8.7982594298e+01   5.9855431564e+01       0.2985     0.209314 -58.26 0.0008523627    1.757    0.431
       462  -8.7375     43.9798     55.2236   9.2163902591e+01   6.1109053129e+01    0.2837817    0.1765661 -58.76  0.001049968    1.870    0.465
       463  -8.3820    105.8193     53.1430   6.9097492706e+01   5.1226060661e+01    0.2114679    0.1971497 -60.82 0.0006325495    1.286    0.223
       464  -9.4910     92.3888     50.7178   7.2384318201e+01   5.4362660559e+01    0.4088168    0.2378051 -46.44  0.001156779    1.971    0.493
       465  -8.0799     89.3463     60.0986   7.6766027315e+01   5.3302167567e+01    0.2003459    0.1276891 -47.53 0.0009311163    1.710    0.415
       466  -8.8296    145.0292     49.0785   5.7707088267e+01   4.2827357437e+01     0.231012    0.1729833 -67.15 0.0005472838    1.679    0.405
       467  -8.1686    129.9133     48.9520   6.1135603252e+01   4.6475470205e+01     0.224113    0.1754959 -68.38 0.0005256992    1.658    0.397
       468  -8.9165    120.8735     47.5906   6.2939837281e+01   4.8779796388e+01     0.253355    0.2035553 -36.99 0.0003784664    1.309    0.236
       469  -8.3742    112.3910     47.2455   6.5095706564e+01   5.0740472083e+01      0.22501    0.1812835  78.91 0.0005941116    1.654    0.395
       470  -8.8757     82.1051     46.6498   7.4309152710e+01   5.6982930726e+01    0.2554029    0.2311092 -58.99 0.0006517399    1.447    0.309
       471  -8.5044     45.1152     44.7303   8.7993539063e+01   6.2982580686e+01    0.2058327    0.1624455 -44.84 0.0005667051    1.330    0.248
       472  -8.8790     16.6539     44.6322   1.0077135999e+02   6.5738072583e+01    0.2120918    0.1899194 -47.95 0.0007311835    1.261    0.207
       473  -8.9796    132.9297     43.5056   5.8567052051e+01   4.6551817354e+01    0.2606899    0.1944008 -51.42 0.0006842387    1.550    0.355
       474  -9.4352     69.7461     41.8544   7.6912968996e+01   5.9928786447e+01    0.3745202    0.2665966 -56.23  0.001525041    2.044    0.511
       475  -9.0681     58.2488     42.6469   8.1713417121e+01   6.1592387172e+01    0.2967302    0.2194617 -58.93  0.001142524    1.977    0.494
       476  -8.7464     92.8940     42.6772   6.9197673151e+01   5.5549238657e+01    0.2483394    0.1833831  -9.39  0.001233458    1.423    0.297
       477  -9.4393      5.1814     42.0759   1.0538456073e+02   6.6952351575e+01    0.3027284    0.1897062 -76.35  0.001443102    2.135    0.532
       478  -8.6370    105.9978     41.4920   6.4790766959e+01   5.2996173752e+01    0.2529793    0.1901483 -47.20 0.0006225749    1.570    0.363
       479  -7.4075    140.4354     41.4873   5.6213207933e+01   4.5021754793e+01    0.1425492    0.1353312  44.79  6.30744e-05    1.009    0.009
       480  -8.2345     37.0195     40.8380   9.0104414531e+01   6.4630982243e+01    0.1751103    0.1606409 -29.75 0.0005220623    1.271    0.213
       481  -8.5439     95.4741     37.9860   6.6579867129e+01   5.5722905570e+01    0.2446063    0.1879885 -44.02 0.0008908131    1.517    0.341
       482  -8.3641     80.5178     36.5278   7.0886538365e+01   5.8864620804e+01    0.2266919     0.119908 -43.54 0.0006253271    2.199    0.545
       483  -9.3555     26.1522     35.5315   9.3159654745e+01   6.6695293678e+01    0.2783403    0.2118248 -58.97 0.0008291896    1.675    0.403
       484  -8.6340    133.3934     36.1899   5.5964158299e+01   4.7430773294e+01    0.1953215    0.1290105 -40.70 0.0008682918    1.639    0.390
       485  -8.4819    125.9418     35.5068   5.7425708260e+01   4.9294898411e+01    0.2060917    0.1872193 -10.78 0.0003390285    1.145    0.127
       486  -8.6109    111.9892     34.7085   6.0612898614e+01   5.2616204311e+01    0.2414533    0.1900712 -55.52 0.0006657465    1.610    0.379
       487  -9.0244     48.4896     33.2683   8.2017049764e+01   6.4539132861e+01    0.2691193    0.1999069 -38.83 0.0007657306    1.385    0.278
       488  -8.5585     60.7404     32.7159   7.6675935987e+01   6.2835687219e+01    0.2130248     0.199718 -33.69 0.0007156925    1.379    0.275
       489  -8.9620     72.2299     31.1087   7.1598467824e+01   6.1157712236e+01    0.2419787    0.1986292 -41.31 0.0006607155    1.471    0.320
       490  -7.7087    139.2891     31.6476   5.3169075330e+01   4.6574180899e+01     0.142659    0.1062218 -65.23 0.0006687335    1.671    0.402
       491  -8.8953     12.9348     30.3690   9.7774209227e+01   6.8718635500e+01    0.2414142    0.1581678 -64.24  0.001425106    2.002    0.501
       492  -8.3859    101.5614     29.7110   6.1552848343e+01   5.5560763318e+01    0.2077753    0.1706029  79.92 0.0005788314    1.640    0.390
       493  -8.4153    118.9686     32.7094   5.8097933307e+01   5.1283544548e+01    0.2816503    0.1696486 -45.91  0.001041058    1.991    0.498
       494  -8.9662     81.3946     27.4420   6.6841716068e+01   5.9973234037e+01    0.2756284    0.2120434 -44.96 0.0008446518    1.638    0.389
       495  -8.5283      3.7991     28.0385   1.0166339806e+02   6.9727265724e+01    0.1603049    0.1366388 -46.26 0.0005212425    1.285    0.222
       496  -8.9277     91.6770     26.3832   6.3118505519e+01   5.8063457398e+01    0.2852322    0.2140596 -45.83 0.0009240868    1.671    0.401
       497  -7.7848    145.7666     26.0052   5.0039975493e+01   4.5650054444e+01    0.1710181    0.1175819 -26.00 0.0004310945    1.582    0.368
       498  -8.1062    104.6882     23.1578   5.8129904204e+01   5.5669394043e+01    0.1983981    0.1670574 -45.92 0.0005861011    1.432    0.302
       499  -7.9291     34.6394     23.3398   8.4061949353e+01   6.7873902833e+01    0.1051936    0.1002883  84.95 0.0007035471    1.827    0.453
       500  -8.9902     63.5419     21.0645   7.0471578558e+01   6.4036379054e+01    0.2802217    0.2055651 -50.67  0.001026297    2.056    0.514
       501  -8.9542     48.4438     21.8715   7.7051088739e+01   6.6291791970e+01    0.1991919    0.1875556 -15.11 0.0005483018    1.410    0.291
       502  -8.1214     19.5826     21.7316   9.0919374663e+01   6.9692535030e+01    0.1491534    0.1005551 -47.33 0.0005655136    1.569    0.362
       503  -8.1315    120.6385     20.8531   5.3369236917e+01   5.2284390199e+01    0.1876313    0.1201091 -37.07 0.0009410293    1.730    0.422
       504  -7.5494    112.2644     21.6719   5.5631321985e+01   5.4134058162e+01    0.1274332    0.1046948 -62.17 0.0002642752    1.570    0.363
       505  -8.9831     74.1781     19.7082   6.5965929089e+01   6.2315507325e+01    0.2615918    0.1851717 -44.56 0.0007057321    1.862    0.463
       506  -8.1632     12.0074     21.0019   9.4635752726e+01   7.0441766374e+01    0.1440987    0.1051476 -28.47 0.0005680437    1.041    0.040
       507  -8.2059     38.9656     18.5334   7.9801964348e+01   6.8064492291e+01    0.1844578     0.138878 -20.60 0.0007482383    1.152    0.132
       508  -8.1735     87.8608     17.7487   6.0675522221e+01   5.9865224400e+01    0.2258556    0.1589588 -49.69 0.0008226862    1.988    0.497
       509  -7.8350    112.9969     16.9634   5.3665110594e+01   5.4466947743e+01    0.1594932    0.1424164  33.59 0.0003425693    1.029    0.028
       510  -7.9760     30.0649     16.0611   8.2963337791e+01   6.9511204190e+01    0.1546085    0.1484662 -44.87 0.0008291823    1.700    0.412
       511  -8.2874     96.9175     15.1446   5.6995405437e+01   5.8238308059e+01     0.182467    0.1798504 -63.70 0.0005321441    1.267    0.211
       512  -8.4560    218.6241    248.2016   8.8391505089e+01  -7.2147422180e+00    0.2377075    0.1401188 -47.27  0.001322647    2.600    0.615
       513  -7.7191    235.4900     12.4525   3.5334465705e+01   2.5680051357e+01    0.1214315    0.1033704 -73.75 0.0008081553    1.051    0.048
       514  -8.9918    175.6701    247.9275   9.6414513574e+01  -9.0070858623e-01    0.2716037    0.2167946  69.41  0.001261118    1.917    0.478
       515  -9.1602    156.6266    247.8065   1.0009261317e+02   2.0238683625e+00    0.3186463    0.2535234 -59.09  0.001372334    1.651    0.394
       516  -8.8229    132.2386    248.0337   1.0489474264e+02   5.7115992981e+00    0.2527473    0.1782841  62.10 0.0006438941    1.591    0.371
       517  -8.3585    113.0358    248.7721   1.0872570119e+02   8.4545341644e+00    0.1967317    0.1437501  88.34 0.0008148649    1.688    0.408
       518  -9.2901    103.8143    246.9904   1.1032729674e+02   1.0102196490e+01    0.4058104    0.2266445 -84.24  0.001996091    2.718    0.632
       519  -7.8524     17.1314     14.2061   8.8877274227e+01   7.1124830217e+01    0.1396952    0.1226539 -11.36 0.0005461699    1.327    0.247
       520  -8.7529    242.7652    246.9819   8.3906332370e+01  -1.0301552842e+01    0.3194708     0.125547 -28.73   0.00162124    2.619    0.618
       521  -8.5817    232.5460    247.1647   8.5727994679e+01  -8.9838130768e+00    0.2003711    0.1503725 -24.17 0.0007167144    1.435    0.303
       522  -9.9598    223.9749    244.1670   8.6784527349e+01  -7.4488531206e+00    0.4128445    0.2263906 -44.60  0.002259741    2.565    0.610
       523  -9.2054    147.0391    245.9196   1.0172402221e+02   3.7916319044e+00    0.3055197    0.2028533  71.26  0.001552484    2.421    0.587
       524  -8.0454    148.6540    242.3157   1.0093185661e+02   4.1189170526e+00    0.1599319    0.1328162 -84.05  0.001013301    1.636    0.389
       525  -8.0194    146.2801    239.6512   1.0104996865e+02   4.9230866308e+00     0.202688    0.1320889  48.35 0.0004626875    1.440    0.306
