#   1 NUMBER                 Running object number                                     
#   2 MAG_AUTO               Kron-like elliptical aperture magnitude                    [mag]
#   3 X_IMAGE                Object position along x                                    [pixel]
#   4 Y_IMAGE                Object position along y                                    [pixel]
#   5 X_WORLD                Barycenter position along world x axis                     [deg]
#   6 Y_WORLD                Barycenter position along world y axis                     [deg]
#   7 A_WORLD                Profile RMS along major axis (world units)                 [deg]
#   8 B_WORLD                Profile RMS along minor axis (world units)                 [deg]
#   9 THETA_WORLD            Position angle (CCW/world-x)                               [deg]
#  10 FWHM_WORLD             FWHM assuming a gaussian core                              [deg]
#  11 ELONGATION             A_IMAGE/B_IMAGE                                           
#  12 ELLIPTICITY            1 - B_IMAGE/A_IMAGE                                       
         1 -13.5266    169.8267     55.5977   6.2055055447e+01   3.5413962025e+01     2.170176      1.41386  21.17  0.006345264    2.153    0.535
         2 -13.3880    184.8300     40.1158   5.4620600214e+01   3.3783303749e+01     1.003072    0.9309775 -41.53  0.003104055    1.085    0.079
         3 -12.8486    189.5991     34.1284   5.2094986499e+01   3.3335536527e+01    0.6439252    0.5789084 -39.72  0.001318345    1.123    0.110
         4 -11.9272    190.3640     15.3414   4.6455781999e+01   3.5347933035e+01    0.5786172    0.3489537  57.54  0.002636832    1.572    0.364
         5 -13.9035    207.4240      8.8751   4.2724740539e+01   3.1685061440e+01     1.200278     1.092381  17.59  0.004541075    1.324    0.245
         6 -11.5142    240.1779      2.2645   3.8207798355e+01   2.4473849031e+01    0.7472714    0.2191428  75.52  0.002820144    3.381    0.704
         7 -11.9665     59.0405    215.9615   1.2138213461e+02   2.3008460146e+01    0.2344096    0.1717863  74.07 0.0004643035    1.089    0.082
         8 -13.4947    246.1661    238.8621   9.0087212038e+01  -9.6023608259e+00     1.730305    0.7334989 -25.27  0.009201808    2.597    0.615
         9 -19.1847     25.9217    102.0012   1.1583686449e+02   5.1774890273e+01     17.52033     1.402096 -66.84   0.03471877   11.035    0.909
        10 -11.7740    150.8022    195.9826   1.0071268027e+02   1.2441010667e+01    0.3895575    0.3405659  61.76  0.002086683    1.150    0.130
        11 -11.4877     65.7174    195.3335   1.1817925215e+02   2.6227504073e+01    0.3289119     0.220296 -46.70  0.001278283    2.078    0.519
        12  -9.5382     81.7012    195.0479   1.1490006105e+02   2.4074324498e+01    0.2350028    0.2174454  45.97  0.001593565    1.309    0.236
        13 -10.9874     54.5007    210.8958   1.2179594796e+02   2.4553171202e+01    0.2174923    0.1570764  40.65 0.0004205102    1.516    0.341
        14  -9.3083    156.5401    190.4721   9.8607603320e+01   1.2392096779e+01    0.1367616    0.1234959  36.52  9.16707e-06    1.046    0.044
        15 -11.5045    149.9425    187.8797   9.9538190608e+01   1.4096096382e+01    0.2942494    0.2759492  77.48  0.001669919    1.125    0.111
        16 -10.4718     74.0154    207.5535   1.1778309481e+02   2.2652817167e+01    0.3325129    0.2287941 -49.44  0.001998485    1.953    0.488
        17 -12.3415     75.9117    181.0432   1.1444074280e+02   2.7840711121e+01    0.7494212    0.6928668  46.21  0.004997995    1.293    0.227
        18  -9.0346     65.9508    187.2357   1.1727202277e+02   2.7884017660e+01    0.1361644   0.09298701  49.17            0    1.373    0.272
        19 -12.5224     75.2690    249.0101   1.2119713648e+02   1.5033383933e+01    0.3182895    0.1510732 -61.14  0.001907837    2.475    0.596
        20 -11.5874     69.6986    208.8430   1.1874168295e+02   2.2987934523e+01    0.2023845    0.1496648  69.43 0.0003357676    1.111    0.100
        21 -12.9770     11.4997    206.5300   1.2922847626e+02   3.0106124654e+01    0.3276069    0.2178988  48.06  0.002075074    1.476    0.322
        22 -12.3501    145.2685    181.7018   9.9461576197e+01   1.6147025664e+01    0.5256814    0.3903868 -80.17  0.001904148    1.758    0.431
        23 -11.9727    142.5281    174.6411   9.8799382801e+01   1.8056630467e+01    0.4378207    0.3353872  20.86  0.002039308    1.581    0.367
        24  -9.9195    187.9751    173.4842   8.8961576949e+01   9.4102509939e+00    0.3846575    0.2703388 -71.42  0.001728215    2.423    0.587
        25 -11.4769    137.7001    171.8637   9.9360296337e+01   1.9529384249e+01    0.4038958    0.2734102  49.43   0.00165569    1.406    0.289
        26  -9.7335     91.3502    175.2658   1.1028391230e+02   2.6806695821e+01    0.3133228    0.1549479 -81.74  0.001200006    3.173    0.685
        27 -11.3981      6.4797    206.4972   1.3009045885e+02   3.0580714717e+01    0.1551632    0.1043573  89.22 0.0005282756    1.166    0.142
        28  -9.9265    189.1573    178.3464   8.9691388070e+01   8.3330823720e+00     0.371957    0.2702097  63.77  0.001223502    1.819    0.450
        29  -8.2374    164.6643    187.3120   9.6374340609e+01   1.1445731401e+01    0.1382074    0.1065309  73.58 0.0007045152    1.685    0.406
        30  -9.9344    240.4854    169.4738   7.8218686845e+01   8.8078672584e-02    0.1348336     0.116102   0.18 8.599336e-06    1.025    0.024
        31  -9.6700    187.0164    165.7351   8.7567827703e+01   1.0982447798e+01     0.351307    0.2120624 -44.92  0.001212381    1.781    0.439
        32  -9.7900      1.5774    163.0148   1.2843863276e+02   3.9845361147e+01     0.156796    0.1006823 -83.00 0.0005310334    1.180    0.153
        33 -11.3575     71.8415    244.8235   1.2144959203e+02   1.6179915138e+01    0.2085468    0.1532496 -78.28  0.000888039    1.452    0.311
        34 -11.0938     94.0165    157.5636   1.0694341749e+02   3.0317596283e+01    0.2601016    0.2353208 -86.84 0.0003835804    1.026    0.025
        35 -12.0260     99.5612    151.0450   1.0448043596e+02   3.0894571211e+01    0.6075947    0.4940812 -20.66  0.003207931    1.700    0.412
        36  -9.3894    187.5034    153.4947   8.4835263939e+01   1.3126060914e+01    0.1473521    0.1395733  13.91 0.0008106538    1.007    0.007
        37 -10.9943    133.9112    145.8094   9.5122538700e+01   2.5785677840e+01     1.215099    0.3094345 -54.77   0.00291369    5.916    0.831
        38  -9.9722    113.2075    151.4062   1.0123078771e+02   2.8451343992e+01    0.2719679    0.2166254 -81.49 0.0006980615    1.342    0.255
        39  -9.9082    174.6440    149.0860   8.6568877632e+01   1.6676753062e+01    0.2526411    0.2078875  56.76 0.0006268267    1.299    0.230
        40 -10.2020    144.4500    147.5302   9.3004931524e+01   2.3300198302e+01    0.4440391    0.2131277 -58.03   0.00160676    2.657    0.624
        41 -10.7862     61.7260    219.3537   1.2117601588e+02   2.2023655218e+01    0.2057242    0.1296644  88.89 0.0006440883    1.478    0.323
        42  -9.4537    115.5429    144.3985   9.9288385387e+01   2.9606578392e+01    0.2870421    0.1929003 -89.84 0.0007355092    2.124    0.529
        43 -11.2131    109.4605    137.9094   9.9483497560e+01   3.2190629017e+01    0.6264587    0.3348151 -38.26  0.002493026    2.366    0.577
        44  -9.0252    128.0513    139.3260   9.5147997320e+01   2.8369235740e+01    0.2154306    0.1884702  48.14  0.001133125    1.144    0.126
        45 -11.7756     98.2924    136.9488   1.0213934020e+02   3.4359051441e+01    0.2869435    0.2670887 -52.86 0.0004763956    1.123    0.109
        46 -10.9353    105.9126    130.8724   9.8913044648e+01   3.4448373090e+01    0.4084702    0.3165508 -65.73  0.001188389    1.283    0.221
        47 -10.0677    135.7396    127.8546   9.0638835043e+01   2.9359569590e+01    0.6160709    0.1318888 -48.24  0.001543844    4.784    0.791
        48 -10.0278    116.2874    128.6977   9.5747295167e+01   3.3038796243e+01     0.273464    0.2517073  -5.01  0.000613234    1.260    0.206
        49  -9.8604    160.3608    127.4771   8.4673096789e+01   2.4142090321e+01    0.3364331    0.2728167 -72.01  0.001599326    1.493    0.330
        50 -10.5336    104.0936    124.4260   9.7979708722e+01   3.6266679524e+01    0.3001069    0.2472678 -25.90 0.0006482052    1.445    0.308
        51  -9.6078    120.4946    123.4635   9.3449559181e+01   3.3417688676e+01    0.2726408    0.1363066 -39.27 0.0008287741    2.245    0.555
        52  -9.2778    135.0000    119.9532   8.8894646064e+01   3.1252130599e+01    0.2596029   0.08674077 -45.96 0.0008019329    2.939    0.660
        53  -8.9874    152.9909    119.4863   8.4386473079e+01   2.7449854312e+01     0.230111    0.1540855  44.37 0.0003746784    1.509    0.337
        54  -9.4025    111.0040    118.0870   9.4665340722e+01   3.6464328616e+01    0.2179202    0.2109092 -63.22 0.0003124324    1.022    0.021
        55  -9.8582    231.2181    113.7824   6.7124290953e+01   1.0777803164e+01    0.2529648    0.2308151  26.25 0.0007554885    1.144    0.126
        56  -9.6547    167.8003    112.7936   7.9227177695e+01   2.5456424977e+01    0.4086398    0.2729805 -79.60  0.001421107    2.687    0.628
        57 -10.3647    134.5843    105.5115   8.5233259479e+01   3.4486195312e+01    0.7079583    0.1475558 -45.18  0.001741803    4.712    0.788
        58 -10.9849    119.1390    110.5338   9.0608989141e+01   3.6600810140e+01    0.6013957    0.3751026  70.86  0.002273264    2.649    0.623
        59  -9.7381    205.4518    110.1462   7.0776889818e+01   1.7168751241e+01    0.3289269     0.218493  40.15 0.0008930871    1.596    0.373
        60 -10.1932     73.5678    103.2576   1.0175521909e+02   4.6154994191e+01    0.2645972    0.1277981 -59.13 0.0008464296    1.942    0.485
        61  -9.3716    184.4894    212.5082   9.6757381525e+01   3.6439285124e+00    0.2003951    0.1246387 -54.80  0.001026593    2.249    0.555
        62  -9.8686    189.8440     89.4053   6.8189665244e+01   2.4631014330e+01    0.3565445    0.3081048  71.19  0.001379266    1.267    0.211
        63  -8.7472     73.5315     73.5163   9.3849119031e+01   5.2856846635e+01     0.140897      0.12488 -39.30 0.0001148059    1.021    0.020
        64 -10.8975     61.6269    205.3433   1.1996035936e+02   2.4741005740e+01    0.2909312    0.1846382 -50.51  0.001699154    2.134    0.531
        65 -10.8419    193.7032    196.4121   9.2209925393e+01   4.4926419544e+00     1.061326    0.5211572 -60.48  0.003017087    7.202    0.861
        66  -9.6014     87.5655    202.8367   1.1460837462e+02   2.1651535430e+01    0.2045749    0.1711235  27.26 0.0008912048    1.557    0.358
        67 -17.5891     42.8746    242.8109   1.2608858957e+02   2.0127221278e+01     6.717444     4.423417  34.31   0.04700321    1.936    0.484
        68 -12.5428    199.0128     23.2775   4.7660086145e+01   3.2237106818e+01    0.6495821    0.3967062  65.16  0.003123119    1.556    0.357
        69 -10.5832     15.4549    201.2807   1.2823158162e+02   3.0750861735e+01    0.1091183   0.07826485  61.81 0.0007989301    1.205    0.170
