#   1 NUMBER                 Running object number                                     
#   2 MAG_AUTO               Kron-like elliptical aperture magnitude                    [mag]
#   3 X_IMAGE                Object position along x                                    [pixel]
#   4 Y_IMAGE                Object position along y                                    [pixel]
#   5 X_WORLD                Barycenter position along world x axis                     [deg]
#   6 Y_WORLD                Barycenter position along world y axis                     [deg]
#   7 A_WORLD                Profile RMS along major axis (world units)                 [deg]
#   8 B_WORLD                Profile RMS along minor axis (world units)                 [deg]
#   9 THETA_WORLD            Position angle (CCW/world-x)                               [deg]
#  10 FWHM_WORLD             FWHM assuming a gaussian core                              [deg]
#  11 ELONGATION             A_IMAGE/B_IMAGE                                           
#  12 ELLIPTICITY            1 - B_IMAGE/A_IMAGE                                       
         1 -14.8943    228.1615    102.7428   5.0183188230e+01   1.4879738654e+01     6.598482     2.950437 -45.53  0.005611181    1.992    0.498
         2 -11.4084    229.0609     30.7508   3.4234562289e+01   2.5481413733e+01     2.374403     1.308984  75.66   0.01313771    1.778    0.438
         3 -14.5619    178.6661     76.4371   5.1894991028e+01   3.0169830113e+01     6.876788     2.472732 -49.75  0.001851056    3.358    0.702
         4 -12.3491    249.9428     27.2229   3.1793177518e+01   2.1723036931e+01    0.9003541    0.2699361 -33.98  0.003826277    3.307    0.698
         5 -14.8776    238.0049     50.7976   3.7603606160e+01   2.1014971786e+01     5.311208     1.659729  60.87   0.02222138    3.256    0.693
         6 -11.8194    204.1047     37.9147   3.8397052027e+01   2.9997684652e+01    0.4796681    0.2017601 -40.15  0.001144512    2.182    0.542
         7 -11.7266    122.2531     37.2917   5.1752094292e+01   4.9529658608e+01    0.5648332    0.5070165 -86.84  0.001993714    1.266    0.210
         8 -10.5736      1.4772     23.0154   9.4414470203e+01   7.1303696166e+01    0.4550415    0.1528225 -49.95  0.001833151    2.410    0.585
         9 -10.1980      1.3166     18.4726   9.2675570997e+01   7.2085600586e+01    0.3671263    0.1288102 -50.23   0.00114528    2.511    0.602
        10 -11.1312    134.9476     15.6727   4.2080329570e+01   4.8916100804e+01    0.5392793    0.2374174 -18.96  0.002161731    2.925    0.658
        11 -10.5088    144.0884     18.7204   4.1493115082e+01   4.6423188297e+01    0.3854101    0.2183948 -21.88  0.001292138    2.112    0.526
        12  -8.7728    232.7251     12.2156   3.0120846551e+01   2.6889079237e+01    0.3877033    0.2510898   3.79  0.001865827    3.910    0.744
        13  -9.5132    207.6738     12.5660   3.2210076577e+01   3.2175582008e+01    0.2074891    0.1759715 -76.31 0.0006027114    1.059    0.055
        14  -8.8864    198.2252     12.6507   3.3097259753e+01   3.4273959020e+01    0.3483528    0.1538374 -80.96  0.001261348    2.968    0.663
        15  -8.5377    239.6466      7.4059   2.8694384146e+01   2.6016350674e+01    0.1246869   0.09650744 -45.14 0.0004935745    1.327    0.246
        16  -8.5908    233.4091      5.5812   2.8755269514e+01   2.7463381153e+01    0.1658826    0.1380378 -36.88 0.0005379635    1.444    0.307
        17  -7.8377    236.4951      3.4599   2.8137807585e+01   2.7063027819e+01    0.1871238    0.1151563  67.68 0.0005759865    1.673    0.402
        18 -11.8376    237.0913     16.7459   3.0703105764e+01   2.5495754375e+01    0.4966746    0.2945943 -19.65  0.002643185    2.623    0.619
        19 -10.5904    217.0895      4.1246   2.9619474578e+01   3.1009252877e+01    0.2252155    0.1729025 -28.17 0.0006200494    1.611    0.379
        20  -8.7746    209.7285      4.4517   3.0256764712e+01   3.2561397469e+01    0.2209974    0.1137156 -50.69  0.001225365    1.752    0.429
        21  -9.3542    118.8337      3.1566   4.0805559728e+01   5.3805666076e+01    0.1822972    0.1291607  40.21 0.0006350245    1.355    0.262
        22  -9.5537    113.7706      2.8567   4.1633047135e+01   5.5003532105e+01    0.2426853    0.1548695 -84.37  0.001230855    2.087    0.521
        23  -8.4835    242.9395      1.1670   2.7300521790e+01   2.6024403983e+01    0.1311946   0.06959397  83.02            0    1.702    0.412
        24  -9.6849    125.5252      1.6231   3.9145970340e+01   5.2356929015e+01    0.3704962    0.1044094  67.05  0.001385011    2.996    0.666
        25  -9.2058    181.9218      2.8876   3.2347388522e+01   3.8954337346e+01    0.4898413    0.2062465 -73.61  0.001953024    3.332    0.700
        26  -8.6574    210.4759    187.9915   7.1714716680e+01   2.5439453302e+00    0.1873846      0.11951 -59.97 0.0006374507    2.621    0.618
        27  -8.5055    195.0845    250.5855   8.5899559916e+01  -5.4802084858e+00    0.1774179    0.1016164  29.19 0.0002595793    1.488    0.328
        28  -8.1048    200.9543    182.4350   7.2508739573e+01   5.1487941664e+00    0.1701571    0.1255617  64.18 0.0003530152    2.195    0.544
        29  -9.5242    235.6939    179.6139   6.5333798237e+01   4.1148737442e-02    0.2228465    0.2016304 -24.01 0.0006136179    1.206    0.171
        30  -8.7875     37.6335    180.1006   1.1231603217e+02   3.2010711197e+01    0.1779343    0.1647403  72.21 8.792668e-05    1.109    0.098
        31 -11.5702      2.3759    170.9294   1.2021406280e+02   3.7390644075e+01    0.7470132    0.2571176 -77.28  0.003242823    2.391    0.582
        32  -8.6062    172.9763    174.9238   7.6973128679e+01   1.1626758480e+01    0.2236497     0.187697  82.82 0.0006748221    1.695    0.410
        33 -12.7843    178.2114     90.4432   5.5673055944e+01   2.7807542596e+01     1.666253      1.18211  56.24  0.005624003    1.455    0.313
        34  -9.4481    249.8418    249.1595   7.5461505985e+01  -1.2145572447e+01    0.1949628    0.1243075  -6.73  0.001059549    1.270    0.213
        35 -11.4139     67.6946    144.1565   9.8802028454e+01   3.7543063048e+01     1.696042    0.8509226  40.95  0.005205092    2.084    0.520
        36 -13.3501     33.6859    155.0941   1.1045679617e+02   3.8701887966e+01     1.722186     1.195794   1.66  0.002140875    1.956    0.489
        37 -12.1296    199.8744     80.6529   4.9353478802e+01   2.4601596633e+01     1.073374    0.5008531  40.84  0.003279264    3.039    0.671
        38 -10.9201    190.5447    153.6532   6.8543043117e+01   1.2673143736e+01    0.6028923    0.4452488 -81.46  0.002639169    2.300    0.565
        39  -9.8457    133.9698    145.1731   7.9981273401e+01   2.5853065962e+01     1.297201    0.3422836 -55.28  0.002694125    6.878    0.855
        40  -9.8520    173.4199    149.7297   7.1378308067e+01   1.6861352683e+01    0.2754169    0.1893568  18.66  0.001192014    1.820    0.450
        41 -11.2234    180.4502    145.3008   6.8804095986e+01   1.6379766742e+01    0.4955391    0.4550138  14.71 0.0002458089    1.111    0.100
        42 -10.8375    177.1312    139.8814   6.8268017425e+01   1.8189481092e+01    0.4093441    0.3519613 -36.69  0.001499515    1.106    0.096
        43  -9.0038    222.8321    145.1134   6.0433872413e+01   8.2871007348e+00    0.2022828    0.1776035 -51.23  0.000358814    1.230    0.187
        44 -10.1483    192.2865    143.8878   6.5977287343e+01   1.4303100365e+01    0.3549245    0.2475799 -30.03  0.000580843    1.423    0.297
        45 -10.5991    186.4594    141.5582   6.6652366568e+01   1.5940410681e+01    0.4058255    0.2726331 -17.90  0.001249521    1.871    0.466
        46 -10.9976    190.6885    138.4169   6.5044570887e+01   1.5724796108e+01    0.4470238    0.3678872  39.56  0.001553463    1.289    0.224
        47  -9.0831    158.4957    143.1923   7.3334352177e+01   2.1320548398e+01    0.3001253    0.2259252  42.25  0.001399307    1.363    0.266
        48  -7.7777    124.1544    142.5744   8.2019117336e+01   2.8404586308e+01    0.1930851    0.1526404  20.13 0.0002472971    1.408    0.290
        49 -10.5965    156.5236    137.3722   7.2425440654e+01   2.3019426698e+01    0.5186442     0.358485  46.64  0.002313118    1.509    0.337
        50 -11.0458    202.8466    132.6373   6.1302209610e+01   1.4428518967e+01    0.4942277    0.3821957 -54.27  0.002207087    1.364    0.267
        51  -9.8579    198.2498    127.9956   6.1103275821e+01   1.6258107357e+01    0.3888996    0.2438888 -69.79  0.001493565    2.776    0.640
        52 -10.6717    190.0956    131.4654   6.3536312310e+01   1.7244462000e+01    0.4293388    0.2938779 -54.38  0.001970734    1.588    0.370
        53  -9.6198    233.9943    246.0076   7.7761656158e+01  -9.8860016027e+00    0.1474876    0.1102374  -1.57 0.0004649856    1.017    0.016
        54  -8.5503    136.2710    129.1887   7.5540865869e+01   2.9112463650e+01     0.328717    0.1325328 -41.10  0.001069722    2.569    0.611
        55 -10.5096    160.8185    128.0521   6.9121716770e+01   2.4149031155e+01     0.466719    0.3609467 -56.93  0.002184228    1.397    0.284
        56 -13.0092     44.6189    150.6001   1.0672072197e+02   3.8722971994e+01     1.101174    0.9355309 -25.95  0.003122631    1.374    0.272
        57  -9.7511    208.9444    126.7839   5.8821330393e+01   1.4336967402e+01    0.2743385    0.2391126   0.59  0.001508122    1.275    0.216
        58 -10.6418    214.7329    121.0373   5.6479719122e+01   1.4264239797e+01    0.4711302    0.2380561 -51.92  0.001577741    2.169    0.539
        59  -9.1564    246.7661    235.8074   7.3762822253e+01  -1.0047273046e+01    0.2507193   0.07771799  27.01  0.001021625    3.554    0.719
        60 -13.5973    232.7178     66.7438   4.1597881614e+01   1.9784734489e+01     1.395631     0.786644  69.72  0.005925149    1.971    0.493
        61  -8.5460    177.7436    121.9486   6.3808394321e+01   2.1780899601e+01    0.2209537    0.1953628 -45.69 0.0004729021    1.095    0.087
        62 -10.1199    162.4771    120.0194   6.6716736811e+01   2.5506823061e+01    0.3991204    0.2682821  84.22  0.001481725    2.716    0.632
        63 -12.6534    248.1559     58.2801   3.8137866364e+01   1.7967628175e+01    0.8097641    0.2489578 -42.77 0.0004186709    2.547    0.607
        64  -8.8647    172.0452    116.5308   6.3683112288e+01   2.4130188261e+01    0.2314217    0.2029974 -43.15 0.0003338317    1.097    0.089
        65 -10.2869    167.7339    114.1603   6.4028443596e+01   2.5568372094e+01    0.5727862    0.3536434 -40.38  0.002460614    1.569    0.363
        66 -10.3199    201.4991    116.0057   5.7657459074e+01   1.7895072767e+01    0.2716248    0.2623473  18.81  0.001189093    1.121    0.108
        67  -9.7227    205.2823    115.0166   5.6738791121e+01   1.7295730502e+01    0.3133783    0.2474998 -71.92 0.0008412407    1.521    0.343
        68 -11.4662    204.7704    110.4185   5.5741013191e+01   1.8258750095e+01    0.6553168    0.4046098  42.02   0.00302958    1.843    0.457
        69  -7.7428    129.7175    116.7335   7.4108964152e+01   3.3333002477e+01    0.1538374      0.12441  -2.57 0.0002946174    1.490    0.329
        70  -9.3619    135.7232     98.7748   6.7594703914e+01   3.5933933650e+01    0.3041472    0.2658595 -66.14  0.001513023    1.273    0.215
        71 -10.2595    134.7251    109.4355   7.0809289387e+01   3.3881364019e+01     1.022339     0.191873 -45.29  0.002348342    5.332    0.812
        72  -8.1860     72.6137    111.7657   9.0354453187e+01   4.5057776082e+01    0.1924994    0.1393865 -62.96  0.000297934    1.436    0.303
        73  -9.2196    126.2983    111.0252   7.3524867613e+01   3.5340097745e+01    0.2349252    0.2090952 -40.80  0.001092121    1.105    0.095
        74  -7.9460    108.6912    110.7585   7.8537843819e+01   3.9002747460e+01    0.1521417     0.121346  -0.14 0.0002194301    1.498    0.333
        75  -8.1288    138.4902    108.4831   6.9562675283e+01   3.3264121414e+01    0.1573092    0.1534989 -15.36 5.972394e-06    1.010    0.010
        76  -8.0042    143.7961    106.3652   6.7630591184e+01   3.2540633478e+01    0.2179535    0.1457822  35.45 0.0004046712    1.618    0.382
        77  -9.8557    126.6438    103.7840   7.1439234115e+01   3.6861652663e+01    0.3864461    0.2693509 -68.13  0.001602529    1.969    0.492
        78  -9.5198      3.1599    105.1285   1.1322198340e+02   5.3552438257e+01    0.1696907    0.1367275  84.37 0.0003332036    1.329    0.247
        79  -9.6641    150.0395    102.9643   6.5165846168e+01   3.1845634460e+01    0.3300534    0.2835518   5.30 0.0006014953    1.340    0.254
        80 -10.6250    161.4425     98.0400   6.1186218992e+01   3.0230816522e+01    0.6111975    0.3849027  42.52  0.002653953    1.668    0.400
        81  -9.9905    197.5281     97.2399   5.3831351882e+01   2.2226915140e+01    0.3511896    0.2316448 -56.51  0.001449119    1.614    0.380
        82 -10.2654     90.6947     93.2561   7.9304362107e+01   4.6394461995e+01    0.2579918    0.2445818 -12.79 0.0002585879    1.015    0.015
        83 -11.4787    159.9957     89.0580   5.9053063336e+01   3.2290866659e+01    0.3786896    0.3134586 -29.08 0.0006447388    1.264    0.209
        84 -10.2179    144.1471     93.3581   6.3929819570e+01   3.5129474126e+01    0.3451335    0.2982053 -51.11 0.0006011227    1.184    0.156
        85  -9.1502    194.3592    233.6493   8.3321528617e+01  -2.7800088036e+00    0.2279717    0.2067531  64.01 0.0008317587    1.707    0.414
        86 -10.3378    214.4049    227.7113   7.8337927233e+01  -4.7025236692e+00    0.2337786    0.1917398 -11.03 0.0004182951    1.109    0.098
        87 -10.6866    129.3106     77.3351   6.2961290666e+01   4.1606216958e+01    0.6183962    0.1761719  45.55  0.001836249    3.470    0.712
        88  -9.6012    155.2591     66.6351   5.3714184042e+01   3.7364695187e+01    0.3769098     0.188308 -48.50  0.001200334    2.207    0.547
        89 -10.7845    154.0144     59.4743   5.1882859637e+01   3.8803950787e+01    0.4628292    0.2700969 -30.06  0.002057542    1.884    0.469
        90 -11.2789    159.0353     74.4943   5.5182710958e+01   3.5142789014e+01    0.5455536    0.2811754  51.85  0.002248633    1.900    0.474
        91 -11.1325    151.2369     71.6172   5.6014889741e+01   3.7492261461e+01     0.428331    0.3410706 -71.17 0.0004983837    1.468    0.319
        92 -11.0049    156.5031     71.0220   5.4720367785e+01   3.6338084888e+01    0.4925053    0.2500223  53.75    0.0020222    1.917    0.478
        93 -10.0168    138.8526     71.8376   5.8904999553e+01   4.0384233400e+01    0.2223323    0.2004132  20.80 0.0003861931    1.176    0.149
        94  -9.9245      1.9809     60.7676   1.0563077018e+02   6.3880450802e+01    0.2471728    0.1106615 -49.24  0.001287685    1.632    0.387
        95  -8.8330    137.2880     60.3305   5.5743092704e+01   4.2673748183e+01    0.1480478    0.1126439  18.14 0.0003466815    1.620    0.383
        96  -9.0119    125.1613     58.4404   5.8066070043e+01   4.5818278632e+01    0.2417846      0.19993 -28.37 0.0002734726    1.271    0.213
        97 -11.0449      6.9789     54.2792   1.0168149043e+02   6.5003839062e+01    0.3811795    0.1139811 -46.88  0.001684098    2.318    0.569
        98 -14.3467    218.6131     72.5295   4.4666667974e+01   2.1830794225e+01     3.756717     1.699944  75.61    0.0139285    3.534    0.717
        99  -8.2174     71.1783     53.2129   7.3025129995e+01   5.7818350623e+01      0.17144    0.1618729 -40.38 0.0004733176    1.295    0.228
       100 -11.0234      3.7995     47.6799   1.0139497886e+02   6.6530182752e+01    0.3062465    0.2432902 -28.34   0.00211105    1.084    0.077
       101  -9.2077    182.2241    227.7739   8.4836825727e+01  -3.7804843941e-03    0.2026709    0.1825719  26.74 0.0003309742    1.219    0.180
       102  -8.3552    190.1459     35.8124   3.9581277034e+01   3.3466101344e+01    0.1632198    0.1553285   4.49 0.0008712559    1.326    0.246
       103  -9.2651    183.7036    223.1297   8.3740223232e+01   5.6591714212e-01    0.2279467    0.1936938  29.74 0.0003098722    1.205    0.170
       104 -10.2416      2.4303     37.8806   9.9143478539e+01   6.8534151561e+01    0.3327055    0.1484247 -62.91  0.001627598    2.507    0.601
       105 -10.0313    190.7888     40.5027   4.0672283904e+01   3.2714113874e+01    0.3843394    0.2561513  61.70 0.0009643201    1.454    0.312
       106  -8.4039     73.6808    223.6923   1.0842897590e+02   1.7398387215e+01    0.1220314    0.1020983 -21.37 0.0007032109    1.637    0.389
       107  -8.7373    184.5004    218.8479   8.2832005392e+01   1.1881385435e+00    0.1896517    0.1284298 -37.98  0.001009582    1.521    0.343
       108  -9.7544    179.2317     23.9642   3.7948405625e+01   3.7440697612e+01    0.4262131    0.3205461 -89.08   0.00214294    1.241    0.194
       109  -8.5457    159.4337     23.3003   4.0457779826e+01   4.2244232071e+01    0.2188841    0.1344021 -23.77 0.0008816783    1.929    0.482
       110  -7.6785    211.6440    216.2737   7.6848278586e+01  -2.4936136861e+00     0.115887    0.1040947  52.48 0.0004048932    1.646    0.392
       111 -10.3876     38.3392    212.9154   1.1527379261e+02   2.4175014661e+01    0.3817208    0.2605967 -38.41  0.002097409    2.114    0.527
       112  -8.5187    116.2890     21.7091   4.7732938949e+01   5.2723995399e+01    0.1254067    0.1010203 -76.58 0.0001668756    1.543    0.352
       113  -9.2894    188.8969     19.6989   3.5737795908e+01   3.5652900793e+01    0.1901301    0.1657194 -51.84 0.0005185091    1.196    0.164
       114  -9.5851    121.4074     19.1031   4.5750466630e+01   5.1793446973e+01    0.2559626    0.1642489 -73.56  0.001210654    2.312    0.568
       115 -11.2797    186.4291     86.7663   5.3179802675e+01   2.6585545640e+01    0.4256193    0.3634365 -53.61 0.0003893933    1.125    0.111
       116  -8.2230    189.8336     14.8745   3.4462095704e+01   3.5953755107e+01    0.1842183    0.1271777 -70.01  0.000651705    1.374    0.272
       117 -10.0152    151.2405    212.4758   8.9022019131e+01   7.7675121340e+00    0.2315978    0.2194994 -23.94  0.000271977    1.127    0.112
       118  -9.9607    247.4446    209.7653   6.9032286191e+01  -6.4203400303e+00    0.3894084    0.2417634  46.58  0.001513539    2.486    0.598
       119  -9.1444     20.9078    211.6464   1.1896215741e+02   2.6292191686e+01    0.2969047    0.1012578  31.14  0.001322957    2.861    0.651
       120  -8.1745    103.1755    208.1673   9.9626538442e+01   1.6510230477e+01    0.1828846    0.1484419  60.09 0.0002602981    1.243    0.195
       121  -8.2694    221.9897    205.9492   7.2949104106e+01  -2.3171540372e+00    0.1729098    0.1635053 -66.86 0.0005212315    1.636    0.389
       122  -9.5647    247.7614    202.8055   6.7691662329e+01  -5.4089357671e+00    0.2677208    0.1563795  38.54   0.00119936    2.020    0.505
       123  -8.9578     22.7960    202.3763   1.1787026276e+02   2.8208506951e+01    0.1571867    0.1200945  16.17 0.0009562705    1.721    0.419
       124  -9.4148    194.9585    198.9421   7.6995708105e+01   3.0875320564e+00    0.3681824    0.2255989 -62.00  0.001518124    3.006    0.667
       125  -9.6882    190.9938    191.4881   7.6383078495e+01   5.1345634560e+00    0.6388936    0.3603296 -62.70  0.002291958    3.764    0.734
       126  -9.4592    237.5828    197.9050   6.8555458891e+01  -3.2514678536e+00     0.275186    0.2172413  57.46  0.001576308    2.149    0.535
       127  -8.8175    174.0371    198.0364   8.1312723060e+01   6.7648140313e+00    0.2082071    0.1858076   0.58  0.001183715    1.023    0.022
       128  -9.3279     35.5276    195.9650   1.1441299369e+02   2.8399798349e+01     0.191771    0.1808574 -17.93 0.0004631456    1.379    0.275
       129  -8.1634    159.5095    195.4910   8.4113067968e+01   9.7902591628e+00    0.1447692    0.1355345  14.73 0.0005225987    1.044    0.042
