#   1 NUMBER                 Running object number                                     
#   2 MAG_AUTO               Kron-like elliptical aperture magnitude                    [mag]
#   3 X_IMAGE                Object position along x                                    [pixel]
#   4 Y_IMAGE                Object position along y                                    [pixel]
#   5 X_WORLD                Barycenter position along world x axis                     [deg]
#   6 Y_WORLD                Barycenter position along world y axis                     [deg]
#   7 A_WORLD                Profile RMS along major axis (world units)                 [deg]
#   8 B_WORLD                Profile RMS along minor axis (world units)                 [deg]
#   9 THETA_WORLD            Position angle (CCW/world-x)                               [deg]
#  10 FWHM_WORLD             FWHM assuming a gaussian core                              [deg]
#  11 ELONGATION             A_IMAGE/B_IMAGE                                           
#  12 ELLIPTICITY            1 - B_IMAGE/A_IMAGE                                       
         1 -15.0057      6.6281     25.5044   2.9190758612e+02   7.4410759549e+00    0.1053223   0.05581263 -62.73  0.008878698    1.898    0.473
         2 -12.5317     41.8742     33.4747   2.9154831344e+02   7.1388913652e+00   0.04298808   0.03050411  57.09  0.003154512    1.619    0.383
         3 -13.8207    138.6669      4.2659   2.9024655794e+02   6.8940483042e+00    0.2228163   0.05873246  21.82    0.0116303    6.322    0.842
         4 -13.0374     80.2809     31.5915   2.9109174985e+02   6.9306038244e+00   0.04743065   0.03239681  47.10  0.002946982    1.552    0.355
         5 -13.4083     83.2016     22.4846   2.9100156243e+02   7.0177771945e+00   0.05300264    0.0335591  34.61  0.004468319    1.557    0.358
         6 -12.4667     75.7951     13.2709   2.9103031502e+02   7.1680609703e+00    0.0232754   0.02123546  51.17  0.001186911    1.132    0.117
         7 -12.0925     73.3369      1.4203   2.9098541551e+02   7.3189552389e+00   0.01987341   0.01345694  39.21  0.000410774    1.481    0.325
         8 -14.5399     96.6942      4.1279   2.9073161051e+02   7.1477810943e+00   0.09830478   0.03450369  33.73  0.007697415    2.652    0.623
         9 -14.4412     85.9729     11.7736   2.9090314660e+02   7.1242517675e+00    0.1018405   0.03423749  31.52  0.004623827    2.782    0.641
        10 -13.9405     86.8978      3.6819   2.9084231545e+02   7.2116745092e+00   0.07807647   0.03396475  13.75  0.005540641    3.612    0.723
        11 -13.6236    123.5423     10.4163   2.9045972717e+02   6.9143232644e+00   0.06765085   0.04470016   1.53  0.003450881    1.932    0.482
        12 -11.5848    150.5347     20.2519   2.9020837181e+02   6.6390395418e+00   0.02408098   0.01998152 -13.18  0.001868677    1.332    0.249
        13 -11.7659     63.9550     17.9068   2.9119618176e+02   7.1857166526e+00   0.02029104   0.01450996  26.30 0.0008791765    1.409    0.290
        14 -11.0410    175.3320     14.0787   2.8988334351e+02   6.5606746491e+00   0.01701566  0.009208115 -49.76  0.001598919    1.813    0.449
        15 -12.3148    186.0924     11.6913   2.8974415142e+02   6.5232614490e+00   0.02605571    0.0248513 -28.98  0.002239393    1.053    0.050
        16  -9.5148     53.4333     10.3066   2.9127107243e+02   7.3360546547e+00  0.008926113  0.006485994 -78.04 0.0009353575    1.551    0.355
        17 -10.8758    149.1550      7.8725   2.9014757585e+02   6.7895373186e+00   0.02377966   0.01550952  41.91  0.002450178    1.561    0.360
        18 -11.3286    192.8624      6.1986   2.8963182889e+02   6.5455202721e+00   0.02050504   0.01395608 -62.44  0.001369326    1.472    0.321
        19  -9.6488    158.8074      4.8379   2.9001710254e+02   6.7662972449e+00   0.01001775  0.008803593 -30.75 0.0005041944    1.175    0.149
        20 -11.7352     33.3987      3.8894   2.9146359642e+02   7.5296346566e+00   0.02201897   0.01756163   3.60  0.001374045    1.385    0.278
        21 -10.7805     68.9425    184.9007   2.9216884136e+02   5.2339203749e+00   0.01976506   0.01225602  34.67  0.001995543    1.588    0.370
        22 -11.6338     50.7235    181.9249   2.9236110689e+02   5.3771335158e+00   0.02847238   0.01850555  -6.67  0.002709282    2.088    0.521
        23 -11.3109     47.3510    176.8776   2.9236905654e+02   5.4554303351e+00   0.02160677  0.009669199 -65.54  0.001799259    2.383    0.580
        24 -11.9471     54.0762    172.4811   2.9226427277e+02   5.4658779546e+00   0.03656551   0.02672801 -81.01  0.002388373    1.570    0.363
        25 -12.1347     37.2288    178.5176   2.9249615445e+02   5.4970110427e+00   0.03009205    0.0219642 -19.45  0.002557918    1.633    0.388
        26 -11.3133     41.9961    175.7527   2.9242404415e+02   5.5003846671e+00    0.0160802   0.01351925  63.42  0.001050627    1.305    0.234
        27  -9.9304     13.1618    173.1336   2.9274133038e+02   5.7026955530e+00   0.01443683  0.009243438 -34.86  0.001422169    1.776    0.437
        28 -10.7429     35.4218    169.3665   2.9246078899e+02   5.6132212412e+00   0.01282066   0.01183606  60.63  0.001170283    1.134    0.118
        29 -10.6539     45.5822    167.1799   2.9232986465e+02   5.5777093807e+00   0.01342016   0.01125613 -12.21  0.001281933    1.308    0.236
        30  -9.9976     80.9982    165.2936   2.9190882711e+02   5.3876123596e+00  0.009450203  0.008626183  23.79 0.0005736133    1.102    0.093
        31 -10.1902    139.3272    164.3249   2.9122887891e+02   5.0491677371e+00  0.007089431  0.004932228 -26.95 0.0007049525    1.695    0.410
        32  -9.8222     97.9882    161.9859   2.9169208078e+02   5.3239603691e+00   0.01100825  0.007887499  63.35 0.0008351532    1.675    0.403
        33 -10.2995     48.7730    160.6386   2.9225272721e+02   5.6339870127e+00   0.01464039   0.01103262  -4.47 0.0009452257    1.561    0.359
        34 -10.9943      8.1880    160.0048   2.9271818962e+02   5.8836076865e+00    0.0279553   0.01181326  34.26  0.002367241    2.257    0.557
        35  -9.8846     13.1003    153.8085   2.9262328648e+02   5.9256834927e+00   0.01013878   0.00890133  59.84 0.0005129894    1.214    0.176
        36 -11.0778    103.9549    151.5225   2.9155862556e+02   5.4086934320e+00   0.01373454   0.00948768 -61.01 0.0003316357    1.436    0.304
        37 -10.7172     43.8695    149.8235   2.9224287748e+02   5.7878610606e+00   0.01050158  0.008763807 -27.43 0.0006661782    1.277    0.217
        38 -10.7319     40.8013    143.8956   2.9224187839e+02   5.8744691981e+00   0.01443845   0.01110436   0.58 0.0003215998    1.485    0.327
        39 -11.1388     56.9972    119.9969   2.9190729668e+02   6.0528493195e+00   0.01055124  0.009978041 -15.49            0    1.077    0.072
        40 -13.0279     56.5410    144.7386   2.9206501765e+02   5.7706714315e+00   0.09503112   0.05871579  68.58  0.008633085    2.329    0.571
        41 -13.2667     48.3819    124.9174   2.9203730116e+02   6.0477128963e+00    0.0550553    0.0402042  29.41  0.006037856    1.366    0.268
        42 -11.5438     81.3029    131.1569   2.9169494489e+02   5.7788874003e+00   0.01834564   0.01575814 -60.33  0.001561548    1.157    0.136
        43 -12.9746      9.9091    130.2205   2.9251514020e+02   6.2164080005e+00   0.02851781   0.01860244  19.27  0.002907894    1.641    0.391
        44 -12.1504     67.4193    128.4645   2.9183892397e+02   5.8929987579e+00   0.02248279   0.01992083 -24.80  0.001398134    1.177    0.151
        45 -12.5007    124.7880    128.4937   2.9117575162e+02   5.5488816361e+00   0.03254799   0.02039702  18.92  0.003236289    1.732    0.423
        46 -11.8521     55.2013    124.5851   2.9195635430e+02   6.0107618563e+00    0.0220417    0.0181233 -45.44 0.0008678159    1.213    0.176
        47  -9.6349      1.3601    126.0622   2.9258849786e+02   6.3152836549e+00   0.01004456  0.006208577 -61.35 0.0006761037    1.604    0.376
        48 -10.9991    137.5286    122.4316   2.9099106471e+02   5.5421850563e+00   0.01095963   0.01055325  10.54 0.0001059506    1.046    0.044
        49  -9.6596     36.8422    123.1722   2.9216007455e+02   6.1367782294e+00   0.01012287  0.008652282  46.21  0.001182166    1.202    0.168
        50  -9.2757    233.4575    117.9682   2.8985585505e+02   5.0165676508e+00  0.009931299   0.00645667 -61.20 0.0006390085    1.527    0.345
        51 -10.0359    155.1979    118.3892   2.9076191420e+02   5.4825790363e+00   0.00922002  0.005922776  38.85 0.0002139985    1.556    0.357
        52  -9.2788    163.4530    117.5015   2.9066105865e+02   5.4431851883e+00  0.006550107  0.006432762 -36.97 0.0006051953    1.008    0.008
        53 -10.5614    126.2552    113.8163   2.9106815089e+02   5.7090063492e+00   0.01620594  0.009595399  17.98  0.001542003    1.886    0.470
        54 -11.4842      6.2780    142.9087   2.9263519809e+02   6.0919294283e+00   0.02121382   0.01707728   9.75  0.001481325    1.334    0.251
        55 -11.0851     79.7977    109.9475   2.9158152816e+02   6.0320739417e+00   0.01766705   0.01225955 -28.45  0.001201632    1.680    0.405
        56  -9.4354     26.4427    109.2493   2.9219466236e+02   6.3592106405e+00   0.00942979  0.006508306 -78.54 0.0009549509    1.675    0.403
        57  -9.9445      5.4036    108.0635   2.9243091873e+02   6.4984297626e+00   0.01327299  0.009202294   7.16  0.001357816    1.692    0.409
        58 -13.6624     17.5873    101.1545   2.9224730523e+02   6.5052778260e+00   0.02677032   0.02442041   8.72  0.001990024    1.126    0.112
        59 -12.2157     58.6461     98.7080   2.9175692895e+02   6.2880671938e+00   0.02567365   0.01847314 -54.27  0.001638247    1.359    0.264
        60 -13.2336     55.4634     94.5337   2.9176801166e+02   6.3551550093e+00   0.03691489   0.02460546 -25.14  0.002149768    1.850    0.460
        61 -10.7553     32.1607    100.3306   2.9207350803e+02   6.4277357861e+00   0.01991565   0.01098469  26.24  0.001747333    1.840    0.457
        62 -10.0937     93.7120     99.6377   2.9135691925e+02   6.0673728159e+00  0.009451419   0.00588282  36.96 0.0008236375    1.591    0.372
        63 -10.7749      5.4233     97.9281   2.9236827422e+02   6.6150029879e+00   0.01996748   0.01271151 -71.18  0.001991101    1.719    0.418
        64  -9.4795      3.0429     92.5364   2.9236262788e+02   6.6912695031e+00  0.009261684  0.008571873  16.32 0.0003949452    1.094    0.086
        65 -10.2189     95.8375     95.5709   2.9130721438e+02   6.1014342290e+00   0.01094715  0.008581037 -48.97 0.0004300266    1.261    0.207
        66 -10.1755     81.8274     95.6128   2.9146956526e+02   6.1849093598e+00   0.01289711  0.009231287  56.35 0.0006151166    1.588    0.370
        67 -10.4157     69.9308     95.7478   2.9160806253e+02   6.2546006212e+00   0.01234132  0.009763488 -37.99 0.0003253415    1.308    0.236
        68 -11.0610    188.2167     94.1175   2.9023038588e+02   5.5632306276e+00   0.02028531   0.01314743  51.46  0.001556201    1.730    0.422
        69  -9.9885    164.1530     93.3132   2.9050338971e+02   5.7172373971e+00   0.01190174  0.008546096 -49.19 0.0007672004    1.376    0.273
        70  -9.9985     44.5718     89.7179   2.9186438205e+02   6.4757231151e+00    0.0142851  0.009479764 -48.11  0.001479679    1.495    0.331
        71 -11.1899    152.4580     88.2911   2.9060747675e+02   5.8453095222e+00    0.0131651   0.01108874  43.54 0.0006158407    1.210    0.174
        72 -10.9876    249.6440     86.4816   2.8947418666e+02   5.2809335521e+00   0.01490664   0.01221813 -60.43 0.0007247736    1.212    0.175
        73 -10.4987     21.1466     87.8797   2.9212427845e+02   6.6368417302e+00   0.01037015   0.00914793  68.44 0.0007868626    1.229    0.186
        74 -11.1896     89.5766     86.2905   2.9132232773e+02   6.2457563619e+00   0.01788439   0.01230997  29.76  0.001052562    1.446    0.308
        75  -9.6702      1.3590     86.9933   2.9234797983e+02   6.7651187290e+00  0.009827874  0.006171518 -60.30 0.0003856224    1.569    0.363
        76 -10.7590     26.0933     85.5836   2.9205283721e+02   6.6337290430e+00   0.01249171  0.009241653 -49.90 0.0003534947    1.331    0.249
        77 -11.5892    128.5791     82.8210   2.9084971320e+02   6.0516899071e+00   0.01803872   0.01544608   8.82 0.0005876292    1.229    0.186
        78 -10.0828    143.6268     81.3802   2.9066681037e+02   5.9778730968e+00   0.01141623   0.01034804 -82.43 0.0005486861    1.159    0.137
        79 -10.4250     67.4033     81.0923   2.9154683864e+02   6.4383935189e+00   0.01292467  0.008976524  39.02 0.0008552358    1.444    0.307
        80 -10.8215     42.0172     78.1635   2.9182266808e+02   6.6239722107e+00   0.01637558   0.01242608 -25.66  0.001176667    1.485    0.327
        81  -9.4895    235.2969     76.6702   2.8957887478e+02   5.4801927447e+00  0.006866952  0.005041582  66.03 0.0002499628    1.637    0.389
        82 -10.2515     46.8398     75.2244   2.9174868483e+02   6.6289584079e+00   0.01663367  0.009505183 -64.27 0.0009186224    1.787    0.440
        83 -10.9765    144.5688     73.8535   2.9060935074e+02   6.0587786285e+00   0.01284468   0.01034609  29.47 0.0003273932    1.241    0.194
        84 -12.9627     96.4512     71.7742   2.9115307314e+02   6.3715589835e+00   0.03807842   0.01884812  21.32  0.001383915    2.240    0.554
        85  -8.8952    194.3103     73.3412   2.9003137537e+02   5.7654284315e+00  0.007101893  0.004897888 -28.82 0.0007045058    1.694    0.410
        86  -9.9427    120.8064     72.9065   2.9087829300e+02   6.2124031604e+00  0.009979147  0.008698893 -33.74 0.0004995117    1.178    0.151
        87  -9.0991     67.9790     73.0254   2.9149035477e+02   6.5277678872e+00  0.007888566  0.007513765 -56.88            0    1.044    0.042
        88  -9.2995    182.9767     72.5132   2.9015716124e+02   5.8431812064e+00  0.009341136   0.00648738  28.59 2.298461e-05    1.439    0.305
        89  -9.7036    170.9555     71.7934   2.9029159858e+02   5.9237995782e+00   0.01165517   0.00696833  53.16  0.001088886    1.980    0.495
        90  -9.3510     37.8276     72.3483   2.9183529600e+02   6.7159346928e+00  0.008874762  0.006258198  11.87 0.0001394593    1.586    0.370
        91  -9.6613     65.5334     70.5041   2.9150309354e+02   6.5714187695e+00  0.006516023  0.006471382  81.07 7.638436e-05    1.026    0.025
        92 -10.7230     83.2054     68.4611   2.9128589536e+02   6.4890740111e+00   0.01163937   0.01087661 -56.25 0.0003019288    1.062    0.058
        93 -10.7544    146.8053     67.3772   2.9054341213e+02   6.1198132477e+00   0.02323852  0.006489807  26.60  0.001534414    3.750    0.733
        94 -10.1341     20.2185     66.1561   2.9200104734e+02   6.8923842163e+00   0.01488005  0.008633053  32.45  0.001079167    1.691    0.409
        95 -10.9227    103.6168     64.7510   2.9102672903e+02   6.4093672917e+00   0.02580643   0.01217266  23.61  0.002218101    2.267    0.559
        96 -10.0099     61.1391     65.1031   2.9152060842e+02   6.6598601438e+00   0.01002723  0.008709621 -26.99 0.0003476965    1.206    0.171
        97 -11.3606    214.7999     62.0599   2.8972488456e+02   5.7716484393e+00   0.02240227   0.01832405 -54.58  0.002282447    1.203    0.169
        98 -10.4259    170.1034     63.1745   2.9024807611e+02   6.0280176090e+00   0.01656794    0.0114944  -8.60  0.001308876    1.838    0.456
        99  -9.7846    135.2819     63.4026   2.9065206612e+02   6.2347691483e+00  0.009172603  0.005979708  38.72 0.0004084618    1.533    0.348
       100 -10.8444     52.5044     62.4713   2.9160434047e+02   6.7418088518e+00   0.02349363   0.01222762  13.01  0.001207551    2.523    0.604
       101 -12.7740    125.5293     57.4923   2.9072829488e+02   6.3613158900e+00    0.0153513   0.01430712  -7.00 0.0004980515    1.104    0.094
       102 -12.1100     68.8026     55.2865   2.9137121201e+02   6.7269023768e+00   0.02191275   0.01680584  38.66   0.00154264    1.309    0.236
       103  -9.9546    174.5895     56.3159   2.9015374893e+02   6.0798612549e+00   0.01034125   0.01023218 -43.49 0.0005540866    1.006    0.006
       104 -11.4671    210.2645     54.6776   2.8973149128e+02   5.8838126114e+00   0.01531923   0.01180299  -8.90   0.00085149    1.515    0.340
       105 -11.5603    133.5050     53.8702   2.9061361567e+02   6.3550526827e+00   0.02254298   0.01176604  39.94  0.001420329    1.920    0.479
       106  -9.2820    189.5143     54.5072   2.8997009234e+02   6.0107898635e+00    0.0066812   0.00631865 -27.90 0.0008095854    1.067    0.063
       107 -13.0289      3.3743     46.8845   2.9207730675e+02   7.2146188882e+00   0.03786858   0.02854174  67.12  0.002186096    1.576    0.365
       108 -11.3187    173.4728    229.4794   2.9123637583e+02   4.0942035074e+00   0.01432275   0.01178895  67.48   0.00163077    1.366    0.268
       109 -10.5558     37.8500     27.2301   2.9155634448e+02   7.2347506404e+00   0.01628155  0.009296108  40.83 0.0009907732    1.773    0.436
       110 -11.1088    184.9886    227.9830   2.9109434265e+02   4.0423102991e+00   0.01130639  0.007911493  64.54  0.001143931    1.760    0.432
       111 -13.1023     42.6050     47.3758   2.9162575291e+02   6.9746616182e+00   0.03032803   0.02321441   8.97  0.001128618    1.438    0.305
       112 -12.6728     42.2287     42.4492   2.9159967174e+02   7.0335719206e+00   0.03030874   0.01937925   4.43  0.001882039    1.995    0.499
       113  -9.7556    156.0427     52.5194   2.9034461724e+02   6.2350944921e+00   0.01012198  0.006549538  25.83  0.000891273    1.567    0.362
       114 -11.3057    145.3902     50.7179   2.9045663676e+02   6.3198609373e+00   0.01448678   0.01194089 -55.88 0.0006700025    1.196    0.164
       115 -11.0709    177.4358     45.0254   2.9005089819e+02   6.1924875638e+00   0.02428446   0.01258214  16.67 0.0009397177    2.338    0.572
       116 -11.7169    157.4868     43.6535   2.9027300125e+02   6.3283141440e+00   0.01618061   0.01310334 -10.89 0.0008798054    1.389    0.280
       117  -9.6986    138.8856     44.7607   2.9049497465e+02   6.4274417236e+00   0.01274384   0.00857327 -36.72  0.001299426    1.625    0.384
       118  -9.6981    147.2401     43.9632   2.9039340901e+02   6.3863826094e+00  0.008973263  0.008361817 -50.53 0.0002189663    1.062    0.058
       119 -10.0325     95.3672     42.6569   2.9098553825e+02   6.7129316256e+00   0.01110891  0.009754139  60.75  0.000583735    1.218    0.179
       120 -10.6158    197.3583     41.2806   2.8979749412e+02   6.1155162162e+00   0.01204323   0.01084976  46.81 0.0006017325    1.136    0.120
       121 -10.5536    102.2422     41.5906   2.9089935563e+02   6.6839485545e+00   0.01162064   0.01051241 -39.53 0.0003585391    1.108    0.098
       122  -8.9953     69.2933     42.3760   2.9128571194e+02   6.8724410511e+00  0.007200966  0.004800137 -31.41 0.0007023053    1.739    0.425
       123 -10.8293    217.2870     38.5666   2.8955051265e+02   6.0265572037e+00   0.01746878   0.01200087   9.98  0.001261465    1.683    0.406
       124 -12.8543    179.0700    220.2440   2.9111491566e+02   4.1669123544e+00   0.02040737   0.01552206   6.34  0.002231164    1.475    0.322
       125 -11.7748     27.4388    220.5283   2.9286725074e+02   5.0714620333e+00   0.02884661   0.02044905  49.32  0.002990607    1.512    0.339
       126  -9.3013     53.8832    224.1937   2.9258428813e+02   4.8713130682e+00  0.008760774  0.007323194 -30.44  0.000264431    1.261    0.207
       127 -11.2975    160.4210    220.7607   2.9133323737e+02   4.2728789316e+00   0.01717328   0.01520392  80.44  0.002042319    1.230    0.187
       128 -10.2591    139.9990    221.5316   2.9157364106e+02   4.3864857842e+00   0.01425525   0.01037159 -62.42  0.001544895    1.374    0.272
       129  -9.7650    147.4284    220.7413   2.9148303725e+02   4.3510358485e+00   0.01304401  0.006667207 -67.33  0.001147862    2.122    0.529
       130 -13.6172     70.4797    201.1654   2.9225110192e+02   5.0373751401e+00   0.06293686   0.03711193  72.41  0.005331573    2.723    0.633
       131 -10.6725     33.4909    217.0422   2.9277594729e+02   5.0755010919e+00   0.02830607  0.009414907  28.61  0.002093282    2.934    0.659
       132 -11.1822    176.4582     33.3901   2.8999007721e+02   6.3320685144e+00   0.01362532    0.0120661  15.95 0.0005927625    1.155    0.134
       133 -11.7707     10.5495    210.2232   2.9299917331e+02   5.2909526403e+00   0.04147462   0.02298845  14.55  0.003737851    2.190    0.543
       134 -10.2179    109.0968     28.2845   2.9073763519e+02   6.7957667241e+00   0.01362863  0.009117946  10.71  0.001186725    1.735    0.424
       135  -8.9228    216.7035     27.6729   2.8948967636e+02   6.1551868329e+00  0.006962278  0.004915153 -29.06 0.0005439844    1.630    0.387
       136 -11.2739    241.1660     22.8479   2.8917736392e+02   6.0629616409e+00   0.03081056   0.01354459  37.22  0.002337387    2.205    0.546
       137 -11.4016      2.1677    209.2710   2.9309018854e+02   5.3518965445e+00   0.03189075   0.01860687 -42.29  0.002552011    1.818    0.450
       138 -10.6589    139.6336     20.3721   2.9033522326e+02   6.7032226546e+00   0.01226576   0.01180012  14.67 0.0006918509    1.045    0.043
       139  -9.7664    141.9537     16.3217   2.9028327452e+02   6.7358039596e+00  0.009852462  0.008735508 -61.47  0.000298855    1.126    0.112
       140 -10.1035    208.7702     18.2968   2.8952311895e+02   6.3106982504e+00   0.01133405  0.009627699  50.27 0.0007240403    1.227    0.185
       141 -11.3239     44.7054    207.9637   2.9259065559e+02   5.1131223839e+00   0.02171274   0.01298848 -72.67  0.002071197    1.902    0.474
       142 -10.1781     37.2578     16.5513   2.9149718035e+02   7.3610486321e+00   0.01301411   0.01017862 -42.58 0.0007910136    1.294    0.227
       143  -9.9843    144.8165    208.4022   2.9143719102e+02   4.5087664705e+00  0.009700432  0.006440199  10.65 0.0009591512    1.756    0.431
       144 -11.7224     35.4403    207.1485   2.9269270039e+02   5.1778491366e+00   0.02717559  0.009582473  29.22  0.002091443    2.746    0.636
       145  -9.6826     60.0978     53.1183   2.9145861633e+02   6.8039577955e+00  0.009613524  0.008557777 -28.21 0.0002739087    1.160    0.138
       146 -12.0418    190.9648    217.9120   2.9096335285e+02   4.1223369562e+00   0.02538827   0.01273796  29.23  0.002308929    1.969    0.492
       147 -11.1631     53.2453    200.9799   2.9244908603e+02   5.1425515992e+00    0.0188889   0.01242647  68.24  0.001817529    2.028    0.507
       148 -13.1955     84.8059    208.9749   2.9213362724e+02   4.8617094353e+00   0.05694069   0.04073687  61.53   0.00597427    1.656    0.396
       149 -11.3675     81.4576    200.7037   2.9212144017e+02   4.9770180097e+00   0.03309201   0.02384744  88.71  0.003442682    1.719    0.418
