#   1 NUMBER                 Running object number                                     
#   2 MAG_AUTO               Kron-like elliptical aperture magnitude                    [mag]
#   3 X_IMAGE                Object position along x                                    [pixel]
#   4 Y_IMAGE                Object position along y                                    [pixel]
#   5 X_WORLD                Barycenter position along world x axis                     [deg]
#   6 Y_WORLD                Barycenter position along world y axis                     [deg]
#   7 A_WORLD                Profile RMS along major axis (world units)                 [deg]
#   8 B_WORLD                Profile RMS along minor axis (world units)                 [deg]
#   9 THETA_WORLD            Position angle (CCW/world-x)                               [deg]
#  10 FWHM_WORLD             FWHM assuming a gaussian core                              [deg]
#  11 ELONGATION             A_IMAGE/B_IMAGE                                           
#  12 ELLIPTICITY            1 - B_IMAGE/A_IMAGE                                       
         1 -15.5513    243.2934     94.0138   2.9622972306e+01   1.1481156178e+01     4.503883     2.514312 -85.00   0.01343327    5.620    0.822
         2 -17.2243    246.3486    106.0010   3.1983479412e+01   8.9305700828e+00     7.936946     5.446333  40.96   0.01070706    1.610    0.379
         3 -16.3399    248.9231     91.9889   2.8331867738e+01   1.0605722060e+01     6.380339     2.537889 -51.48   0.01583287    3.436    0.709
         4  -9.9087    130.1760     34.1340   3.3352909586e+01   4.8110946026e+01    0.4813346    0.2534786  -6.71  0.001787738    3.031    0.670
         5  -9.6379    213.5548     13.4962   1.3615543510e+01   2.9628855504e+01    0.6872788    0.1979644  48.93  0.001932107    4.540    0.780
         6 -10.9065    119.1225     10.0845   2.7142474740e+01   5.3433505468e+01    0.6782357    0.3936022  42.24  0.002776163    1.538    0.350
         7 -10.7200      4.3255      7.8348   6.9173013732e+01   7.1847727608e+01    0.6436847    0.2489831 -43.21  0.003645868    1.916    0.478
         8 -10.4425    247.6084      5.0410   8.5830235093e+00   2.2598410072e+01    0.7253227    0.4112015 -65.97  0.003934737    1.677    0.404
         9  -7.7634     85.4768      5.4988   3.3913629539e+01   6.1128358856e+01    0.1301428    0.1066884  22.06 0.0002532383    1.010    0.010
        10  -7.3940    232.3495    222.2897   5.8634601131e+01  -6.0488867665e+00    0.1297898   0.07967746  13.20 0.0002663891    1.666    0.400
        11 -11.3298    246.8540    249.0168   6.0531720935e+01  -1.1291480480e+01     0.695907      0.42099  34.43  0.004545154    1.412    0.292
        12  -8.4153     57.2610    208.9739   9.1072558059e+01   2.4599601302e+01    0.1655344    0.1284208  86.95 0.0004670041    1.127    0.113
        13  -7.3115     37.7038    206.2708   9.4571027418e+01   2.7464215137e+01    0.1164089    0.0666464  67.18            0    1.521    0.342
        14  -9.7061    192.1104    193.6198   6.1111824846e+01   5.0774262993e+00    0.8013453    0.4249603 -63.41   0.00243981    5.967    0.832
        15  -7.7063    133.0659    199.1881   7.4335464242e+01   1.4963999679e+01    0.1709148   0.09453601  40.94            0    1.627    0.385
        16  -8.9020    238.2535    198.1284   5.3195337779e+01  -3.7964972481e+00    0.3564171    0.1745853  46.11   0.00139116    2.229    0.551
        17  -9.3943    233.5945    193.9899   5.3245056805e+01  -2.4309125648e+00    0.3671275    0.2689019  14.16  0.001345826    1.260    0.206
        18 -11.0486    219.6192    244.3737   6.4523965548e+01  -6.7853513653e+00    0.3884906    0.2498581 -19.27  0.002429715    1.744    0.426
        19 -10.3207    105.2880    243.8181   8.5428095453e+01   1.1491909066e+01    0.2123216    0.1907861  72.61 0.0005285955    1.197    0.164
        20  -8.3800    202.5296    173.1904   5.5027962091e+01   6.5332651040e+00    0.2789072    0.2012107 -76.03  0.001222662    2.644    0.622
        21  -7.5837     50.1571    154.6676   8.6742885893e+01   3.7115303237e+01    0.1469447    0.1205475  22.25 0.0009058655    1.564    0.361
        22  -7.8094    122.4813    173.9623   7.2574757858e+01   2.1938962863e+01    0.1986565    0.1226008 -83.26 0.0008099778    2.565    0.610
        23  -9.2864    146.0547    170.7718   6.6621667939e+01   1.8186310794e+01    0.4776584    0.3153281 -77.30  0.002043912    2.368    0.578
        24  -8.8399     61.0127    150.5061   8.3533987231e+01   3.6757017667e+01    0.1840885    0.1274255  38.07 0.0005120389    1.559    0.358
        25 -11.2242     69.7219    145.6008   8.0603419496e+01   3.6751229358e+01     1.646855    0.4409015 -66.00  0.004875741    4.629    0.784
        26 -10.8403     65.8311    143.8175   8.1310920340e+01   3.7683694291e+01     0.481949    0.2889972 -73.18  0.001941221    1.645    0.392
        27  -8.0790     94.5156    145.5388   7.4268783122e+01   3.3069067635e+01    0.1402268    0.1318707 -85.52 0.0004636273    1.012    0.012
        28  -8.6152    185.6544    170.3160   5.7888578396e+01   1.0389054892e+01    0.2911481    0.2029839  42.25  0.001150712    1.354    0.261
        29  -8.7907    184.0937    166.2921   5.7385311631e+01   1.1444018285e+01     0.256924    0.2092335 -42.78 0.0005834976    1.314    0.239
        30  -7.8699    125.2987    141.3116   6.5620641148e+01   2.8532467823e+01    0.1471047    0.1194226  -9.24 0.0004428215    1.602    0.376
        31 -11.4145      9.8650    128.1679   9.3476947792e+01   4.6869875354e+01    0.6055979    0.3670107  49.77  0.003750089    1.818    0.450
        32 -11.6323      5.0280     94.1192   9.0576965617e+01   5.4779157058e+01      1.01224    0.5613428  85.35  0.005535419    2.133    0.531
        33 -11.3182      5.6642    112.3547   9.2775798393e+01   5.0685722479e+01    0.7141463    0.3554039 -52.47  0.004076533    1.769    0.435
        34 -11.3754      3.9253    105.1334   9.2370336741e+01   5.2398245083e+01    0.6705137    0.3013079 -65.64  0.003697084    1.640    0.390
        35  -9.6141     39.2287    129.7616   8.6098243296e+01   4.4026058274e+01    0.2792613    0.2043231  74.23 0.0005401723    1.443    0.307
        36 -11.4075     75.0030    124.6367   7.5480262480e+01   4.0909043540e+01     1.413514    0.5959613 -53.35  0.004153765    2.132    0.531
        37 -12.0340     49.8726    119.0489   8.1485880366e+01   4.5394458084e+01    0.8801265    0.5245326  41.36 0.0007878832    1.854    0.460
        38 -11.9248     65.7494    119.8083   7.7134503605e+01   4.3299930881e+01    0.7754194    0.6014879 -29.01  0.002737743    1.531    0.347
        39 -11.8750     60.3551    115.4896   7.7841008188e+01   4.4993452561e+01    0.6848282    0.5386773 -35.95 0.0002145968    1.379    0.275
        40  -8.6561     85.3543    170.0961   8.0556098672e+01   2.8936993171e+01    0.1922874    0.1756151  41.73 0.0004895115    1.219    0.180
        41 -12.4488     23.9914    121.1463   8.8956164162e+01   4.7392205118e+01    0.7997835    0.7163171 -59.73  0.004219592    1.174    0.148
        42 -11.1532    125.8635    106.3126   5.7118357701e+01   3.6139821946e+01    0.4964389    0.4475885 -22.14  0.002596428    1.152    0.132
        43 -10.2324    120.8121    103.0151   5.7601614115e+01   3.7887115815e+01    0.4726996    0.2322667  38.79  0.001815896    2.153    0.536
        44  -8.8080    201.8597    166.0174   5.3669370572e+01   7.9076266721e+00     0.357742    0.2279138 -62.45  0.001480216    2.675    0.626
        45  -8.2201    130.8317    188.1039   7.3067603744e+01   1.7528266762e+01    0.2146866    0.1704555  75.79 0.0008003887    1.402    0.287
        46  -8.4526    201.1010    182.7814   5.7241120223e+01   5.1862420631e+00    0.1978818    0.1809494  54.21  0.000569383    1.285    0.222
        47 -11.3395      7.8895    118.6013   9.2916298389e+01   4.9147682639e+01    0.6428917     0.392866 -46.12  0.003969486    1.699    0.412
        48  -9.6649    141.9921    180.6805   6.9347535812e+01   1.6962677423e+01    0.2510976    0.2214103 -68.68 0.0004495416    1.241    0.194
        49  -8.2613    137.9734     79.7748   4.6396960245e+01   3.8885402264e+01    0.1990588    0.1256259  47.55 0.0003548074    1.572    0.364
        50  -7.5180     56.6394    245.6847   9.4122780661e+01   1.7883936815e+01   0.09008328   0.08673918  -1.74 0.0006583347    1.756    0.431
        51  -9.5751    195.5884    175.2775   5.6851166212e+01   7.5321504056e+00    0.5204685    0.3523992  60.16  0.002447322    1.939    0.484
        52  -9.1139    130.8235     77.0386   4.7412871244e+01   4.1023706259e+01     0.270791    0.2123815  36.44   0.00132007    1.283    0.221
        53  -9.6039    136.4484     74.2596   4.5101099658e+01   4.0264623423e+01     0.476851    0.2629144  62.38  0.001798562    2.392    0.582
        54 -11.0904    171.5582     63.5305   3.3855793335e+01   3.3575224960e+01    0.7289025    0.4520739  83.59  0.002803807    2.492    0.599
        55 -10.9826    168.5213     56.7924   3.2448871972e+01   3.5403558417e+01    0.5815489    0.3438625  71.23  0.001919936    2.042    0.510
        56  -8.6444    101.2639     64.9506   5.1929303605e+01   4.9488838593e+01    0.2293191    0.2013545  31.86 0.0003374097    1.149    0.130
        57  -9.1830    152.7996     62.8224   3.7621006064e+01   3.8363616257e+01    0.4311228    0.2341049  70.37  0.001544647    2.712    0.631
        58  -9.5234    162.6703     61.2520   3.4992771496e+01   3.6172559952e+01    0.3611525    0.2341082  -3.02  0.001446721    2.309    0.567
        59  -7.7413    115.4471     60.5260   4.6305107759e+01   4.7398079752e+01    0.1484064    0.1364454   5.22 5.810896e-05    1.036    0.035
        60 -10.6434    178.4775     54.4283   2.9848833165e+01   3.3238063480e+01    0.4854636    0.2940035  52.70  0.001678345    1.582    0.368
        61 -10.8130    185.4949     49.4866   2.7177034222e+01   3.2176883061e+01    0.8234175    0.4797678  10.75  0.002862037    3.504    0.715
        62 -10.9460    149.2602     48.6365   3.3911474253e+01   4.1459593448e+01     0.521529     0.445979 -26.67  0.001514488    1.217    0.178
        63 -10.0236    172.0988     50.2152   2.9781792094e+01   3.5483839463e+01    0.4352342    0.3291564  23.60  0.001130841    1.577    0.366
        64  -9.4597    160.1108     49.7449   3.1977491527e+01   3.8588797110e+01    0.2858199     0.194826  11.68   0.00123048    2.029    0.507
        65  -9.0523    193.8049     48.4819   2.5524450846e+01   3.0210238786e+01    0.2678398    0.2084261 -34.47 0.0009179745    1.314    0.239
        66 -10.5018    140.9411     41.6384   3.3452990268e+01   4.4508066904e+01    0.5688558    0.2806776 -15.96  0.002080675    2.898    0.655
        67  -9.5435    149.7382     40.8018   3.1268415378e+01   4.2459491487e+01    0.2547045    0.2405905 -76.43 0.0002129181    1.160    0.138
        68  -9.2605    134.3460     38.3355   3.3838218381e+01   4.6556059800e+01    0.2363351    0.1588348  25.72 0.0006784508    1.692    0.409
        69  -9.9998    185.4956    246.4992   7.0994688054e+01  -1.6781021333e+00    0.2373973    0.1671576  49.05  0.001144952    1.419    0.295
        70  -8.4419    229.4833     29.0287   1.5724764797e+01   2.3993760917e+01    0.3008402    0.1698073 -14.29  0.001171072    2.584    0.613
        71  -7.9032    231.4738     25.4445   1.4655120427e+01   2.3962281808e+01    0.1949373    0.1085295 -44.11  0.000658051    1.663    0.399
        72  -8.2171    217.7850     23.3360   1.5615450270e+01   2.7484547543e+01    0.2383096    0.1636892  61.70  0.001272996    1.418    0.295
        73  -8.5845    128.7576     42.9559   3.6770804184e+01   4.7226133963e+01    0.1869169    0.1229736 -27.52  0.000449788    1.580    0.367
        74  -7.8110    186.4485     19.0755   1.8350193968e+01   3.5792505786e+01    0.1834023     0.139357 -23.35 0.0004587473    1.476    0.323
        75  -9.1280    199.3060     16.5551   1.6012979447e+01   3.2821408478e+01    0.3258714    0.1980476  49.50 0.0009042457    1.709    0.415
        76  -8.3333    235.6860    232.9915   5.9857181949e+01  -7.8777617011e+00    0.1647788    0.1302285  11.23 0.0004891508    1.060    0.057
        77  -8.8612    129.8996    232.2135   7.9527552159e+01   9.5797720426e+00    0.1800688    0.1592228  65.02 0.0002595625    1.132    0.117
        78  -8.6071     56.3549    232.6469   9.3212258952e+01   2.0221143664e+01    0.1873797    0.1320141  60.72 0.0004072228    1.105    0.095
        79  -7.8500    115.4054    227.1877   8.1708206388e+01   1.2771759531e+01    0.1572227    0.1123665 -84.29  0.000479842    1.652    0.395
        80  -8.0047    142.3950     16.1847   2.4540610074e+01   4.7247894318e+01    0.1915241    0.1238567 -37.94 0.0009470062    1.709    0.415
