#   1 NUMBER                 Running object number                                     
#   2 MAG_AUTO               Kron-like elliptical aperture magnitude                    [mag]
#   3 X_IMAGE                Object position along x                                    [pixel]
#   4 Y_IMAGE                Object position along y                                    [pixel]
#   5 X_WORLD                Barycenter position along world x axis                     [deg]
#   6 Y_WORLD                Barycenter position along world y axis                     [deg]
#   7 A_WORLD                Profile RMS along major axis (world units)                 [deg]
#   8 B_WORLD                Profile RMS along minor axis (world units)                 [deg]
#   9 THETA_WORLD            Position angle (CCW/world-x)                               [deg]
#  10 FWHM_WORLD             FWHM assuming a gaussian core                              [deg]
#  11 ELONGATION             A_IMAGE/B_IMAGE                                           
#  12 ELLIPTICITY            1 - B_IMAGE/A_IMAGE                                       
         1 -11.8027     46.6921     61.9409   1.1883048232e+02   5.9051928522e+01     1.941924    0.5143811 -52.54  0.006825548    3.174    0.685
         2 -12.1875     86.8831     47.6578   9.9791645421e+01   5.5766419540e+01     1.544238    0.7689573 -26.31  0.005745292    2.365    0.577
         3 -11.1921     68.3309     23.7853   9.6430178072e+01   6.2758688160e+01    0.6008474     0.426511   6.10  0.003115074    1.451    0.311
         4 -10.4283     63.7396     14.7536   9.3978617274e+01   6.4740407936e+01     0.593675    0.4772838 -31.03  0.002568849    1.338    0.253
         5 -11.4508    112.7242     34.7411   8.7290001910e+01   5.2487395530e+01     1.258886    0.9125701 -41.21  0.006521537    1.488    0.328
         6 -10.7840     77.9765     22.4342   9.2500497066e+01   6.1244313592e+01     1.167536    0.5473914  59.36  0.004594475    3.514    0.715
         7 -11.2456     99.9817     30.4790   8.9104590783e+01   5.5829613551e+01     1.157986    0.5778305 -39.73  0.004261661    2.132    0.531
         8 -11.1654    105.3374     21.8133   8.4140051956e+01   5.5790488236e+01    0.6091217    0.4392046  65.09  0.002487234    1.599    0.375
         9 -11.8002    112.1314     15.6007   7.9936797867e+01   5.4973477592e+01    0.9205072    0.7118599 -29.50  0.004221049    1.369    0.269
        10 -12.1337     84.1577     16.7718   8.8023637215e+01   6.0785992478e+01     1.125234    0.7424914  72.97  0.005411423    2.570    0.611
        11 -11.2354     78.9617     10.7090   8.6902205541e+01   6.2486613819e+01    0.5063089     0.249646  45.21  0.001739037    1.879    0.468
        12 -12.4682     72.4358      9.6422   8.8515402076e+01   6.3827395309e+01     1.275961    0.5360269  31.86  0.004403242    2.760    0.638
        13 -11.9603     52.3877      5.4902   9.3762275080e+01   6.7705780570e+01     1.158568     0.538509  48.48  0.004497285    2.518    0.603
        14 -11.2383     31.2202     35.5426   1.1627341031e+02   6.5834052628e+01    0.9904732    0.6725221  53.88  0.005580311    2.524    0.604
        15 -11.1815     27.8509     19.7315   1.1143202834e+02   6.8900014544e+01    0.5627109    0.2942258 -25.81  0.001495715    1.857    0.461
        16 -13.0883     30.0888      6.5258   1.0408044967e+02   7.0635500282e+01       1.0271    0.6743937  10.55  0.002423211    1.490    0.329
        17 -10.8147      1.8643     14.8577   1.2238699702e+02   7.1849788366e+01     0.269431    0.1215677 -44.69 0.0004915596    1.602    0.376
        18 -11.5146     15.7155     11.4995   1.1369798089e+02   7.1376834801e+01    0.5212513    0.3042205  14.00  0.003315547    1.847    0.459
        19 -12.8163      7.2980      5.2226   1.1523660503e+02   7.3056343145e+01    0.7708427    0.5092357   1.58  0.005407865    1.498    0.333
        20 -11.4071    142.9467     26.4971   7.7381344658e+01   4.6361986570e+01    0.8682473    0.6670166 -28.31  0.003022884    1.359    0.264
        21 -10.3507    148.1993     18.8965   7.3769258853e+01   4.5902894462e+01     0.371453    0.3452847  30.48  0.001181302    1.086    0.079
        22 -11.6509    244.1891     22.6567   6.2791928658e+01   2.1528616509e+01    0.7031385    0.4102204 -35.33  0.003655836    1.578    0.366
        23 -11.0940      2.0093     24.6844   1.2591107676e+02   7.0091559408e+01    0.3239931    0.2685629 -66.28  0.001210846    1.450    0.310
        24 -11.0542      6.4631     21.2128   1.2246811370e+02   7.0447944976e+01    0.4560175    0.2365789 -58.51  0.001285652    1.937    0.484
        25  -9.5025    154.5047     16.9666   7.2039810459e+01   4.4507964788e+01    0.4202429     0.164736 -32.85    0.0016567    2.531    0.605
        26  -9.5769    173.9902     18.8696   6.9663926923e+01   3.9301924699e+01    0.3454432    0.1961993 -32.64 0.0009525843    1.795    0.443
        27 -10.4003    179.4805     17.2238   6.8402910084e+01   3.8064088656e+01    0.5263535    0.2748881  77.36   0.00168856    1.998    0.499
        28  -9.8836    175.5458     13.7249   6.7872669641e+01   3.9442457785e+01    0.6107951    0.1816958  56.56  0.002180777    2.817    0.645
        29 -10.9400    140.7674     15.8328   7.4038529652e+01   4.8089991587e+01    0.5657162    0.4015372 -53.79  0.002888593    1.656    0.396
        30 -10.4215    187.9211     13.7578   6.6301318296e+01   3.6262046072e+01    0.5361733    0.3488348 -75.95  0.001756197    1.697    0.411
        31  -9.1670    214.9949     10.7933   6.2561871422e+01   2.9770315608e+01    0.2408231    0.1906831 -40.61  0.001405253    1.251    0.201
        32  -9.6425    153.5686      9.9227   6.9834339529e+01   4.5449909590e+01    0.3350503    0.2366824 -43.99  0.001462588    1.534    0.348
        33  -9.7466    231.0268      9.4764   6.0788578924e+01   2.6052691858e+01     0.387491    0.1879849  52.72  0.001791581    2.323    0.569
        34  -9.0675    203.0004      8.4905   6.3145260837e+01   3.2980648205e+01    0.2693652    0.2081954  60.71 0.0008840593    1.282    0.220
        35 -10.3677    203.3020      3.6790   6.1825024900e+01   3.3379094838e+01     0.585127    0.4002914  12.28  0.002992549    2.086    0.521
        36  -9.0783    133.2475     10.0544   7.3346982902e+01   5.0520732758e+01    0.2707798    0.1936381  72.26  0.001377285    1.430    0.301
        37  -9.6814    161.4317      8.4632   6.8180785359e+01   4.3582435561e+01    0.3724888     0.270735  -6.49  0.001450381    1.614    0.381
        38 -11.2282    171.4210      5.9602   6.6038056434e+01   4.1256780224e+01    0.4735916     0.269103  51.01  0.002272435    1.687    0.407
        39  -9.1949    148.2012      6.2616   6.9436195516e+01   4.7146739610e+01    0.3271042    0.2220745  87.59  0.001648762    1.640    0.390
        40  -9.4609    226.2741      3.8303   5.9815403306e+01   2.7762105403e+01    0.4413877    0.2280971  48.23   0.00207357    2.359    0.576
        41  -9.9576    155.7660      3.0681   6.7232912972e+01   4.5512276279e+01    0.3632388    0.2528106 -54.38  0.001799432    1.609    0.378
        42  -8.6382    140.0671      1.6143   6.9116107409e+01   4.9582951884e+01    0.1976168    0.1555672  63.30  0.001123048    1.148    0.129
        43  -9.8902    183.1730      3.0443   6.3752746064e+01   3.8519429444e+01    0.3596509    0.3085861  -9.65   0.00214171    1.357    0.263
        44  -8.0183    128.2838      1.3260   7.1019888499e+01   5.2499857098e+01    0.1409876    0.0888211  33.81 0.0002614366    1.602    0.376
        45  -9.3112     69.4985      1.4069   8.5498566145e+01   6.5228903935e+01    0.2244491    0.1087355  49.19 0.0006776346    1.970    0.493
        46  -8.2667    120.9989    184.2334   1.2405237815e+02   2.0718141239e+01    0.1745462    0.1037722  43.51 0.0003076455    1.549    0.354
        47 -11.9494    227.2732    249.7681   1.1396185718e+02  -7.1518015392e+00    0.3532871    0.1743525  34.80  0.001116905    1.583    0.368
        48  -9.6986    195.0467    182.4570   1.0844140533e+02   7.2550411215e+00    0.2173379    0.1959978 -60.66 0.0005233462    1.381    0.276
        49  -8.4210     75.0634    182.2980   1.3372136707e+02   2.8378377892e+01    0.1749759    0.1409008  60.13  0.000420448    1.126    0.112
        50  -9.7868    125.9646    179.7469   1.2226255203e+02   2.0745411428e+01    0.2589794    0.2372393  27.79 0.0004902379    1.230    0.187
        51  -8.8457    203.4265    179.8470   1.0633092280e+02   6.0952940440e+00    0.2283011    0.1706074  21.29 0.0006689616    1.340    0.254
        52 -10.5039    185.6294    177.7970   1.0939373406e+02   9.8364024897e+00    0.4173043    0.2968422  -0.43   0.00118586    1.873    0.466
        53 -12.4062    196.5472    201.1934   1.1158349827e+02   4.0299191460e+00    0.6885315    0.4979958  18.29 0.0004803198    1.429    0.300
        54 -10.6880    248.0991    176.8773   9.7779052096e+01  -1.5003503408e+00    0.2991607    0.2194078   1.71   0.00111902    1.302    0.232
        55  -9.9285     20.1502    178.8797   1.4489790644e+02   3.5574855643e+01    0.2272803    0.1503844  76.80  0.001523539    1.224    0.183
        56  -8.8849    211.1848    172.4322   1.0339576704e+02   5.8105413569e+00    0.2143371     0.181223 -25.09 8.797266e-05    1.195    0.163
        57 -10.8644     12.7796    169.8261   1.4572106185e+02   3.8154923283e+01    0.3201062    0.2218044 -42.09   0.00207043    2.144    0.534
        58 -11.2753     13.4656    165.9619   1.4528447289e+02   3.8916928799e+01    0.3578877    0.2635733  53.83  0.002553215    1.354    0.262
        59  -9.6128    128.9884    168.0214   1.1959073561e+02   2.2589363467e+01    0.2645329      0.21204  40.91 0.0006437738    1.228    0.186
        60 -10.0265      5.2735    164.5937   1.4689522098e+02   3.9893747970e+01    0.1897403    0.1051806 -63.23  0.000917873    1.721    0.419
        61  -9.3798     40.4544    163.8657   1.3922543001e+02   3.6725622133e+01    0.2103155    0.1449244  70.42 0.0009724243    1.323    0.244
        62  -9.1754     31.1798    163.8396   1.4128300674e+02   3.7709355999e+01    0.1819057    0.1337286  75.78 0.0005885843    1.164    0.141
        63  -9.5982    242.9186    162.8941   9.5796074460e+01   1.3791063280e+00     0.232759    0.1879588 -35.59 0.0008982675    1.318    0.241
        64 -11.1449    234.7088    160.1564   9.6618286465e+01   3.2850078334e+00    0.4529594    0.3568551  -9.26  0.002121083    1.213    0.175
        65  -8.9248    225.9108    162.3316   9.8619581785e+01   4.6026596428e+00    0.1922054    0.1615316  29.49 0.0007425288    1.146    0.127
        66 -12.3269    199.8022    195.8426   1.1001985912e+02   4.2600481456e+00    0.5222091    0.3079737  37.98 0.0009101876    1.516    0.340
        67  -8.8050    180.6744    161.3037   1.0709000054e+02   1.3743983435e+01    0.1409423    0.1152144  84.21 0.0003371234    1.643    0.391
        68  -8.4188     25.4515    161.4337   1.4231770510e+02   3.8800405914e+01     0.118613   0.09247406  86.87 6.914661e-05    1.009    0.009
        69 -10.1266     34.2891    155.5072   1.3973486544e+02   3.9232860206e+01    0.2633062    0.1650881 -55.01 0.0008128096    1.685    0.407
        70  -9.0672    216.5732    158.5032   9.9498340425e+01   7.0112454854e+00    0.2318811    0.2063745  23.07  0.000617144    1.069    0.064
        71  -9.4803    227.9336    156.5843   9.7040495373e+01   5.1133530778e+00    0.2995901    0.1857511 -47.12  0.001114986    1.905    0.475
        72 -10.5371    163.4849    156.0019   1.0960849796e+02   1.8261390093e+01    0.2863081     0.243065 -30.48 0.0009452066    1.265    0.209
        73 -10.7267      5.2232    156.9811   1.4635162335e+02   4.1522799787e+01    0.4203604    0.1963525  60.68  0.002371748    2.058    0.514
        74  -9.6606    176.4928    156.2637   1.0689719772e+02   1.5533455113e+01    0.3547774    0.2141985  14.01    0.0012991    3.083    0.676
        75  -8.6293    207.6668    156.6902   1.0077257033e+02   9.0790361534e+00    0.1476743    0.1056802  10.20 0.0006367384    1.674    0.403
        76  -9.0424    125.7910    153.8870   1.1769556759e+02   2.6164173008e+01    0.3364697    0.1955425 -60.96  0.001481672    1.912    0.477
        77 -10.3929     29.4107    150.7358   1.4035770405e+02   4.0785458726e+01    0.3553687    0.2374983 -57.58 0.0009540005    1.518    0.341
        78 -10.2806     18.2214    140.3990   1.4192925286e+02   4.4115988299e+01    0.2321947    0.2089216 -73.98  0.001593993    1.232    0.188
        79 -10.4786     18.7848    136.0547   1.4133522250e+02   4.5045448775e+01    0.3975925    0.1897473 -38.62  0.001814039    3.433    0.709
        80 -11.2733     17.4118    149.6684   1.4302847791e+02   4.2120237274e+01    0.4803974    0.3058963  74.62  0.001868852    1.430    0.301
        81  -8.9263    142.9835    158.0002   1.1454926179e+02   2.1986976881e+01    0.2178743    0.2091351  53.67 0.0004521383    1.021    0.021
        82  -8.2508    135.8136    151.4202   1.1486880521e+02   2.4763978430e+01    0.1979314    0.1371227  32.72 0.0004732824    1.590    0.371
        83 -10.4600     16.3001    144.3420   1.4277915598e+02   4.3396224466e+01    0.2571679    0.1694413 -59.72 0.0009733759    1.474    0.321
        84  -8.5196    225.6862    150.3481   9.6086976104e+01   6.5357948667e+00    0.2091261    0.1171814 -54.11 0.0008151249    2.721    0.632
        85  -9.0190    223.5056    147.5245   9.5853046684e+01   7.4215089751e+00    0.2476475    0.1319905 -34.94 0.0009688416    1.817    0.450
        86 -10.6353      5.4185    148.2863   1.4562875954e+02   4.3390679339e+01    0.3304883    0.1523115 -85.26  0.001814133    1.805    0.446
        87  -8.7472    110.7999    149.1586   1.2036202157e+02   2.9942813775e+01    0.2036537    0.1820457  81.05 0.0004222954    1.088    0.081
        88 -10.7266    241.6334    146.5186   9.2514663974e+01   4.0575258601e+00    0.3192399    0.2515451  12.79  0.001810095    1.285    0.222
        89  -9.5517    181.0928    146.7207   1.0386105136e+02   1.6360517383e+01    0.5009527    0.3032632 -76.83  0.001510371    4.861    0.794
        90 -10.1659     27.7440    143.4225   1.3995887592e+02   4.2588376894e+01    0.2948326    0.2149422  -3.06  0.001769147    2.241    0.554
        91  -8.7908    192.4643    143.4993   1.0081765689e+02   1.4536572807e+01    0.1459839    0.1395583   8.97   0.00011873    1.003    0.003
        92 -10.9569    239.3847    140.2403   9.1502223708e+01   5.4523712890e+00    0.4774803    0.3420631   2.50  0.001712105    1.596    0.373
        93 -12.3474     34.5780    135.7949   1.3735794782e+02   4.3664780962e+01    0.6874198    0.5719211 -71.21  0.004578034    1.115    0.103
        94 -11.2423     40.1347    136.1749   1.3599565945e+02   4.3010836141e+01    0.5181928      0.30315  81.54  0.002300299    1.907    0.476
        95  -9.0763      5.3567    139.8228   1.4492772423e+02   4.5251454170e+01     0.172585   0.07742112 -67.34  0.000948141    1.756    0.430
        96  -9.7528     10.5352    139.0374   1.4363369428e+02   4.5038498550e+01    0.1842669    0.1537072 -44.62 0.0007559779    1.514    0.339
        97  -8.3639     91.9768    137.7756   1.2289218411e+02   3.5719268492e+01    0.1766968    0.1147994  40.46 0.0003717897    1.604    0.376
        98  -7.6367    110.9864    137.0000   1.1790747997e+02   3.2620812502e+01    0.2344084   0.08171368  41.19 0.0007972963    2.907    0.656
        99  -8.8641    207.7526    134.7270   9.5828879170e+01   1.2829673755e+01    0.2484058    0.1737005  43.60 0.0005261064    1.437    0.304
       100 -10.0328    103.2522    151.8713   1.2269091997e+02   3.0654461415e+01    0.3497818    0.2737298  14.07  0.001792359    1.781    0.438
       101 -10.0242     37.1376    126.3183   1.3540967253e+02   4.5591109195e+01    0.3291014    0.1970875 -85.56  0.001241555    1.660    0.397
       102 -11.3992     16.5788    113.9960   1.3929861106e+02   5.0224776219e+01     0.636206    0.4756374  14.95  0.004205462    1.795    0.443
       103 -10.9730      4.5771     89.6539   1.3945616378e+02   5.6502349524e+01    0.6186764    0.3075966  82.95  0.003047774    2.627    0.619
       104 -10.6661      2.7007     83.4685   1.3912600279e+02   5.7974320661e+01    0.3626495    0.2620095  80.21  0.001687504    1.507    0.336
       105 -11.3118     12.0269    131.3356   1.4250758281e+02   4.6645555698e+01    0.4982868    0.3428147  19.71  0.002809361    1.969    0.492
       106 -11.8990      9.2892    104.6703   1.4012756739e+02   5.2851478768e+01    0.8695523    0.4809916 -79.52  0.005018422    1.538    0.350
       107 -11.8316     16.8789    124.7185   1.4054330217e+02   4.7764648183e+01    0.7181587    0.3280221 -75.98  0.003159138    1.819    0.450
       108 -11.1341     14.5510    119.6741   1.4055722155e+02   4.9087549987e+01     0.734108    0.2705968 -44.39   0.00310844    3.537    0.717
       109 -11.7631      2.8803    113.8976   1.4300839598e+02   5.1187375263e+01      1.17374    0.2655653 -76.14  0.004217989    3.982    0.749
       110  -9.8861      7.2836    112.5955   1.4167232424e+02   5.1198147334e+01    0.2984624    0.1598589 -61.66 0.0008878015    1.494    0.331
       111 -10.7962     26.9743    128.3136   1.3835640220e+02   4.6096052847e+01     0.316635    0.2377838   5.73  0.001979236    1.933    0.483
       112 -10.2691     30.5583    125.3575   1.3702672904e+02   4.6447324447e+01    0.3491849    0.2045305  67.97  0.001865643    1.954    0.488
       113 -10.9952    246.5780    125.7406   8.7076381022e+01   6.2885396382e+00    0.3343388    0.2693828  33.16 0.0005871094    1.309    0.236
       114 -10.0019    187.5999    123.2275   9.7004151612e+01   1.9343426176e+01    0.3570744    0.1548369 -37.20  0.001302017    2.319    0.569
       115  -9.5530    189.2928    116.9621   9.5104049401e+01   2.0121720846e+01    0.3001683    0.2264306  34.75  0.000802258    1.407    0.289
       116 -10.8354     50.1455    121.3437   1.3110119578e+02   4.5351431326e+01    0.5296464    0.3577183  88.34  0.002422484    1.610    0.379
       117 -10.4205     54.1601    116.3164   1.2909854312e+02   4.6053313006e+01    0.4374874    0.3414354  52.73  0.002228366    1.397    0.284
       118 -11.0962    103.7421    123.5269   1.1688616209e+02   3.6969042207e+01    0.3756027    0.3079351   2.90 0.0007143416    1.631    0.387
       119  -9.8582    223.6523    123.6249   9.0345177721e+01   1.1322297223e+01    0.2847833    0.2396726  25.27 0.0006472487    1.236    0.191
       120  -9.0490    174.9143    122.4663   9.9453865004e+01   2.2357025276e+01    0.2779346    0.2107877 -57.06 0.0004158322    1.480    0.324
       121 -10.6646    240.6375    119.6510   8.6605604294e+01   8.4244412506e+00    0.3913117    0.3277502 -49.79 0.0006731552    1.291    0.226
       122  -9.0093     82.7701    118.2995   1.2143820856e+02   4.1670582609e+01    0.2663294    0.2040502  87.88  0.001127053    1.502    0.334
       123 -10.9973    239.0146    112.5312   8.5189181529e+01   9.8814873272e+00    0.4418193    0.2618605 -27.00  0.002061726    1.647    0.393
       124  -8.6809    136.4737    114.4850   1.0629268506e+02   3.2517030793e+01    0.3315899    0.1505806  46.51  0.001226522    2.224    0.550
       125  -8.7076     84.0381    113.6859   1.2008190606e+02   4.2536098604e+01    0.1883612    0.1863288 -46.76 0.0005868059    1.108    0.098
       126  -9.2575    208.4390    110.9751   8.9951685660e+01   1.6819161851e+01    0.3517578    0.2427704 -59.91  0.001084888    1.822    0.451
       127  -8.3610    168.7611    109.0013   9.7340335273e+01   2.6383751196e+01    0.2063573    0.1293503 -39.37 0.0005684922    1.586    0.370
       128  -9.2787    103.6270    106.1496   1.1279559507e+02   4.0900910971e+01    0.3468927    0.2736011 -12.66  0.001672105    1.653    0.395
       129  -9.5944     98.5680    102.4265   1.1326857491e+02   4.2646054097e+01    0.4875786    0.3035366 -86.43  0.001479475    3.262    0.693
       130 -10.2345    240.7638    106.5094   8.3490767772e+01   1.0463323795e+01    0.3480715    0.1676285 -33.59 0.0008694939    1.891    0.471
       131  -9.6040    142.2732    106.5844   1.0280923662e+02   3.2910925616e+01    0.2982158    0.2882873 -43.52 0.0009114039    1.025    0.025
       132  -8.1368     81.5398    107.5131   1.1939803842e+02   4.4342733031e+01    0.1418222    0.1278923 -46.59 0.0005132148    1.094    0.086
       133 -10.6240     59.6805    102.6473   1.2478101382e+02   4.8543697634e+01    0.4598434    0.2388985 -50.85  0.001693262    1.707    0.414
       134 -11.3468     65.7479     97.6167   1.2180808021e+02   4.8900070291e+01     1.052192    0.7879052 -37.41  0.005808917    1.385    0.278
       135 -10.2117     61.8242     95.3949   1.2250377425e+02   4.9926248574e+01    0.3845338     0.254974  24.63  0.001847837    1.831    0.454
       136  -9.7952     92.4193    101.7043   1.1484513655e+02   4.3882719878e+01    0.4155025    0.3560278  17.73  0.001515194    1.355    0.262
       137  -9.1441    207.2713    101.8736   8.7853931970e+01   1.8659812862e+01    0.5080882    0.1505858  44.08  0.001470049    4.017    0.751
       138 -11.1258    245.4534     99.8892   8.1220982243e+01   1.0507481923e+01    0.4287954    0.3258825 -55.12  0.001361328    1.431    0.301
       139 -10.8815    240.8380     94.3055   8.0550564496e+01   1.2349626660e+01    0.4364893    0.3545677 -76.59  0.001581037    1.492    0.330
       140 -11.2163    215.5702     93.2313   8.4205128423e+01   1.8188795907e+01    0.9842153    0.7699917 -89.84  0.004877382    1.604    0.376
       141  -8.5793    149.3492     98.2567   9.8839172863e+01   3.3002155001e+01    0.2191447    0.1412724 -48.01 0.0009361084    1.585    0.369
       142  -8.2590     79.3102     98.7000   1.1795202923e+02   4.6690440363e+01    0.1384036    0.1080876  84.51 0.0002933769    1.602    0.376
       143  -9.1882     89.8766     94.5891   1.1374837794e+02   4.5897018386e+01    0.2845534    0.2241327 -63.42 0.0006277339    1.308    0.236
       144  -8.6059     86.0155     92.5230   1.1435355767e+02   4.6998612592e+01    0.2118994    0.1414696  41.40  0.001035098    1.615    0.381
       145  -7.8978    227.6699     94.7552   8.2642605781e+01   1.5176156888e+01     0.140337     0.108942  21.99 0.0002592588    1.542    0.351
       146  -8.5791    164.5360     93.9493   9.4176343702e+01   3.0270183995e+01    0.2426908     0.152413 -36.64  0.001029181    1.592    0.372
       147  -9.7889    192.0000     92.7433   8.8252139806e+01   2.3865816411e+01    0.4168829    0.2911949  71.34  0.001862745    1.725    0.420
       148 -10.3060    199.7433     88.0700   8.5572856572e+01   2.2804582833e+01    0.6275429    0.3205438 -56.87  0.002208303    2.828    0.646
       149  -9.6149    185.9714     89.0623   8.8400137355e+01   2.5974719289e+01    0.3257337    0.2139381 -35.49  0.000890972    1.499    0.333
       150  -9.9072    105.3291     86.8116   1.0706660657e+02   4.4769637033e+01    0.4724589    0.3247798  -4.69  0.001994314    2.314    0.568
       151  -9.7991    104.8838     80.7200   1.0538877590e+02   4.6116693942e+01    0.4995678    0.3606826  72.65  0.002282778    1.994    0.499
       152  -9.2403    102.9561     98.4021   1.1097255395e+02   4.2734063106e+01    0.3234511    0.2435763   4.13  0.001517899    1.858    0.462
       153  -9.7804    222.8203     85.4797   8.1056082647e+01   1.7764578954e+01    0.5062906    0.3090265  86.30  0.001175573    2.665    0.625
       154 -10.7525     65.5027     81.1564   1.1774823967e+02   5.2603440203e+01    0.5974156    0.2834899 -46.00  0.001154778    1.886    0.470
       155  -9.1798     61.5574     80.2551   1.1880682132e+02   5.3333638548e+01    0.2597575    0.1826076 -40.23 0.0006675628    1.327    0.246
       156 -10.2585     58.4046     98.7971   1.2433247373e+02   4.9587599825e+01    0.3658623    0.2301985 -49.76  0.001094052    1.422    0.297
       157  -9.0516    177.1795     83.8355   8.8667921058e+01   2.9050223746e+01    0.2162734    0.1812593  23.57 0.0004646376    1.345    0.256
       158  -9.4914    132.9743     83.0395   9.8452548930e+01   3.9737406844e+01    0.3652467    0.2804735 -57.51  0.001739298    1.443    0.307
       159 -10.5957     20.3622     40.1629   1.2258606946e+02   6.5938784007e+01    0.2479773     0.218924  -2.41 0.0005898431    1.269    0.212
       160 -10.9227     54.9676     55.1515   1.1362321903e+02   5.9406408927e+01    0.7626106    0.5913472  31.57  0.004605259    1.447    0.309
       161 -10.7765     38.2638     44.8700   1.1663507641e+02   6.3369185651e+01    0.4984175    0.3212095 -56.46  0.002847723    1.611    0.379
       162 -11.0359     26.9719     57.1408   1.2493403308e+02   6.2005980744e+01     1.591433     0.435366  37.84  0.006120184    4.650    0.785
       163  -8.2415    116.7983    248.3856   1.3295006400e+02   1.0029125578e+01    0.1546183   0.09054016  38.01 0.0003060489    1.558    0.358
       164 -12.1913     26.6526     48.8276   1.2265648729e+02   6.3719999391e+01     0.676019    0.4736808 -74.01  0.002412085    1.849    0.459
       165 -10.8097     18.5921     46.2595   1.2521802333e+02   6.4881995961e+01    0.2714169    0.2497932 -28.46 0.0008572271    1.198    0.165
       166 -11.4954     31.0509     43.6566   1.1919309431e+02   6.4331290348e+01    0.2951389    0.2449491 -39.36 0.0006039753    1.073    0.068
       167 -10.9196     36.1138     57.9980   1.2164621086e+02   6.0989418743e+01    0.4726517     0.226398 -47.41  0.001488571    1.689    0.408
       168 -10.7666     38.4575     52.9232   1.1920207784e+02   6.1778339962e+01    0.3166481    0.2779122 -78.27 0.0007671242    1.453    0.312
       169 -10.1252    148.4932     80.3440   9.3856241508e+01   3.6656733631e+01    0.4452247    0.3693808   7.03  0.002171221    1.421    0.296
       170  -8.9713    214.5285     80.6242   8.1100547149e+01   2.0485377658e+01    0.3756514    0.2172531 -67.57  0.001406385    2.777    0.640
       171 -10.0539    220.1489     92.9441   8.3381562226e+01   1.7177905662e+01     0.393383    0.3657156 -26.66   0.00149375    1.040    0.038
       172  -8.6862    121.9913     79.3088   1.0018412914e+02   4.2885829610e+01    0.2193752    0.1948596  46.91  0.001152001    1.156    0.135
       173  -9.0528     72.6236     78.3240   1.1463003963e+02   5.2189326017e+01    0.4876075    0.2685798  23.06  0.002124769    2.472    0.595
       174 -11.8409    232.7647     73.1552   7.6476890950e+01   1.7379258229e+01    0.8104073    0.5482293  55.22  0.004076073    1.571    0.364
       175 -11.8046    227.3247     59.5056   7.3745460237e+01   2.0653829115e+01    0.5744184     0.474627  71.07  0.002280816    1.260    0.207
       176 -11.6402    223.8496     52.5885   7.2415400821e+01   2.2462326561e+01    0.6269373    0.4301702 -48.41  0.002602177    1.386    0.278
       177 -10.1890    249.2767     75.7182   7.4925226265e+01   1.3327515823e+01    0.3647463    0.1857464  44.90  0.001601012    2.362    0.577
       178  -9.7385    210.5837     74.7163   8.0164011524e+01   2.2371230503e+01    0.2886881    0.1440627 -28.53  0.001137771    2.091    0.522
       179 -10.4396    189.4900     72.7424   8.3180924123e+01   2.7883220838e+01    0.3542906    0.3125334 -23.67  0.001677486    1.170    0.145
       180 -11.3032    196.6827     72.9489   8.1977335915e+01   2.6060567980e+01    0.6327529    0.3362495  58.83  0.002605258    1.921    0.479
       181 -10.8170    191.8325     68.8248   8.1658323579e+01   2.7930824314e+01    0.4596909    0.3627625 -70.91  0.002253374    1.440    0.306
       182 -11.0421    201.2625     65.3865   7.9117887175e+01   2.6116476634e+01    0.7002627    0.5106969  55.39  0.003440188    1.389    0.280
       183  -9.3012     89.0086     72.0142   1.0748215399e+02   5.0830438609e+01    0.3989247    0.2478054 -26.11  0.001791687    1.924    0.480
       184  -9.4133    102.5804     70.2788   1.0279690689e+02   4.8647956468e+01    0.4016695    0.2720555  42.79  0.001942833    1.536    0.349
       185  -9.7095     93.5147     70.5066   1.0560436240e+02   5.0321938804e+01    0.3417257    0.2690517  61.01    0.0014043    1.563    0.360
       186 -10.4729     96.2964     66.3167   1.0338808664e+02   5.0621862928e+01    0.5922494    0.4210423 -43.59  0.002105758    1.357    0.263
       187  -8.7027    131.4296     71.4824   9.5268127735e+01   4.2276764885e+01    0.2160873    0.1484652  62.66 0.0006350384    1.684    0.406
       188 -10.8261    224.1733     66.6797   7.6020960903e+01   2.0349017783e+01     0.554141    0.2934956 -39.78  0.002189777    1.735    0.424
       189  -8.9977     82.5013     66.8887   1.0792041378e+02   5.2977239693e+01    0.2283941     0.196935  32.23 0.0003909223    1.236    0.191
       190  -8.3215     76.5846     66.2500   1.0965828699e+02   5.4075997788e+01    0.1907367    0.1199333 -36.86 0.0006181798    1.504    0.335
       191  -9.8933    119.2246     63.8195   9.5961741845e+01   4.6398488640e+01    0.2739934    0.2468973  30.21 0.0004903159    1.114    0.102
       192  -8.3051    244.9071     64.0000   7.2642463345e+01   1.5975295670e+01    0.2127825   0.07872697  62.92 0.0008021838    2.941    0.660
       193  -9.8055    179.6957     62.6850   8.2045310578e+01   3.1964873202e+01    0.3576491    0.2735873 -89.61 0.0008046891    1.553    0.356
       194 -10.0017    174.4089     60.7544   8.2448885399e+01   3.3609362970e+01    0.5883705    0.2198897 -31.31  0.001994289    2.756    0.637
       195 -10.3455     83.9443     34.7568   9.5728378798e+01   5.8389041172e+01    0.4781379    0.4236962 -37.79  0.002230602    1.252    0.202
       196 -10.6324     99.8507     55.1273   9.8475844166e+01   5.1992899656e+01    0.5938426    0.3601269 -33.05  0.001434756    1.616    0.381
       197  -8.5173     34.3153    246.2962   1.4669059002e+02   2.1298895863e+01   0.08266327   0.07742079  87.75 0.0003062434    1.605    0.377
       198 -10.8040     95.8335     48.6346   9.7342415223e+01   5.3901418062e+01    0.5124621    0.4415015 -33.06   0.00131041    1.145    0.126
       199 -12.7989     70.5442     53.2081   1.0732734153e+02   5.7551342187e+01     1.145853    0.7885957  52.96  0.004326438    1.910    0.476
       200 -11.7066     66.0359     45.1268   1.0599338748e+02   5.9716708070e+01    0.5172452    0.3033314 -39.29 0.0009580225    1.544    0.352
       201 -11.6379     61.4605     44.8244   1.0756185567e+02   6.0452109027e+01    0.3727474    0.3028837 -14.32 0.0008351922    1.152    0.132
       202  -9.9357    238.9593     61.3511   7.2723250774e+01   1.7690238325e+01     0.224325    0.1799688 -57.26 0.0007912344    1.200    0.167
       203 -10.1376    232.9332     52.6582   7.1295571464e+01   2.0300994169e+01    0.3345021    0.1827082 -43.56  0.001544671    1.675    0.403
       204  -9.7149    209.8882     59.0913   7.6064823541e+01   2.4928373187e+01    0.3483568    0.2839861  41.13  0.001384123    1.356    0.263
       205  -9.7281    184.0619     75.4823   8.4954514524e+01   2.8783361724e+01    0.5169222    0.3200881 -58.20  0.002127602    1.996    0.499
       206 -10.2526    163.0460     57.5623   8.3670198136e+01   3.6987591323e+01    0.4762446    0.2033277  54.84  0.001384403    2.244    0.554
       207  -9.5594    248.9089     56.2715   7.0311658318e+01   1.6169648747e+01    0.2259836    0.2189423 -46.64 0.0003746857    1.116    0.104
       208 -11.0334    124.0590     54.0710   9.1371304305e+01   4.6994913370e+01    0.4187306    0.3522732 -82.94 0.0006379979    1.514    0.340
       209 -10.1094      8.7243     54.6583   1.3145926577e+02   6.3830866817e+01     0.322808    0.2798463 -64.94  0.002238683    1.192    0.161
       210 -10.1410    207.7125     52.9053   7.4697797639e+01   2.6363908713e+01    0.5492604    0.2812268 -24.91  0.002060997    2.162    0.537
       211  -9.5261    205.6799     47.1152   7.3397609588e+01   2.7683726094e+01    0.4010743    0.2694054  62.57  0.001955413    1.478    0.323
       212 -11.0065    244.2905     51.3472   6.9645604631e+01   1.7872642895e+01    0.6609829    0.3016616  47.23   0.00184529    2.714    0.632
       213  -9.9322    213.9056     52.6771   7.3764283376e+01   2.4865102985e+01    0.3543136    0.2683451 -73.49  0.001414128    1.434    0.303
       214  -8.6442    178.2037     53.0534   7.9441236392e+01   3.3817907853e+01     0.263406    0.1580127 -56.08  0.001091198    1.985    0.496
       215  -8.9206    141.2981     52.6441   8.6714617039e+01   4.3159137334e+01     0.328357     0.164981 -44.38  0.001244385    2.144    0.534
       216  -9.4931      2.0399     46.8397   1.3228097911e+02   6.5799701758e+01    0.2804456     0.142697 -74.49  0.001514441    2.175    0.540
       217  -9.7062    128.6835     45.9379   8.7372892877e+01   4.7207667897e+01    0.4506477    0.3018118 -63.62 0.0005915556    2.157    0.536
       218  -8.8562    178.9782     45.6854   7.7087033462e+01   3.4680467606e+01    0.2566209   0.07946619  44.53 0.0007047039    4.273    0.766
       219  -9.7448    142.5071     43.4792   8.3346956308e+01   4.4240029589e+01    0.4794281    0.1420536 -31.23  0.001517121    3.384    0.704
       220  -9.2862      2.7215    245.1264   1.5151640874e+02   2.4772178892e+01    0.1563511    0.1247621  69.72 0.0006131361    1.318    0.241
       221  -8.7381    202.2270    243.7575   1.1732543932e+02  -2.7017485022e+00    0.1629058    0.1114696  21.48  0.001046617    1.346    0.257
       222  -9.7468     50.3461    242.5095   1.4385761510e+02   2.0073406380e+01    0.1920071    0.1461683  79.77  0.001500223    1.163    0.140
       223 -13.0377    228.2925    237.4804   1.1192872965e+02  -5.9549827141e+00    0.5057684     0.363862  -8.80   0.00182778    1.420    0.296
       224  -9.3706    127.7366    241.9991   1.3033211463e+02   9.3452560416e+00    0.1587952    0.1338546  57.42 0.0004133211    1.090    0.082
       225 -10.4672     89.4788    239.9551   1.3694794405e+02   1.5370027729e+01    0.2629585    0.2379953   2.65  0.001408558    1.778    0.438
       226 -12.6918    211.5475    229.9138   1.1362082830e+02  -2.4646981394e+00     0.867003    0.6776688 -10.04  0.003089868    1.353    0.261
       227  -9.7192     61.3930    238.1092   1.4168707310e+02   1.9459209936e+01    0.1962178    0.1422416  54.66 0.0004927555    1.162    0.139
       228  -9.4731    116.9181    236.7658   1.3171072267e+02   1.1844927688e+01    0.2268147    0.1292916  54.34 0.0007381022    1.503    0.335
       229  -8.2118     16.3253    237.3332   1.4909025602e+02   2.4756203404e+01   0.08523629   0.07336012 -68.57 0.0007051127    1.711    0.416
       230  -8.9573     73.9877     43.8969   1.0269668719e+02   5.8664604060e+01    0.1984365    0.1770673 -14.16 0.0005380628    1.025    0.024
       231  -9.0583      1.4339     32.2901   1.2861020559e+02   6.8698037221e+01    0.2022803    0.1271452 -55.40 0.0006201192    1.270    0.212
       232 -10.4760      8.6716     39.3198   1.2743152439e+02   6.6926801818e+01    0.4189834    0.2368121 -72.43  0.002326598    2.197    0.545
       233 -10.2007      5.4128     36.6964   1.2810712511e+02   6.7631201797e+01    0.4361596    0.2798482 -72.34  0.002723722    1.808    0.447
       234  -8.7678    240.5846     40.8346   6.7496818680e+01   2.0110825044e+01    0.2771065    0.1689482 -55.62 0.0008549394    1.603    0.376
       235 -10.2501    235.3368     37.1521   6.7151742233e+01   2.1799910109e+01    0.6024388    0.3651396 -85.23  0.002888884    1.927    0.481
       236  -8.5892    182.6507     40.9235   7.5056701436e+01   3.4388484032e+01    0.1993654    0.1827057 -36.58 0.0006601609    1.117    0.105
       237  -9.0805    163.8292     41.0241   7.8289843108e+01   3.9214255194e+01    0.2594793    0.1552337 -55.84  0.001087315    2.043    0.511
       238  -9.7653    222.6884     38.9825   6.9032627528e+01   2.4575662722e+01    0.3914819    0.2504257  39.99  0.001863607    1.966    0.491
       239 -10.3125    129.1532     34.5890   8.3199744551e+01   4.8713059057e+01    0.6588824    0.4444972 -51.65   0.00226501    1.788    0.441
       240  -8.0743     76.3145    234.6501   1.3881009317e+02   1.8098261789e+01    0.1224353   0.06714977  67.05 0.0007046779    1.726    0.421
       241 -10.0718    131.7339    231.8423   1.2842614434e+02   1.0316564899e+01    0.2439727    0.1869742  62.95  0.001055172    1.247    0.198
       242 -11.0449    134.7918    226.3104   1.2717155644e+02   1.0720309583e+01    0.2661033    0.2336477  41.38 0.0005897158    1.142    0.124
       243  -8.8963     62.0430    230.8926   1.4102558433e+02   2.0642053476e+01    0.1673888    0.1256651  67.96 0.0004554186    1.015    0.015
       244  -9.6562    109.9477    227.3490   1.3196170301e+02   1.4488916299e+01    0.1987496    0.1846049 -74.57 0.0004463912    1.302    0.232
       245  -8.6524    118.7681    227.4576   1.3032316744e+02   1.3098122888e+01    0.1665421    0.1030473  35.48 0.0006249744    1.618    0.382
       246  -8.3472     78.9505    220.9392   1.3709742395e+02   2.0184768559e+01    0.1374826    0.1105803  79.97 0.0004049629    1.122    0.109
       247 -11.8875     20.0376     31.8155   1.1988360943e+02   6.7533396326e+01    0.4714244    0.2850554   2.43  0.002259215    1.944    0.486
       248 -11.8500     17.5467     27.9236   1.1960947267e+02   6.8442592515e+01    0.4724781    0.2584949 -18.42  0.001214592    2.055    0.513
       249  -8.7977    189.9922     36.5148   7.2639527281e+01   3.3081644057e+01    0.2242993    0.1860743 -32.58 0.0007129031    1.237    0.192
       250  -9.4094    165.7270     36.3498   7.6460510071e+01   3.9350693527e+01    0.3219012    0.2278538 -67.42  0.001378357    1.701    0.412
       251  -9.4701    142.6107     37.0545   8.1119287808e+01   4.5107953032e+01    0.2862869    0.2401157  47.72 0.0006834635    1.139    0.122
       252 -10.0175    186.0365    219.8358   1.1663338420e+02   3.1014938307e+00    0.2056059    0.1728791   5.75 0.0003922964    1.254    0.203
       253 -11.6804    232.2664    211.0796   1.0688452695e+02  -3.4086940189e+00    0.8840576    0.5729296  19.41  0.005220912    1.447    0.309
       254  -9.0864     74.0069     36.7247   9.9875699664e+01   5.9850142069e+01     0.267324    0.2025951  -0.16  0.001513112    1.360    0.265
       255  -9.3061     73.5637     33.1949   9.8591633040e+01   6.0480492912e+01     0.300344    0.2714784  41.18  0.001428082    1.304    0.233
       256  -8.6167     54.0421     36.0346   1.0700800083e+02   6.3038165307e+01    0.1812552    0.1594646 -73.87   0.00112651    1.700    0.412
       257  -9.9466    218.8033     29.8056   6.7096225301e+01   2.6676669810e+01    0.5219741    0.3527507  24.11  0.002486911    2.175    0.540
       258  -9.8278    239.8519     29.8824   6.4916043202e+01   2.1658195076e+01    0.3247264    0.2154682 -51.77  0.001398218    1.370    0.270
       259  -9.5956    231.2794     29.5106   6.5681678710e+01   2.3707686414e+01    0.2350704    0.2161358 -64.93  0.000403299    1.048    0.046
       260  -9.9178    235.9533     28.5490   6.4974177985e+01   2.2725332487e+01    0.4490853    0.2877047  13.48  0.002005062    2.755    0.637
       261  -9.4626     74.9670     28.4323   9.6109162112e+01   6.0950881236e+01    0.4070404    0.2119274  28.59  0.001857948    2.235    0.553
       262  -8.8660    226.2329    202.4059   1.0639335900e+02  -1.2872447539e+00    0.2259447    0.1778082  36.42 0.0006704002    1.238    0.192
       263  -9.2392    173.6808     26.2962   7.2002615160e+01   3.8544145307e+01    0.3219872    0.1993726  72.86  0.001405039    1.619    0.382
       264  -9.8723    118.4608     24.7855   8.2038566705e+01   5.2474752890e+01    0.3527821    0.2387067 -36.88  0.001465233    1.572    0.364
       265 -11.5086    228.9962    195.1407   1.0457567655e+02  -7.6536510172e-01    0.8801989    0.4831591 -43.92  0.004421177    2.269    0.559
       266 -11.0090    220.6959    189.5872   1.0500904349e+02   1.4563266398e+00    0.2969935    0.2364254  28.82 0.0005004943    1.127    0.113
       267 -10.3066    154.5035     22.8872   7.4019249545e+01   4.3863808103e+01    0.5759138    0.2912941  53.29  0.002091479    1.800    0.444
       268  -9.8355    225.1477    188.8368   1.0406917960e+02   7.8151347789e-01    0.2630214    0.1846528  -7.14 0.0003834497    1.515    0.340
       269  -8.3834    212.1393     23.3761   6.6150030074e+01   2.9084845256e+01    0.1908275    0.1216719  88.79 0.0004026648    1.646    0.392
       270  -8.3456    217.3154     20.8062   6.4918019553e+01   2.8104157403e+01    0.2520462    0.1034792  73.96 0.0007835489    2.484    0.597
       271 -12.4204    209.2080    207.0720   1.1026773898e+02   9.5818312501e-01     2.483656     0.829775  36.39  0.009746914    2.904    0.656
       272  -9.3642    116.1155    213.6840   1.2917021615e+02   1.5924648625e+01    0.2548723    0.1546798  20.08 0.0009655062    3.006    0.667
       273  -9.5689    150.9990    213.0314   1.2225647632e+02   1.0196072803e+01    0.2814485    0.1652252  39.58 0.0007867274    1.491    0.329
       274  -9.1271     98.0235    212.1737   1.3253283988e+02   1.9033839124e+01    0.1879783    0.1574012  84.56  0.000384301    1.152    0.132
       275  -9.3466    128.9694     17.9710   7.7119036204e+01   5.0762124096e+01      0.33707    0.2320329  11.43  0.001679214    1.695    0.410
       276 -10.1439    166.3893     26.5570   7.3228920048e+01   4.0394049141e+01    0.2592844    0.2435784  63.91 0.0002405411    1.015    0.015
       277 -10.0284    233.3513     13.7219   6.1614157982e+01   2.5047828454e+01    0.2676377    0.1682067 -76.49  0.001402568    1.601    0.376
       278 -10.4101      6.3941    208.2563   1.4930271689e+02   3.1003321306e+01    0.3112506     0.157264  80.23 0.0008337896    1.578    0.366
       279 -11.4277     12.7643    206.4898   1.4809497178e+02   3.0742465259e+01    0.5119746    0.3369396  46.27  0.002645748    1.495    0.331
       280 -10.8546     50.6968    203.9738   1.4091517870e+02   2.7122906738e+01    0.3171825    0.2206256  82.90  0.001089432    1.217    0.178
       281 -10.9385     45.1106    201.2757   1.4176159269e+02   2.8325347477e+01    0.3326484    0.2506265  50.81  0.002323145    1.294    0.227
       282  -8.8772     77.1461    202.0946   1.3554682941e+02   2.4031474066e+01    0.1652921    0.1554418  79.83 0.0004613005    1.265    0.210
       283  -8.9752     62.7323    200.8132   1.3828236802e+02   2.6236735249e+01    0.2294273    0.1156328  61.38 0.0008221858    1.896    0.473
       284 -13.1965    247.5127    196.4124   1.0164238784e+02  -3.9878415142e+00     0.395981    0.3072361  -4.61 0.0009434982    1.136    0.120
       285 -12.9436    211.6507    188.6690   1.0648455121e+02   3.2080985220e+00     4.307872     1.946013  19.35  0.009822489    9.520    0.895
       286  -8.9320    106.1019    212.0185   1.3093075033e+02   1.7817312914e+01    0.2213197    0.1561147  44.86 0.0007175342    1.269    0.212
       287  -9.9320    183.2520     25.1496   7.0256332966e+01   3.6208715359e+01    0.4266516    0.2679533  79.44  0.001568635    1.659    0.397
       288  -9.8290    127.0930    198.3679   1.2489611894e+02   1.6924051525e+01     0.242198    0.2016211 -66.51  0.001298263    1.314    0.239
       289  -8.7587    148.2076    198.1550   1.2055015261e+02   1.3257860868e+01    0.1812769    0.1438592  64.65 0.0003508363    1.325    0.245
       290 -10.2413     22.8485    197.5144   1.4570652503e+02   3.1505412326e+01    0.2515773     0.196153  23.11  0.001409374    1.915    0.478
       291  -8.8384     79.2612    190.5807   1.3382186759e+02   2.6054569859e+01    0.2099068     0.150177  34.35  0.001228673    1.597    0.374
       292  -8.8773      6.9559    191.2625   1.4827493632e+02   3.4259266829e+01    0.1483782    0.1104956  73.65 0.0004203608    1.079    0.074
       293  -8.2683     44.7041    187.7008   1.4066248765e+02   3.1135653647e+01    0.1042684   0.08729129 -53.36  0.000189061    1.571    0.364
