#   1 NUMBER                 Running object number                                     
#   2 MAG_AUTO               Kron-like elliptical aperture magnitude                    [mag]
#   3 X_IMAGE                Object position along x                                    [pixel]
#   4 Y_IMAGE                Object position along y                                    [pixel]
#   5 X_WORLD                Barycenter position along world x axis                     [deg]
#   6 Y_WORLD                Barycenter position along world y axis                     [deg]
#   7 A_WORLD                Profile RMS along major axis (world units)                 [deg]
#   8 B_WORLD                Profile RMS along minor axis (world units)                 [deg]
#   9 THETA_WORLD            Position angle (CCW/world-x)                               [deg]
#  10 FWHM_WORLD             FWHM assuming a gaussian core                              [deg]
#  11 ELONGATION             A_IMAGE/B_IMAGE                                           
#  12 ELLIPTICITY            1 - B_IMAGE/A_IMAGE                                       
         1 -12.1462    201.8624     32.1630   4.9813269575e+01   3.0428850132e+01     1.087647    0.9245329  31.83  0.005958909    1.354    0.262
         2 -10.7576    209.7330     23.1497   4.6335040289e+01   2.9530384817e+01    0.5597016    0.3624581  37.08  0.001192878    1.951    0.488
         3 -11.9425    215.9256     15.7046   4.3668477404e+01   2.8835100383e+01    0.7579343     0.681692 -56.29  0.002771095    1.074    0.069
         4  -8.8593     17.3206      7.3440   9.1753319595e+01   7.1760634546e+01    0.1226965   0.06702168 -19.06 0.0007049837    1.727    0.421
         5 -10.7497    127.5007    244.4894   1.1174425422e+02   8.1999449297e+00    0.3236835    0.2244904 -61.18  0.002140481    1.774    0.436
         6 -10.9950     98.1096    246.2624   1.1708579464e+02   1.2316019478e+01    0.5228376    0.1742907  39.09  0.002409643    2.728    0.633
         7 -10.6373    119.3422    247.2957   1.1348490030e+02   9.0162973217e+00     0.319468    0.2451193  89.24  0.002243947    1.485    0.327
         8 -11.3795    114.2284    247.3433   1.1438552039e+02   9.7782274064e+00    0.5105448    0.3762038  30.34  0.003419995    1.593    0.372
         9  -9.6620    106.7714    249.6480   1.1590519095e+02   1.0522297616e+01    0.2710088    0.1464822  40.32  0.001176055    1.610    0.379
        10 -10.2383     83.5724    249.9095   1.1987921600e+02   1.3767279744e+01    0.3651439    0.1282839  41.81  0.001861388    2.318    0.569
        11  -9.5506     89.2714    248.9827   1.1884019676e+02   1.3129803353e+01    0.2075966    0.1663029  25.23  0.001463463    1.802    0.445
        12 -10.7268     72.6907    249.8457   1.2168849287e+02   1.5238019520e+01    0.5080823    0.2955458 -73.69  0.003426779    1.851    0.460
        13 -10.5773     59.0622    243.8937   1.2351371437e+02   1.7981571419e+01    0.3714924    0.1810627  72.26  0.002181379    2.029    0.507
        14 -11.0868     65.9466    242.5417   1.2226844861e+02   1.7334206386e+01    0.4764318     0.239319  41.46  0.001492081    1.791    0.442
        15  -8.7315     67.4591    238.5228   1.2170758291e+02   1.7825660264e+01    0.1909907    0.1219182  54.02 0.0006169481    1.223    0.182
        16  -8.3924     65.2369    250.6031   1.2296819694e+02   1.6081604953e+01    0.1427063   0.08780248  39.73 0.0009525072    1.654    0.396
        17  -9.9726     51.0094    249.3671   1.2518528010e+02   1.8055723731e+01    0.4112096    0.1344155  56.13   0.00214754    2.462    0.594
        18 -12.1787     41.5344    209.9064   1.2410471454e+02   2.6297409715e+01    0.8596493    0.5083406 -51.36  0.005086341    2.447    0.591
        19 -14.0144     50.9865    200.9389   1.2160967782e+02   2.6954853135e+01     4.284625     1.924142  73.72   0.02018968    2.657    0.624
        20 -11.3825    107.7776    229.8770   1.1372657069e+02   1.3609078628e+01    0.5926301    0.2436138  37.22  0.002785607    2.404    0.584
        21 -10.0668     28.5833    196.7731   1.2553274631e+02   3.0330060154e+01    0.2318287    0.1498151  82.03 0.0007869156    1.230    0.187
        22 -12.5126      7.9908    250.1111   1.3181176675e+02   2.2653061874e+01    0.5555274    0.3368543  33.76  0.002131014    2.213    0.548
        23 -10.2669     67.0059    181.6752   1.1642543616e+02   2.8928364390e+01    0.3737225    0.2525105 -43.55  0.002062839    2.066    0.516
        24 -10.0718     71.7584    175.9270   1.1470866186e+02   2.9529335230e+01    0.2772081    0.2358456 -47.08 0.0008774488    1.487    0.327
        25 -12.8679      2.5871    247.1137   1.3248528067e+02   2.3674391133e+01    0.8812386    0.3579401 -73.91  0.004607459    2.316    0.568
        26  -7.6451    196.3060    169.3305   8.6439790727e+01   8.4899558552e+00     0.147128    0.1064845   6.16 0.0007038092    1.659    0.397
        27 -10.0357     81.0158    165.6806   1.1125124531e+02   3.0481292576e+01    0.2899907    0.2865537 -40.57 0.0005626996    1.287    0.223
        28 -10.9743     86.7581    159.3834   1.0896286318e+02   3.1040887198e+01    0.7039908    0.5433197   1.92  0.002815065    2.089    0.521
        29 -10.4652    158.1804    227.7912   1.0405353323e+02   5.8199978286e+00    0.4569944    0.1443255  34.08  0.001533571    4.214    0.763
        30 -11.5930     68.3550    162.2189   1.1369297257e+02   3.3045944340e+01    0.4491441    0.3072643 -41.74  0.001023992    1.925    0.480
        31 -10.8799     72.7769    154.3829   1.1153447910e+02   3.4229140596e+01    0.7356412     0.404333  73.70  0.003181108    2.505    0.601
        32 -11.4303     68.6744    144.2303   1.1098450221e+02   3.7150766674e+01    0.7533684    0.4624754  67.45  0.003386708    1.901    0.474
        33 -10.5035     88.4205    142.9925   1.0580037332e+02   3.4556563772e+01    0.4167681    0.2941025  23.95 0.0007288049    1.845    0.458
        34 -10.3693     31.9497    143.9385   1.1998580056e+02   4.1470612487e+01    0.3336002    0.2426327  25.98  0.002087089    1.784    0.440
        35 -11.0140     97.2273    226.2369   1.1529245443e+02   1.5830588055e+01    0.5093015    0.2603851  45.23  0.002826098    1.625    0.385
        36  -9.3420    101.6018    142.5739   1.0239890216e+02   3.2494623754e+01    0.5184616    0.2917903 -34.63  0.002062811    2.648    0.622
        37 -10.4503     58.4240    132.0148   1.1165966884e+02   4.1356241728e+01    0.4819022    0.2444182 -74.14  0.002177712    2.014    0.503
        38 -15.3478      6.7365    203.5340   1.2989162138e+02   3.1128699962e+01     13.48487     2.030403 -79.06   0.04440007    6.450    0.845
        39  -9.3302     98.3215    128.4898   1.0039712489e+02   3.6326642747e+01    0.2820194    0.2462728 -41.42 0.0006832446    1.212    0.175
        40  -9.7713     49.8520    243.7324   1.2501492934e+02   1.9141944224e+01     0.209914    0.1020035  56.41   0.00107695    1.560    0.359
        41  -7.9514    107.5416    120.4490   9.6150858674e+01   3.6563781645e+01    0.1478163    0.1404973 -51.33 8.699531e-05    1.051    0.048
        42  -9.0643    111.4068    131.9064   9.7714829696e+01   3.3215423895e+01    0.2943096    0.2028869  20.82  0.001028067    2.000    0.500
        43  -8.1103    168.1476    112.9660   7.9195016374e+01   2.5341224505e+01    0.2708226     0.183914 -67.48  0.001082642    2.096    0.523
        44  -9.9714     33.3774    205.8994   1.2529969269e+02   2.7997316096e+01    0.2323564     0.134764 -88.42   0.00135765    1.463    0.317
        45  -9.8915    101.2236    250.2452   1.1691392192e+02   1.1234201269e+01    0.3143761    0.1362637  44.55  0.001041623    1.789    0.441
        46  -7.7344    134.3151    102.6818   8.4526579529e+01   3.5151755873e+01    0.1581935    0.1250539 -83.68 0.0007038362    1.651    0.394
        47 -10.1587     92.3439    234.8542   1.1703629930e+02   1.5041984143e+01    0.2265751    0.1813994  83.36 0.0006876054    1.208    0.172
        48  -9.3865    147.6086     51.9382   6.5478482763e+01   4.1618238865e+01    0.4689393    0.3143034 -80.25  0.001877295    2.410    0.585
        49  -9.3697     83.6070    233.1898   1.1844190283e+02   1.6569542256e+01     0.256371    0.1351156 -53.03  0.001224558    2.499    0.600
        50 -10.8025    128.6082    229.7054   1.0983953280e+02   1.0376574662e+01    0.3456108    0.2219205  66.11  0.001979873    1.723    0.420
        51  -8.9995    149.2175     45.2974   6.2878800126e+01   4.2225989348e+01     0.265892    0.2283277 -53.84 0.0005432718    1.270    0.213
        52 -10.1476     59.5010    230.4320   1.2245825304e+02   2.0273788580e+01    0.2774389    0.1684816 -63.70  0.001144054    1.865    0.464
        53 -11.2856    192.6363     38.2633   5.2868208836e+01   3.2009960616e+01    0.4926415    0.4318119  51.00  0.001477505    1.169    0.145
        54 -10.6191    134.0734    243.5653   1.1046828921e+02   7.3181169524e+00    0.2162514    0.2055977 -74.49  0.001652676    1.307    0.235
        55  -9.7097     56.8884    247.9008   1.2414278511e+02   1.7579711592e+01    0.2904573    0.1343044  76.24    0.0016402    2.333    0.571
        56 -10.2067    141.4657    242.9811   1.0907543864e+02   6.2416219654e+00    0.1840321    0.1582756 -42.75  0.001317194    1.503    0.335
        57  -9.3900     53.5690    231.1909   1.2353950872e+02   2.0878686606e+01    0.1748234     0.120297 -75.30 0.0008594951    1.489    0.328
        58 -11.5025    116.3833    230.0845   1.1215776458e+02   1.2247217362e+01    0.5718952    0.2544926  41.70  0.002895353    1.896    0.472
