#   1 NUMBER                 Running object number                                     
#   2 MAG_AUTO               Kron-like elliptical aperture magnitude                    [mag]
#   3 X_IMAGE                Object position along x                                    [pixel]
#   4 Y_IMAGE                Object position along y                                    [pixel]
#   5 X_WORLD                Barycenter position along world x axis                     [deg]
#   6 Y_WORLD                Barycenter position along world y axis                     [deg]
#   7 A_WORLD                Profile RMS along major axis (world units)                 [deg]
#   8 B_WORLD                Profile RMS along minor axis (world units)                 [deg]
#   9 THETA_WORLD            Position angle (CCW/world-x)                               [deg]
#  10 FWHM_WORLD             FWHM assuming a gaussian core                              [deg]
#  11 ELONGATION             A_IMAGE/B_IMAGE                                           
#  12 ELLIPTICITY            1 - B_IMAGE/A_IMAGE                                       
         1 -17.4765    235.8505    142.4831   2.8993057390e+02   4.7591798296e+00    0.2931569   0.08730748 -60.24   0.02134446    3.072    0.674
         2 -14.4551    190.7410     53.0717   2.8991006286e+02   6.0531943598e+00   0.08557244   0.03631848 -44.49  0.006982411    2.565    0.610
         3 -16.0992    245.8280     46.9290   2.8924617831e+02   5.8042683913e+00   0.09040416   0.03080033 -53.67  0.007059573    2.663    0.624
         4 -16.6188    219.4100     29.7605   2.8944411892e+02   6.1557682003e+00   0.08989382   0.04337401 -68.00  0.007866823    2.226    0.551
         5 -17.6101    204.6179     20.6163   2.8955786195e+02   6.3471280762e+00    0.1211321   0.09070087  76.96   0.01174623    1.599    0.375
         6 -17.6473     16.6115     80.7714   2.9206195583e+02   6.7388364664e+00    0.2917344   0.08273236 -58.52   0.02053383    3.098    0.677
         7 -18.2586     60.4678     43.5055   2.9133913823e+02   6.9169866120e+00    0.1874331    0.1577975 -89.92   0.01647903    1.288    0.223
         8 -17.8722    113.9163     40.3218   2.9070990399e+02   6.6452258592e+00    0.2043605    0.1341557  86.71   0.01992932    2.013    0.503
         9 -14.1709    205.3879     62.6106   2.8980025389e+02   5.8581382175e+00   0.09695053   0.06271353  -7.29   0.00930774    2.134    0.531
        10 -15.8339     96.6026     77.7653   2.9113086323e+02   6.3127661438e+00    0.1470171   0.03318295 -54.15  0.009788764    3.651    0.726
        11 -16.2547    237.9433     36.9365   2.8927609920e+02   5.9653366293e+00   0.05746633   0.04621274 -74.21  0.003943761    1.284    0.221
        12 -12.6838     21.4608     20.1225   2.9164545865e+02   7.4115751121e+00   0.02412377   0.01954573   2.14  0.001765678    1.377    0.274
        13 -11.4416    177.5137      7.0239   2.8978539782e+02   6.6611771901e+00   0.02034327    0.0189444 -34.42  0.002538859    1.089    0.082
        14 -12.5505    179.6526      2.2596   2.8973249879e+02   6.7037076855e+00   0.02450849   0.01786747  -9.95  0.002349396    1.689    0.408
        15 -12.4282    216.7775      2.1535   2.8930883065e+02   6.4893770746e+00   0.01721167   0.01355301  11.11  0.001329359    1.390    0.281
        16 -17.6613    126.7753    101.8997   2.9093057390e+02   5.8595865932e+00    0.1801814    0.1637149  56.87   0.01846118    1.142    0.125
        17 -11.6478    158.5929    206.3698   2.9118996243e+02   4.4679874331e+00   0.04008637   0.01060639  29.16  0.002756732    3.571    0.720
        18 -14.1469    216.1489    207.3175   2.9054092262e+02   4.1242303580e+00   0.07839379   0.04410402 -35.38  0.007193276    2.154    0.536
        19 -14.5397    245.6190    246.3719   2.9043841726e+02   3.5025032071e+00   0.04997945   0.03665545  43.96  0.004865376    1.405    0.288
        20 -13.1282    234.8810    232.0126   2.9047497775e+02   3.7305044946e+00   0.03266757   0.02972602 -29.31   0.00254608    1.135    0.119
        21 -16.6284    241.3746    207.4569   2.9025504356e+02   3.9766121877e+00     0.119798    0.0855273 -48.72   0.01312614    1.380    0.275
        22 -14.2120     48.0434    197.1705   2.9239435585e+02   5.2118486547e+00   0.04153767   0.03395338 -28.21  0.002158636    1.324    0.245
        23 -13.8144     58.4253    185.7601   2.9220839767e+02   5.2841125762e+00    0.0423783   0.04175795  52.98  0.002585127    1.033    0.032
        24 -11.3363    204.9638    186.7178   2.9054548324e+02   4.4270131674e+00   0.01654247   0.01363866 -29.78    0.0012208    1.300    0.231
        25 -12.7311    104.0678    241.7845   2.9202072735e+02   4.3730917436e+00   0.03144832   0.01844334  40.10   0.00226707    1.724    0.420
        26 -14.7489    125.7995    233.6187   2.9172497595e+02   4.3422185665e+00   0.06386235   0.04725835 -20.01  0.004729745    1.606    0.377
        27 -13.6849    143.0703    226.5050   2.9148621683e+02   4.3248146699e+00   0.04352912   0.04150725  28.37  0.003645183    1.069    0.064
        28 -11.4864    164.2706    234.4553   2.9129222736e+02   4.1104718901e+00   0.02355953    0.0141505 -83.76  0.002179004    2.170    0.539
        29 -11.9998     40.3872    231.8882   2.9268714561e+02   4.8541935096e+00   0.03177046   0.02038291 -32.38  0.003164503    1.838    0.456
        30 -10.3902     24.0076    177.2579   2.9255032181e+02   5.5804455450e+00  0.009078038    0.0087145  20.97 0.0005791659    1.065    0.061
        31 -10.6765    197.2103    173.4094   2.9055443228e+02   4.6256898773e+00   0.01525949   0.01208774 -82.04  0.001727854    1.366    0.268
        32 -12.7307     94.3946    147.2917   2.9156996440e+02   5.5217946668e+00   0.04363183   0.02993265  52.30  0.003636579    1.608    0.378
        33 -12.2080     67.6366    144.3372   2.9185748796e+02   5.7102163074e+00   0.03194867    0.0186033  53.71   0.00269061    2.050    0.512
        34 -10.7959    188.5872    143.1738   2.9047241551e+02   5.0250225180e+00   0.01644133   0.01183677  25.68  0.001106373    1.425    0.298
        35 -10.8951    194.0356    141.3485   2.9039951959e+02   5.0145687389e+00   0.01620618   0.01438745 -77.65  0.001336785    1.150    0.130
        36 -12.3181     42.5717    225.2522   2.9262299988e+02   4.9184128281e+00   0.02168161   0.01611476 -70.28  0.002402527    1.374    0.272
        37 -13.4522     22.2768    225.4398   2.9285527470e+02   5.0328920761e+00   0.04926833   0.02850645 -43.89  0.004793421    1.801    0.445
        38 -13.1174     16.8518    222.8749   2.9290190446e+02   5.0937331023e+00   0.04057609   0.02121537 -44.98  0.003745908    1.988    0.497
        39 -10.7095    178.2973    113.7959   2.9041440453e+02   5.4240544810e+00   0.02688104   0.01173474 -49.09  0.001726923    2.249    0.555
        40 -12.1526    184.2147    125.8058   2.9041864745e+02   5.2510281226e+00    0.0301168   0.02278638 -50.51  0.002850101    1.293    0.227
        41 -11.7302    182.2966    120.9808   2.9041171345e+02   5.3178834712e+00   0.02310652   0.01459972 -43.33  0.002112128    1.640    0.390
        42 -11.7752    177.3455    121.1260   2.9046896105e+02   5.3448739968e+00   0.02138388   0.01879617  66.77  0.001910598    1.214    0.176
        43 -10.9847     96.3940    132.8152   2.9146106989e+02   5.6776575357e+00   0.02220991   0.01181909  49.98  0.001646159    2.184    0.542
        44 -10.4997     91.7970    129.5684   2.9149417051e+02   5.7417207083e+00   0.01568709  0.008798736  45.99   0.00136038    1.917    0.478
        45 -11.7976    153.1399     72.4355   2.9045424553e+02   6.0474880444e+00   0.01593729   0.01004233 -62.86 0.0005852032    1.557    0.358
        46 -12.2626    187.6311    103.4380   2.9024630949e+02   5.4896515829e+00   0.04781661   0.03165419 -70.43  0.004355107    1.578    0.366
        47 -13.5642    182.0443     84.9332   2.9019947906e+02   5.7357514153e+00   0.06504446   0.03210132 -74.73  0.004367922    2.555    0.609
        48 -15.1013    166.5784     93.0499   2.9042412624e+02   5.7315814399e+00   0.07400648   0.04574267 -65.50  0.004495958    1.623    0.384
        49 -14.0989    157.9729     85.5499   2.9047743354e+02   5.8680370249e+00    0.0454868   0.02973225 -59.33  0.003017116    1.477    0.323
        50 -13.7008    172.2592     78.8607   2.9027470217e+02   5.8625695167e+00   0.03901335   0.02418381 -73.48  0.002769061    1.777    0.437
        51 -13.0764    168.6428     71.6269   2.9027271662e+02   5.9670552555e+00   0.03519056   0.01877116 -59.53  0.002536938    1.792    0.442
        52 -12.2578    185.7651    227.9653   2.9100920355e+02   4.0613069300e+00   0.02476968   0.02163842  60.94  0.002045897    1.213    0.176
        53 -11.7873    215.1442     81.2938   2.8980082721e+02   5.5858690142e+00    0.0204604   0.01671324  25.33  0.001386453    1.254    0.203
        54 -11.1440    198.5362     78.1237   2.8997097616e+02   5.7187913219e+00   0.02619223    0.0148349 -73.16  0.002449011    1.999    0.500
        55 -10.9058    144.3702     66.8310   2.9052077103e+02   6.1629725627e+00   0.01518738   0.01137546 -69.66  0.001066544    1.359    0.264
        56 -10.6657    176.6799     62.7807   2.9012829133e+02   6.0226332561e+00  0.009492719  0.008577678  -4.09 0.0004070356    1.178    0.151
        57 -12.7901    168.5345     51.2527   2.9015224445e+02   6.2029176924e+00   0.02601802   0.01087356 -45.27  0.001639669    2.557    0.609
        58 -11.5095    177.8726     41.0114   2.8998459973e+02   6.2670021661e+00    0.0191495   0.01899911   7.99  0.001900175    1.027    0.027
        59 -10.7896    173.2299     41.4378   2.9004006491e+02   6.2889946399e+00   0.01269712   0.01009594  61.19  0.000925132    1.388    0.280
        60 -12.2022    190.0102    221.0246   2.9091966958e+02   4.1169947999e+00   0.03608957   0.01625902  20.89  0.003000894    2.564    0.610
        61 -11.5655    152.7427    215.1461   2.9130868786e+02   4.4003071707e+00    0.0221616   0.01756439 -42.97  0.001826725    1.276    0.216
        62 -12.0061    192.3855    190.3591   2.9071023592e+02   4.4577094498e+00   0.04455979   0.02593863 -80.88   0.00408082    2.197    0.545
        63 -14.4367    192.7571    205.7899   2.9079782719e+02   4.2772056591e+00   0.05028512   0.03903547   8.33  0.003168066    1.436    0.304
        64 -14.3711    199.9192    199.8106   2.9068079256e+02   4.3048872260e+00    0.0458301   0.03679921  -1.98  0.003301598    1.414    0.293
        65 -10.6246    185.4047    133.3689   2.9045019516e+02   5.1567474359e+00   0.02325833   0.01012912 -46.71  0.001953229    2.357    0.576
        66 -14.8594    174.0018    197.3547   2.9096101555e+02   4.4831597515e+00   0.07208867   0.04471396  10.60  0.004960502    1.971    0.493
