#   1 NUMBER                 Running object number                                     
#   2 MAG_AUTO               Kron-like elliptical aperture magnitude                    [mag]
#   3 X_IMAGE                Object position along x                                    [pixel]
#   4 Y_IMAGE                Object position along y                                    [pixel]
#   5 X_WORLD                Barycenter position along world x axis                     [deg]
#   6 Y_WORLD                Barycenter position along world y axis                     [deg]
#   7 A_WORLD                Profile RMS along major axis (world units)                 [deg]
#   8 B_WORLD                Profile RMS along minor axis (world units)                 [deg]
#   9 THETA_WORLD            Position angle (CCW/world-x)                               [deg]
#  10 FWHM_WORLD             FWHM assuming a gaussian core                              [deg]
#  11 ELONGATION             A_IMAGE/B_IMAGE                                           
#  12 ELLIPTICITY            1 - B_IMAGE/A_IMAGE                                       
         1 -17.1073     68.1901    196.0348   1.0652705925e+02   2.4432342087e+01     4.026149     3.224766  74.94   0.02281758    1.218    0.179
         2 -16.1998    147.8796    106.6465   6.6691498721e+01   3.1568240968e+01     2.980119     2.482921  73.67   0.01440168    1.414    0.293
         3 -13.7754     15.8092      6.1721   7.8108784679e+01   7.2681795841e+01     1.070142     0.506264  12.13  0.005567878    2.340    0.573
         4 -12.0980     54.2869      3.2025   5.7969858417e+01   6.7417422960e+01    0.3559138    0.1699064  25.21  0.001745556    2.208    0.547
         5 -11.0847     43.6224    244.4846   1.1662950134e+02   1.6857967340e+01    0.2763951    0.1892898 -60.57  0.001239097    1.700    0.412
         6 -11.2625    186.9119    249.3295   8.7333734378e+01  -4.1577247612e+00    0.2319881    0.1735875  15.12  0.001121563    1.108    0.098
         7 -10.7069     69.7576    243.4169   1.1122963120e+02   1.3832145907e+01    0.2561914    0.1777342   0.45  0.001180271    2.526    0.604
         8  -9.5100     37.2530    244.3145   1.1787194985e+02   1.7623620188e+01    0.1000265   0.08722726 -54.28 0.0001646634    1.525    0.344
         9 -11.6691     16.0433    242.2135   1.2181172221e+02   2.0308664326e+01     0.190672    0.1592495  82.96 0.0004327171    1.183    0.155
        10 -10.7197     14.0135    237.3468   1.2193343080e+02   2.1490662475e+01     0.316013    0.1501714 -76.43  0.001797499    1.945    0.486
        11  -9.9510    116.5844    239.7520   1.0081212682e+02   7.9311728916e+00     0.166904    0.1263039 -80.68 0.0009464565    1.678    0.404
        12 -15.2714     69.2024    219.9279   1.0903508946e+02   1.8820114592e+01     2.138397     1.020611 -56.42   0.01004897    2.221    0.550
        13 -16.0736     93.4163    190.4049   9.9411825934e+01   2.2122449389e+01     2.823003     1.903455 -89.87    0.0130271    1.893    0.472
        14 -10.0264     42.7896    235.4408   1.1612964360e+02   1.8794613690e+01    0.1507424    0.1126152  25.55  0.000935777    1.593    0.372
        15 -11.0204     32.1427    232.5904   1.1808770254e+02   2.0588114368e+01    0.2925526    0.1780754 -62.91  0.001482441    1.773    0.436
        16  -9.6837     21.4848    218.4945   1.1931106768e+02   2.4721838066e+01    0.1209219   0.09799838  75.28  0.000810363    1.023    0.023
        17  -9.6961    139.2368    217.6729   9.2605975094e+01   8.7068486727e+00     0.128256    0.1069232  74.09 0.0002305292    1.525    0.344
        18 -10.2287     29.7445    216.0057   1.1739021983e+02   2.4418745365e+01    0.1701883    0.1319729  88.94 0.0004028773    1.136    0.119
        19 -10.4865     20.3364    214.1559   1.1925722063e+02   2.5790479459e+01    0.2436247   0.08221946 -66.81  0.001089771    2.635    0.620
        20 -10.2866    117.9467    213.4684   9.6894535264e+01   1.3021146795e+01    0.1978499    0.1859723 -63.85 -6.039568e-05    1.156    0.135
        21 -11.7287    146.8599    209.3064   8.9488886892e+01   9.1330024976e+00    0.3649003    0.2409691  52.79  0.001408207    1.774    0.436
        22 -12.9969    147.4452    202.6869   8.8213007548e+01   1.0391364951e+01    0.6277524    0.4100594  50.15   0.00173402    1.705    0.413
        23 -12.4823    152.4447    210.8765   8.8477475749e+01   7.8844885570e+00    0.4856758     0.334448   6.61  0.002305988    1.776    0.437
        24 -10.6391     28.1030    211.8197   1.1742669521e+02   2.5524781840e+01    0.2066963    0.1364632  63.26  0.001139838    1.334    0.250
        25 -11.1684    227.4100    211.1981   7.2903471782e+01  -3.9388849458e+00    0.1759805    0.1127182 -42.87 0.0009554321    1.731    0.422
        26 -10.5021    136.2149    210.0488   9.2079890828e+01   1.0757062926e+01    0.3347784    0.1571348 -38.05  0.001306018    2.669    0.625
        27  -9.9500     13.9503    211.1736   1.2040315008e+02   2.7065716960e+01    0.2041065   0.09348935  54.99 0.0008528729    1.946    0.486
        28 -11.0983     19.6053    233.2948   1.2062610003e+02   2.1762314681e+01    0.2503141    0.1738316  73.61 0.0008956493    1.174    0.148
        29 -14.9789     71.5283    182.2656   1.0385642307e+02   2.7319351069e+01     1.283111    0.8593454  84.61  0.005413275    1.738    0.425
        30 -11.8088    168.9833    206.2888   8.3954480374e+01   6.0166697790e+00    0.2921669    0.2412886  14.86  0.001427074    1.131    0.116
        31  -9.8047     24.4741    208.4335   1.1795997351e+02   2.6659292193e+01    0.1232991    0.1020401  77.27 0.0001378658    1.021    0.021
        32 -10.8702    124.0139    206.0430   9.4312852922e+01   1.3627854556e+01    0.2090219    0.1943551  27.19  0.001206508    1.034    0.033
        33 -11.3093     37.7140    229.2781   1.1670972975e+02   2.0667435061e+01    0.3072181    0.1817704 -82.20  0.001129061    1.621    0.383
        34 -10.1699     25.2985    231.0060   1.1935794746e+02   2.1652154098e+01    0.1713068    0.1329744  77.98  0.001167329    1.075    0.069
        35 -10.7699     14.1544    201.2266   1.1969337798e+02   2.9290134563e+01    0.1704016     0.147214 -87.02 0.0004463167    1.147    0.129
        36 -11.5309    138.8171    199.3209   8.9656863725e+01   1.2580115861e+01    0.3381491    0.2555539  32.32  0.001734042    1.252    0.201
        37 -10.9041    132.8866    198.8893   9.1001309835e+01   1.3689191940e+01     0.215461    0.1881543  -2.95  0.001167972    1.232    0.188
        38 -10.2012    173.1823    249.4487   9.0137429833e+01  -2.2178174117e+00     0.255505    0.1069736  29.13  0.001141529    2.172    0.540
        39 -12.1133    124.4646    195.3486   9.2441247469e+01   1.5905744222e+01    0.4159238    0.3166835  41.20  0.001483333    1.255    0.203
        40 -12.4138     35.5243    192.9749   1.1413294227e+02   2.9110961880e+01    0.4681052    0.3203535  13.64 0.0007821913    1.966    0.491
        41 -11.1318    143.5094    188.9489   8.6660022072e+01   1.4004101705e+01    0.2239101    0.1462144 -47.85  0.001028847    1.579    0.367
        42 -11.8879    189.8180    194.1201   7.7145252181e+01   4.8358831469e+00     0.392659    0.1889064  36.76   0.00107053    2.055    0.513
        43 -11.9664     10.0753    229.2288   1.2225100823e+02   2.3542127938e+01    0.4176042    0.2016303  67.24  0.001429735    1.824    0.452
        44 -11.5061    223.0163    219.8173   7.5295148531e+01  -4.6772335464e+00    0.2318632    0.1693478 -24.55  0.001385987    1.235    0.190
        45 -10.8629    158.4776    186.4938   8.2637844298e+01   1.1849151351e+01    0.1493693    0.1376992   2.38 0.0008100779    1.027    0.027
        46 -11.0521    128.5159    184.1811   8.9459593499e+01   1.7732623736e+01    0.2706984    0.2041189  37.20  0.000329249    1.283    0.221
        47 -11.6503    144.9574    181.5299   8.4895131783e+01   1.5376142065e+01    0.2380008    0.1446006  36.18  0.001036397    1.606    0.377
        48 -12.0221    191.6445    190.6669   7.6084484451e+01   5.1797168034e+00    0.4143478    0.3242062  89.54  0.001969951    2.376    0.579
        49 -10.8194    113.5086    228.4695   1.0002870464e+02   1.0607049261e+01    0.2976673    0.2453181  51.15   0.00132815    1.152    0.132
        50 -10.3671      8.0675    188.5167   1.2015952148e+02   3.2766024361e+01    0.4552965    0.1742079  64.60  0.001912129    2.933    0.659
        51 -10.2861    161.2983    179.3239   8.0558019445e+01   1.2857978617e+01    0.1543179    0.1140406  -8.51 0.0002872893    1.627    0.386
        52 -11.5522    207.0741    229.0986   8.0010029462e+01  -3.8870847210e+00    0.3304628    0.1621749  23.07  0.001561467    2.071    0.517
        53 -12.2610    140.3014    175.1671   8.4787367711e+01   1.7658676362e+01    0.3045445    0.2325343 -20.51  0.001436626    1.521    0.343
        54 -12.0841    174.1735    174.3247   7.6578830397e+01   1.1529450311e+01    0.4117065    0.1900278 -34.92  0.001529196    2.402    0.584
        55 -12.2153    121.0411    173.5537   8.9371739414e+01   2.1538677000e+01    0.4974507    0.1852823 -44.53  0.001642773    2.899    0.655
        56 -12.8050    106.5829    170.8740   9.2680549547e+01   2.4708045669e+01    0.4627617     0.441868  72.87  0.002267744    1.060    0.057
        57 -12.9697    133.6325    168.4939   8.5124424621e+01   2.0432898538e+01    0.5718528    0.2951505  39.23  0.001517515    1.911    0.477
        58 -11.4091     16.1862    227.3700   1.2094794967e+02   2.3342140382e+01    0.4026042    0.2197201  74.75  0.002327116    1.634    0.388
        59 -12.4649    127.9501    164.7554   8.5827558107e+01   2.2369910084e+01    0.5401495    0.3397721  -3.41   0.00189844    3.013    0.668
        60 -10.6555     46.8954    236.4949   1.1536957771e+02   1.8094737240e+01    0.3436916    0.1666649  85.78   0.00127707    2.442    0.590
        61 -11.0265    201.0183    237.4555   8.2618555680e+01  -4.3291170600e+00    0.3947102    0.1410676 -32.49  0.001571388    3.286    0.696
        62 -11.7872    139.9070    160.8565   8.1928000610e+01   2.1020002350e+01    0.2518523    0.2152504 -10.57  0.001011192    1.281    0.219
        63 -11.3813    103.9393    163.9341   9.2091374380e+01   2.6866945291e+01    0.2510052    0.1859028  73.86  0.001130617    1.714    0.417
        64 -11.3413    219.3121    225.1121   7.6939681003e+01  -4.9826671116e+00    0.2083895    0.1370125 -15.63 0.0009097144    1.424    0.298
        65 -10.4623    125.3963    221.1857   9.6308188805e+01   1.0227013175e+01    0.2457719     0.129368 -49.40  0.001121696    2.073    0.518
        66 -10.1685    105.3345    221.9720   1.0102297380e+02   1.3192541896e+01    0.1786598    0.1682751 -82.64 0.0004582718    1.142    0.124
        67 -12.4722    100.7585    156.8698   9.1598498349e+01   2.9168929594e+01    0.4256107     0.247676  44.41  0.001780665    1.769    0.435
        68 -10.2771     12.0135    220.6204   1.2138310864e+02   2.5182067479e+01    0.1856846    0.1109924  52.78 0.0007998131    1.427    0.299
        69 -10.8961     27.0209    154.5125   1.1224651798e+02   3.9476355838e+01    0.2305818    0.1928524  14.85 0.0005989023    1.454    0.312
        70 -12.9674     20.8846    153.5845   1.1383756308e+02   4.0244513698e+01    0.6922894     0.551771 -24.03   0.00339744    1.570    0.363
        71 -14.0530    144.4463    149.6386   7.8295787905e+01   2.2721165508e+01    0.8109207    0.5736259  67.40   0.00340688    1.986    0.496
        72 -12.0069    118.3020    152.5163   8.5833845239e+01   2.7111839373e+01    0.3341191    0.2338221 -25.75   0.00142922    1.771    0.435
        73 -11.7637    116.1471    146.3549   8.5082956154e+01   2.9018530331e+01    0.2617332    0.1918415  51.52 0.0004048691    1.480    0.324
        74 -12.8743    108.4829    147.0428   8.7384997895e+01   3.0261089478e+01    0.5074651    0.3409344 -38.16  0.002213626    1.588    0.370
        75 -14.5969    106.3796    141.9516   8.6869439090e+01   3.1904383395e+01     1.084056     1.029496   5.52  0.005717168    1.094    0.086
        76 -11.9209    180.4388    150.8709   7.0079833680e+01   1.5220786875e+01    0.2872742    0.2245533 -57.70   0.00118476    1.455    0.313
        77 -12.3018    129.7145    151.1206   8.2452460329e+01   2.5279089333e+01    0.3543656    0.2915398  41.46  0.001719752    1.230    0.187
        78 -11.8873    120.9033    146.9334   8.3898012245e+01   2.7978864223e+01    0.3144585    0.2350646  27.98 0.0008921104    1.425    0.298
        79 -12.5006    154.7939    144.3085   7.4491531998e+01   2.1833021683e+01    0.3038149    0.2923551  35.05  0.001248435    1.073    0.068
        80  -9.6922      2.4256    221.4830   1.2333191407e+02   2.5871879066e+01    0.1150859   0.08889934  77.41  5.33102e-05    1.032    0.031
        81 -14.8443    121.9488     91.7814   6.9302736941e+01   4.0419175846e+01      1.94731     1.577355 -36.68  0.009592922    1.233    0.189
        82 -16.1015    152.4431    129.5196   7.1500595243e+01   2.5621461217e+01     2.939614     1.752528  54.10   0.01180202    1.941    0.485
        83 -13.5251    142.6184    133.1105   7.4856273663e+01   2.6889316822e+01    0.7210867    0.5735175   7.41  0.002199329    1.520    0.342
        84  -9.6779     32.6020    249.4364   1.1910097345e+02   1.7132294839e+01    0.1153679    0.0883121  65.35 0.0001817489    1.019    0.018
        85 -12.3830     45.5532    111.2255   9.9539629945e+01   4.8703346966e+01    0.6877052    0.3806222 -84.70  0.002644719    2.892    0.654
        86 -12.7162    190.9008    114.0344   5.9180405111e+01   2.0518083862e+01    0.5799766    0.3721492  23.74  0.002397007    2.322    0.569
        87 -12.4041     34.0511    113.4776   1.0396557883e+02   4.9298447681e+01    0.4694261    0.3559331  32.04  0.002617351    1.494    0.331
        88 -13.0104    185.4050    109.2087   5.9063996830e+01   2.2647579760e+01    0.6567496    0.4208088  31.97  0.002836652    1.981    0.495
        89 -10.4114     54.6995    108.8541   9.5827692626e+01   4.8228206201e+01    0.2435898    0.1567092 -42.31 0.0005822094    1.457    0.314
        90 -12.2291     57.7885     99.9537   9.2610067054e+01   5.0006967235e+01     0.615582    0.4043116 -64.19  0.002918984    1.624    0.384
        91 -11.8215     20.1094     92.6259   1.0499393865e+02   5.5562547730e+01    0.2869205    0.1627817 -54.94  0.001480755    1.417    0.294
        92 -13.3790     48.1996     82.6543   9.1674205715e+01   5.5236891005e+01    0.7601538     0.709663 -52.15  0.004611692    1.181    0.153
        93 -12.1455    113.5169    155.1939   8.7713205886e+01   2.7336702581e+01    0.2833297    0.2255168  34.34  0.000656997    1.275    0.216
        94  -9.5247    105.2913     79.3173   7.0382595705e+01   4.6473317279e+01    0.1534841     0.116442   0.00 0.0004247319    1.599    0.375
        95 -12.1123     18.8220     67.3410   9.9750851037e+01   6.1458869362e+01     1.106677    0.4213037 -42.59   0.00493888    2.143    0.533
        96 -12.0717     27.1717     63.6743   9.5049409711e+01   6.1575015397e+01     1.683349    0.6021375  41.95  0.005864928    4.807    0.792
        97 -10.9609    125.1993     73.1225   6.2737803849e+01   4.3312059450e+01    0.2294455    0.2049588  12.47 0.0008415153    1.172    0.147
        98 -10.7393    115.9597    130.3193   8.1409949513e+01   3.2950745036e+01    0.2256551    0.2105789  29.38  0.000665954    1.092    0.084
        99 -11.6450     99.3441     69.1285   6.8925890938e+01   4.9643156228e+01    0.3498175    0.2291002 -57.61  0.001531232    2.064    0.515
       100 -10.0499    195.6629     67.7165   4.6802781144e+01   2.7657697826e+01    0.1350936    0.1091525  27.29  0.000701201    1.625    0.385
       101 -10.1584     48.6553    122.6328   1.0077042357e+02   4.5476471717e+01    0.1715684    0.1343118  36.70 0.0009067707    1.408    0.290
       102  -9.9073     87.6696     63.7031   7.0896115350e+01   5.2950673036e+01    0.1497043    0.1077117   5.42 0.0007027788    1.639    0.390
       103 -10.8915     46.4385    117.5288   1.0051596801e+02   4.7020854987e+01    0.3382469    0.1926774 -41.43  0.001537851    1.736    0.424
       104 -11.0573     65.0764     52.0291   7.4928125825e+01   5.9049240619e+01     0.213866    0.1873642   3.75  0.001229812    1.039    0.037
       105 -12.8437     82.5837     47.1737   6.6654020461e+01   5.6726788082e+01    0.5115614    0.4152575 -76.43  0.002668592    2.003    0.501
       106 -12.5436     54.8567     43.0163   7.5610831115e+01   6.2189283598e+01    0.8095865    0.3934889  13.82  0.002966567    3.607    0.723
       107 -13.0107     73.3755     43.3730   6.8459392422e+01   5.9041871393e+01    0.4136313    0.3566017  86.78  0.002317636    1.860    0.462
       108 -12.4586     68.0201     38.9660   6.8708452767e+01   6.0669977728e+01    0.3250481     0.223453   0.44  0.001716868    1.581    0.367
       109 -10.9794     53.2819    245.5416   1.1478060135e+02   1.5494264694e+01    0.3105294    0.1787434 -55.76  0.001750498    2.085    0.520
