#   1 NUMBER                 Running object number                                     
#   2 MAG_AUTO               Kron-like elliptical aperture magnitude                    [mag]
#   3 X_IMAGE                Object position along x                                    [pixel]
#   4 Y_IMAGE                Object position along y                                    [pixel]
#   5 X_WORLD                Barycenter position along world x axis                     [deg]
#   6 Y_WORLD                Barycenter position along world y axis                     [deg]
#   7 A_WORLD                Profile RMS along major axis (world units)                 [deg]
#   8 B_WORLD                Profile RMS along minor axis (world units)                 [deg]
#   9 THETA_WORLD            Position angle (CCW/world-x)                               [deg]
#  10 FWHM_WORLD             FWHM assuming a gaussian core                              [deg]
#  11 ELONGATION             A_IMAGE/B_IMAGE                                           
#  12 ELLIPTICITY            1 - B_IMAGE/A_IMAGE                                       
         1 -13.9090    191.1848    111.1105   4.3606322516e+01   2.1529161244e+01     1.220542    0.3772377 -46.67  0.003962852    3.782    0.736
         2 -10.9818      5.0768     39.1342   8.8879025993e+01   7.1927033402e+01    0.7289914    0.1778624 -68.16  0.002484673    3.336    0.700
         3 -10.7689     40.8507     13.9899   4.9801684764e+01   7.2618245373e+01     0.224667    0.1853078  32.50 0.0003112107    1.175    0.149
         4  -9.0553     13.6953    250.3404   1.0305353982e+02   2.0044286314e+01    0.1194813   0.05148865  51.16 0.0007040586    1.679    0.404
         5  -9.3911     72.6581    228.3301   8.9321266355e+01   1.8010575895e+01    0.1300168   0.07110524  52.09 0.0007051292    1.746    0.427
         6 -10.9261    162.2031    225.0779   7.0160216038e+01   7.5990120343e+00    0.3366997    0.2083069   8.01  0.002032977    1.629    0.386
         7 -10.3267     85.0104    227.0000   8.6465084864e+01   1.6807942955e+01    0.2048888   0.05665029  29.55 0.0006761895    2.922    0.658
         8 -10.2518     99.3915    225.0264   8.3105982098e+01   1.5415929877e+01    0.2304782    0.1464412  35.55 0.0007026697    1.274    0.215
         9  -9.9701     60.0023    222.9947   9.1763965850e+01   2.0424651778e+01    0.2089746    0.1115149  53.13  0.001138543    1.731    0.422
        10 -11.1107    126.2468    220.5907   7.6818344275e+01   1.2790258344e+01    0.2459187    0.1885894  39.05 0.0006881654    1.245    0.197
        11  -9.6568     75.2087    219.4075   8.7996893008e+01   1.9354729067e+01    0.1871452   0.08768844  38.81 0.0009497859    1.683    0.406
        12  -9.6480     22.0530    217.6899   1.0017825879e+02   2.5341681010e+01    0.1728503    0.1238233  40.80 0.0007617935    1.119    0.106
        13 -10.3267    143.9325    216.9564   7.2678723217e+01   1.1100919518e+01     0.178132    0.1393673  53.93   0.00113185    1.681    0.405
        14  -9.6785    171.0964    215.6621   6.7163849108e+01   7.8400710935e+00    0.1829524    0.1594644 -26.66  0.001329591    1.333    0.250
        15  -8.9628     99.6851    216.3329   8.2125661259e+01   1.6914413172e+01    0.1273634   0.08280496  54.41 0.0007046337    1.685    0.407
        16  -9.7238    131.6463    213.7168   7.4808369736e+01   1.3223374648e+01    0.1938332    0.1320786  -7.45   0.00110039    1.776    0.437
        17 -10.0359     77.3017    211.7520   8.6813271027e+01   2.0563277446e+01    0.2876384    0.2272862   8.53  0.001785605    1.425    0.298
        18  -9.9776    116.6245    210.3216   7.7635559423e+01   1.5789910712e+01    0.1925423    0.1346498  56.00 0.0009073193    1.714    0.417
        19 -12.6043    165.8160    186.6469   6.3689253521e+01   1.2986065162e+01     0.392881    0.3361416  37.78  0.002550376    1.319    0.242
        20 -12.6462    186.5005    193.5211   6.0885921198e+01   9.0611202424e+00    0.5601099    0.2222153 -38.22  0.002686423    2.476    0.596
        21 -12.4338    165.9854    203.2124   6.6300054881e+01   1.0340130300e+01    0.5014907    0.3698725  51.74  0.003025395    1.907    0.476
        22 -13.4216    163.7299    194.2098   6.5339943624e+01   1.2057741678e+01    0.6615276    0.4925276  41.45  0.003639581    1.487    0.327
        23 -11.5973    172.8726    190.7688   6.2989056775e+01   1.1330537033e+01    0.2861525    0.2635862 -72.34  0.001480823    1.636    0.389
        24 -13.7884    177.6353    197.2198   6.3128735927e+01   9.6942123389e+00    0.8399758    0.5263993 -18.36  0.004056074    1.677    0.404
        25 -12.4402    172.8162    195.7587   6.3810915301e+01   1.0564984802e+01    0.3909877    0.2963897 -30.14  0.001768805    1.318    0.241
        26 -11.8583    149.3308    198.1924   6.8894239446e+01   1.3413459534e+01    0.4478628    0.3350171  87.08  0.002355298    2.668    0.625
        27 -12.4767    143.4717    130.1533   5.7492213465e+01   2.7160824969e+01    0.7538895    0.2929554 -47.31  0.002739982    2.580    0.612
        28 -14.3871    148.3904    181.1689   6.6379275017e+01   1.6487468530e+01      2.19082    0.5357507 -44.75  0.007404597    4.181    0.761
        29 -12.8189    156.0656    187.1522   6.5753137316e+01   1.4311051570e+01    0.5297589    0.3596368 -34.67  0.002642284    1.505    0.336
        30 -13.7552    144.2968    151.8380   6.1921417506e+01   2.2663813107e+01     1.534326    0.8776206 -72.39  0.004910027    4.875    0.795
        31 -13.5444    139.6105    163.8626   6.5290716035e+01   2.1097566438e+01     1.015238     0.547626 -57.69  0.004441824    2.363    0.577
        32 -13.6165    158.9501    158.9189   6.0110828518e+01   1.8843309063e+01     1.092766    0.4632944 -51.40  0.004296117    2.894    0.654
        33 -14.5174    150.1146    143.8707   5.8985730501e+01   2.3201245644e+01     1.904153    0.8035886 -54.29  0.006786431    3.187    0.686
        34 -11.7322    148.1065    163.8111   6.3374751371e+01   1.9717094809e+01      0.39838    0.2959793  50.59  0.001456306    1.548    0.354
        35 -11.3497    144.4455    159.6698   6.3411222794e+01   2.1111298914e+01    0.2694131    0.2453978  35.94 0.0003314014    1.130    0.115
        36 -12.0504    125.3113    197.0251   7.3925270520e+01   1.6992054572e+01    0.3828928    0.2768481  40.42  0.002236774    1.309    0.236
        37 -10.4342    113.2188    197.9747   7.6814700845e+01   1.8509098680e+01    0.3637094    0.1823854  52.90   0.00157944    2.625    0.619
        38 -10.2006    112.7551    194.0394   7.6390683839e+01   1.9323751510e+01    0.2011202    0.1980807 -48.63 0.0003417219    1.161    0.139
        39  -9.5114    105.4026    197.7814   7.8615083832e+01   1.9626515721e+01     0.171101    0.1181571 -42.37 0.0008639286    1.663    0.399
        40  -9.6121     88.4833    197.9982   8.2696896507e+01   2.1866593039e+01    0.1791789    0.1062815  76.86 0.0008102563    2.600    0.615
        41  -9.9849    194.3131    196.6531   5.9997765972e+01   7.5924013997e+00   0.09968404   0.09660722  79.23 0.0003294814    1.715    0.417
        42 -11.2889    135.1490    193.2275   7.1181449146e+01   1.6278914457e+01    0.2211916    0.1723248  84.27   0.00100878    2.041    0.510
        43  -9.3689     66.4614    193.9688   8.7746890950e+01   2.5521320970e+01     0.188181   0.09880938  73.26 0.0008093678    2.630    0.620
        44 -10.3593     11.0463    194.0331   1.0188725331e+02   3.1292119189e+01    0.2143624     0.102793  53.82 0.0005009695    1.676    0.403
        45  -9.4866     43.4189    192.6371   9.3539974307e+01   2.8481730664e+01    0.2504304    0.1029852  82.43  0.000956111    3.430    0.708
        46  -9.4129     78.2952    192.6786   8.4618075976e+01   2.4299342968e+01    0.1373307   0.08877926  58.04            0    1.615    0.381
        47 -12.5607    204.4613    186.7025   5.6585471244e+01   7.6749102824e+00    0.4386714    0.2788258   9.07  0.002649122    1.592    0.372
        48 -11.5415    129.9419    188.3792   7.1609388890e+01   1.7919133956e+01    0.3331897     0.229775  60.64  0.001620524    2.015    0.504
        49 -10.2625     87.1559    188.9859   8.1956938235e+01   2.3900721715e+01    0.2236266    0.1416707  68.96  0.001084511    2.038    0.509
        50 -11.7916    192.4323    187.6994   5.8844325208e+01   9.1204465593e+00     0.245825    0.2114407  69.32  0.001565248    2.081    0.519
        51 -12.6607    183.3885    184.5794   5.9957275467e+01   1.0823824661e+01    0.3885816     0.306128 -45.96  0.002470933    1.557    0.358
        52 -11.6927     95.3588    184.1140   7.9268160664e+01   2.3787543752e+01    0.6652329    0.4278326  79.40  0.003130901    2.307    0.567
        53 -11.1112    109.6243    185.3848   7.5922944093e+01   2.1474327837e+01    0.3598537    0.2711135  70.90  0.001594017    1.709    0.415
        54  -9.8398     55.3069    186.7481   8.9945575419e+01   2.8449368522e+01    0.3456683    0.1201608  57.46   0.00114662    3.947    0.747
        55  -9.6448     34.4768    186.9798   9.5470458644e+01   3.0692594322e+01    0.1950342   0.08443746  68.50 0.0008102151    2.598    0.615
        56 -11.6650    120.2814    183.8426   7.3149094852e+01   2.0211260682e+01     0.532337    0.2339707 -62.43  0.002087445    3.298    0.697
        57 -12.2716    175.3457    183.8801   6.1356163912e+01   1.2067268538e+01    0.3621106    0.2731752  52.55  0.001697687    1.851    0.460
        58 -11.8274    197.7294    182.9733   5.7100008674e+01   9.0953055979e+00    0.2575464    0.2212225 -54.52   0.00153311    1.740    0.425
        59 -12.6427    192.9599    178.9348   5.7233683228e+01   1.0343824015e+01     0.363119    0.3178458 -46.04  0.002446856    1.507    0.337
        60 -11.9903      4.2102    181.9284   1.0321263160e+02   3.4574716876e+01    0.5361142    0.3268521 -67.58  0.003019214    1.794    0.443
        61  -9.7226     74.3871    183.2448   8.4554928285e+01   2.6847989347e+01    0.1844292    0.1261002 -88.18 0.0009522869    1.717    0.418
        62  -9.5239     44.3772    182.1588   9.2460507615e+01   3.0743338227e+01    0.1862142    0.1142705  82.75 0.0009440897    1.728    0.421
        63 -12.0626    138.5831    178.9515   6.8160283870e+01   1.8381474725e+01    0.3528966    0.2929754  86.29  0.001615419    1.735    0.424
        64 -12.6294    139.5363    188.1999   6.9444396752e+01   1.6544579728e+01    0.5680746    0.2592289 -49.23  0.002608194    2.399    0.583
        65 -10.9944    129.6055    177.0418   6.9891142970e+01   2.0124259853e+01    0.2913501    0.2132508  89.72  0.001442134    2.233    0.552
        66  -9.8863     13.3019    176.9116   1.0057757918e+02   3.5009978364e+01    0.3258961    0.1064796  57.17  0.001298198    2.729    0.634
        67 -12.0481    183.7617    175.6964   5.8331268321e+01   1.2148377664e+01    0.3065519    0.2145041  43.78  0.001790274    1.679    0.405
        68 -12.4842    159.6342    174.6471   6.2881076630e+01   1.5928147561e+01    0.3964361    0.3132011 -52.83  0.001791042    1.522    0.343
        69 -10.6608     77.7819    175.2213   8.2678913043e+01   2.8187614620e+01    0.3907977    0.2206397  69.30   0.00166404    2.445    0.591
        70  -9.5044     59.7803    176.2088   8.7695390052e+01   3.0314848092e+01    0.2512033    0.1106387  59.33 0.0009564434    2.800    0.643
        71 -10.2498    106.0819    174.9219   7.5249710786e+01   2.4156610622e+01    0.2988811    0.1876629  64.48  0.001230866    2.232    0.552
        72 -13.0917    177.8196    169.7813   5.8377517135e+01   1.3977787263e+01    0.5595081    0.3825245 -52.50  0.003067238    1.867    0.464
        73 -12.2880    135.1347    170.3720   6.7482683080e+01   2.0553738682e+01    0.4763266    0.3170241 -68.69  0.002283173    2.203    0.546
        74 -11.5042    207.1495    169.7960   5.3145773988e+01   9.7165257359e+00     0.248709    0.1721671  30.68  0.001263484    1.488    0.328
        75 -12.9066    167.9797    167.0924   5.9807250854e+01   1.5943689928e+01    0.6476026    0.3629146 -52.13  0.003089661    2.223    0.550
        76  -9.6590     54.8595    169.0394   8.8304775024e+01   3.2614057776e+01    0.2401562    0.1351752  67.94 0.0009063378    2.016    0.504
        77 -10.9576    185.8674    167.1193   5.6373124952e+01   1.3195559582e+01     0.183661    0.1724555 -17.36 0.0006655473    1.226    0.185
        78 -11.6565     15.7218    165.6937   9.9324303579e+01   3.7503819982e+01    0.6479582    0.2849674  10.74  0.002168113    3.047    0.672
        79 -11.3686    193.0822    165.6750   5.4797957011e+01   1.2348333787e+01    0.2358386    0.2005685 -56.49   0.00137081    1.636    0.389
        80 -10.5209     99.1216    165.7661   7.5623114290e+01   2.7203352877e+01    0.3294101    0.1774422  60.06  0.001289651    2.681    0.627
        81 -11.3621    216.3877    165.3054   5.0822886576e+01   9.0862137645e+00    0.3405192    0.1443007  42.88  0.001665934    2.768    0.639
        82 -10.4065     79.8229    163.3493   8.0515219352e+01   3.0640641790e+01     0.513167    0.2699423  78.49   0.00178143    3.617    0.724
        83 -12.6300    122.2915    167.9813   7.0109261645e+01   2.3081092591e+01    0.6651627    0.4396037 -64.55  0.003166122    1.881    0.468
        84  -9.2127     47.3307    163.6638   8.9916313908e+01   3.4818862682e+01    0.1548274    0.0887899  58.91  0.000705211    1.733    0.423
        85 -13.7123    177.6529    157.0850   5.5996179814e+01   1.6118374047e+01    0.9777541    0.4513707 -45.88  0.004235416    2.284    0.562
        86 -12.8034    175.1559    145.5217   5.4143252085e+01   1.8518833321e+01    0.5662087    0.4203649  11.37     0.003098    1.502    0.334
        87 -13.0873    153.5581    128.1967   5.4786495601e+01   2.5623470375e+01     0.858516    0.4490767 -57.09  0.003339977    2.604    0.616
        88 -12.6045    172.4571    137.1788   5.2898456560e+01   2.0460944656e+01    0.6068262    0.3512973 -53.43  0.002756574    2.121    0.529
        89 -13.2777    168.9241    128.2787   5.1620445706e+01   2.2709356517e+01    0.7565026    0.5189794 -56.63   0.00372827    1.750    0.429
        90 -12.4002    162.7522    149.6686   5.7479553328e+01   1.9894598741e+01    0.6301344     0.308472 -52.81   0.00260002    2.573    0.611
        91 -13.0122    162.2143    133.8092   5.4217879115e+01   2.2928521159e+01    0.8542542    0.4088282 -54.60  0.003238045    2.866    0.651
        92 -13.5115    168.1508    156.4794   5.7742269869e+01   1.7765705074e+01     0.816767    0.5262055 -52.14  0.004149829    1.835    0.455
        93 -12.9402    165.8464    143.4271   5.5551141049e+01   2.0499070115e+01     0.669902    0.4768708 -66.02  0.003274674    2.082    0.520
        94  -9.9166      8.7520    159.7547   1.0105061550e+02   3.9537080520e+01    0.4190023    0.1108558  65.58  0.001301261    4.349    0.770
        95 -13.6683    197.9551    136.2607   4.8083585191e+01   1.6235599941e+01     0.561914    0.5110747  35.99  0.003659852    1.273    0.215
        96  -9.4908      2.8345    249.5897   1.0520857899e+02   2.1091584654e+01    0.1569815   0.06355347  38.34 0.0005821207    1.614    0.380
        97 -12.7296    197.0830    156.8743   5.2414709653e+01   1.3116788118e+01    0.5247318    0.3017529 -50.48  0.002391043    2.259    0.557
        98 -12.3143    182.5166    150.5338   5.3773079054e+01   1.6435133901e+01    0.6032034    0.3027522 -51.62  0.002600392    2.637    0.621
        99 -12.6545    188.8603    157.0295   5.3899490858e+01   1.4356206675e+01    0.4849475     0.400464  82.39  0.002774607    2.097    0.523
       100 -13.6534    189.6400    149.3365   5.2230513814e+01   1.5479758552e+01    0.7233018    0.4749003 -45.85  0.003740449    1.621    0.383
       101 -10.3762     92.8725    159.4261   7.6294506265e+01   2.9603400992e+01    0.3545772    0.2629638 -89.29  0.001549629    1.644    0.392
       102 -10.3167     23.9683    163.2581   9.6766182335e+01   3.7369893400e+01    0.2534613    0.1812802   6.53 0.0009171243    1.734    0.423
       103 -11.8023    128.3767    158.2432   6.6893909117e+01   2.4088731729e+01    0.3237744    0.2917952 -83.58  0.001584114    1.318    0.241
       104 -10.7465    105.5905    157.2962   7.2502986445e+01   2.8068463385e+01    0.4178244    0.3045782  82.10  0.001766825    1.860    0.462
       105 -11.5588    119.7570    155.1693   6.8452053303e+01   2.6186039994e+01    0.4280364    0.3004178 -83.95    0.0018466    2.164    0.538
       106 -10.5937    120.8012    149.8015   6.7168474607e+01   2.7163552142e+01     0.264287    0.2099962 -77.81  0.001009359    1.567    0.362
       107 -13.1447    199.7651    148.6821   5.0336821334e+01   1.3981204562e+01    0.4452181    0.4117081 -64.36  0.002934045    1.482    0.325
       108 -10.3768     81.6259    154.0306   7.8603261123e+01   3.2590936519e+01    0.3602422    0.2281827  79.95  0.001258711    2.160    0.537
       109 -10.2128     49.4436    154.2958   8.8259533674e+01   3.6905801032e+01     0.403978    0.2237989  83.94  0.001737382    2.123    0.529
       110  -9.6122     98.4196    150.2231   7.3199920138e+01   3.0851305781e+01    0.2056554    0.1416646 -74.31  0.000951301    1.740    0.425
       111 -10.2842     28.6484    149.0871   9.4221737864e+01   4.0515538769e+01    0.4273835    0.1591652  72.48  0.001378898    3.777    0.735
       112 -12.1657    107.9322    144.8512   6.9587020157e+01   3.0489471555e+01     0.814901    0.5324664  82.19  0.003292218    2.573    0.611
       113 -10.4817     39.3186    146.5703   9.0565342277e+01   4.0057615427e+01    0.5740251    0.2663685  80.54  0.002151952    2.761    0.638
       114 -10.8186     55.9353    144.7273   8.5022030759e+01   3.8535744129e+01    0.6370308     0.330927  76.54  0.002399952    2.704    0.630
       115 -10.5239     68.0239    153.2599   8.2489791913e+01   3.4749912403e+01    0.4343102     0.260008  68.38  0.001591923    2.038    0.509
       116 -10.3176     12.9570    145.2024   9.8941505861e+01   4.2910588594e+01    0.3519502    0.1651621  81.57  0.001278336    2.081    0.519
       117 -12.5625    125.0783    141.7623   6.4473439153e+01   2.8145957486e+01     0.794572    0.4561442 -67.94  0.003085262    2.689    0.628
       118 -12.5828    133.6786    151.7097   6.4368912051e+01   2.4529177377e+01    0.6504496    0.4104196 -59.41  0.002991178    1.898    0.473
       119 -10.5116     88.1427    143.3097   7.4895568971e+01   3.4167283795e+01    0.3756416    0.2557124 -89.29  0.001382734    1.911    0.477
       120 -12.1840    182.0217    140.7536   5.1844449601e+01   1.8172405439e+01    0.4102205    0.3669167 -81.78  0.002319869    1.537    0.350
       121 -12.5328    179.9535    132.9998   5.0559524886e+01   1.9865745521e+01    0.5561067    0.2933915 -44.82  0.002260872    1.866    0.464
       122 -10.7996      2.6146    140.6763   1.0203124461e+02   4.4833912033e+01    0.5180836     0.149292  81.80  0.001699059    3.723    0.731
       123 -10.3890     68.7902    138.0385   7.9910069021e+01   3.8475942908e+01    0.6370976    0.2198404 -70.44  0.001921955    3.814    0.738
       124 -11.6940    138.7313    137.4336   6.0216656576e+01   2.6562415940e+01    0.3874374    0.2296815 -52.03    0.0015932    1.783    0.439
       125 -10.8104     23.0589    135.8194   9.4868466593e+01   4.4528932434e+01    0.8445118    0.3392931 -89.56  0.003153044    2.692    0.629
       126 -10.5438     38.8736    135.5884   8.9447025587e+01   4.2997175968e+01    0.2972557    0.1733665  80.48 0.0008085538    1.868    0.465
       127 -12.5607    132.2388    130.1051   6.0159371086e+01   2.9317395562e+01    0.8011848    0.3986571 -56.31  0.003077006    2.397    0.583
       128 -11.0644    113.1074    132.3130   6.5608323192e+01   3.2431085175e+01    0.5227259    0.3310534 -57.69  0.002331828    1.674    0.403
       129 -10.9099     83.3785    131.0553   7.4037616070e+01   3.7969415826e+01    0.5477725    0.3660212 -89.82  0.001989707    1.970    0.493
       130  -9.9491     83.3266    123.8665   7.2597638799e+01   3.9784813429e+01    0.4426675    0.2188386 -37.75  0.001533872    2.881    0.653
       131 -13.0434    180.4303    122.5546   4.8129972234e+01   2.1592715565e+01    0.7637159    0.3282372 -37.40  0.003171119    2.133    0.531
       132 -12.0251     99.3086    125.3568   6.8000598317e+01   3.6596443941e+01    0.9452282    0.4442534 -57.66  0.003552334    2.245    0.555
       133 -10.9388     12.5811    128.2745   9.7878133921e+01   4.7417836523e+01    0.5877298    0.2234002  74.01  0.002101105    2.986    0.665
       134 -10.6295     13.0002    121.4968   9.7177920355e+01   4.9219220885e+01    0.4727035    0.1142581 -57.60  0.001503736    3.761    0.734
       135 -10.4128     72.9759    128.1332   7.6800716693e+01   4.0386522034e+01    0.4555964    0.2482848 -76.00  0.001764312    2.270    0.559
       136  -9.1576    109.3209    128.2758   6.5767994822e+01   3.4061534401e+01    0.1486929     0.119953  -6.18 0.0002003279    1.576    0.366
       137 -12.0495    117.7821    123.7839   6.2426816245e+01   3.3484304632e+01    0.6839226    0.3820849 -56.35   0.00250685    1.931    0.482
       138 -11.1814     59.0655    122.4182   8.0463064539e+01   4.3962959091e+01    0.9456662    0.4351756 -85.03  0.002923593    3.711    0.731
       139 -11.5225     43.0952    120.4468   8.5876496889e+01   4.6587938194e+01     1.078983    0.4413615 -89.95  0.003120201    4.289    0.767
       140 -11.2992     28.3573    121.7625   9.1506129166e+01   4.7829510302e+01    0.8821844    0.3261545  68.86  0.002516457    4.580    0.782
       141 -11.8282    203.1032    121.6524   4.4089054035e+01   1.7686727829e+01    0.2453352    0.1617833 -41.01  0.001341925    1.384    0.277
       142 -12.2046    172.8151    120.5125   4.9075988415e+01   2.3382640789e+01    0.4593723    0.2683948 -49.75  0.002112828    1.816    0.449
       143 -12.5403    158.9564    119.6898   5.1644349477e+01   2.6217421066e+01    0.6135854    0.3043117 -43.87  0.002577204    1.923    0.480
       144 -12.5515    141.9003    117.4703   5.4862533389e+01   3.0057986499e+01    0.9234222    0.3546448 -48.74  0.003210736    2.700    0.630
       145 -11.9896    131.0355    117.6396   5.7520213253e+01   3.2215417755e+01    0.6677533    0.3761944 -61.78   0.00257134    2.392    0.582
       146 -10.7501     70.9111    118.8491   7.5666149501e+01   4.3117747806e+01    0.4412436     0.220097 -69.85  0.001645515    2.296    0.564
       147 -11.5885    109.1533    112.6296   6.2129820484e+01   3.7730436610e+01     1.005591    0.4068412 -58.24  0.003177651    3.165    0.684
       148 -11.1514      2.6806    114.2659   1.0051972526e+02   5.1864292493e+01    0.8573042    0.2564245  89.64  0.002858985    3.342    0.701
       149 -11.9828    208.8758    115.1519   4.1765983335e+01   1.7702634866e+01    0.4616545    0.1002208 -40.70  0.001478793    3.964    0.748
       150 -11.9115    188.7885    122.7184   4.6685130161e+01   2.0037855343e+01    0.5443651    0.1769343 -39.01  0.002025279    2.731    0.634
       151 -11.0420     78.8977    111.5108   7.1340329652e+01   4.3683405968e+01    0.7062842    0.3985254 -81.68  0.002461119    2.865    0.651
       152 -11.4127    122.3781    110.8977   5.8050397053e+01   3.5443625152e+01    0.5959447    0.2961757 -46.26  0.002326892    1.972    0.493
       153 -11.3905     92.4816    109.4141   6.6365070289e+01   4.1740932205e+01     1.062495    0.3494717 -54.33  0.003295625    3.073    0.675
       154 -11.4890    200.1211    111.2398   4.2208073762e+01   1.9862599952e+01    0.2667922    0.1532868 -53.50  0.001244455    2.117    0.528
       155 -11.8809    174.8963    110.4733   4.6290115679e+01   2.4768962911e+01    0.4719929      0.21873 -40.82   0.00197954    1.962    0.490
       156 -11.8810    159.4070    110.6844   4.9351211519e+01   2.7836855218e+01    0.5325359    0.2473199 -40.79  0.002146054    2.015    0.504
       157 -11.1261     14.3638    108.8494   9.5463017246e+01   5.2581733309e+01    0.6274244    0.2905032 -79.56  0.002634775    1.966    0.491
       158 -11.1373     66.2951    109.0882   7.5222424327e+01   4.6408567842e+01    0.6533346     0.299041 -67.49  0.002337164    2.430    0.589
       159 -11.1349    133.3900    108.6807   5.4676874655e+01   3.3633057577e+01    0.4801547    0.2476121 -51.62  0.001885688    2.034    0.508
       160 -12.0489    182.9329    107.7157   4.4188517396e+01   2.3673609943e+01    0.4057906    0.1893512 -34.58  0.001719043    1.984    0.496
       161 -12.0373    201.8815    105.3713   4.0580369612e+01   2.0469090262e+01    0.5115178   0.09266535 -40.90  0.001471094    4.627    0.784
       162 -11.8430    139.7665    102.9309   5.1638903005e+01   3.3469905410e+01    0.6419344    0.2882476 -44.96  0.002423179    2.143    0.533
       163 -11.6246     45.3593    101.7068   8.1719188120e+01   5.1415283983e+01    0.8707391    0.4282633  70.19  0.002823093    3.449    0.710
       164 -10.4959     43.6089     93.0505   8.0647285064e+01   5.3994457462e+01    0.4754129    0.2508642 -49.27  0.001741543    1.904    0.475
       165 -12.1810     22.1313     99.4122   9.1071654642e+01   5.4565218731e+01     1.258903    0.5162695  89.05  0.004311329    3.047    0.672
       166 -11.6501    166.8857    101.9806   4.5669141042e+01   2.7908968077e+01    0.5341637    0.1878197 -35.43  0.001830133    2.847    0.649
       167 -12.3330    150.3466    100.8112   4.8707899033e+01   3.1620588952e+01    0.8951449    0.2589397 -44.00  0.002763044    3.288    0.696
       168 -11.6626    128.7036    100.4393   5.3643593970e+01   3.6368536970e+01    0.6084065    0.3052663 -44.12  0.002384235    1.932    0.482
       169 -11.0436      6.6426    102.1759   9.7989185982e+01   5.4939097518e+01    0.4097492    0.1810035 -81.72  0.001704948    2.027    0.507
       170 -10.3904    222.3351    102.6758   3.7120443655e+01   1.7251782241e+01    0.1281648   0.08744748 -55.94  0.000705104    1.713    0.416
       171 -11.5655    175.9532    100.7085   4.3678618149e+01   2.6269902638e+01     0.348033    0.1963193 -37.27  0.001595446    1.605    0.377
       172 -11.3828    159.8927     99.6293   4.6421229722e+01   2.9807250713e+01    0.4872915    0.1885355 -40.78  0.001781182    2.382    0.580
       173 -11.5350    108.3510     97.9365   5.8469896445e+01   4.1277278247e+01    0.5684738    0.4024525  87.00  0.002103169    2.058    0.514
       174 -10.5950    107.8373     92.4211   5.7042480571e+01   4.2634405308e+01     0.415816    0.3200967  10.70  0.001848113    1.817    0.450
       175 -10.9371     81.7373     98.0927   6.7027324805e+01   4.6565652420e+01    0.6455581    0.3067012 -58.75  0.002361541    2.199    0.545
       176 -10.7612     95.0694     94.4749   6.1559297426e+01   4.4839483338e+01    0.7531973    0.2640271 -45.74  0.002382913    2.883    0.653
       177 -11.8110     63.3686     93.4677   7.2612156489e+01   5.0977877686e+01     1.104741    0.4442964 -60.76  0.003812894    2.502    0.600
       178 -10.3405     58.0072     92.0085   7.4380946977e+01   5.2217639427e+01    0.2449189     0.217095  44.50            0    1.154    0.134
       179 -12.0954    186.0741    114.7143   4.5312482478e+01   2.1884745225e+01    0.4958588    0.2151783 -43.65  0.002063417    2.167    0.538
       180 -10.5028    232.6585     93.3244   3.3792617632e+01   1.6825482500e+01    0.1271118    0.0816191 -54.47 0.0001694198    1.730    0.422
       181 -13.5119    187.5619    132.7852   4.9131202852e+01   1.8566855747e+01     1.325847    0.3755091 -47.28  0.003917722    4.883    0.795
       182 -11.8074    177.1333     92.0011   4.1243979557e+01   2.7522510382e+01    0.3644359    0.1917449 -36.66  0.001613145    1.712    0.416
       183 -12.0932    124.9245     87.7983   5.0992095414e+01   3.9852106218e+01    0.8876113     0.409862 -35.61  0.003159623    2.427    0.588
       184 -11.0410     34.8834     86.8497   8.3178156674e+01   5.6744149744e+01    0.9770573    0.3251171 -65.77  0.003325181    2.715    0.632
       185 -11.2576    214.5147    102.4938   3.8113873196e+01   1.8633908252e+01     0.249446    0.0937475 -42.46  0.001039489    2.355    0.575
       186 -10.9874     86.1341     85.9271   6.2028831509e+01   4.8684717424e+01    0.4409165    0.3103848  87.56  0.001716547    2.029    0.507
       187 -11.1077     86.4889     81.0103   6.0378199006e+01   4.9773102309e+01    0.4273638    0.3094316   3.17  0.001748678    2.221    0.550
       188 -11.2324    138.7957     90.1169   4.8315757032e+01   3.6251372367e+01    0.5780949    0.2368963 -40.98  0.002069204    2.330    0.571
       189 -10.7402    164.7612     92.5056   4.3589519730e+01   3.0063076183e+01    0.3217456    0.1750336 -26.49  0.001301758    2.165    0.538
       190  -9.5633    116.5357     83.5018   5.1896779235e+01   4.2651183491e+01     0.272786    0.1483495 -32.62 0.0007556207    2.202    0.546
       191 -11.3266    104.4576     82.6545   5.5083798017e+01   4.5545888344e+01    0.5181563      0.29228 -58.47  0.001992621    2.063    0.515
       192 -11.2484    218.6058     82.7884   3.3034158775e+01   2.0765030045e+01    0.1968548   0.09634398 -40.40 0.0009582385    1.667    0.400
       193 -10.8669    158.4955     81.5033   4.1735592379e+01   3.3405349538e+01    0.3293383     0.138328 -36.71  0.001229195    2.231    0.552
       194 -10.1820     74.5114     79.2215   6.4183481081e+01   5.2586575324e+01    0.6245892    0.1967884 -57.78  0.001686001    4.095    0.756
       195 -11.1847     24.3460     80.1075   8.6798405757e+01   5.9682617404e+01    0.5004355    0.2544725 -81.35  0.001891799    2.091    0.522
       196 -11.6100     25.3222     73.2581   8.4853637376e+01   6.1444197129e+01    0.9723136     0.383595 -29.41  0.002559034    5.871    0.830
       197 -11.0939    150.4787     78.9763   4.2564995852e+01   3.5689760988e+01     0.413916    0.1398827 -37.81  0.001371662    2.768    0.639
       198 -10.0263    119.5296     78.2330   4.9443052384e+01   4.3053213653e+01    0.3983589    0.1525007 -39.09  0.001313251    2.662    0.624
       199 -11.1735    140.9079     81.2818   4.5255160932e+01   3.7478134064e+01    0.4717954    0.2076065 -36.24  0.001723629    2.282    0.562
       200 -11.9316      5.4389     88.1985   9.7145973164e+01   5.8855108786e+01    0.8586056    0.2580522 -63.40  0.003138836    2.667    0.625
       201 -12.9415    192.6310    129.3186   4.7492400783e+01   1.8263016161e+01     0.657954    0.2466732 -42.33  0.002216741    2.490    0.598
       202 -10.1766    211.3221     75.3435   3.2121016302e+01   2.3199323765e+01    0.1289071   0.09832178   3.78 0.0007050276    1.729    0.422
       203 -10.8169    128.4883     70.0282   4.4564387233e+01   4.2537427437e+01    0.3936496    0.2813047 -11.58  0.001692585    1.991    0.498
       204 -10.4825     10.4681     74.4698   9.2857621195e+01   6.2319360212e+01    0.3551617    0.2322419  11.86  0.001780091    1.732    0.423
       205 -10.2856    224.3292     74.3284   3.0406710833e+01   2.0889992929e+01      0.12269   0.09363421   2.87 0.0005020685    1.709    0.415
       206 -11.8369     48.3432     81.3908   7.5744508504e+01   5.6466201933e+01    0.9482037    0.4053722 -60.52  0.003522832    2.204    0.546
       207 -10.1808    170.6088     82.1668   3.9738588443e+01   3.0589249802e+01    0.2129498    0.1316321 -25.61 0.0009518354    1.762    0.432
       208 -11.2311     82.1660     66.4825   5.6979488212e+01   5.3987680867e+01    0.5342836    0.3357481 -15.97   0.00186682    3.085    0.676
       209  -9.8373    115.7613     70.8003   4.8007117936e+01   4.5431083422e+01    0.4673152    0.1333357 -38.08  0.001306287    3.725    0.732
       210 -10.8783     94.9628     68.3951   5.3277675782e+01   5.0758195515e+01    0.8769775    0.2255765 -44.91  0.002416485    3.816    0.738
       211 -10.1908     42.4900     71.0420   7.5588435766e+01   5.9995082632e+01    0.4142438    0.1405329 -60.69   0.00137823    2.788    0.641
       212 -10.9110    105.7526     69.7196   5.0428678955e+01   4.8003705921e+01    0.5388592    0.2054045 -40.62  0.001789315    2.631    0.620
       213 -11.1020     51.2285     67.2042   7.0178346028e+01   5.9662942358e+01    0.9366276    0.2899372 -61.17  0.002654114    3.983    0.749
       214 -10.1197      5.6250     70.0270   9.4770684356e+01   6.3809076056e+01    0.3295853    0.1193876 -76.46  0.001247443    2.446    0.591
       215  -9.9233    163.1684     69.9963   3.7577138932e+01   3.4304501980e+01    0.2411432    0.1725492  -1.72  0.001086911    2.049    0.512
       216 -10.2926     16.4205     69.2069   8.8723057608e+01   6.3321930438e+01    0.3859894    0.1920784 -78.63  0.001621969    1.997    0.499
       217 -10.4890     17.8385     62.6542   8.6497528783e+01   6.4956760800e+01    0.4541282    0.1427933 -58.63  0.001652699    2.536    0.606
       218 -11.6111     62.6462     69.6446   6.5852187184e+01   5.7117224826e+01     1.254282    0.1803185 -48.97  0.002751127    6.224    0.839
       219 -10.1001    147.0904     65.5521   3.9156445811e+01   3.8850998899e+01    0.4351585    0.2042626 -24.10  0.001482675    3.005    0.667
       220 -10.4927    203.5054     65.0013   3.0470498776e+01   2.6225903305e+01    0.1855317    0.1132834  -7.06 0.0008105316    2.567    0.610
       221 -10.1272    121.7578     63.3826   4.3948802534e+01   4.5407619764e+01    0.5095205    0.2163199 -30.92  0.001692178    2.862    0.651
       222 -10.1349     10.1129     64.4387   9.1325084661e+01   6.5051759693e+01    0.2960336    0.1333664 -64.33  0.001265588    1.870    0.465
       223 -10.8482     37.4025     61.7788   7.5341214573e+01   6.3057099487e+01    0.6423011    0.2305399 -50.82  0.002291783    2.537    0.606
       224 -10.7947     81.8796     71.7654   5.8955892190e+01   5.2863411603e+01    0.4919522    0.3059766 -66.32  0.001874383    2.050    0.512
       225 -10.5537    110.2923     60.8450   4.6005530203e+01   4.8675460298e+01    0.5705619    0.2836366 -26.92  0.001958706    2.823    0.646
       226 -10.0728     99.7657     58.7832   4.8253825451e+01   5.1600901951e+01    0.4970442    0.1796203 -53.73  0.001313947    4.483    0.777
       227  -9.2980    100.4089     54.8247   4.6547754664e+01   5.2204037817e+01    0.3212919     0.148833 -30.90  0.001110069    2.641    0.621
       228 -10.1656     73.0340     58.8073   5.7561449333e+01   5.7594260775e+01    0.4357085    0.2194308 -50.41  0.001591515    2.009    0.502
       229 -10.6862     73.2687     53.4571   5.5314972712e+01   5.8685640830e+01    0.5344787    0.2758533 -25.41  0.001692381    3.629    0.724
       230 -10.5369     25.0097     56.7628   8.0735148572e+01   6.5816200618e+01    0.4338431    0.1740051 -48.81  0.001673851    2.311    0.567
       231 -10.6180      7.4058     57.1858   9.1533047284e+01   6.7145319555e+01    0.3109619    0.1953128  79.54  0.001136571    1.772    0.436
       232 -10.9081      7.5113     51.9835   9.0367965523e+01   6.8502456691e+01    0.5678553    0.1214546 -54.82  0.001895294    3.273    0.694
       233 -10.0182    118.7763     54.5564   4.1544101332e+01   4.7731208313e+01    0.3527043    0.1647858 -48.28  0.001300147    2.233    0.552
       234 -10.1163     63.1547     48.8077   5.7583233465e+01   6.1752640705e+01    0.4664994    0.2503977 -27.88  0.001679864    2.816    0.645
       235 -10.2040     92.0227     48.8447   4.6715570720e+01   5.5332601107e+01    0.5050827    0.1826027 -46.61   0.00163469    2.956    0.662
       236 -10.4801     30.8687     50.6012   7.5212468564e+01   6.6686196124e+01    0.3456909    0.1975744 -77.73  0.001412532    2.373    0.579
       237  -9.8559     21.6678     48.2666   8.0112219516e+01   6.8310596308e+01    0.6411161    0.2469053 -35.56  0.002088039    3.763    0.734
       238  -9.7488    130.4967     45.9973   3.5859996293e+01   4.6179982504e+01    0.1975851     0.134721   2.78 0.0005391698    2.334    0.571
       239 -10.1239     83.5925     40.4260   4.5828677600e+01   5.8855930017e+01     0.383338    0.2516139   8.48  0.001470787    2.735    0.634
       240 -10.5816     54.0000     53.4606   6.3798205599e+01   6.2471020909e+01    0.5780194    0.1952481 -54.65  0.001829551    3.245    0.692
       241 -10.2545     16.7707     42.0467   8.1279138358e+01   7.0325724455e+01    0.5506722    0.1069101 -57.89  0.001742417    3.583    0.721
       242  -9.8339    113.9136     41.6209   3.7791113064e+01   5.1109418747e+01    0.2481183    0.2112694 -12.03  0.000603634    1.367    0.268
       243 -10.0337     57.8864     41.2310   5.6542304458e+01   6.4363008117e+01     0.378375    0.1886332 -59.44  0.001332889    3.009    0.668
       244  -9.9513     92.3345    230.6506   8.5194686796e+01   1.5301793514e+01    0.1262938   0.07474195  52.73 0.0007047455    1.779    0.438
       245 -11.7035     45.1263     49.7200   6.6784749586e+01   6.4838836121e+01     0.558008    0.2568099 -43.57 0.0006121605    2.204    0.546
       246 -10.1470     36.7355     38.6872   6.6712550065e+01   6.8648220944e+01    0.4891807    0.1395506 -46.23  0.001581328    3.356    0.702
       247  -9.5651    106.2368     37.7375   3.8064023842e+01   5.3679128648e+01    0.2326359    0.1299556 -18.87 0.0008893112    2.406    0.584
       248 -10.3398     95.6447     35.1810   3.9752122771e+01   5.6765049147e+01    0.3180669    0.1958074   0.13  0.001166086    2.980    0.664
       249  -9.1724     60.3138     31.6673   5.0605938661e+01   6.5673245848e+01    0.1458478    0.1151846 -78.67 0.0005093325    1.682    0.405
       250 -10.4607     27.7634     28.9846   6.7744668349e+01   7.2066095135e+01    0.4978746    0.1264118 -42.07  0.001417232    4.737    0.789
       251  -9.9306    123.2158     40.9491   3.5481778961e+01   4.8821237210e+01    0.2437757    0.1764172  10.38  0.001078392    2.016    0.504
       252  -9.4599     61.3221     27.9992   4.8180502087e+01   6.6087031247e+01    0.2306212     0.120284 -14.54 0.0007045438    4.250    0.765
       253  -9.1870     44.2238     25.7339   5.5404871366e+01   6.9983540843e+01    0.2265378    0.1563483  -0.09  0.001035373    2.067    0.516
       254  -8.9820    110.5238     24.5049   3.1488433306e+01   5.4425187865e+01    0.1452685    0.1384159  83.36 0.0008099659    1.033    0.032
       255  -9.9629     12.8558     21.1204   7.5338522714e+01   7.5576587822e+01    0.1923488    0.1788247  56.19 0.0007055353    1.287    0.223
       256  -9.7232     50.1861     16.1920   4.6289650631e+01   7.0363574695e+01    0.2465851    0.1441768  16.39 0.0009571012    2.919    0.657
