#   1 NUMBER                 Running object number                                     
#   2 MAG_AUTO               Kron-like elliptical aperture magnitude                    [mag]
#   3 X_IMAGE                Object position along x                                    [pixel]
#   4 Y_IMAGE                Object position along y                                    [pixel]
#   5 X_WORLD                Barycenter position along world x axis                     [deg]
#   6 Y_WORLD                Barycenter position along world y axis                     [deg]
#   7 A_WORLD                Profile RMS along major axis (world units)                 [deg]
#   8 B_WORLD                Profile RMS along minor axis (world units)                 [deg]
#   9 THETA_WORLD            Position angle (CCW/world-x)                               [deg]
#  10 FWHM_WORLD             FWHM assuming a gaussian core                              [deg]
#  11 ELONGATION             A_IMAGE/B_IMAGE                                           
#  12 ELLIPTICITY            1 - B_IMAGE/A_IMAGE                                       
         1 -12.8675    186.7722     34.4328   6.2085170700e+01   3.4545067506e+01     1.048414    0.8672097  14.99  0.005105251    1.833    0.454
         2 -11.9560    191.2407     28.5028   6.0181601799e+01   3.4269809416e+01    0.5725954    0.5087132 -66.02  0.001726081    1.178    0.151
         3 -11.7783    210.4627      3.3941   5.2970661079e+01   3.2881644576e+01    0.7206634    0.3259794  74.47  0.003960313    1.848    0.459
         4  -9.4646    178.0176    222.7080   1.0565964824e+02   2.8281231566e-01    0.1955668    0.1710565  23.67 0.0005052423    1.083    0.077
         5 -10.7161    139.4579    248.9932   1.1810529982e+02   1.6312283753e+00    0.4416031    0.2973754 -36.75  0.002343805    1.793    0.442
         6 -19.5098     23.3031    143.9994   1.3075423725e+02   4.3007728798e+01     20.89638     3.108057 -67.57   0.05097891    6.565    0.848
         7  -7.6223     88.3019    202.2983   1.2271566371e+02   2.0183866009e+01    0.1367905    0.1127589 -27.32 0.0003530134    1.582    0.368
         8  -8.3503    157.6967    201.3178   1.0621426343e+02   8.2718328700e+00    0.1464591    0.1172412  79.77 0.0002223183    1.625    0.384
         9  -9.1677     95.2424    200.1411   1.2072482160e+02   1.9590961320e+01    0.2598845    0.1904944 -87.19 0.0006870071    1.501    0.334
        10 -10.1425    193.1485    194.9726   9.7271000546e+01   3.1789463790e+00    0.7528554    0.3677738 -63.94   0.00212882    5.401    0.815
        11  -8.6550    141.1466    198.1138   1.0942607036e+02   1.2026423327e+01     0.204501     0.176174  88.07 0.0006131261    1.319    0.242
        12  -8.8884    100.4977    198.5005   1.1919804365e+02   1.9120439373e+01    0.1445781    0.1388555 -88.36 -3.597895e-05    1.057    0.054
        13  -9.2696     82.1244    195.0683   1.2311649096e+02   2.2907217129e+01    0.3012108    0.2521948   7.32  0.001597557    1.578    0.366
        14  -8.7740    113.9772    194.8626   1.1532390858e+02   1.7687814458e+01    0.2430996    0.1795839   1.76    0.0010838    2.025    0.506
        15 -12.1705     72.6787    188.4775   1.2444066435e+02   2.5957220918e+01     1.046291    0.7212941 -50.18  0.004828606    1.507    0.337
        16  -9.3868     99.4119    180.6799   1.1644348765e+02   2.3673004231e+01    0.2665924    0.2288001 -75.22 0.0007295036    1.138    0.121
        17  -8.1963    168.1443    176.4147   9.8922147423e+01   1.1811008308e+01    0.2009935    0.1440737  53.78 0.0009189231    1.551    0.355
        18  -9.9936    104.2174    172.4357   1.1369626458e+02   2.4898670411e+01    0.3172553    0.2312048  71.30  0.001446173    1.650    0.394
        19  -9.3731    124.7733    171.3771   1.0824320396e+02   2.1412680071e+01     0.210441      0.14973  28.94 0.0009369126    1.584    0.369
        20  -9.6858    194.5315    167.6805   9.1401177158e+01   8.5928686731e+00    0.3099279    0.2772399 -33.71 0.0008625065    1.060    0.057
        21  -8.6310    204.3089    165.9807   8.9079178830e+01   7.0918235147e+00    0.2397435    0.1106773 -60.74 0.0007039562    4.194    0.762
        22  -8.2363    165.6993    173.2906   9.8821684199e+01   1.2990144295e+01    0.1499151    0.1219663  86.40  0.000240258    1.564    0.361
        23  -9.5000     59.0254    188.3622   1.2777998294e+02   2.7901008491e+01    0.3944509    0.3060588 -34.81  0.002100349    1.646    0.393
        24  -8.5709    190.0195    160.5358   9.0801742613e+01   1.0989513536e+01    0.2414098    0.1905815 -43.79 0.0007665156    1.189    0.159
        25  -8.4808    111.4473    217.7313   1.1963538090e+02   1.2791237257e+01    0.1845927    0.1329357 -47.42 0.0006875692    1.514    0.340
        26 -10.9970     98.2678    154.1630   1.1165495875e+02   3.0509004536e+01    0.7003601    0.4679803 -34.09  0.002579426    1.786    0.440
        27  -9.0570    189.1091    155.1147   8.9810290978e+01   1.2332359332e+01    0.3843887    0.2458618 -57.63  0.001682564    1.708    0.414
        28  -9.9186    134.0000    146.0755   1.0045237591e+02   2.5717224846e+01    0.7375162    0.1909033 -51.88  0.001924994    4.134    0.758
        29 -10.8695    108.7378    139.5851   1.0562299707e+02   3.2217693376e+01    0.6287432    0.3315504 -34.61  0.002273526    2.485    0.598
        30 -10.7533     97.4317    139.5934   1.0875786114e+02   3.4266586914e+01     0.311086    0.2809491 -30.55  0.001633395    1.160    0.138
        31  -8.9916     78.4762    134.5329   1.1307428375e+02   3.8650741273e+01    0.1484749    0.1382695 -61.63 0.0001097866    1.034    0.033
        32 -10.1875    105.9389    130.2871   1.0422661415e+02   3.4973652322e+01     0.455418    0.3105711 -52.84  0.002069094    1.421    0.296
        33  -9.5158    103.4337    126.2108   1.0395106438e+02   3.6403114950e+01    0.2999167    0.2561066 -19.77 0.0007780798    1.301    0.231
        34 -10.1498    115.6058    129.9222   1.0147755150e+02   3.3213324242e+01    0.3830198    0.2506719 -38.68  0.001304971    1.596    0.373
        35  -9.2327    161.3916    128.2184   8.9635222165e+01   2.4018108205e+01    0.2290576     0.142258 -54.99 0.0009516612    1.675    0.403
        36  -9.4883    135.3393    127.1558   9.5621887556e+01   2.9843942024e+01    0.4277684    0.1370565 -54.71   0.00110476    4.384    0.772
        37  -9.4209    120.5434    124.3296   9.8776940897e+01   3.3533244413e+01    0.2997768    0.1500286 -52.32  0.000939652    2.030    0.507
        38  -8.5289    168.0334    112.9726   8.4466930133e+01   2.5790705811e+01    0.2498798     0.185022 -81.58 0.0008719097    1.717    0.417
        39  -8.9877    110.8541    119.1472   1.0012334498e+02   3.6633047866e+01     0.221871    0.2068194  76.34 0.0004016554    1.162    0.139
        40  -8.7547    205.5264    110.4636   7.6668364376e+01   1.8084347416e+01     0.248198    0.1323626  42.18 5.849591e-05    2.325    0.570
        41  -9.8509     67.6458    115.8682   1.1212634406e+02   4.4743900714e+01    0.2326796    0.2012387  -5.85  0.001008361    1.255    0.203
        42 -10.9262     65.0806    105.3892   1.1039953888e+02   4.7506776154e+01    0.4750471    0.2625175  14.63  0.001956039    2.599    0.615
        43  -9.3577    186.4838    216.9901   1.0284627637e+02  -3.7603918486e-02    0.2102532    0.1335292 -43.68 0.0007564313    1.582    0.368
        44 -10.1370    168.5015     68.2653   7.3149087754e+01   3.3920556584e+01    0.4194415     0.253233 -85.11  0.001718056    2.572    0.611
        45 -11.4242    172.7950     48.5286   6.7466189202e+01   3.5876494393e+01      0.41715    0.3655521  72.10  0.001094006    1.067    0.062
        46  -8.2551     76.4900    233.0294   1.2944778032e+02   1.4864401429e+01    0.1930076    0.1233137 -65.10  0.001017299    1.571    0.364
        47  -9.3840    102.2160    250.2008   1.2607444450e+02   7.3337896771e+00    0.2592444    0.1411017  58.94  0.001219194    2.004    0.501
        48  -9.4122    189.4693     15.0011   5.7406871221e+01   3.6190589281e+01    0.1996918    0.1369745  76.83 0.0005649323    1.220    0.180
