#   1 NUMBER                 Running object number                                     
#   2 MAG_AUTO               Kron-like elliptical aperture magnitude                    [mag]
#   3 X_IMAGE                Object position along x                                    [pixel]
#   4 Y_IMAGE                Object position along y                                    [pixel]
#   5 X_WORLD                Barycenter position along world x axis                     [deg]
#   6 Y_WORLD                Barycenter position along world y axis                     [deg]
#   7 A_WORLD                Profile RMS along major axis (world units)                 [deg]
#   8 B_WORLD                Profile RMS along minor axis (world units)                 [deg]
#   9 THETA_WORLD            Position angle (CCW/world-x)                               [deg]
#  10 FWHM_WORLD             FWHM assuming a gaussian core                              [deg]
#  11 ELONGATION             A_IMAGE/B_IMAGE                                           
#  12 ELLIPTICITY            1 - B_IMAGE/A_IMAGE                                       
         1  -8.6507    189.3000     10.7683   2.4082364528e+01   3.6674093211e+01    0.1914211    0.1602997 -89.99 0.0002904855    1.152    0.132
         2  -8.2041    157.9303    248.5052   7.9134319002e+01   9.8641581072e-01    0.1819049    0.1519388 -11.38 0.0005303221    1.125    0.111
         3  -8.6705    146.9676    250.6129   8.1788391890e+01   1.9924380785e+00     0.277202    0.1046742  29.15  0.001205423    2.276    0.561
         4  -8.9902    147.9458    247.0273   8.1079086703e+01   2.4921347905e+00    0.2783967     0.222443 -28.45 0.0003248815    1.283    0.221
         5  -8.2298    175.9799    246.0740   7.5012257229e+01  -8.0822795408e-01    0.1865122    0.1477665  -2.15 0.0002836347    1.029    0.028
         6  -7.4621     66.4795    241.5259   9.9278813896e+01   1.3986675189e+01    0.1311401    0.1130983  40.70 -1.519683e-05    1.004    0.004
         7  -7.1146     34.5442    240.1870   1.0667374844e+02   1.7879698072e+01    0.1538184    0.1134934 -61.09  0.000524433    1.532    0.347
         8 -10.2049    114.6911    237.9428   8.7395999381e+01   8.5390584615e+00    0.2589386    0.2284834 -34.27  0.000614333    1.233    0.189
         9  -8.6772     65.8551    228.1741   9.8114470428e+01   1.6957210690e+01    0.2182533    0.1910265  25.75            0    1.116    0.104
        10  -8.8251    138.8078    225.7641   8.0038296641e+01   7.6477881118e+00    0.2168813    0.1945742 -11.94 0.0003459999    1.092    0.084
        11  -8.3586    243.5570    224.9976   5.9292946167e+01  -5.0295857592e+00    0.1712541    0.1465404   9.31  0.000562225    1.425    0.298
        12  -7.6671    124.2606    221.4080   8.2815169408e+01   1.0569251359e+01    0.1981031    0.1666985 -57.34 0.0003953323    1.370    0.270
        13  -7.0412    168.7540    219.3094   7.2335484390e+01   4.7453016299e+00    0.1119794    0.1069193  78.21 0.0002729454    1.506    0.336
        14  -6.8145    218.5401    217.4397   6.2276794177e+01  -1.2139691785e+00    0.1244925    0.0933691 -13.97 5.116707e-05    1.071    0.066
        15  -8.6946    244.4779    206.4685   5.6111457198e+01  -2.4013344240e+00    0.2112222    0.1380035 -37.67 0.0006355649    1.351    0.260
        16  -7.8346     66.1440    204.2932   9.5377158383e+01   2.2486845503e+01    0.2223795    0.1852826 -50.32 0.0003456038    1.285    0.222
        17  -8.2691     71.7092    201.5839   9.3534791613e+01   2.2421253184e+01    0.2906185    0.1951669 -39.02  0.001010221    1.725    0.420
        18  -7.3830     46.8005    202.4312   1.0038675643e+02   2.5287861050e+01    0.1805681    0.1331663   9.16 0.0004234606    1.572    0.364
        19  -7.6806    249.9407    198.4640   5.3930260787e+01  -1.7826150107e+00    0.1447297    0.1072927  22.60  0.000611983    1.551    0.355
        20  -7.3009    100.1668    190.8037   8.4222099975e+01   2.0979468225e+01    0.1936052    0.1657939 -14.91 0.0002393941    1.258    0.205
        21  -8.7988      2.6055    190.7478   1.1126606340e+02   3.2407094147e+01    0.2236413    0.2025232 -71.42 0.0004290683    1.162    0.139
        22  -6.8918    224.4716    177.4629   5.4256407139e+01   4.6312986210e+00    0.1259369     0.102326 -27.72 0.0001064337    1.027    0.026
        23  -9.5175    150.0154    173.9496   6.8393487418e+01   1.6736134023e+01    0.2900365    0.2097923 -42.25  0.000384264    1.337    0.252
        24  -8.1027    155.6553    171.2340   6.6542502732e+01   1.6365257286e+01    0.2635457     0.220548   6.98 0.0006595005    1.235    0.190
        25  -8.7670     93.3780    164.9830   8.1667712259e+01   2.8421566739e+01    0.2618379    0.2190685  26.75 0.0002642603    1.194    0.162
        26  -6.7827    155.4826    164.4798   6.5221084048e+01   1.7841198152e+01    0.1478054    0.1362586 -17.81  0.000241065    1.021    0.020
        27  -7.7142     57.7356    151.0084   9.0251434361e+01   3.7333266228e+01    0.2013824    0.1865715 -55.93 0.0002255544    1.056    0.053
        28  -8.3478    235.1959    146.3684   4.6826246723e+01   8.3861587914e+00    0.2203444    0.1622182 -47.86  0.000375159    1.248    0.199
        29  -7.5549    101.9680    140.2954   7.4104439407e+01   3.3154909464e+01    0.2098902      0.19478  25.61 0.0002290581    1.081    0.075
        30  -7.7421    247.2347    134.8240   4.3045435992e+01   8.5626572286e+00    0.1597354    0.1205507 -25.18 0.0004669562    1.326    0.246
        31  -8.3307    160.7880    128.4992   5.6207739180e+01   2.4468241397e+01    0.3353578    0.2390188 -22.41  0.001395525    1.704    0.413
        32  -8.4141     46.0503    126.9693   8.9984497385e+01   4.5213535959e+01    0.2129667    0.2078684 -47.48 0.0003063352    1.026    0.025
        33  -7.8249     81.3591    120.9411   7.6176462005e+01   4.1588237079e+01    0.3242091    0.2111375  12.50  0.001322157    2.000    0.500
        34  -7.6770    138.6737    114.0582   5.7800786381e+01   3.1966810377e+01    0.2094212    0.1886245 -40.29 0.0003624967    1.100    0.091
        35  -7.2726     77.8997    112.6570   7.5329058131e+01   4.4215638766e+01    0.2051374    0.1930428  27.81 0.0003977821    1.064    0.060
        36 -10.2343     66.5753    111.2648   7.9016168911e+01   4.6413667884e+01    0.2801053    0.2596003  -6.99 0.0002519395    1.078    0.073
        37  -6.5326    142.6634    108.3073   5.5408778385e+01   3.2316662381e+01    0.1527562    0.1178897 -87.02 0.0007041793    1.676    0.403
        38  -7.2490    117.0060     96.8880   5.8870145993e+01   4.0141109211e+01    0.1740505     0.171122 -52.45 0.0006735698    1.028    0.028
        39  -6.9474    142.7652     73.3616   4.6162016430e+01   3.8820637748e+01    0.1435563    0.1030859 -66.84 0.0002988098    1.588    0.370
        40  -8.0588    135.9358     70.4324   4.6785020071e+01   4.0866514687e+01    0.2184085    0.1832816 -54.31  0.001195251    1.209    0.173
        41  -7.0970    104.2795     71.7150   5.5046074035e+01   4.7778106996e+01    0.1395784    0.1144428 -88.41 0.0002113488    1.515    0.340
        42  -8.3621    209.4405     68.5380   3.4590337438e+01   2.5338851177e+01    0.2073709    0.1725054 -59.31 0.0001831349    1.031    0.030
        43  -7.4329    106.6332     67.2114   5.2973411630e+01   4.8053637960e+01     0.327351    0.1539294  32.61  0.000999989    3.389    0.705
        44  -7.9432    222.1077     65.0636   3.2481550461e+01   2.3445860723e+01    0.1638642      0.14913 -47.08  0.001163797    1.263    0.208
        45  -8.7435    106.0943     59.2152   5.0570087351e+01   4.9507721758e+01    0.2962801     0.211855 -28.13 0.0003582365    1.599    0.374
        46  -6.9690      1.6725     59.3460   9.5016300666e+01   6.5773952274e+01      0.12234   0.09541851  56.47 0.0007050195    1.750    0.429
        47  -7.0077    247.2170     58.0036   2.8810655189e+01   2.0003564241e+01    0.1446595   0.07296783 -42.28 0.0003523498    1.600    0.375
        48  -6.8041    174.2428     49.3550   3.4625270015e+01   3.5368957324e+01    0.1150414     0.101917  13.64 0.0003141555    1.587    0.370
        49  -7.0098    196.0449     48.0495   3.1669162047e+01   3.0895658522e+01    0.1466625    0.1225714 -73.37 0.0003425246    1.017    0.017
        50  -7.1853    102.1072     43.9878   4.6567092272e+01   5.2692300800e+01    0.1674672    0.1410775  55.10 0.0009580121    1.072    0.067
        51  -8.1721    153.6234     33.9075   3.3528093209e+01   4.1998420830e+01    0.2235646    0.1650017  81.18  0.000372008    1.229    0.186
        52  -7.4871     99.7034     33.3308   4.3486279861e+01   5.4632537870e+01     0.132046    0.1008583 -77.06  0.000437795    1.639    0.390
