#   1 NUMBER                 Running object number                                     
#   2 MAG_AUTO               Kron-like elliptical aperture magnitude                    [mag]
#   3 X_IMAGE                Object position along x                                    [pixel]
#   4 Y_IMAGE                Object position along y                                    [pixel]
#   5 X_WORLD                Barycenter position along world x axis                     [deg]
#   6 Y_WORLD                Barycenter position along world y axis                     [deg]
#   7 A_WORLD                Profile RMS along major axis (world units)                 [deg]
#   8 B_WORLD                Profile RMS along minor axis (world units)                 [deg]
#   9 THETA_WORLD            Position angle (CCW/world-x)                               [deg]
#  10 FWHM_WORLD             FWHM assuming a gaussian core                              [deg]
#  11 ELONGATION             A_IMAGE/B_IMAGE                                           
#  12 ELLIPTICITY            1 - B_IMAGE/A_IMAGE                                       
         1 -11.9228    244.0062    104.6868   4.8904231518e+01   1.1649094058e+01     1.308181     0.636738 -39.24  0.006217768    1.741    0.426
         2  -9.6310     64.8975     22.8013   6.3030487340e+01   6.3447822918e+01    0.4339339    0.1656872 -42.86  0.001715053    3.658    0.727
         3 -10.1918    142.9166     17.9236   4.1881530574e+01   4.6936249545e+01    0.4572114    0.3348343  43.75  0.002270943    1.415    0.293
         4  -9.9302    171.9409     13.0668   3.6524973253e+01   4.0528701373e+01      0.33672    0.2671351  89.21  0.001670723    1.102    0.092
         5  -9.5856      5.4123      9.5091   8.5431181562e+01   7.3282816327e+01     0.296183    0.1789344 -36.28  0.001962554    1.451    0.311
         6 -11.1570    166.1678      5.3444   3.5161424894e+01   4.2629399958e+01    0.5650234    0.5028797  76.10  0.003611438    1.111    0.100
         7 -10.0424    119.1773     19.3091   4.6626870986e+01   5.2397129316e+01    0.4550641    0.2782702 -13.72   0.00232231    2.037    0.509
         8  -9.2495    236.0551      1.9983   2.8484662870e+01   2.7580888380e+01     0.272613    0.1360653 -89.19  0.001541077    1.834    0.455
         9  -9.3712     79.0509      4.8674   5.0691881715e+01   6.2545018149e+01    0.2535204    0.1971962  26.62  0.001498182    1.165    0.142
        10  -8.6241    150.2526      1.2126   3.5924906131e+01   4.6733396788e+01    0.2031798   0.08912009  82.48 0.0008784414    2.419    0.587
        11  -9.1186    198.3880    163.1652   6.9235239037e+01   9.3324944840e+00    0.2291174    0.1351257 -40.89  0.001041363    1.578    0.366
        12  -9.6037     81.0329    144.8357   9.4614735080e+01   3.5499936777e+01    0.3941939      0.31411 -72.82  0.001500031    1.265    0.209
        13 -10.5481     56.6420    128.7960   9.8951935593e+01   4.3073406362e+01     0.723992    0.3739199 -43.82  0.003042372    1.990    0.498
        14 -11.5291    116.5684    121.6171   7.9005935320e+01   3.4925501027e+01    0.9043422    0.7085805 -40.11  0.004301683    1.273    0.214
        15 -10.1299    219.4633    220.4384   7.6229333199e+01  -4.2632137095e+00    0.3288747    0.1456289  35.36  0.001564444    2.231    0.552
        16  -9.7689      1.9799    110.0412   1.1374740052e+02   5.2689903256e+01    0.6135334   0.05108753 -65.06  0.001882466    4.322    0.769
        17  -9.5833    180.9640    101.0665   5.8239330671e+01   2.5266047373e+01    0.3917408      0.27617 -25.81  0.001810352    1.646    0.392
        18 -10.3677    160.5687    100.4624   6.2300655436e+01   3.0001075992e+01    0.6209773    0.4507385 -36.59  0.002916371    1.389    0.280
        19  -9.2067     47.8933     99.3833   9.5653065641e+01   5.1474606615e+01    0.3000412    0.1842833 -47.84  0.001459845    1.440    0.306
        20  -9.2178     12.4412     98.7861   1.0843076028e+02   5.4815632295e+01    0.3801256    0.1435339 -69.92  0.001583802    2.371    0.578
        21  -9.4887     14.5919     94.4736   1.0687782146e+02   5.5710570702e+01     0.420961    0.2120539 -65.24  0.002075317    1.669    0.401
        22  -9.6535     37.8324     98.5863   9.9132809333e+01   5.2768102722e+01     0.325183     0.236786  -4.37  0.001741403    1.607    0.378
        23  -8.6891    107.3555     94.9716   7.4487608780e+01   4.2831846913e+01    0.2253232    0.1963415 -37.96 0.0007135569    1.127    0.113
        24 -10.6361    211.1101     87.3007   4.9692459472e+01   2.1135617674e+01    0.8959106    0.3341422 -41.42   0.00346317    2.370    0.578
        25  -9.4764    241.3596     88.7269   4.5860049910e+01   1.4778971796e+01    0.3295705     0.217211 -40.04  0.001793547    1.326    0.246
        26  -9.8739    129.1599     83.8651   6.5139475731e+01   4.0437910688e+01    0.3899823    0.3277704 -57.84  0.001977822    1.270    0.213
        27 -10.6954     84.2616     82.8765   7.8212128735e+01   4.9834313878e+01    0.6252418    0.4066786  24.98   0.00286299    1.735    0.424
        28 -10.1801    214.0630     70.0754   4.5246273588e+01   2.3334860176e+01    0.5322667    0.3036861 -50.02  0.002511431    1.595    0.373
        29 -10.7441      4.8028     67.2740   1.0525963551e+02   6.2535973307e+01      0.64188    0.3728111 -68.87  0.003557243    1.672    0.402
        30 -10.5052    184.2169     64.0075   4.8134426995e+01   3.1016056894e+01    0.7452126    0.4635253 -29.22  0.003512568    1.823    0.452
        31 -10.9866    139.6687     64.5025   5.6772715647e+01   4.1500401664e+01    0.7500273    0.6108931 -87.99  0.003863662    1.426    0.299
        32 -10.0253    228.4951    111.2908   5.2527268763e+01   1.3419496072e+01    0.4251788    0.2585744 -34.32  0.001780061    1.555    0.357
        33  -8.4374    115.4700     62.5083   6.2119614806e+01   4.7395260425e+01    0.1436119    0.1389841  35.63 8.763978e-05    1.021    0.020
        34 -10.3009     87.2951     64.6728   7.1309364881e+01   5.2869538547e+01    0.4589722    0.4003542  29.38  0.001909213    1.116    0.104
        35  -9.1598     19.3039     57.4293   9.6228082726e+01   6.3673460546e+01    0.2811035    0.1834671 -59.87  0.001603354    1.562    0.360
        36  -9.2116     21.4869     54.4851   9.4331929260e+01   6.4091193669e+01    0.2681839    0.1737937  20.08  0.001539143    1.649    0.394
        37 -10.2064     95.4058     54.2218   6.5087078757e+01   5.3071724657e+01     0.489905    0.3934208  18.98  0.002663653    1.284    0.221
        38 -10.9423    199.3805     45.3236   4.1288016599e+01   3.0268821400e+01    0.7314049    0.4630386 -41.11  0.003890161    1.517    0.341
        39  -9.1841    250.7559     61.2600   3.9093036637e+01   1.7215033109e+01    0.3758405   0.07372428 -39.90  0.001304243    3.753    0.734
        40  -8.6803     13.6746     49.5105   9.6485033432e+01   6.5702424198e+01    0.2222057   0.09783287 -55.42  0.001090481    2.014    0.503
        41  -9.6307    234.8398     46.8516   3.7684715608e+01   2.2391855770e+01    0.3261073    0.2108189 -26.15  0.001780482    1.956    0.489
        42 -11.0326     81.9018     43.4314   6.5466692102e+01   5.7457578932e+01    0.6707427    0.4660164 -17.47  0.003539439    1.557    0.358
        43 -10.3711     49.8753     42.5138   7.7258750444e+01   6.3046198252e+01    0.5320541    0.3549297 -12.17  0.002898552    1.583    0.368
        44 -10.5609    140.6140     38.3665   4.8557228148e+01   4.5130954490e+01    0.4993789     0.403385 -77.92   0.00247029    1.369    0.270
        45 -10.1492     40.4878     33.1972   7.7620383833e+01   6.5860133980e+01    0.4026366    0.2182242 -42.90  0.001780039    1.912    0.477
        46  -9.8400    173.0227     36.5592   4.2609182427e+01   3.7586014208e+01    0.3545739     0.334679 -49.38  0.002047145    1.166    0.142
        47 -10.0099    181.3246     26.0619   3.8751579129e+01   3.6906283328e+01    0.4149983    0.3487543  14.35  0.002499806    1.654    0.395
        48 -10.1531    109.3177     24.9587   5.0771176881e+01   5.4055065608e+01    0.6035613    0.2809646  31.45  0.002349201    3.067    0.674
        49  -9.6923    210.1681    213.6746   7.6794387292e+01  -1.8356121908e+00    0.1804374    0.1553328 -22.72 0.0008149919    1.163    0.140
        50  -9.9819    191.6465    218.2448   8.1271061760e+01   1.8715610707e-01    0.4626049    0.4089931 -64.71   0.00281519    1.586    0.369
        51  -9.7400    203.0950     18.2449   3.4486652593e+01   3.2813106216e+01    0.2772678    0.2512083  27.19  0.001860375    1.544    0.352
        52  -9.4437     31.2611    217.7633   1.1676701320e+02   2.4014314250e+01    0.1736546    0.1052068  16.72 0.0007383527    2.413    0.586
        53  -9.8049     32.2399    204.3991   1.1547841827e+02   2.6940764746e+01    0.1844325   0.09891295  45.61 0.0009572944    1.702    0.412
        54  -8.7240    151.9940    197.4955   8.6138094776e+01   1.0687659672e+01     0.209582    0.1163665  56.46 0.0008106219    2.580    0.612
        55  -9.8170    200.2519    193.6234   7.5020182047e+01   3.2086264637e+00    0.4387399    0.2149091 -47.64  0.001903906    2.199    0.545
        56  -8.6161    229.3212    190.3434   6.8867614059e+01  -7.7899085318e-01    0.1389888   0.09072916  -8.47  0.000327603    1.727    0.421
        57  -9.4508    124.5301    167.1280   8.7058109073e+01   2.2454085073e+01    0.3926544    0.2800548 -36.85  0.001803354    1.533    0.348
