#   1 NUMBER                 Running object number                                     
#   2 MAG_AUTO               Kron-like elliptical aperture magnitude                    [mag]
#   3 X_IMAGE                Object position along x                                    [pixel]
#   4 Y_IMAGE                Object position along y                                    [pixel]
#   5 X_WORLD                Barycenter position along world x axis                     [deg]
#   6 Y_WORLD                Barycenter position along world y axis                     [deg]
#   7 A_WORLD                Profile RMS along major axis (world units)                 [deg]
#   8 B_WORLD                Profile RMS along minor axis (world units)                 [deg]
#   9 THETA_WORLD            Position angle (CCW/world-x)                               [deg]
#  10 FWHM_WORLD             FWHM assuming a gaussian core                              [deg]
#  11 ELONGATION             A_IMAGE/B_IMAGE                                           
#  12 ELLIPTICITY            1 - B_IMAGE/A_IMAGE                                       
         1 -13.9559    114.1378     95.4167   7.1652153746e+01   4.1327706015e+01      2.20229     1.865534  -9.20  0.008637926    1.295    0.228
         2 -14.9166     73.7666    102.8620   8.6695945051e+01   4.7071581332e+01     5.231966     2.679404  11.41   0.01711717    3.699    0.730
         3 -13.8698     37.7276     64.2748   8.9684384572e+01   6.0379425384e+01     10.08222     2.263096 -37.06   0.01917093   11.819    0.915
         4 -14.0898     22.1016     57.4333   9.4614170359e+01   6.3282049211e+01     3.287671     2.492176  81.89   0.01817525    2.308    0.567
         5 -14.3371    139.2919     72.8044   5.8301025572e+01   4.0085843994e+01     3.850696     1.376264  44.60  0.006201367    2.894    0.655
         6 -14.0570    124.1173     56.6235   5.7004483279e+01   4.6264677596e+01     3.899665     2.272674  28.59   0.01072984    2.291    0.564
         7 -14.8341     51.9252     84.4912   8.9762085683e+01   5.4368357959e+01     5.668242     3.050207 -21.84   0.01610837    2.591    0.614
         8 -13.8694     91.2006     50.3596   6.4194244528e+01   5.4409258100e+01     3.751049     2.578962 -27.80   0.01932814    1.521    0.343
         9 -14.0087     12.3082     71.2526   1.0266307531e+02   6.1042714941e+01     3.826354     1.194315 -56.61   0.01629431    2.373    0.579
        10 -13.9430    155.1793     49.9710   4.8253351320e+01   3.9897868894e+01     4.294572     2.738124 -83.43   0.01905512    2.209    0.547
        11 -13.0979     59.5906     58.5468   7.8597266223e+01   5.8651758200e+01     1.787747     1.262387  30.83  0.009714318    1.405    0.288
        12 -13.3502     58.0296     38.2707   7.1599358094e+01   6.2339179451e+01     2.224838     1.463291  18.40   0.01209527    1.497    0.332
        13 -10.1182     39.1886     23.3291   7.3517433708e+01   6.7355055356e+01    0.4291188     0.328103 -37.34  0.002359973    1.551    0.355
        14  -7.9227     75.2707     18.2618   5.6872457226e+01   6.1835247702e+01     0.126312   0.08308991  24.69 0.0002865556    1.463    0.316
        15  -9.3974    188.2816    249.3207   8.5860200208e+01  -4.0043188496e+00    0.2317645    0.1670648   3.35  0.001415971    1.284    0.221
        16  -9.4029    139.3691    249.9490   9.6102190043e+01   2.9448058319e+00    0.2362301    0.1549506 -31.70  0.001294222    1.873    0.466
        17  -8.3088     30.8877    171.6651   1.1222483571e+02   3.4973099968e+01    0.1799468    0.1077523  42.46 0.0004226296    1.683    0.406
        18 -10.3252      7.2170    165.8720   1.1779480593e+02   3.8428528201e+01    0.3776902    0.2010997  22.86  0.001305789    2.198    0.545
        19  -8.6384     18.2046    164.7739   1.1484918045e+02   3.7834955957e+01    0.1708134    0.1345173 -55.30 0.0003582636    1.291    0.225
        20  -8.9946     38.8464    159.6862   1.0865369938e+02   3.7180781725e+01    0.2471088    0.1630957 -58.13 0.0006648062    1.399    0.285
        21 -10.4244      6.0121    158.5239   1.1747295764e+02   4.0313085793e+01    0.2777166    0.1668515 -78.26  0.001371041    1.389    0.280
        22 -10.1654     31.1348    155.8440   1.1033875791e+02   3.8921819875e+01    0.3748249    0.2129219  24.86   0.00102149    1.985    0.496
        23 -10.1570     32.4090    150.2673   1.0926814461e+02   4.0216700948e+01    0.4334962    0.1920449 -45.15  0.001792136    2.460    0.594
        24  -9.5049     15.0181    155.0022   1.1472306375e+02   4.0521056512e+01    0.2415074    0.1595632 -74.68 0.0003343181    1.282    0.220
        25  -8.7556     23.2664    153.5336   1.1227754461e+02   4.0216013763e+01    0.1642904    0.1313784  -5.06 0.0008733789    1.586    0.370
        26 -10.1190     36.5427    146.9110   1.0760264299e+02   4.0670369571e+01    0.5910533    0.3028538  81.00  0.002287581    2.900    0.655
        27 -11.2752     36.8821    140.1006   1.0651609185e+02   4.2377568763e+01    0.6585022    0.2978934 -30.76  0.002303347    3.736    0.732
        28 -10.0278     45.2541    136.9781   1.0343551098e+02   4.2305800081e+01    0.2185224    0.1820858  81.83 0.0004599118    1.278    0.218
        29 -10.9323      3.1281    145.3168   1.1704333199e+02   4.3757334869e+01    0.5890839    0.3205444 -81.93  0.003073392    1.593    0.372
        30 -10.0824     29.3001    144.8452   1.0946540400e+02   4.1885081107e+01    0.2838392     0.196597  78.19  0.001211072    1.563    0.360
        31 -11.4014     29.8087    139.8975   1.0864128948e+02   4.3098245461e+01    0.5130637    0.3650862  58.37 0.0008215721    1.559    0.358
        32 -10.3894     49.9159    141.3900   1.0271992120e+02   4.0650553191e+01    0.5410808    0.1842095 -61.27  0.001965372    2.533    0.605
        33  -9.5797     58.5574    141.3182   1.0004790977e+02   3.9624239302e+01     0.464586    0.2200321 -79.00  0.001417956    3.196    0.687
        34 -10.3975     15.8015    136.0082   1.1236562084e+02   4.5224066542e+01    0.3606144    0.2849878  55.50  0.001864018    1.384    0.278
        35 -11.2926    180.4391    243.0636   8.6485792027e+01  -1.9217515120e+00    0.4819233    0.3106004  34.04  0.002256724    1.407    0.289
        36 -10.4532     83.5883    129.4660   8.9862329280e+01   3.9049198632e+01    0.3398346    0.2655723 -66.62 8.341527e-05    1.346    0.257
        37 -10.2301     73.7141    130.1423   9.3125417322e+01   4.0399815588e+01    0.2586517    0.2028979  45.72 0.0007461227    1.369    0.269
        38 -11.4086     66.1498    127.8361   9.5067749063e+01   4.2061621918e+01    0.5592369    0.2559041  40.36  0.002087321    2.321    0.569
        39 -11.5643     65.1542    121.6723   9.4090866304e+01   4.3749484122e+01    0.4856246    0.4143137 -53.06  0.001895909    1.093    0.085
        40 -11.6134     71.4678    120.5639   9.1761896862e+01   4.3129135068e+01    0.6017911    0.3731501  47.77  0.002570934    1.856    0.461
        41 -11.1713     77.1823    121.4024   9.0083915962e+01   4.2061575905e+01    0.4183158     0.299188  36.27  0.001176312    1.458    0.314
        42 -10.9694     89.2912    120.2894   8.5936809699e+01   4.0368308823e+01    0.5705772    0.3486249  57.64  0.002276829    2.247    0.555
        43  -9.5942     94.5390    120.0115   8.4221327134e+01   3.9524598990e+01    0.2821834    0.2160432  11.16 0.0006245731    1.535    0.349
        44  -9.8955    108.0192    120.0325   8.0119881848e+01   3.7034919938e+01    0.2278998    0.2225995 -24.80            0    1.013    0.013
        45  -9.4867     96.5548    115.2604   8.2404159301e+01   4.0299441903e+01    0.2173839    0.1412999 -39.23 0.0007836617    1.559    0.359
        46 -11.3865    175.8480    238.7390   8.6760565965e+01  -5.4963290300e-01    0.4409502    0.3090051 -27.65  0.001508579    1.497    0.332
        47  -9.3372    245.5963    242.2334   7.3888957496e+01  -1.0315498278e+01    0.1641349   0.08806138 -23.18 0.0009508267    1.647    0.393
        48  -9.6503    135.7897    105.6370   6.8529418799e+01   3.4530891345e+01     0.363658    0.2653854  14.90   0.00157914    1.801    0.445
        49  -9.2262    221.2526    239.4412   7.7847643427e+01  -6.9603149509e+00    0.2362449    0.1872276  -0.12  0.001122219    1.044    0.042
        50 -10.0787    135.0269    100.5207   6.7327622074e+01   3.5768147426e+01    0.2477355     0.204902 -41.06 0.0005213442    1.208    0.173
        51 -11.3244     54.4162    131.9720   9.9657760441e+01   4.2530479291e+01    0.4637041    0.2657807  28.19  0.002107451    1.884    0.469
        52 -10.1904    190.8602    233.6561   8.2845646011e+01  -1.9105163165e+00    0.4153709     0.246281  36.58   0.00221774    1.626    0.385
        53  -8.2008    185.3144     89.2686   5.3255172535e+01   2.6517553323e+01    0.1390317    0.1143296  18.36 0.0006957159    1.551    0.355
        54 -13.1850     32.7466     98.5744   1.0053236675e+02   5.3161860369e+01     1.796774     1.088947  79.12 0.0005092199    2.871    0.652
        55  -9.0297    132.1635    243.6016   9.6802043122e+01   5.1384249739e+00    0.1893781    0.1112292  24.84 0.0009466504    1.671    0.401
        56 -10.0063    219.4051    218.9893   7.4681521290e+01  -3.6254312068e+00    0.2251812    0.1542575  12.01 0.0008191427    1.362    0.266
        57 -10.4861    163.1490     84.2841   5.6263980533e+01   3.2487933564e+01    0.3868116    0.2727421  65.51  0.001822868    1.539    0.350
        58  -9.6476    179.3104    217.8409   8.2581817099e+01   2.5286140812e+00    0.2586685    0.1564814  17.27  0.001239677    1.783    0.439
        59 -10.0699    212.4943    216.5673   7.5580085486e+01  -2.2601694765e+00    0.3229446    0.2135078  11.55 0.0005748872    1.491    0.329
        60  -9.3463    219.6159    210.9332   7.3191077115e+01  -2.3659556203e+00    0.2789133    0.1436808 -23.46  0.001299845    2.110    0.526
        61  -8.7300    202.4001    208.7696   7.6167023095e+01   5.4327365364e-01    0.1904061    0.1139773 -28.46 0.0009489842    1.646    0.392
        62  -9.2973    229.7511    202.9813   6.9832851981e+01  -2.5188563641e+00    0.1655504   0.09651084 -34.44 0.0004628391    1.539    0.350
        63  -9.7327     61.8474    132.8938   9.7459802166e+01   4.1356188744e+01    0.2242153    0.1882433 -33.72  0.000271119    1.230    0.187
        64 -11.3718    111.1419     36.8344   5.3663741273e+01   5.2027682057e+01    0.7019132    0.6504985 -60.46   0.00417142    1.263    0.208
        65 -11.7756     72.8617     89.0441   8.3234387374e+01   5.0368186033e+01    0.5809166    0.5389162  44.92  0.003282394    1.224    0.183
        66  -8.9420     42.2300     29.4844   7.4805896153e+01   6.6041737112e+01    0.3555265    0.1956716  18.66  0.001530347    1.884    0.469
        67  -8.6842     21.8296    176.6296   1.1505091628e+02   3.4602206142e+01    0.1667618    0.1087473  43.96 0.0002798267    1.539    0.350
        68  -9.2816    102.2250     24.6917   5.1598842295e+01   5.5468706158e+01     0.279906    0.2173965 -21.74 0.0009134184    1.426    0.299
