#   1 NUMBER                 Running object number                                     
#   2 MAG_AUTO               Kron-like elliptical aperture magnitude                    [mag]
#   3 X_IMAGE                Object position along x                                    [pixel]
#   4 Y_IMAGE                Object position along y                                    [pixel]
#   5 X_WORLD                Barycenter position along world x axis                     [deg]
#   6 Y_WORLD                Barycenter position along world y axis                     [deg]
#   7 A_WORLD                Profile RMS along major axis (world units)                 [deg]
#   8 B_WORLD                Profile RMS along minor axis (world units)                 [deg]
#   9 THETA_WORLD            Position angle (CCW/world-x)                               [deg]
#  10 FWHM_WORLD             FWHM assuming a gaussian core                              [deg]
#  11 ELONGATION             A_IMAGE/B_IMAGE                                           
#  12 ELLIPTICITY            1 - B_IMAGE/A_IMAGE                                       
         1 -13.2858    198.9722     41.8933   4.2572353126e+01   3.0370553905e+01     1.153911    0.9482136 -43.24  0.003462215    1.222    0.182
         2 -13.7417    208.6985     32.4455   3.9142048890e+01   2.9354807659e+01     1.311458    0.9139529 -12.73  0.001432609    2.066    0.516
         3 -12.9672    233.7985      6.2520   3.1178603624e+01   2.6903786335e+01    0.8183674    0.6255654 -85.11   0.00463521    1.119    0.106
         4 -11.2299    135.5033    212.1996   9.4698221757e+01   1.0968805551e+01     0.391021    0.3143456  -0.21  0.002153263    1.488    0.328
         5 -10.7789    140.0077    249.4734   9.9042946167e+01   3.4503138684e+00    0.3432098    0.2588078  77.58  0.002016333    1.902    0.474
         6 -10.5600    103.4915    237.4947   1.0509831987e+02   1.1076695323e+01    0.2299407    0.2025998  46.78 0.0009383849    1.050    0.048
         7 -10.1148    102.0000    249.0337   1.0669447985e+02   9.1604724448e+00    0.2535253    0.1741187 -66.66  0.001259378    1.701    0.412
         8 -11.1973    101.2797    243.0224   1.0618471288e+02   1.0363971223e+01    0.5146282    0.2552061 -68.04  0.001212495    2.535    0.606
         9 -14.8012     47.5667    200.6592   1.1329214550e+02   2.6460996811e+01     7.728294     2.713028  65.79   0.01890671    8.362    0.880
        10  -9.6722     30.9547    202.6400   1.1715680391e+02   2.7886301995e+01    0.3418417    0.1874994  58.44  0.001838027    1.691    0.409
        11 -11.1026    111.3093    204.0722   9.8969355056e+01   1.6633652465e+01    0.3551731    0.2688457  74.81  0.001129098    1.546    0.353
        12 -10.6869    121.2712    196.7204   9.5497276235e+01   1.6569653958e+01    0.4477566     0.244094 -69.51  0.001234905    2.602    0.616
        13 -10.8117    111.8788    197.1906   9.7790040696e+01   1.8033257419e+01    0.4041734    0.2600889   9.37  0.001718104    2.503    0.601
        14 -10.3694     60.5930    198.0093   1.1002421550e+02   2.5445903454e+01    0.2579553    0.1846872  35.04  0.000882799    1.444    0.308
        15 -17.2758     14.3495    242.8316   1.2311064043e+02   2.1245682343e+01     5.733865     2.090667  26.58   0.02422012    3.802    0.737
        16  -8.6221     24.4372    193.5522   1.1783538543e+02   3.0605319473e+01    0.1259459   0.09896287  77.47 0.0008041091    1.065    0.061
        17  -8.5955     81.8647    195.3572   1.0467781127e+02   2.3121959103e+01    0.1893508    0.1281483  23.57 0.0009400125    1.753    0.429
        18 -16.2241      6.5964    204.5368   1.2242402154e+02   2.9837986485e+01     16.20267      1.06385 -75.69   0.02102285   10.717    0.907
        19  -8.2486     33.1860    210.2759   1.1730321542e+02   2.5961113840e+01     0.104298   0.08026253 -64.73            0    1.398    0.285
        20 -10.3253     43.5498    178.4827   1.1189098544e+02   3.2094688247e+01    0.7008383    0.4407304  33.95   0.00344541    1.680    0.405
        21 -10.3717     65.3904    179.0871   1.0652906230e+02   2.9247318059e+01    0.7686026    0.5446851  58.92   0.00409507    1.412    0.292
        22 -12.2986     57.3053    187.0193   1.0952833614e+02   2.8415348815e+01    0.7431289    0.3967855 -59.68   0.00244838    1.804    0.446
        23 -12.2065     53.8065    185.5510   1.1020146133e+02   2.9198859782e+01     0.680741    0.4358325 -72.55  0.003406659    1.467    0.318
        24  -8.4549     65.3395    191.6413   1.0815431967e+02   2.6289563935e+01     0.148905   0.09081024  67.78 0.0007037696    1.820    0.451
        25  -9.8613    147.9543    187.0757   8.7569588973e+01   1.3945714513e+01    0.4446699    0.2406469 -54.23  0.001889283    2.070    0.517
        26  -8.2707     72.4343    188.5305   1.0604444380e+02   2.6047110704e+01    0.1373826    0.1217657  76.44 0.0001596949    1.033    0.032
        27 -10.5501    192.4421    205.7038   8.1348559732e+01   2.6185233306e+00    0.3635719    0.1118374  33.22  0.001215753    3.580    0.721
        28  -8.8404     44.9405    185.6319   1.1234453412e+02   3.0239462555e+01    0.2990915    0.2171519  40.39  0.001141939    1.400    0.286
        29  -8.2544     77.2310    185.6298   1.0447485701e+02   2.6048187511e+01    0.1405886   0.09834144  79.69 0.0006897333    1.599    0.375
        30  -9.3481     89.5111    211.5943   1.0500873776e+02   1.8395956545e+01    0.2432316     0.200003 -85.62 0.0009113428    1.249    0.200
        31  -8.0723    224.2717    206.6867   7.5349136603e+01  -2.5470253893e+00    0.1095537    0.1034054 -55.80 0.0002218837    1.554    0.357
        32  -8.8026     79.8117    183.1660   1.0348595939e+02   2.6254660817e+01    0.2168433     0.174514  72.39 0.0006948994    1.248    0.199
        33 -10.1716     99.3785    180.9532   9.8250603885e+01   2.3756024503e+01    0.2896954    0.2565861 -46.33 0.0006001265    1.208    0.172
        34  -8.9761     37.9853    181.2852   1.1354992249e+02   3.2046433792e+01    0.1724635    0.1523543  71.85  0.000289157    1.084    0.077
        35  -8.5255     90.0079    180.5634   1.0054145586e+02   2.5333287470e+01     0.206536    0.1351399  37.53 0.0004092031    1.508    0.337
        36  -9.9666    187.4260    175.8560   7.6621305065e+01   8.9619043835e+00    0.3293135    0.3197614 -40.16  0.001192888    1.173    0.148
        37 -11.9327     55.1766    147.4876   1.0463187586e+02   3.8332945227e+01     4.083881    0.3388861 -60.48  0.009700309    6.269    0.840
        38 -12.9758     45.9050    107.7208   1.0022612658e+02   4.9267339151e+01     1.403456    0.9985068  46.15  0.007451389    1.631    0.387
        39 -11.4408     73.9947    167.6293   1.0265465916e+02   3.0832335811e+01    0.4001857    0.3434938 -42.55  0.001398848    1.285    0.222
        40 -11.4143     69.5555    172.3523   1.0452418993e+02   3.0305620723e+01    0.4174151    0.2970699 -33.89  0.001543322    1.812    0.448
        41  -8.3522     84.2784    173.6779   1.0092109386e+02   2.7851555310e+01    0.1457912    0.1052381  74.19 0.0002806081    1.583    0.368
        42  -8.8606     47.3340    172.3188   1.1022038828e+02   3.3143097135e+01    0.1335991   0.09765046 -38.47  0.000704877    1.697    0.411
        43  -8.4532    193.5199    170.5313   7.4259382267e+01   8.8615267871e+00    0.1443284    0.1317358  -7.48 0.0004453022    1.006    0.006
        44  -9.6192    240.4578    169.4820   6.5268559837e+01   9.5613692607e-01    0.1335005     0.110878 -17.65 5.676084e-06    1.023    0.022
        45  -8.7864    148.1226    174.8417   8.5187046575e+01   1.6514831906e+01    0.2219173    0.2000578  82.53 0.0008547004    1.300    0.231
        46  -8.9416     35.2086    166.7899   1.1265026444e+02   3.5820682284e+01    0.3562796    0.1817502  60.80  0.001126964    2.237    0.553
        47  -8.4368     30.0457    164.7591   1.1373900785e+02   3.6835222639e+01    0.2126261    0.1208812  26.62 0.0007210435    2.028    0.507
        48  -9.5716     35.9267    158.5002   1.1147851809e+02   3.7771728283e+01    0.3202558    0.1887135  68.55 0.0007827277    1.929    0.481
        49  -9.6961     32.4956    156.4929   1.1214410251e+02   3.8611476715e+01    0.2468009    0.1467735 -60.65 0.0009295995    1.499    0.333
        50 -11.5648     89.5455    152.0443   9.5763311293e+01   3.2300026363e+01     0.745949    0.4747614 -27.86  0.003120926    2.247    0.555
        51  -9.3052    174.8646    149.1332   7.3581973772e+01   1.6728191384e+01    0.2258648    0.2091219 -74.05 0.0004986778    1.240    0.194
        52 -10.8142    133.8732    145.2908   8.2458102442e+01   2.5870895625e+01     1.319809    0.3580651 -54.72  0.003094018    5.646    0.823
        53 -10.4060     38.5969    146.1943   1.0912924171e+02   4.0538333420e+01    0.3163659    0.2394811  61.16 0.0007772417    1.396    0.284
        54 -10.1462    102.8436    138.4133   8.9264528194e+01   3.3373462246e+01    0.5386718    0.3528214 -20.43  0.002160308    2.316    0.568
        55 -11.6454     90.4209    137.9251   9.2699564923e+01   3.5627308137e+01    0.2911132     0.265116 -35.48 0.0004959471    1.133    0.117
        56 -10.1034    105.9000    130.9039   8.6710929250e+01   3.4624238758e+01    0.3675669    0.3342443 -66.47  0.001177358    1.124    0.110
        57  -9.9494    135.9076    129.2344   7.8170643277e+01   2.9108352897e+01    0.4458948     0.160355 -48.31  0.001425171    2.801    0.643
        58  -9.7742    111.9988    129.2470   8.4603587931e+01   3.3876527805e+01    0.3336014    0.2623251  14.67  0.001155978    1.515    0.340
        59 -10.7554     43.4559    129.5810   1.0514044550e+02   4.4161650401e+01    0.2855425    0.2175913  63.91  0.000878974    1.482    0.325
        60 -10.1724     66.9405    126.8878   9.7415029179e+01   4.1934182282e+01    0.5116217    0.2528575 -59.44  0.002135442    1.890    0.471
        61 -10.3572     99.1593    125.2082   8.7323022858e+01   3.7207832658e+01    0.3106669     0.265258 -11.00  0.000877736    1.338    0.253
        62 -10.7172    118.6535    123.3421   8.1321278746e+01   3.3959823131e+01    0.6450767    0.4174165  -7.20  0.002323302    2.870    0.652
        63  -8.9089     91.3424    124.1050   8.9377165375e+01   3.8837840101e+01    0.2573866    0.2001221  66.32 0.0006112897    1.561    0.360
        64  -9.3784    160.8458    129.1494   7.2054602567e+01   2.3843846601e+01    0.2213306    0.1876679  -5.24 0.0008106291    1.344    0.256
        65  -9.1148    135.0000    119.9863   7.6098199344e+01   3.1362095049e+01    0.2610696   0.08828512 -45.49 0.0007695839    2.916    0.657
        66  -9.2892    108.0313    118.3155   8.3064861611e+01   3.7192616216e+01     0.241388    0.2116709 -47.13  0.000522692    1.112    0.101
        67  -9.9125    231.3084    113.8843   5.4943731180e+01   1.2057685194e+01     0.261851     0.246329 -30.76 0.0007858665    1.081    0.075
        68  -8.9616    134.6787    112.5619   7.4257804244e+01   3.3057255692e+01    0.2955786    0.1425843 -45.17  0.001096155    2.049    0.512
        69  -9.4208    205.3052    110.2381   5.8378042626e+01   1.7974832700e+01    0.2884506    0.2042802  44.12  0.001013225    1.541    0.351
        70 -10.4532    116.4406    109.3236   7.8334836185e+01   3.7584659376e+01    0.5401943    0.3146673  45.56  0.002246203    1.767    0.434
        71  -8.4152    139.4333    106.2174   7.1348034359e+01   3.3377643750e+01    0.2105588    0.1474857 -53.92 0.0006702716    1.530    0.346
        72  -8.8982    134.5348    105.5834   7.2429251438e+01   3.4584279480e+01    0.2950915    0.1437615 -53.52  0.001040551    2.431    0.589
        73 -12.1210     82.4096    159.2891   9.9032701536e+01   3.1636097459e+01     1.071023    0.6400274  69.25 0.0005956776    2.404    0.584
        74 -10.7719     29.8424     99.0877   1.0398436421e+02   5.2940767999e+01     0.331971    0.2549612 -22.42  0.001938785    1.401    0.286
        75 -13.0909     70.7763    154.1202   1.0134058899e+02   3.4619000756e+01    0.6172933    0.5786771 -42.13  0.001028694    1.150    0.130
        76 -14.2781     68.8137    144.2318   1.0017579261e+02   3.7356660281e+01     4.941055       2.0779  60.07   0.01253928    6.434    0.845
        77  -9.4308    155.7112     87.7697   6.2391386876e+01   3.3341855291e+01    0.3842689    0.2596857 -68.82   0.00142621    2.056    0.514
        78  -9.5084    128.6363     95.6551   7.1219878961e+01   3.7943423975e+01    0.4505651    0.2912845  78.78  0.001629504    2.920    0.658
        79  -8.4494    116.2767     85.3691   7.1598500499e+01   4.2692132677e+01    0.2087742    0.1425944  53.39 0.0008931844    1.577    0.366
        80  -9.4798    158.3097     82.9625   6.0480686889e+01   3.3617218913e+01    0.2145227    0.1954064 -37.78 0.0005550403    1.105    0.095
        81 -10.9862    193.2162    195.5152   7.9295139312e+01   4.2860232694e+00    0.8078784    0.4247895 -61.22  0.002720372    4.555    0.780
        82  -8.5310     56.5257     66.4950   8.5501183204e+01   5.7183796317e+01    0.1351407    0.1221073 -22.08 0.0001096089    1.062    0.058
        83 -13.0497    188.2802     49.9974   4.6088762010e+01   3.1767942306e+01     0.999023    0.8610808  25.81  0.002243485    1.450    0.311
        84 -10.0047    129.1405    249.2440   1.0121779309e+02   5.1233954428e+00    0.2448982    0.1467507  49.18  0.001061644    1.580    0.367
        85  -8.7934     68.9590     52.7193   7.6062092695e+01   5.7867831354e+01    0.1861183    0.1638305  17.13 0.0004340456    1.102    0.093
        86 -10.4847    107.6080    203.7997   9.9789133295e+01   1.7287848525e+01    0.2870596    0.1932659 -81.58 0.0009539013    1.892    0.471
        87  -9.9246     29.6695     35.9623   8.6167488998e+01   6.6169128326e+01    0.1772281    0.1350413 -25.03 0.0005393684    1.091    0.084
        88 -11.3747     22.0577     34.0338   8.9084657320e+01   6.7275624728e+01    0.3775585    0.2051254  31.07  0.001487747    2.043    0.511
        89 -11.2689    224.8397     30.5046   3.7042486624e+01   2.6028836042e+01     0.541926    0.3306187  29.70  0.002452442    3.412    0.707
        90 -11.2739    126.1108    243.9471   1.0117748391e+02   6.4996791352e+00    0.6043505    0.3043016 -40.13  0.002875305    2.683    0.627
        91  -9.1853    198.1819     23.5421   3.8174700219e+01   3.2822551242e+01    0.2218209    0.1704457  -6.95 0.0006892277    1.827    0.453
        92  -9.0383    189.6548     14.9828   3.7009252423e+01   3.5745037310e+01    0.1776675    0.1522322 -62.49 0.0008948463    1.131    0.116
        93 -11.7859    120.0244    245.0004   1.0256021848e+02   7.2308592291e+00    0.4116191    0.2580003  53.04  0.002175881    1.575    0.365
