#   1 NUMBER                 Running object number                                     
#   2 MAG_AUTO               Kron-like elliptical aperture magnitude                    [mag]
#   3 X_IMAGE                Object position along x                                    [pixel]
#   4 Y_IMAGE                Object position along y                                    [pixel]
#   5 X_WORLD                Barycenter position along world x axis                     [deg]
#   6 Y_WORLD                Barycenter position along world y axis                     [deg]
#   7 A_WORLD                Profile RMS along major axis (world units)                 [deg]
#   8 B_WORLD                Profile RMS along minor axis (world units)                 [deg]
#   9 THETA_WORLD            Position angle (CCW/world-x)                               [deg]
#  10 FWHM_WORLD             FWHM assuming a gaussian core                              [deg]
#  11 ELONGATION             A_IMAGE/B_IMAGE                                           
#  12 ELLIPTICITY            1 - B_IMAGE/A_IMAGE                                       
         1  -8.6750     55.4176     10.0739   9.4871796852e+01   6.6678300796e+01    0.2305426    0.1609917 -39.09 0.0008207736    1.666    0.400
         2  -7.9418     47.6104      9.8379   9.7906697450e+01   6.7888975928e+01    0.1634844   0.09983117 -37.55 0.0009385796    1.710    0.415
         3  -7.8280     27.9850     10.0300   1.0685623703e+02   7.0379581917e+01    0.1399237     0.107986 -14.81 0.0004622735    1.012    0.012
         4  -8.5443     90.9539      9.0174   8.2591708121e+01   6.0272865877e+01    0.1901802     0.155592 -57.67 0.0006157133    1.683    0.406
         5  -8.0509    101.1622      8.1250   7.9518843280e+01   5.8184548866e+01    0.1665859    0.1573668 -88.30 0.0004969054    1.311    0.237
         6  -7.8958     69.2283      7.9273   8.8776416542e+01   6.4599751538e+01    0.1587786   0.09439088 -24.30 0.0005064576    1.607    0.378
         7  -8.7845    235.0049      5.3616   5.9482030664e+01   2.5553222145e+01    0.2939617    0.1776943 -31.63  0.001588166    1.640    0.390
         8  -8.6647     33.4284      5.1378   1.0177781710e+02   7.0417462934e+01    0.2588164    0.1744466 -50.04  0.001523231    2.312    0.568
         9  -8.5331     79.0936      3.5037   8.3495260974e+01   6.3206574037e+01    0.2481409    0.1460265 -38.68  0.001298109    2.035    0.509
        10  -8.4347     62.3350      1.6233   8.8050932604e+01   6.6488314544e+01    0.1849571     0.141189  51.91  0.001030048    1.566    0.361
        11  -7.7999     15.7083      2.6797   1.0938448144e+02   7.2709615760e+01    0.1152938    0.0665832 -16.65  0.000378379    1.606    0.377
        12  -7.4958     39.2711      1.3600   9.7101167149e+01   7.0124429621e+01    0.1217996   0.07433322  -1.45  0.000280518    1.649    0.394
        13 -10.1410    224.0084    244.0237   1.1365112943e+02  -6.0480608234e+00    0.4852135    0.2308983 -40.20   0.00269584    2.722    0.633
        14  -8.1743    191.7313    249.8060   1.1998527678e+02  -1.8077467480e+00    0.1480033    0.1204296  52.01 0.0008326238    1.397    0.284
        15  -8.5157     93.7864    249.3222   1.3703105731e+02   1.3233132644e+01    0.2276622    0.1296853  87.26  0.001063856    2.211    0.548
        16  -9.2389    147.3944    246.4960   1.2733982179e+02   5.5991716841e+00    0.2900726    0.1566429  60.61  0.001516491    2.292    0.564
        17  -8.9536    120.3035    245.3635   1.3202129517e+02   9.9660597479e+00    0.3058464    0.1805954  71.60  0.001721377    2.157    0.536
        18  -8.9008      9.5841    244.3025   1.5044780079e+02   2.4243571944e+01    0.2625446   0.07512756 -87.43  0.001290862    3.600    0.722
        19  -8.4936     67.5482    245.0384   1.4115389824e+02   1.7491084383e+01    0.1478787   0.09586016 -79.59  0.001027474    1.588    0.370
        20  -9.7136    248.5715    241.8615   1.0926891340e+02  -9.3633925041e+00    0.3433055    0.1830839 -25.66  0.001425242    1.987    0.497
        21  -8.6983    247.9604    234.6852   1.0822472636e+02  -8.5291854298e+00    0.2179878    0.1436393 -16.08 0.0009206126    1.505    0.335
        22  -9.4742    246.8176    228.4998   1.0740074863e+02  -7.6949842930e+00    0.4982897    0.2001132 -26.84  0.002118762    2.721    0.632
        23  -8.5658    169.2799    243.5787   1.2308519596e+02   2.5319828012e+00    0.2255479     0.165364  64.65 0.0007325488    1.698    0.411
        24  -8.9949     78.0627    243.4891   1.3924065452e+02   1.6357604854e+01    0.3269961    0.1261855  60.98  0.001547617    2.816    0.645
        25  -9.6618    160.5155    240.8015   1.2429027405e+02   4.3238945047e+00    0.3475854    0.2359685 -88.06  0.001894421    2.725    0.633
        26  -8.2555     88.1728    242.3893   1.3739421054e+02   1.5148688544e+01    0.1808533    0.1221999  73.28 0.0007266278    1.379    0.275
        27  -9.2938    183.1767    240.2424   1.2016484244e+02   7.5326477856e-01    0.3527645     0.230285  64.01  0.001954197    2.317    0.568
        28  -7.7989    153.4914    242.4803   1.2576407246e+02   5.2099600636e+00    0.1202588   0.09406088  47.48 4.958543e-05    1.069    0.064
        29  -8.4798    146.3857    239.9429   1.2672992306e+02   6.7167671057e+00    0.2464333    0.1699395  72.62 0.0009046203    1.889    0.470
        30  -8.5848    240.5088    240.0770   1.1030234716e+02  -8.0345746132e+00    0.1937019    0.1018569 -24.07  0.001149845    2.068    0.516
        31  -8.5544    201.9939    243.3991   1.1731412268e+02  -2.6221444114e+00     0.182325    0.1631895 -60.79 0.0007629379    1.680    0.405
        32  -8.9129    194.2055    239.7758   1.1815043226e+02  -9.4765688815e-01    0.1906635    0.1638795  56.97 0.0004492435    1.443    0.307
        33  -9.1013    136.0359    239.3938   1.2853731873e+02   8.4461619657e+00    0.2828142    0.1522652  58.93  0.001412586    2.011    0.503
        34  -8.6004    129.5344    238.9431   1.2966314885e+02   9.5396903013e+00    0.2383878    0.1501096  67.93  0.001036909    1.856    0.461
        35  -7.6552     40.6846    239.3503   1.4525722581e+02   2.1757845638e+01    0.1164368   0.05630117  66.28 0.0006059094    1.729    0.422
        36  -9.0058    231.0170    237.2076   1.1142823119e+02  -6.3315125596e+00    0.2096603    0.1965376 -70.50 0.0009148449    1.847    0.458
        37  -7.9631    209.0451    238.3679   1.1535335058e+02  -3.1112726257e+00     0.161293    0.1269234  31.12 0.0004903951    1.079    0.073
        38  -8.4910     25.4961    237.4393   1.4762871920e+02   2.3779824658e+01    0.1835697   0.07465219  86.21  0.001027016    2.430    0.588
        39  -7.9592    189.6342    237.2338   1.1859184431e+02   1.1130772169e-01     0.144675    0.1090979 -20.15 0.0005995423    1.587    0.370
        40  -9.9509    214.9847    233.3420   1.1355745810e+02  -3.4301265545e+00    0.4491857    0.3377889  89.43  0.002325965    3.532    0.717
        41  -9.0431    203.0718    234.8704   1.1586936686e+02  -1.7374000716e+00    0.2635591    0.1925085 -55.61  0.001269075    2.131    0.531
        42  -9.7105    175.8975    233.5524   1.2053131049e+02   2.8443728398e+00    0.3978655    0.2324802 -59.18  0.002104143    2.721    0.632
        43  -8.6253    170.3241    235.8898   1.2186668704e+02   3.4286118296e+00    0.1896453    0.1119505 -56.06 0.0007249002    2.391    0.582
        44  -9.4300    109.2213    234.6941   1.3289018156e+02   1.3358641128e+01    0.4794063    0.1840682  53.43  0.001779363    2.465    0.594
        45  -8.0520     58.0589    237.0000   1.4217739877e+02   2.0072422652e+01    0.1731282    0.0513158  39.62 0.0007978103    2.923    0.658
        46  -8.4434    123.0013    234.3111   1.3032631682e+02   1.1300031140e+01    0.2136415    0.1437815  73.08 0.0009120716    1.704    0.413
        47  -8.4977     99.6540    234.4653   1.3460642474e+02   1.4825394726e+01    0.2539895    0.1340832  73.19  0.001085595    2.526    0.604
        48  -8.9727     78.9296    234.6654   1.3834746297e+02   1.7739129793e+01    0.2514411    0.1474547  69.02  0.001159649    1.603    0.376
        49  -9.3712      8.2426    234.8237   1.5025120068e+02   2.5996425036e+01    0.1777456   0.09437093  88.16  0.001265908    1.518    0.341
        50  -9.0723     68.5835    232.6277   1.4000965515e+02   1.9485279411e+01    0.4247436    0.1595828  63.87  0.001844033    3.351    0.702
        51  -8.3950    194.7694    233.0288   1.1706187014e+02  -1.6655778744e-01    0.1740204    0.1480218  51.28 0.0008385096    1.349    0.259
        52  -9.1661    141.5340    231.0990   1.2651674102e+02   8.8530297482e+00    0.5690083    0.2266286  58.40  0.001994453    4.503    0.778
        53  -8.2558    132.9356    232.9661   1.2833932714e+02   9.9444406589e+00    0.1954442    0.1246152  64.83 0.0008268766    1.738    0.424
        54  -8.4606     92.6836    232.4588   1.3567401540e+02   1.6184570029e+01    0.2101189    0.1253014  79.21  0.001210618    1.917    0.478
        55  -9.2794    186.5371    230.8831   1.1821979350e+02   1.4648677428e+00    0.2860177     0.220862 -87.15  0.001337309    2.289    0.563
        56  -8.4221    158.0135    232.5005   1.2365366214e+02   5.9392377418e+00    0.1891915   0.09906913  44.07 0.0006513183    1.553    0.356
        57  -8.9851    236.0663    230.4667   1.0950678482e+02  -6.3256215995e+00    0.2258939     0.155981 -23.75 0.0007811738    1.538    0.350
        58  -8.7210      1.7640    230.9357   1.5110388487e+02   2.7292141590e+01    0.1983854   0.09019642  74.03    0.0010064    1.701    0.412
        59  -9.8890    149.8028    226.3412   1.2435196645e+02   8.2415964834e+00    0.5555514     0.335447 -87.72   0.00238317    3.886    0.743
        60  -8.5919    229.6641    228.5998   1.1028430682e+02  -5.1394073658e+00    0.1802363    0.1044448 -30.83 0.0009295989    1.900    0.474
        61  -8.1879     15.3718    229.3067   1.4885470671e+02   2.6262656822e+01   0.08614449   0.07600437 -61.89 0.0004387424    1.763    0.433
        62  -8.8598    162.5260    227.8740   1.2218670220e+02   5.8843903984e+00    0.3361211     0.182389  56.32  0.001645068    2.110    0.526
        63  -8.8376    128.2052    227.5330   1.2856191513e+02   1.1584963246e+01    0.2692449    0.1679121  66.51  0.001134293    1.840    0.457
        64  -8.3490    119.8948    227.4296   1.3010869679e+02   1.2925351830e+01    0.2245171    0.1467643  80.19  0.001268047    1.939    0.484
        65  -8.5943      8.2928    227.9535   1.4993675071e+02   2.7200850100e+01    0.1676771   0.05015081  78.62 0.0007027143    4.136    0.758
        66  -7.8583    223.4496    226.5235   1.1101124021e+02  -3.9275992931e+00    0.2072834    0.1128014 -27.30 0.0008376975    2.050    0.512
        67  -9.3765    225.5579    221.8317   1.0987678422e+02  -3.6845497398e+00    0.2546478    0.2121198 -19.21  0.001240412    1.316    0.240
        68  -8.7998    206.1508    226.1959   1.1398709510e+02  -1.1215596784e+00    0.2241312    0.1709252 -39.12 0.0008198932    1.610    0.379
        69  -8.2876     49.4295    227.2402   1.4296855183e+02   2.2868611954e+01    0.2083818   0.09479982  58.33  0.001192604    1.823    0.451
        70  -8.2205    200.0220    226.2671   1.1509165024e+02  -1.2934544952e-01    0.1698439    0.1380444  33.12  0.000593322    1.074    0.068
        71  -8.6727     94.3525    224.5030   1.3457272039e+02   1.7334587041e+01    0.4158605    0.1873714  63.56  0.001891271    2.752    0.637
        72  -8.7567    180.6792    224.3698   1.1831748497e+02   3.3537400906e+00    0.2098021    0.1782988  70.39 0.0006141082    1.512    0.339
        73  -8.8738    104.8915    224.0067   1.3254133209e+02   1.5843808363e+01    0.3165957    0.1841224  74.09  0.001532445    2.131    0.531
        74  -7.9443     38.4532    224.9533   1.4472439340e+02   2.4573936255e+01    0.1561905    0.0675448  76.47 0.0008075666    2.442    0.590
        75  -8.8370    216.5285    223.5489   1.1173085227e+02  -2.4597363949e+00    0.2152392    0.1963485 -72.62   0.00101044    1.739    0.425
        76  -9.0004    172.9359    223.0820   1.1956001202e+02   4.8501897255e+00    0.2452062    0.1772574 -61.80  0.000980744    1.927    0.481
        77  -7.8936    113.6481    223.8350   1.3086742572e+02   1.4521142511e+01    0.1550007    0.1080365 -80.96 0.0006147898    1.673    0.402
        78  -8.1652     59.6831    223.6730   1.4087462819e+02   2.2248222892e+01    0.2294675    0.1089595  80.60  0.001167917    2.497    0.600
        79  -9.3833    192.6420    221.5307   1.1568501493e+02   1.7435574022e+00    0.3000771    0.2408578  75.64  0.001218174    1.905    0.475
        80  -8.2923    140.4539    222.9876   1.2567030983e+02   1.0333728132e+01    0.1605531    0.1234503 -62.63 0.0007224168    1.556    0.357
        81  -9.1039    239.0541    221.3557   1.0749663529e+02  -5.7242659718e+00     0.250208    0.1630729 -21.14 0.0006051823    1.562    0.360
        82  -9.1895    159.9950    221.0385   1.2169184251e+02   7.3599815198e+00    0.4356647    0.2092525  57.93  0.001653473    2.896    0.655
        83  -7.7221      8.6450    222.6811   1.4963382610e+02   2.8114845274e+01   0.08814806   0.07340826 -62.70 0.0001390575    1.751    0.429
        84  -8.7449    202.7477    220.4149   1.1367301230e+02   2.0628387280e-01    0.1961258    0.1680828 -25.35 0.0006908821    1.330    0.248
        85  -9.1964    120.6066    219.5761   1.2903050325e+02   1.4157762481e+01    0.3967122    0.2197204  69.05  0.001889774    2.495    0.599
        86  -8.8011     82.7195    220.4671   1.3634643474e+02   1.9742756586e+01    0.3167579    0.1568289  69.39  0.001220859    2.422    0.587
        87  -8.1916     72.8690    220.5255   1.3819111856e+02   2.1096073812e+01    0.2244028    0.1282461  85.32 0.0007688522    1.886    0.470
        88  -8.3261     27.5677    220.8370   1.4634727657e+02   2.6534415445e+01    0.1935962   0.08389451 -72.53  0.001141394    2.131    0.531
        89  -9.3812    248.1768    217.6366   1.0534153277e+02  -6.6697247850e+00    0.3538507    0.2937452 -87.47  0.002073318    2.918    0.657
        90  -8.3816    209.9671    219.1776   1.1217626548e+02  -8.2429615798e-01    0.1735856    0.1537005  37.29 0.0005645354    1.241    0.194
        91  -8.4454    179.3778    218.1343   1.1760713579e+02   4.4886521712e+00    0.1543078     0.120209 -59.37 0.0009315191    1.718    0.418
        92  -9.1986    133.0228    216.2975   1.2620941661e+02   1.2693445114e+01    0.4539673    0.2656427  77.28  0.002023838    3.016    0.668
        93  -8.3836     62.3695    217.4492   1.3986688712e+02   2.3059337099e+01     0.271501    0.1233677  67.12 0.0009283787    2.393    0.582
        94  -8.8476     51.6118    217.4326   1.4184377636e+02   2.4415086991e+01     0.250118    0.1397298  83.92  0.001002202    1.712    0.416
        95  -8.6931    143.0603    216.6264   1.2430864244e+02   1.0951878281e+01      0.25001    0.1806569  78.88    0.0012003    1.795    0.443
        96  -7.9706    111.8054    217.2273   1.3044269660e+02   1.5974392628e+01    0.2054385    0.1092575  69.78 0.0008267636    2.665    0.625
        97  -8.4447    154.6554    215.3337   1.2188474781e+02   9.1859682872e+00    0.2001392    0.1557128 -69.81 0.0007675802    1.639    0.390
        98  -7.4849     18.3568    216.6735   1.4769105924e+02   2.8265298824e+01    0.1187694   0.05470359  65.30 0.0007044896    1.777    0.437
        99  -8.7562    232.2464    214.7558   1.0752659977e+02  -3.8669164770e+00    0.2163512    0.1856783 -12.17 0.0008316005    1.241    0.194
       100  -8.6422    185.6191    214.4680   1.1586157757e+02   3.9588405699e+00    0.2111708    0.1562833 -43.29 0.0005930529    1.604    0.376
       101  -8.8838     93.4964    214.3027   1.3365221930e+02   1.9317839874e+01      0.35489    0.1663076  64.35   0.00145901    2.660    0.624
       102  -9.4539     73.2979    212.1861   1.3732686013e+02   2.2603470020e+01     0.570151    0.2025756  60.51    0.0021841    3.796    0.737
       103  -8.4875    224.9126    212.4818   1.0840457340e+02  -2.3991512800e+00    0.2025662    0.1675759 -41.60 0.0007448625    1.581    0.367
       104  -9.7361    214.1085    211.2073   1.1009703899e+02  -4.4397763888e-01    0.4133799    0.3129177 -41.28  0.001811904    1.617    0.382
       105  -8.4695    161.6625    212.4728   1.2010617469e+02   8.4374741879e+00    0.2284123    0.1794109  79.39 0.0007677941    1.679    0.404
       106  -8.0455    106.5563    212.7936   1.3093441195e+02   1.7603404821e+01    0.1643088    0.1109863 -85.17 0.0009371481    1.703    0.413
       107  -8.8651    204.3776    211.1362   1.1184421336e+02   1.2130576516e+00    0.2286857    0.2073457 -68.78 0.0009108043    1.578    0.366
       108  -9.4308    175.4263    210.1764   1.1710160500e+02   6.3913032675e+00     0.370796    0.2650223  87.19  0.001423366    2.544    0.607
       109  -8.8092      5.8376    208.0423   1.4938797007e+02   3.1095005457e+01    0.2310404   0.08334716  74.35  0.001170253    2.684    0.627
       110  -8.2852    192.3267    210.4715   1.1395641790e+02   3.3868201461e+00    0.1895181     0.152473 -65.01 0.0006982479    1.805    0.446
       111  -8.8131    147.9583    210.4568   1.2247352639e+02   1.1155254898e+01    0.2688279    0.1905835  71.18  0.001242305    1.761    0.432
       112  -8.9406    116.3246    210.4011   1.2871361007e+02   1.6486922501e+01    0.3173099    0.2001071  74.41  0.001043244    1.965    0.491
       113  -9.2414    236.6712    208.0288   1.0559078164e+02  -3.7283419173e+00    0.3146802    0.2403688 -42.74  0.001386531    1.743    0.426
       114  -8.5526     85.6679    209.6942   1.3467602368e+02   2.1337176314e+01    0.2557239    0.1388431  69.59  0.001152654    2.078    0.519
       115  -8.7800    169.2811    216.1877   1.1921182975e+02   6.5247330781e+00    0.2422346    0.1927886 -69.54 0.0007336728    1.700    0.412
       116  -7.9908    126.3065    208.4797   1.2647745842e+02   1.5193354581e+01    0.1986884    0.1422227  87.69 0.0006493599    1.723    0.420
       117  -9.3816    246.4700    207.2703   1.0380150341e+02  -5.1780028068e+00    0.2386119    0.1938681 -16.42 0.0006107693    1.249    0.200
       118  -8.0530    156.4117    208.2067   1.2047747798e+02   1.0060019770e+01    0.1611793    0.1249732 -68.06 0.0006170654    1.627    0.385
       119  -8.1963    139.0477    208.0548   1.2388347980e+02   1.3108436768e+01    0.2025544    0.1439141  72.78 0.0006774177    1.702    0.413
       120  -9.2192     99.4179    206.1161   1.3154742468e+02   1.9963849235e+01    0.3418922    0.1983625  75.57   0.00138514    2.181    0.541
       121  -8.8980     56.3867    205.7464   1.3997633735e+02   2.6070845528e+01    0.3728316    0.1471605  55.83  0.001808128    2.346    0.574
       122  -9.3998    195.0363    203.6273   1.1229051082e+02   3.9310542877e+00     0.351303    0.3103471 -49.38  0.001096488    1.406    0.289
       123  -9.0625    192.4006    197.4682   1.1171242509e+02   5.3463928733e+00    0.3186606    0.2692364 -81.18  0.001287582    1.732    0.423
       124  -9.0425    183.8053    203.9177   1.1446957973e+02   5.8851902074e+00    0.2967924      0.24939  85.42  0.001086131    1.678    0.404
       125  -8.7286    131.2831    204.0433   1.2486173607e+02   1.5157239470e+01    0.3178702    0.2018916  85.24  0.001020187    2.454    0.592
       126  -8.2021    109.2102    205.2822   1.2947957624e+02   1.8583914678e+01    0.1794379    0.1284819  69.62 0.0006213795    1.390    0.281
       127  -7.7687     92.3413    205.6644   1.3290808946e+02   2.1126596570e+01    0.1348285   0.08081487  68.68 0.0007050773    1.759    0.432
       128  -9.5665    163.9160    203.0582   1.1819252167e+02   9.5906276623e+00     0.420849    0.2353688  56.76  0.001338638    2.083    0.520
       129  -9.4105    250.0558    201.6724   1.0219173907e+02  -5.0487711520e+00    0.3782625    0.1663154 -31.03  0.001578784    2.260    0.558
       130  -8.4841    211.0923    202.2042   1.0906922951e+02   1.3229692191e+00    0.2095889    0.1681549 -67.65 0.0006799788    2.030    0.507
       131  -7.5940     66.6670    203.3342   1.3775195071e+02   2.5218093734e+01    0.1308552   0.07381571  68.42 0.0007052229    1.734    0.423
       132  -8.6425     48.5707    202.1413   1.4116807121e+02   2.7742644650e+01    0.2946171    0.1337714  75.11  0.001164147    2.578    0.612
       133  -8.0642     41.3139    203.0065   1.4262657931e+02   2.8422517200e+01    0.1859343   0.07042252  83.21 0.0007026908    4.135    0.758
       134  -9.2831    243.0221    200.7099   1.0319044645e+02  -3.8168204293e+00    0.3080316    0.1698225 -28.97 0.0009280076    1.814    0.449
       135  -7.9336    228.2409    201.9734   1.0596266041e+02  -1.5646997679e+00    0.1551363    0.1006604 -29.70 0.0008803616    1.600    0.375
       136  -8.9128    140.3813    200.8489   1.2255306846e+02   1.4160930868e+01    0.3221181    0.2251641 -88.11  0.001272336    2.020    0.505
       137  -8.4504     80.0622    201.4932   1.3489752329e+02   2.3738045501e+01    0.2891339    0.1500335  71.54  0.001376259    2.360    0.576
       138  -7.9616    221.9848    201.1965   1.0692665351e+02  -4.0629561875e-01    0.1650186    0.1369633 -47.29   0.00069976    1.604    0.376
       139  -9.3364    237.1362    197.6029   1.0361954510e+02  -2.4585841411e+00    0.4149325    0.1730684 -33.60  0.001935172    2.450    0.592
       140  -8.7459    177.3716    199.4529   1.1495579669e+02   7.7569714202e+00    0.2563007     0.216626  82.29 0.0008144713    1.569    0.363
       141  -9.4221    149.4721    198.4837   1.2034601166e+02   1.2972764616e+01     0.394456    0.2652145 -79.97  0.001294194    2.303    0.566
       142  -8.9296    123.8694    199.2027   1.2567812096e+02   1.7316239611e+01    0.3003211    0.2085586 -89.40  0.001602541    1.826    0.452
       143  -9.3294    113.0316    198.5679   1.2781717922e+02   1.9245881032e+01     0.431206    0.2395639  73.59  0.001713721    2.772    0.639
       144  -9.0720     88.8329    198.7586   1.3280929880e+02   2.3002225120e+01    0.3475515    0.1982928  79.46  0.001372327    2.211    0.548
       145  -8.4497    202.1392    197.7059   1.0991709951e+02   3.5583040578e+00    0.2021413    0.1787928 -43.96 0.0006055811    1.369    0.270
       146  -9.0152     61.6322    197.2186   1.3815053153e+02   2.7101990765e+01    0.3679159     0.174026  69.06  0.001739037    2.469    0.595
       147  -8.3254     12.9986    198.0585   1.4756404557e+02   3.2359282771e+01    0.1893815   0.08984506  67.26 0.0009535735    1.791    0.442
       148  -8.6514    215.9335    195.6212   1.0699722834e+02   1.4226078731e+00    0.2120049     0.179103 -49.09 0.0006724091    1.544    0.352
       149  -8.9916    185.3823    194.9358   1.1261311913e+02   7.0272141498e+00    0.2705683    0.2190515 -80.58 0.0006974546    1.832    0.454
       150  -8.2320    132.9944    195.9965   1.2332895331e+02   1.6347480649e+01    0.2072329    0.1486473  74.29 0.0005956774    1.656    0.396
       151  -8.9387    224.3415    193.9135   1.0516974788e+02   2.0245463186e-01    0.3456462    0.1696748 -40.43  0.001657161    2.279    0.561
       152  -8.9800    160.8518    194.3463   1.1736976855e+02   1.1639469669e+01    0.2585329    0.1994404  89.06 0.0009404807    1.802    0.445
       153  -8.9081     44.1784    193.7412   1.4130526331e+02   2.9952963128e+01    0.4019919    0.1631514  65.09  0.001823481    2.809    0.644
       154  -9.5707    245.6858    193.4989   1.0140208564e+02  -3.3191160797e+00    0.2511106    0.1932586 -29.60 0.0009099099    1.386    0.278
       155  -8.6242     77.1070    193.8989   1.3465281413e+02   2.5681935046e+01    0.2297219    0.1643437  78.20 0.0006608982    1.302    0.232
       156  -8.1862    231.1534    194.2260   1.0402715878e+02  -1.0059676320e+00    0.1580622    0.1504529 -27.63 0.0006445561    1.358    0.264
       157  -8.0967    198.9227    191.9447   1.0947632068e+02   5.0207395152e+00    0.1896398    0.1626752  79.69 0.0005201564    1.651    0.394
       158  -7.8731    179.0299    191.9456   1.1332484625e+02   8.6905133985e+00    0.1940229    0.1598722  75.84 0.0004864564    1.591    0.371
       159  -8.5658    172.1751    191.7516   1.1465065260e+02   9.9966214324e+00     0.216742    0.1846582 -61.09 0.0008210354    1.410    0.291
       160  -9.1569    139.5315    190.5585   1.2112429570e+02   1.6209415997e+01    0.3936508    0.2648722 -82.94  0.001085346    2.175    0.540
       161  -7.5989    205.2976    191.6803   1.0822789973e+02   3.9017814485e+00    0.1206059    0.1063429  81.65  0.000371324    1.617    0.382
       162 -10.4706     91.8514    188.5821   1.3091948886e+02   2.4600999597e+01    0.8617808    0.2677598  51.67  0.003080522    3.523    0.716
       163  -8.2268     90.2007    181.8690   1.3038713032e+02   2.6246586121e+01    0.2440351    0.1674615 -37.21 0.0009279612    2.156    0.536
       164  -8.3501     21.4121    191.4146   1.4555991884e+02   3.2873163630e+01    0.2544468   0.08253507  58.43  0.001159579    3.005    0.667
       165  -8.9874    129.4572    188.7636   1.2295484871e+02   1.8346337688e+01    0.3281786    0.2110528  71.72  0.001128043    2.031    0.508
       166  -7.9656      6.2916    190.6379   1.4836181943e+02   3.4442590576e+01    0.1178405   0.05806239  69.97 0.0007027981    1.700    0.412
       167  -8.1823    237.0391    188.6295   1.0194708842e+02  -1.2374650770e+00    0.1988072    0.1640331 -31.23 0.0005217391    1.347    0.258
       168  -9.0186    216.6495    187.7861   1.0540023072e+02   2.4401496612e+00    0.3081535    0.2135904 -42.11  0.001026309    1.656    0.396
       169  -9.2850    156.0110    187.5507   1.1720162559e+02   1.3748536705e+01    0.3245163    0.2183571 -59.26 0.0008347274    1.787    0.441
       170  -8.3681    148.5748    189.1792   1.1901679397e+02   1.4823980600e+01     0.198073    0.1650037 -80.53 0.0006201927    1.415    0.294
       171  -9.8945    121.0274    186.9393   1.2446298978e+02   2.0174366341e+01     0.521961    0.2835587 -76.68  0.002140098    2.990    0.666
       172  -8.8779     34.3412    188.1792   1.4278895374e+02   3.2197464308e+01    0.3108973    0.1388225  75.78  0.001037158    2.485    0.598
       173  -8.9661    242.5854    188.2229   1.0092206696e+02  -2.1135096702e+00    0.1728186    0.1090223 -16.94 0.0006915213    1.595    0.373
       174  -8.7838    191.4091    187.2981   1.1005811141e+02   7.1491995214e+00    0.2719482    0.2258186 -72.89 0.0008586813    1.697    0.411
       175  -9.1651     54.8598    187.1150   1.3852448579e+02   3.0038301263e+01    0.3894108    0.1904804  70.95  0.001608871    2.340    0.573
       176  -8.7567    249.3642    185.6255   9.9285520317e+01  -2.8876754886e+00    0.2622101    0.1962147 -41.88 0.0009164269    1.664    0.399
       177  -8.0162    230.4984    187.0061   1.0277276542e+02   1.0888541370e-01     0.186361    0.1206998 -31.38  0.001021121    1.563    0.360
       178  -8.7716    164.7946    186.7059   1.1525110729e+02   1.2256932898e+01    0.2498622    0.1884915 -61.59 0.0007187103    1.620    0.383
       179  -9.2873    109.4738    185.9370   1.2678803203e+02   2.2330893093e+01    0.3782061    0.2429406  83.03  0.001227992    2.020    0.505
       180  -8.7752    182.9400    184.8591   1.1126469220e+02   9.1478492114e+00    0.2663981     0.194663 -48.53 0.0006752629    1.570    0.363
       181  -8.8615    210.4205    184.3197   1.0588330939e+02   4.0930507974e+00    0.2444235    0.2055194 -26.34 0.0007375405    1.237    0.192
       182  -8.8807    202.7987    184.6922   1.0738439370e+02   5.4430306312e+00    0.2415364    0.1855169 -51.52 0.0008052791    1.629    0.386
       183  -9.0804     66.6189    184.5196   1.3578613561e+02   2.9067546654e+01    0.3238895    0.1884919  69.16  0.001015942    1.760    0.432
       184  -7.8238     12.3449    185.6694   1.4691215634e+02   3.4901779295e+01     0.121763    0.0603797  67.38 0.0007050397    1.755    0.430
       185  -8.4847    224.1449    183.6934   1.0325867129e+02   1.7020369376e+00    0.2056813     0.171905 -35.72 0.0004790083    1.347    0.258
       186  -8.2921    196.9515    183.5660   1.0828559582e+02   6.7157124439e+00    0.2545584    0.1790237 -57.59  0.000921438    1.966    0.491
       187  -8.9659    174.2661    183.6504   1.1277615616e+02   1.1003306637e+01    0.2647564    0.2158295  84.10 0.0007794467    1.655    0.396
       188  -8.0673      1.8616    183.8243   1.4879732693e+02   3.6190817331e+01    0.1537233   0.09202339  64.47 0.0008293997    1.368    0.269
       189  -8.7622    241.7333    182.4814   9.9954381266e+01  -1.1906162874e+00    0.3314742    0.2363843  82.61  0.001397579    4.124    0.758
       190  -9.0982     44.2315    182.3839   1.4026550076e+02   3.2303629999e+01    0.2994757     0.161497  79.91 0.0009333607    1.879    0.468
       191  -9.2650    147.5833    180.2413   1.1769454204e+02   1.6688542046e+01     0.393502    0.2743461 -63.65  0.001216185    1.709    0.415
       192  -7.6934     83.3320    182.6136   1.3197552716e+02   2.7121072900e+01    0.1428925   0.08576129  72.89 0.0007005199    1.883    0.469
       193  -8.1917    235.5407    180.8196   1.0068989322e+02   1.0634664530e-01    0.2519807    0.1197459 -28.45  0.001158551    2.162    0.537
       194  -9.3805     25.5616    178.9241   1.4380489743e+02   3.5037709789e+01    0.6017429    0.2183982  78.25  0.002258417    4.279    0.766
       195  -8.5966    137.5006    179.1887   1.1966998877e+02   1.8766887659e+01    0.2984006    0.2112189 -86.18  0.001093285    1.926    0.481
       196  -9.2477    191.6117    178.4837   1.0834544426e+02   8.5673751047e+00    0.2946851    0.2342591  62.27 0.0006019628    1.522    0.343
       197  -8.0617    169.7063    178.9292   1.1282973050e+02   1.2714850556e+01    0.2105559    0.1602234 -83.13  0.001048517    1.928    0.481
       198  -9.0024     35.8390    176.7944   1.4149734014e+02   3.4423914910e+01    0.4594093    0.1811855  83.15  0.001780354    3.798    0.737
       199  -9.5676    248.4337    176.4594   9.7640300234e+01  -1.4996547726e+00    0.4188221    0.2698938 -43.84  0.002263265    1.895    0.472
       200  -8.4983    250.5087    172.8344   9.6571644829e+01  -1.3532450898e+00    0.2309853    0.1423837 -32.72 0.0006437279    1.567    0.362
       201  -8.5386    217.6151    177.3850   1.0320037726e+02   3.8313912290e+00    0.2356835     0.197708 -60.88 0.0007807128    1.660    0.398
       202  -8.4073    205.4372    177.9094   1.0557002437e+02   6.0258362675e+00    0.2366971     0.191904 -51.44   0.00099473    1.516    0.340
       203  -8.5231    129.2128    177.4799   1.2117884935e+02   2.0618843841e+01     0.295849    0.1974761  81.68  0.001020292    2.118    0.528
       204  -9.0099     89.0415    177.1264   1.2999372564e+02   2.7426688496e+01    0.2770638    0.1758544  75.30 0.0008566112    1.792    0.442
       205  -8.4786    231.0641    176.9209   1.0069751187e+02   1.4560749695e+00    0.2176787    0.1620565 -45.58 0.0006700699    1.643    0.391
       206  -8.9974    183.0300    175.8972   1.0954526468e+02   1.0668936062e+01    0.2974601    0.2202908 -49.82 0.0006177998    1.540    0.350
       207  -9.3839    104.4523    174.9729   1.2625049176e+02   2.5431931578e+01    0.4960591     0.269383  69.53  0.001978593    2.723    0.633
       208  -8.0482     97.2742    177.6079   1.2823908003e+02   2.6040275322e+01    0.1784664    0.1235335  33.55 0.0009455022    1.622    0.383
       209 -10.0258     57.4392    173.4532   1.3651349122e+02   3.2626208056e+01    0.7634579    0.3345984  78.65  0.002728338    4.211    0.763
       210  -8.8433     12.8073    176.3994   1.4619207719e+02   3.6771013074e+01    0.2708186    0.1149354  84.17  0.001215322    2.283    0.562
       211  -9.2794    158.9237    175.0278   1.1434709335e+02   1.5517303933e+01    0.3938505     0.281812  88.37  0.001278335    2.167    0.539
       212 -10.7523     75.9704    169.4762   1.3187731919e+02   3.1011000301e+01     1.271494     0.466293 -70.07  0.004842634    3.184    0.686
       213  -8.3585    224.4781    174.4332   1.0136706633e+02   3.0167671528e+00    0.2174718    0.1204661 -44.72 0.0009669071    2.124    0.529
       214  -9.3421    175.6776    172.2811   1.1033210009e+02   1.2749812759e+01    0.3406306    0.2459887 -38.18  0.001131781    1.482    0.325
       215  -8.2754    142.9581    172.9415   1.1738742508e+02   1.8979772924e+01    0.2211394    0.1658196  77.17 0.0006598327    1.654    0.395
       216  -8.4112    134.8130    172.0518   1.1901228584e+02   2.0686598323e+01    0.2153389    0.1822736  79.33 0.0006666347    1.260    0.207
       217  -9.6104    121.3868    170.4966   1.2172970972e+02   2.3456332768e+01    0.3704147     0.266094 -89.98  0.001061634    1.718    0.418
       218  -9.2124     45.0080    170.8044   1.3894847727e+02   3.4695806262e+01    0.3842972    0.1884447  88.55  0.001419537    2.271    0.560
       219  -9.1800    230.2636    170.3983   9.9521050110e+01   2.5636532796e+00    0.2754009    0.1678967 -32.65 0.0007973968    1.616    0.381
       220  -8.4838    205.9417    170.5202   1.0399527793e+02   7.1238737140e+00    0.2513433    0.1909233 -55.32  0.001132478    1.695    0.410
       221  -8.4774    237.1538    169.7196   9.8184218112e+01   1.4172656553e+00    0.2164232    0.1736692 -37.83 0.0008937102    1.378    0.274
       222  -8.6070    198.4111    170.2729   1.0539053491e+02   8.6282539287e+00    0.2176272    0.1737779  67.69   0.00074054    1.636    0.389
       223  -8.2671    149.8578    169.7504   1.1529877751e+02   1.8286856453e+01    0.2492798    0.1819809 -86.00 0.0007396095    1.929    0.482
       224  -8.2441    244.4708    168.9893   9.6793519510e+01   2.2573114662e-01     0.191457    0.1183802 -31.27 0.0005807378    1.544    0.352
       225  -8.9946    167.1995    168.6794   1.1138640582e+02   1.5088231233e+01    0.2764215    0.2222411  84.44 0.0008260811    1.634    0.388
       226  -8.4252     88.6681    168.6305   1.2886450142e+02   2.9315480415e+01    0.2943688    0.1696732  80.53  0.001288791    2.431    0.589
       227  -8.3410    219.0564    168.3444   1.0110777910e+02   4.9626579151e+00    0.1872977    0.1678273  28.82 0.0005268671    1.114    0.102
       228  -7.8883    211.3988    168.2246   1.0249748818e+02   6.4439536205e+00     0.186289    0.1267463 -46.10 0.0005180038    1.684    0.406
       229  -8.6678    111.6672    167.5672   1.2343546268e+02   2.5783710450e+01    0.3449637     0.200419  72.14  0.001337028    2.570    0.611
       230  -8.7033    191.8499    166.6135   1.0593136319e+02   1.0547642277e+01    0.2522329    0.2005893 -45.84  0.000579463    1.381    0.276
       231  -8.7861    185.0380    166.5917   1.0728980204e+02   1.1910687226e+01    0.2569428    0.1953289 -57.41 0.0007726507    1.605    0.377
       232  -9.9659    136.8293    164.5684   1.1719972779e+02   2.1830543050e+01    0.6396384    0.3277033  59.96  0.002411265    2.636    0.621
       233 -10.1624     94.9939    163.0064   1.2654142220e+02   2.9553698769e+01    0.8259085    0.4220172  75.46  0.002743053    4.257    0.765
       234  -8.7407     20.5436    166.3281   1.4381457634e+02   3.8201582065e+01    0.3169289    0.1355479  64.05  0.001424089    2.453    0.592
       235  -8.3493    233.9649    164.9738   9.7756299898e+01   2.6972922756e+00    0.1919728    0.1637674 -59.72 0.0005918951    1.622    0.383
       236  -8.6496    159.3493    164.2594   1.1218419565e+02   1.7491913784e+01    0.2563436    0.2200451  81.10 0.0007254304    1.355    0.262
       237  -9.2593     33.6024    163.4198   1.4070635484e+02   3.7553318302e+01    0.5068685    0.1734167  55.90  0.002101311    3.334    0.700
       238  -9.5166    246.0769    162.2628   9.5138106193e+01   9.0668044396e-01    0.4624153    0.1748446 -36.43  0.001920301    2.519    0.603
       239  -8.3973    239.8290    164.2123   9.6591743479e+01   1.7423678417e+00    0.1881188    0.1732902 -20.98 0.0005054438    1.194    0.162
       240  -8.6566    213.0349    163.7685   1.0126713305e+02   6.8479729110e+00    0.2642841    0.2205583 -53.60  0.000840585    1.475    0.322
       241  -8.5244     57.0029    164.0205   1.3549704376e+02   3.4751933307e+01    0.3220029    0.1708843  19.83   0.00140441    3.369    0.703
       242  -8.5566    204.9537    162.9364   1.0261670938e+02   8.5714676357e+00    0.2434047    0.1864622 -42.53 0.0006917854    1.405    0.288
       243  -9.2235      3.4927    162.4461   1.4711492092e+02   4.0490564834e+01    0.3624266    0.1465087  56.26  0.001544988    2.341    0.573
       244  -8.9869    177.5476    160.6782   1.0760523789e+02   1.4495592211e+01    0.3019491    0.2463533  83.65    0.0010997    1.626    0.385
       245  -8.5998    151.3944    160.8883   1.1324803210e+02   1.9739042130e+01    0.2701706    0.2143061 -82.70  0.000935247    1.578    0.366
       246  -8.7739     60.6621    160.4339   1.3420018028e+02   3.5088348311e+01     0.344245     0.180924  72.37  0.001226114    2.427    0.588
       247  -9.6651    250.2329    157.8367   9.3530103580e+01   8.0662293638e-01     0.346724    0.1658359 -33.54 0.0008030749    1.942    0.485
       248  -8.6395    227.4725    159.2254   9.7685571878e+01   4.7892234062e+00    0.2851418    0.2028668 -55.05  0.000884768    1.927    0.481
       249  -8.6177    237.0998    159.0684   9.5977891503e+01   3.0057950042e+00    0.1970637    0.1646952 -60.86 0.0009660443    1.671    0.401
       250  -8.6441    196.6511    158.2009   1.0322314323e+02   1.1046332705e+01       0.2325    0.2178129 -67.34 0.0006503141    1.267    0.211
       251  -8.4170    128.1359    158.7684   1.1808477655e+02   2.4683603689e+01    0.2462536    0.1911774 -72.96 0.0006860676    1.422    0.297
       252  -9.6142    105.8815    157.8380   1.2311912907e+02   2.8885789461e+01    0.4946795    0.3502105 -85.20  0.001166094    1.642    0.391
       253  -8.4115    188.0413    158.0260   1.0490024141e+02   1.2834057249e+01    0.2119503    0.2079219  34.40 0.0004935603    1.087    0.080
       254  -9.1999    167.5399    157.2819   1.0900408386e+02   1.7182481531e+01    0.3452893     0.267132 -82.07  0.001075512    1.787    0.440
       255  -8.4600    217.9899    156.5924   9.8828873842e+01   7.0430515690e+00    0.2603064    0.1828227 -49.11  0.000889666    1.686    0.407
       256  -8.9967    157.4162    156.0933   1.1095004643e+02   1.9482502813e+01    0.2926736    0.2202696 -72.07 0.0007969497    1.699    0.411
       257  -9.3446    119.6403    155.5245   1.1945211460e+02   2.6953114282e+01    0.4165691    0.2738306 -83.96  0.001609696    2.130    0.530
       258  -9.3937     49.8297    155.5176   1.3611472548e+02   3.7522931383e+01    0.4271969    0.2075192  67.68  0.001606798    2.623    0.619
       259  -8.7406    144.7267    155.0900   1.1357209190e+02   2.2239581232e+01    0.3381012    0.2415815  76.64  0.001061892    1.886    0.470
       260  -9.5198     81.5840    154.7895   1.2842398375e+02   3.3460817671e+01    0.4775097    0.2600657  66.30  0.001562958    2.400    0.583
       261  -8.7505    242.6411    154.8789   9.4152482071e+01   2.6107464988e+00    0.1991317    0.1794924 -45.20 0.0003662774    1.340    0.254
       262  -9.1265    239.7141    153.3375   9.4312688610e+01   3.3839730559e+00    0.2474754    0.1715193 -51.96 0.0006287904    1.892    0.471
       263  -7.7422    204.5999    155.4981   1.0109985552e+02   9.8995564099e+00    0.1387684    0.1325582  -1.92 0.0001587794    1.063    0.059
       264  -9.6824    132.8063    153.1155   1.1590724239e+02   2.4990632178e+01    0.4588563    0.3304726  78.22  0.001350668    1.800    0.444
       265  -9.4011    133.4885    148.4974   1.1481464913e+02   2.5838813351e+01    0.3923299    0.2469408 -44.94  0.001806272    1.661    0.398
       266  -9.7384     68.0898    153.7819   1.3152643774e+02   3.5608365055e+01    0.4395721    0.2436646  69.55  0.001549033    2.266    0.559
       267  -8.0086    232.6113    153.7738   9.5618788362e+01   4.6567346689e+00    0.1888985    0.1202912 -41.88 0.0004641429    1.658    0.397
       268  -8.1975    151.7905    152.8501   1.1152276339e+02   2.1276209669e+01     0.201845    0.1730973  86.24 0.0007723504    1.340    0.254
       269  -7.6762     60.2810    153.3126   1.3334001632e+02   3.6741900282e+01    0.1217171   0.09440475 -44.39 0.0002403151    1.569    0.363
       270  -8.2537    182.6289    151.6502   1.0463057664e+02   1.5117838101e+01    0.2681752    0.1677935 -60.54 0.0009543632    2.263    0.558
       271  -9.5813     29.4488    150.8245   1.4035821978e+02   4.0761920597e+01    0.4178017    0.1889793  69.89  0.001889608    2.760    0.638
       272  -8.2235      3.2158    151.2897   1.4635560121e+02   4.2903474136e+01    0.2238365   0.06845922 -74.07  0.001045271    2.471    0.595
       273  -9.6275    248.8680    149.4043   9.1957371801e+01   2.2809439808e+00    0.3557662    0.2037818 -35.02 0.0007516762    1.633    0.388
       274  -8.8396    247.0344    144.0084   9.1082997421e+01   3.4221269235e+00    0.2332671    0.1746916 -26.55 0.0004735341    1.216    0.178
       275  -8.5611    243.3057    149.8352   9.2958887061e+01   3.2423835930e+00     0.294897    0.1657189 -36.61  0.001129057    1.700    0.412
       276  -8.9125    189.5006    150.4281   1.0296178251e+02   1.3904223419e+01    0.2789188    0.2459766 -78.81 0.0007676469    1.409    0.290
       277  -8.2177    162.3228    150.9164   1.0878412879e+02   1.9498959292e+01    0.2026992    0.1903574 -38.37 0.0005920739    1.103    0.094
       278  -8.7768     98.4130    150.8179   1.2367728603e+02   3.1703846750e+01    0.2711083    0.2023231  81.04 0.0009095072    1.483    0.326
       279  -8.2321    212.9014    150.1078   9.8355115303e+01   9.1278751644e+00     0.201707    0.1929815 -55.80 0.0004360962    1.224    0.183
       280 -10.0267     39.9430    148.0975   1.3756125061e+02   4.0307702033e+01    0.5088515    0.2550281  75.73   0.00191238    2.515    0.602
       281  -8.5047    198.8786    149.0925   1.0080417910e+02   1.2185265485e+01    0.2137025    0.1972516 -78.54  0.000629281    1.314    0.239
       282 -10.0845     89.1913    146.3199   1.2515450968e+02   3.4213946963e+01    0.6539018    0.3657826 -89.47  0.002474382    3.009    0.668
       283  -9.2542    233.4983    147.6917   9.4142604483e+01   5.4325349678e+00    0.2590689    0.1841265 -29.61 0.0006807878    1.329    0.248
       284  -9.1418     78.1661    147.1572   1.2803865296e+02   3.5698827951e+01    0.3343674    0.2081919  86.92  0.001038286    2.006    0.502
       285 -10.7911     54.8165    143.5487   1.3331228143e+02   3.9652582764e+01    0.9465563    0.4953041 -81.64  0.002887264    2.096    0.523
       286  -8.2151    223.2667    146.9666   9.5772091094e+01   7.5595830554e+00    0.1928565    0.1740633 -12.70 0.0002869116    1.040    0.038
       287 -10.2334    148.9699    145.0023   1.1049051778e+02   2.3458545375e+01    0.5989207    0.4071615 -78.61  0.001665875    2.255    0.557
       288  -8.6467    151.1691    136.0218   1.0798328997e+02   2.4855164778e+01    0.3880524    0.2356819  24.47  0.001509152    2.423    0.587
       289  -9.7764    139.0564    145.0095   1.1278197406e+02   2.5474926474e+01    0.4629674    0.3082579 -72.32  0.001295239    2.041    0.510
       290  -9.1418    140.2350    137.1850   1.1079804629e+02   2.6893301922e+01    0.4366504    0.2943493  -2.02  0.001669198    2.866    0.651
       291 -10.2952    106.5923    143.9510   1.2039493540e+02   3.1847218343e+01    0.7726814    0.4576901 -84.07   0.00242376    2.775    0.640
       292  -9.1206     13.6030    146.5343   1.4361389743e+02   4.3132702987e+01    0.2935638    0.1352015  55.92  0.001137417    2.223    0.550
       293  -8.1421    240.9967    137.9780   9.0731896101e+01   5.4900753454e+00    0.1855953    0.1630656 -53.34 0.0008130324    1.358    0.264
       294  -8.0348    243.6941    140.3097   9.0810279588e+01   4.6126234767e+00    0.2191042    0.1276791 -35.84 0.0005299069    1.604    0.377
       295  -8.6406    240.3713    145.2760   9.2451902491e+01   4.4866977087e+00     0.223467    0.1779794 -27.25 0.0005525525    1.169    0.144
       296  -7.8132    242.6944    143.3381   9.1642230286e+01   4.3409319151e+00    0.1903177     0.121999 -22.65 0.0005895702    1.521    0.342
       297  -8.0045    206.7862    146.3990   9.8680028630e+01   1.1011367745e+01    0.1877547    0.1812069 -37.95 0.0006201705    1.136    0.120
       298  -8.2357    175.6384    146.1954   1.0488667510e+02   1.7617854928e+01    0.2200351    0.1826724 -62.46 0.0006269933    1.393    0.282
       299 -10.1165    124.8991    143.4873   1.1582458838e+02   2.8583314647e+01     0.646162     0.330403 -60.93  0.002550092    2.326    0.570
       300  -8.8321    165.5248    144.0390   1.0657895831e+02   2.0185202596e+01    0.3063104    0.2359757  64.72 0.0007969909    1.485    0.327
       301 -11.0392     68.9092    140.2457   1.2924342884e+02   3.8597333616e+01    0.8606603    0.3815579 -60.72   0.00351756    2.031    0.508
       302  -7.6687    194.3195    143.7169   1.0049724426e+02   1.4102578313e+01    0.1409616    0.1182538 -87.81   0.00035887    1.587    0.370
       303  -9.1586      2.8396    142.0461   1.4570164965e+02   4.4943818781e+01    0.3050997    0.1426087  72.13  0.001463065    2.198    0.545
       304  -7.8011    228.6854    148.6961   9.5196622021e+01   6.2109077028e+00    0.1427649    0.1018554   8.39  0.000405761    1.619    0.382
       305  -8.2851    182.0846    141.8837   1.0256437138e+02   1.7057685708e+01    0.2217597    0.2013367 -83.21  0.000535775    1.291    0.225
       306  -8.3831    250.5116    141.0597   8.9882066464e+01   3.2152721160e+00    0.2000126    0.1203436 -31.67 0.0006011598    1.511    0.338
       307  -9.7378     23.5514    138.4101   1.4042158716e+02   4.4103429897e+01    0.4785357    0.2232007  68.49  0.001964138    2.645    0.622
       308  -8.1999    218.5159    138.8934   9.4808403119e+01   9.8545463686e+00     0.212261    0.1353905 -34.29 0.0005164379    1.516    0.340
       309  -8.6823    172.4296    138.4632   1.0381723164e+02   1.9797408290e+01    0.3144785    0.2235948 -82.68 0.0008326697    2.270    0.559
       310  -7.6103    235.2712    138.6591   9.1835113085e+01   6.5041292432e+00    0.1342604    0.1063643 -57.76  0.000277364    1.608    0.378
       311  -8.3868    207.6564    138.1747   9.6646506809e+01   1.2250995867e+01     0.224602    0.1775104 -52.28 0.0007225754    1.436    0.303
       312  -8.7749    197.5275    137.5883   9.8458061052e+01   1.4519733320e+01    0.2817877    0.2266228 -52.72 0.0009194833    1.387    0.279
       313 -10.4928     83.4279    132.6092   1.2413110502e+02   3.8258663142e+01     0.734746    0.3623748 -59.27  0.001888102    1.904    0.475
       314  -8.6775     84.3047    123.0429   1.2200753867e+02   4.0335512814e+01    0.3246756    0.2517433 -10.45  0.001472348    1.868    0.465
       315  -8.5268    162.7832    136.6264   1.0549822076e+02   2.2246939845e+01    0.2743179    0.1947586 -72.16 0.0008878642    1.974    0.493
       316  -9.5388     39.1407    136.2530   1.3625921548e+02   4.3096671083e+01    0.2681693    0.1788984  79.01 0.0009789725    1.518    0.341
       317  -9.1124    250.7391    130.1748   8.7432973869e+01   4.8062019347e+00    0.4505753    0.1163399 -33.88  0.001478957    3.491    0.714
       318  -9.1358    248.3007    135.3609   8.8972676213e+01   4.4869337741e+00    0.3040736    0.1976143 -32.47 0.0007318946    1.401    0.286
       319  -8.4858    246.8734    130.5307   8.8115530283e+01   5.4961781520e+00    0.2586764    0.1686768 -42.82 0.0005833044    1.554    0.357
       320  -7.3492    192.3309    136.6834   9.9276382274e+01   1.5807751848e+01    0.1482058      0.11984 -82.00  0.000704672    1.684    0.406
       321  -8.2101    187.7235    135.5375   9.9937601754e+01   1.7022486496e+01    0.2627124      0.13054 -39.20 0.0006154517    2.019    0.505
       322 -10.0967    132.3400    131.4591   1.1140159041e+02   2.9731495418e+01    0.6126621    0.3951352 -82.27 0.0009450872    2.646    0.622
       323  -9.2198    112.9245    133.2998   1.1664034253e+02   3.3094478872e+01    0.3854158    0.2679751  89.21  0.001010824    1.984    0.496
       324  -8.0088    237.5571    133.7505   9.0345884775e+01   6.8246553059e+00    0.1939724    0.1211552 -43.16 0.0009316356    1.643    0.391
       325  -8.6682    179.5071    133.8529   1.0123838043e+02   1.9141080988e+01    0.2835754    0.2359426 -79.82 0.0007743461    1.517    0.341
       326  -9.4024    142.9971    131.5208   1.0885278694e+02   2.7519746738e+01    0.4226674    0.2739081 -63.03 0.0007963242    1.886    0.470
       327 -10.4829     98.2247    130.1508   1.1976061230e+02   3.6424205395e+01    0.6961794    0.3105398 -59.25  0.001764972    2.314    0.568
       328  -9.0579     99.0262    120.7939   1.1753572454e+02   3.8421772856e+01    0.5772588    0.3510097  12.87  0.002120896    3.392    0.705
       329  -7.9789    204.8041    130.7551   9.5451537462e+01   1.4161047077e+01    0.2001603    0.1732993 -65.88 0.0004916592    1.379    0.275
       330  -8.5858    122.0830    130.8601   1.1380085534e+02   3.1899278095e+01    0.2161219    0.2081927 -80.67 -0.0006383859    1.008    0.007
       331 -10.0636    117.7913    125.2615   1.1361975885e+02   3.3969898946e+01    0.5724603    0.3744544  84.37  0.001434865    2.546    0.607
       332 -10.1369     73.3042    128.8082   1.2610775374e+02   4.0637715071e+01    0.5826828    0.2890075 -66.16  0.001543335    2.008    0.502
       333  -9.6845     71.0839    119.8710   1.2501136782e+02   4.3030614866e+01    0.4598303    0.2855166  89.77   0.00199366    2.237    0.553
       334  -9.7730     12.8780    129.2432   1.4207429301e+02   4.7051276640e+01      0.47315    0.2233293  78.08  0.001981957    2.476    0.596
       335  -9.7400    235.0195    128.8677   8.9649315641e+01   8.1072497931e+00    0.2953048    0.2156244 -21.81 0.0008436874    1.329    0.248
       336  -8.2218    220.5336    129.9930   9.2390315801e+01   1.0921398440e+01    0.2164331    0.1357199 -33.62 0.0005077689    1.527    0.345
       337  -8.3884    211.8231    129.4742   9.3838630813e+01   1.2865681140e+01    0.2887325    0.1778406 -50.81 0.0009701473    1.892    0.472
       338  -8.2355    192.8880    130.1438   9.7620573893e+01   1.6883528685e+01    0.2256288    0.2018884 -72.30 0.0005234765    1.306    0.234
       339  -9.1989    168.4177    129.4418   1.0256207720e+02   2.2445711906e+01    0.3003122    0.2572758 -85.96 0.0002065902    1.400    0.286
       340  -9.4893    152.8148    128.4731   1.0583658484e+02   2.6062135883e+01    0.5925914    0.2742244 -48.53  0.001818664    2.253    0.556
       341  -7.8276      1.5226    130.4786   1.4500808949e+02   4.7582320533e+01    0.1160278   0.08696123 -86.38 0.0008096398    1.033    0.032
       342 -10.8833     59.8784    123.7293   1.2883146932e+02   4.3623766630e+01     1.071983    0.5202985 -74.43  0.003769203    2.369    0.578
       343 -10.6192     44.9787    123.7754   1.3291441262e+02   4.5362183088e+01     1.026758     0.504339  78.68  0.003875376    3.711    0.731
       344  -8.3264    228.4442    125.7081   9.0016570988e+01   9.9699524198e+00    0.2649902     0.127939 -38.53 0.0009229635    1.956    0.489
       345  -8.7573    179.1937    124.7671   9.9116127457e+01   2.0948339575e+01    0.2753271    0.2265646 -71.99 0.0007780265    1.483    0.326
       346 -10.1296     28.2479    122.1932   1.3721401613e+02   4.7385670051e+01    0.7317597    0.3276013  81.90  0.002802583    3.772    0.735
       347  -8.5992     27.6303    113.7313   1.3618378942e+02   4.9385852812e+01    0.1779982    0.1533829   9.88 0.0007205316    1.519    0.342
       348  -8.2050    188.5349    124.0672   9.7021413667e+01   1.8976366532e+01    0.2262587    0.1463706 -39.64 0.0005609649    1.532    0.347
       349  -9.9363    130.6732    118.6228   1.0877282967e+02   3.2850591504e+01     0.480627    0.3168149 -73.36  0.001194452    2.197    0.545
       350 -10.2957    133.3750    110.1382   1.0594828246e+02   3.4100769628e+01    0.6827523    0.3750379 -49.28  0.001941968    1.837    0.456
       351  -9.2479    158.7258    121.3237   1.0273621492e+02   2.6224612574e+01    0.4955046    0.3020518 -53.40  0.001460919    1.821    0.451
       352  -7.8641    203.3442    122.2192   9.3675505357e+01   1.5991912116e+01    0.2126608    0.1304574 -45.26 0.0004370782    1.679    0.404
       353  -7.6605    194.8013    122.0559   9.5280179776e+01   1.7935320819e+01    0.1979751    0.1160884 -38.21 0.0004356931    1.676    0.403
       354  -8.6214    171.9818    121.5753   9.9861686591e+01   2.3193766596e+01    0.2754177    0.2067279 -57.28 0.0004281794    1.497    0.332
       355  -7.7273    244.7054    120.3047   8.6120978597e+01   7.4999786994e+00    0.1343755    0.1047229 -59.31 0.0002751438    1.580    0.367
       356 -10.1641    141.5445    118.0802   1.0595838417e+02   3.0668592581e+01    0.6475611    0.3177533 -49.91  0.001121456    2.118    0.528
       357  -9.2360      2.9935    117.6474   1.4338080109e+02   5.0341978606e+01    0.4317356    0.1966836  74.36  0.002100345    2.668    0.625
       358  -9.8437    109.1182    114.2710   1.1330442222e+02   3.8070192889e+01    0.5268968    0.3310156 -70.86  0.001372103    2.128    0.530
       359  -8.9384    109.2065    107.6443   1.1163976291e+02   3.9526743698e+01     0.374593    0.2548687  11.91  0.001564631    2.366    0.577
       360  -7.9450    219.3083    116.6743   8.9429926616e+01   1.3421371643e+01    0.1466389    0.1134559 -66.18 0.0002910951    1.653    0.395
       361  -7.9050    185.5395    116.0146   9.5621406435e+01   2.1159282709e+01    0.2303398    0.1469886 -40.88 0.0005331623    1.550    0.355
       362  -8.2689    192.9106    115.2079   9.3945418954e+01   1.9614460678e+01     0.224607    0.2008827 -62.98 0.0005034657    1.228    0.186
       363  -7.7167    153.2866    115.6510   1.0255517131e+02   2.8593195202e+01    0.1571596     0.122152 -78.43 0.0005334438    1.658    0.397
       364 -10.0487     78.9118    112.6144   1.2129882409e+02   4.3573347969e+01    0.5501241     0.356392  87.39  0.001754901    2.292    0.564
       365  -8.9569     78.7014    105.2679   1.1970411537e+02   4.5292157103e+01    0.2967289    0.2206755  10.72  0.001006773    1.831    0.454
       366  -8.0516    167.4967    114.5056   9.9048669266e+01   2.5600667494e+01    0.1531666    0.1499771 -76.40 0.0008100782    1.054    0.051
       367 -10.1038     92.7237    112.4155   1.1735505469e+02   4.1411059526e+01    0.5353877    0.3207292 -69.83  0.001301586    2.069    0.517
       368  -8.9846     92.9955    104.9797   1.1549730277e+02   4.3049104123e+01     0.515168    0.2894557  19.42  0.001916817    3.176    0.685
       369  -8.3611    174.8865    112.2312   9.6865723855e+01   2.4337480981e+01    0.2761856    0.2028798 -51.13 0.0007800533    1.438    0.305
       370 -10.0839    121.8697    112.1399   1.0940529269e+02   3.6057637610e+01    0.4350829    0.2803192 -65.20 0.0007996695    1.919    0.479
       371  -8.5655    159.3034    112.0113   1.0023279931e+02   2.7970101007e+01    0.2629791    0.2167555  86.82 0.0006125059    1.484    0.326
       372 -10.3048     66.4227    110.2980   1.2440016922e+02   4.5895202716e+01    0.5520013     0.328471 -68.97  0.001921739    1.711    0.416
       373  -9.3702     14.0408    111.2396   1.3964336950e+02   5.1038439491e+01     0.313641    0.1819113  74.97  0.001317663    1.949    0.487
       374  -9.2635     43.1040    109.6300   1.3107929891e+02   4.8846492985e+01    0.2933027    0.1651903  16.46  0.001432148    2.571    0.611
       375 -10.7786    248.9541    108.3076   8.2694513724e+01   8.4927161276e+00    0.6339962    0.3086815 -43.85   0.00275812    2.018    0.504
       376  -9.4047    139.8493    104.6052   1.0287269806e+02   3.3856171306e+01    0.4096594    0.2992839 -76.43  0.001070562    1.880    0.468
       377 -10.4779     45.5846    102.3749   1.2899307896e+02   5.0258424815e+01    0.7533172    0.4176269  74.61  0.003154278    3.146    0.682
       378  -9.2731     46.2891     92.7603   1.2680544609e+02   5.2381907083e+01    0.4012726    0.2233699   9.93  0.001830005    2.901    0.655
       379 -10.5704     22.8067    102.6588   1.3589269470e+02   5.2325934984e+01    0.6863422    0.3501559  80.41  0.003027014    2.907    0.656
       380  -9.5948    150.6478    103.3023   9.9918950849e+01   3.1695175901e+01    0.5033341    0.3134013 -61.73  0.001312641    2.136    0.532
       381  -8.5390    166.7220    104.1692   9.6501161054e+01   2.7796498977e+01    0.2367662     0.204856 -60.35 0.0006743049    1.238    0.192
       382  -9.0647      6.7718    103.0976   1.4064502643e+02   5.3366727961e+01    0.2516027    0.1657564  71.51  0.001201635    1.650    0.394
       383 -10.3175    128.5922    101.6699   1.0491606613e+02   3.6909817970e+01    0.5545208    0.3614786 -39.69  0.001708732    1.538    0.350
       384 -10.6671    109.6123     99.3297   1.0935785580e+02   4.1270526844e+01    0.8446501    0.4838922  69.13  0.002909922    3.432    0.709
       385  -9.2097    108.8536     92.3295   1.0764418683e+02   4.2921208673e+01    0.5246655    0.2683938  27.67  0.001853326    3.056    0.673
       386  -8.0493    175.4648    102.2545   9.4113015710e+01   2.6098235626e+01    0.2189061    0.1431335 -49.56 0.0005885264    1.617    0.381
       387  -8.3763    159.7510    100.9608   9.7181511144e+01   3.0053803584e+01    0.2841322    0.2048893 -56.04 0.0005100596    1.538    0.350
       388  -9.2512     82.0680    100.0194   1.1745500328e+02   4.5962949428e+01    0.3388962     0.239193 -79.37 0.0007821284    1.803    0.445
       389  -9.4486     95.1062     96.3168   1.1267062954e+02   4.4611896635e+01    0.5948767    0.2336206 -48.78 0.0008779558    2.381    0.580
       390 -10.1628     63.8777     96.0080   1.2200928178e+02   4.9516691573e+01    0.5511708    0.3449831 -88.26  0.001542347    2.542    0.607
       391  -9.1841     64.8786     87.9638   1.1973466137e+02   5.1190646837e+01    0.5221471    0.2905094   1.29  0.001757648    4.778    0.791
       392  -8.1887    151.5411     95.5788   9.7574947511e+01   3.3024162024e+01    0.2949154    0.1842927  25.00  0.001127949    2.326    0.570
       393  -8.6073    189.0865    108.0291   9.2863132007e+01   2.1813457930e+01    0.2386404    0.1836517 -68.82 0.0005558011    1.629    0.386
       394  -8.3174    176.3717     93.2429   9.1468476566e+01   2.7554327658e+01    0.2798589    0.1874197 -46.44 0.0006849316    1.520    0.342
       395  -8.0144    164.6918     94.1392   9.4195392507e+01   3.0197052837e+01    0.2468048    0.1863176 -57.46 0.0005702814    1.473    0.321
       396  -9.4643    139.0355     92.0452   9.9579356945e+01   3.6593845503e+01    0.5108452    0.2985466 -50.39  0.001572946    1.821    0.451
       397 -10.5897    123.7699     91.2347   1.0325918533e+02   4.0107936096e+01    0.6819045    0.5522486 -10.01  0.002517938    1.485    0.327
       398  -8.3772    243.3095     93.3424   7.9963078796e+01   1.1967564054e+01    0.1422495    0.1067383   8.32 0.0007044634    1.695    0.410
       399  -9.2486      4.8946     92.0469   1.3970309862e+02   5.5951944547e+01    0.3040752    0.1674742  65.89  0.001245655    2.335    0.572
       400  -8.3502    249.3191     92.3033   7.8874601397e+01   1.0853034634e+01    0.1367094    0.1048356  10.92 0.0004136412    1.628    0.386
       401  -7.9699    157.8797     91.5786   9.4986505277e+01   3.2307235785e+01    0.2620595    0.1762205 -44.18 0.0006967233    1.487    0.327
       402  -9.3960     34.6850     89.7830   1.2990335052e+02   5.4229105742e+01    0.4062449    0.2247543 -82.22  0.001649503    2.306    0.566
       403  -8.0940    150.8617     89.1454   9.5898704803e+01   3.4432754967e+01    0.2408034    0.2079286 -70.49 0.0005734471    1.302    0.232
       404 -10.0430     86.5656     86.0480   1.1241661409e+02   4.8318663557e+01    0.6500738    0.4337811 -62.34  0.001200982    1.677    0.404
       405  -7.3655    206.7202     88.6742   8.4512752691e+01   2.1029429497e+01    0.1494458    0.1169093  10.34 0.0001978827    1.594    0.373
       406  -9.8236     48.3734     84.4206   1.2423884526e+02   5.4028162725e+01    0.4648885    0.2983328  84.80  0.001853989    2.515    0.602
       407  -8.8754    105.0120     77.4776   1.0436013690e+02   4.6748724191e+01    0.4854807    0.2392382  27.01  0.001628391    3.470    0.712
       408  -8.2631    157.8898     84.1005   9.2825440740e+01   3.3710022839e+01    0.2323642    0.2055933 -65.21 0.0003736744    1.222    0.181
       409  -9.1539    140.8476     82.5046   9.6330931161e+01   3.8043863450e+01    0.3770905    0.2154137 -45.39 0.0008466714    1.774    0.436
       410  -7.5600    185.3113     82.6820   8.6754525165e+01   2.7249178823e+01    0.1581849    0.1184838 -69.62 0.0007034704    1.642    0.391
       411  -9.0291     23.0276     90.3018   1.3374616630e+02   5.5111872959e+01    0.2834072    0.2194383   7.66  0.001238887    1.661    0.398
       412  -9.6927     24.6879     80.4771   1.3131436082e+02   5.7177874635e+01    0.4287555    0.2415943 -85.09  0.001450292    2.316    0.568
       413  -9.3161      9.7582     80.9976   1.3641975211e+02   5.8113756683e+01      0.29833    0.1752883  64.46  0.001235351    2.331    0.571
       414  -8.4868    150.1807     80.3429   9.3463674566e+01   3.6255042648e+01    0.3577804    0.1860175 -48.23  0.001140977    2.089    0.521
       415  -8.8943    119.2998     80.4049   1.0124646698e+02   4.3245376957e+01    0.3414067    0.2421562 -63.14 0.0009728856    1.762    0.432
       416  -8.9174     74.4619     80.4526   1.1464030462e+02   5.1456713190e+01    0.3075739    0.2211507 -68.21  0.001063858    1.637    0.389
       417  -8.6369    166.7996     79.7361   8.9615588519e+01   3.2331069129e+01    0.2613561     0.204986 -24.53 0.0006087489    1.352    0.261
       418  -9.2401     65.3837     78.1831   1.1697108205e+02   5.3263493550e+01    0.3080214    0.2095002 -58.00  0.001512412    1.425    0.298
       419  -9.8558     63.4023     73.6586   1.1635493355e+02   5.4503287020e+01    0.4253587     0.245478 -62.13  0.001320231    1.956    0.489
       420  -7.4632    184.2757     78.3349   8.5725779371e+01   2.8249054768e+01    0.1535702    0.1201487  12.10 0.0006418871    1.605    0.377
       421  -9.8725    104.6988     83.2258   1.0619395752e+02   4.5637684968e+01    0.4835695    0.3352496 -69.51  0.001193659    1.986    0.496
       422  -9.3926    128.0807     75.4892   9.7391925259e+01   4.2285317061e+01    0.3911973    0.2741875 -60.11 0.0006739342    1.751    0.429
       423  -8.4625    157.3608     76.2736   9.0618820456e+01   3.5260988905e+01    0.2202379    0.1390309 -44.78 0.0005369458    1.613    0.380
       424  -8.6509    140.3193     75.4171   9.4298390765e+01   3.9497296631e+01    0.2578746    0.1798206 -57.35 0.0007284098    1.689    0.408
       425  -9.9249     82.4304     71.8956   1.0953160521e+02   5.1981761289e+01    0.7542574     0.339621 -46.67  0.001950171    2.058    0.514
       426  -8.5717    163.2547     73.1178   8.8398575495e+01   3.4366844238e+01    0.2886524    0.1999285 -52.36 0.0008023374    1.578    0.366
       427  -8.9334    115.7326     72.9886   9.9908753556e+01   4.5446750750e+01    0.2647313    0.2002747 -55.21 0.0007254449    1.460    0.315
       428  -9.4238    105.9086     71.6405   1.0226101952e+02   4.7725466134e+01     0.429249    0.2017468 -47.78  0.001303588    2.197    0.545
       429  -9.3361     95.1869     71.1920   1.0531093775e+02   4.9877991693e+01    0.3936175    0.2310256 -56.48 0.0009109025    2.047    0.511
       430  -8.0392     42.5287     73.0077   1.2340657606e+02   5.7170636354e+01    0.1982346    0.1096762 -56.84  0.000490594    1.550    0.355
       431  -7.7572    175.4995     72.5306   8.5738287559e+01   3.1417624990e+01    0.1511424    0.1494029  21.42 4.102617e-05    1.032    0.031
       432  -8.4213     32.0508     68.4487   1.2599573618e+02   5.9179167174e+01    0.2156028    0.1616081 -23.81 0.0007343834    1.434    0.303
       433  -8.6661     28.1890     71.1999   1.2805799829e+02   5.8924810827e+01    0.3315763    0.1401516 -38.56  0.001208314    2.529    0.605
       434  -9.5884     51.3915     69.6210   1.1936149608e+02   5.6899103587e+01    0.4008644    0.2239755 -67.80  0.001328883    2.316    0.568
       435  -8.3172    151.3833     73.2305   9.1028620067e+01   3.7256221061e+01    0.2176154    0.1393703 -46.08 0.0005928827    1.615    0.381
       436  -8.9509    147.1842     68.5303   9.0525509376e+01   3.9099132732e+01    0.3071114    0.2575203 -55.33 0.0007717644    1.282    0.220
       437  -8.8316    138.6310     66.0100   9.1734578849e+01   4.1583424242e+01    0.3182566     0.213364 -52.89 0.0008103463    1.703    0.413
       438  -9.0173    121.5522     65.9777   9.6053689763e+01   4.5498153060e+01    0.3573345     0.234845 -54.38  0.001066768    1.801    0.445
       439  -7.3118    190.5271     66.5263   8.1231966222e+01   2.8623383270e+01    0.1474433    0.1468045  10.97 0.0008090711    1.044    0.043
       440  -9.0928    110.1035     63.8324   9.8489742933e+01   4.8344449129e+01    0.3505471    0.2188356 -47.24 0.0008187004    1.674    0.403
       441  -8.6674     64.5254     63.5965   1.1292451417e+02   5.6429144137e+01    0.3830044    0.2165225 -17.61  0.001550878    2.974    0.664
       442  -8.7462     37.2578     64.5497   1.2306447412e+02   5.9514311162e+01     0.247121    0.1917514  89.83 0.0008540168    1.745    0.427
       443  -7.3499    187.5033     63.5106   8.0892631818e+01   2.9859328162e+01    0.1507184    0.1438776 -69.24 -5.442047e-05    1.039    0.038
       444  -8.2422    158.2459     61.9760   8.6033975283e+01   3.7486518108e+01    0.2103554     0.194639 -38.72 0.0003218422    1.089    0.082
       445  -9.1455     16.6245     70.3019   1.3200135936e+02   6.0008208992e+01     0.264394    0.1747644 -81.64 0.0009095174    1.661    0.398
       446  -9.5820     97.7578     60.3802   1.0094179609e+02   5.1458570134e+01    0.4130026     0.306534 -28.61  0.001850098    1.324    0.245
       447  -9.6544     73.3629     59.6082   1.0855993614e+02   5.5893902808e+01    0.3710944    0.2307248 -53.91  0.000945679    1.749    0.428
       448  -7.4035    164.6425     59.7209   8.4022787067e+01   3.6244433205e+01    0.1584408    0.1141086  28.20 0.0007012109    1.661    0.398
       449  -8.3123    147.1551     59.1261   8.7528702988e+01   4.0693764941e+01     0.209284    0.1764951 -61.01 0.0005612643    1.322    0.244
       450  -9.8377     23.5184     56.6680   1.2615169863e+02   6.2388533693e+01      0.43145    0.2627003 -84.85  0.002148803    2.698    0.629
       451  -8.8788    130.7718     57.4413   9.0829411896e+01   4.4890661234e+01    0.3485084    0.1810734 -48.07 0.0009307732    2.216    0.549
       452  -9.3511      7.4291     57.3233   1.3258233005e+02   6.3350972579e+01    0.2797507    0.1897205  87.55   0.00136546    1.923    0.480
       453  -9.4258    119.1549     55.4462   9.3129878704e+01   4.7869470095e+01    0.5253353    0.2349783 -42.71  0.001687357    2.308    0.567
       454  -9.5651     54.3693     55.6913   1.1402380184e+02   5.9377942688e+01    0.3319882    0.2190066 -59.43  0.001022172    1.716    0.417
       455  -8.3566    139.9268     56.1971   8.8214988727e+01   4.2925117504e+01    0.2250213     0.201881 -67.72 0.0004915944    1.247    0.198
       456  -8.7053     44.0386     55.5554   1.1787116426e+02   6.0649044221e+01    0.2381403    0.1622092 -62.31 0.0007309944    1.628    0.386
       457  -9.1914    245.5839     54.1855   7.0186217975e+01   1.7195211333e+01    0.2408349     0.216113  42.56 0.0006479211    1.300    0.231
       458  -8.6409    105.8814     53.3712   9.6077657498e+01   5.1072976256e+01    0.2577091    0.1923492 -51.62 0.0006328782    1.528    0.346
       459  -9.5296     92.2904     50.5713   9.9149658956e+01   5.4255819127e+01     0.432516    0.2276473 -47.55  0.001145037    2.109    0.526
       460  -8.7486    144.7662     48.9487   8.4703875436e+01   4.2878609161e+01    0.2058338    0.1917416 -30.67 0.0006000872    1.094    0.086
       461  -8.0913    130.1775     49.1860   8.8147398524e+01   4.6358890002e+01    0.2027508    0.1728293 -59.82  0.000495067    1.349    0.259
       462  -9.0039    120.9919     47.3941   8.9812330694e+01   4.8761614550e+01    0.3028542    0.2071507 -30.38 0.0005416067    1.465    0.317
       463  -8.3638    112.1807     46.9564   9.1992859867e+01   5.0789975592e+01    0.2144818    0.1887085 -56.66 0.0005344124    1.321    0.243
       464  -9.1758     82.0705     46.4552   1.0091690754e+02   5.6840096358e+01    0.2962992     0.205078 -42.58 0.0006917816    1.445    0.308
       465  -8.4121     44.9994     44.8455   1.1391555781e+02   6.2616309908e+01    0.2155478    0.1582797 -45.43 0.0006270093    1.239    0.193
       466  -8.9382     16.7957     44.7984   1.2554269269e+02   6.5304426820e+01    0.2211485    0.1443559 -65.65 0.0008195534    1.587    0.370
       467  -8.8218    133.0056     43.5236   8.5496756345e+01   4.6541432346e+01    0.2760774     0.196556 -48.92 0.0007961743    1.577    0.366
       468  -8.3928     92.5970     43.0513   9.6241683345e+01   5.5450554175e+01    0.2748906    0.1669292 -20.10  0.001270766    1.849    0.459
       469  -8.9462     58.1431     42.6329   1.0798479463e+02   6.1318149223e+01    0.3081245    0.1931294 -58.02  0.001021307    2.173    0.540
       470  -9.4432     69.7168     41.0831   1.0311922566e+02   5.9841159282e+01    0.5313141    0.2527435 -44.82  0.001599746    2.120    0.528
       471  -9.5145      5.2610     42.3193   1.2975901917e+02   6.6535855064e+01    0.2641498    0.1743709 -77.47  0.001189039    1.813    0.448
       472  -8.8820    105.9389     40.9821   9.1506737468e+01   5.3058566500e+01      0.36189    0.1803346 -39.42 0.0007288052    2.040    0.510
       473  -8.0667    140.4275     41.5130   8.3124746515e+01   4.5031332888e+01    0.1436424    0.1404926  31.65 0.0002732596    1.023    0.022
       474  -8.6213     36.7936     40.8898   1.1584676976e+02   6.4275544844e+01    0.2109691    0.1578806 -59.94 0.0007895975    1.568    0.362
       475  -8.8561     95.3816     38.0326   9.3448234337e+01   5.5684848098e+01    0.2732619    0.1961821 -48.86  0.000826063    1.654    0.396
       476  -8.1075     80.7651     36.7962   9.7598128473e+01   5.8656624059e+01    0.1723937     0.157038 -49.91 0.0004207528    1.340    0.254
       477  -9.5491     26.1401     35.3785   1.1843208336e+02   6.6348320217e+01     0.307693    0.1904446 -55.97 0.0009552639    1.637    0.389
       478  -8.0491    125.9902     35.5472   8.4286624004e+01   4.9333737143e+01     0.211622    0.1349612  53.01 0.0003565531    1.505    0.335
       479  -8.6001    111.8456     34.7323   8.7517475821e+01   5.2683909472e+01    0.2499201    0.1710516 -54.70 0.0006127683    1.924    0.480
       480  -7.7790     88.5303     34.5187   9.4164321073e+01   5.7557336148e+01    0.1355533    0.1228333  -1.26 4.273999e-05    1.030    0.029
       481  -8.8625     48.4335     33.5162   1.0824009821e+02   6.4216913991e+01    0.2271298    0.1918747 -51.60 0.0006203444    1.451    0.311
       482  -8.5188    119.0635     32.9042   8.4981379819e+01   5.1302708463e+01    0.2569269     0.169629 -42.98 0.0006670456    1.671    0.402
       483  -8.7439     60.6802     32.5369   1.0301861794e+02   6.2659027607e+01    0.2241387    0.1760002 -54.06 0.0006075117    1.666    0.400
       484  -8.2514    139.2946     31.9858   8.0045825499e+01   4.6591585934e+01    0.1998967    0.1847678 -21.40 0.0007089002    1.121    0.108
       485  -8.6832     72.0341     31.1083   9.8260962491e+01   6.1060484564e+01    0.2497379    0.1692617 -43.68  0.000727931    1.625    0.385
       486  -9.0672     12.8947     30.3378   1.2265070990e+02   6.8355661618e+01    0.2706045     0.144065 -58.83  0.001026736    1.840    0.457
       487  -7.5775    159.2647     33.6662   7.6740864490e+01   4.1352644432e+01    0.1471587    0.1076197 -60.85 0.0003541487    1.582    0.368
       488  -8.3048    101.2641     29.2949   8.8267173036e+01   5.5719815754e+01    0.1753548    0.1607615 -60.07  0.001030512    1.351    0.260
       489  -9.0307     81.5195     27.4761   9.3504735813e+01   5.9901148165e+01    0.2748444    0.2214469 -46.47  0.001016235    1.507    0.336
       490  -8.9489      3.7128     27.9115   1.2616380742e+02   6.9398331999e+01    0.1902495     0.135175 -66.39 0.0007934742    1.567    0.362
       491  -8.9898     91.6143     26.1976   8.9802555893e+01   5.8122263371e+01    0.2826489    0.2066974 -49.35 0.0009439597    1.732    0.423
       492  -8.0591     34.6721     23.3313   1.0986771622e+02   6.7578645505e+01    0.1547209    0.1432221 -76.70  0.001071686    1.716    0.417
       493  -7.8138    104.4364     22.5269   8.4667148264e+01   5.5901500217e+01    0.1358887    0.1233608  17.63 5.033805e-05    1.014    0.014
       494  -8.7732     63.6571     21.2027   9.6984866033e+01   6.3894644561e+01     0.257688    0.1912294 -48.42 0.0009311553    1.771    0.435
       495  -8.7908     48.3961     21.8405   1.0327594146e+02   6.6094961974e+01    0.2001125    0.1812855 -37.42 0.0006769192    1.392    0.282
       496  -8.4011     19.5686     21.3354   1.1606395557e+02   6.9424987997e+01    0.2047447   0.09694931 -50.75  0.000772741    1.980    0.495
       497  -7.8746    120.5123     21.0091   8.0109127159e+01   5.2439596473e+01    0.1930562    0.1048997 -48.87 0.0008089061    2.422    0.587
       498  -8.9889     73.8998     19.4776   9.2560107020e+01   6.2372814712e+01    0.2698235    0.1697959 -37.89 0.0007426518    1.696    0.410
       499  -8.2307     87.9525     17.9466   8.7385858954e+01   5.9896295745e+01    0.1902175    0.1573627 -54.63 0.0005188814    1.624    0.384
       500  -7.7611     38.5434     18.5161   1.0599444043e+02   6.7880935978e+01    0.1200197    0.0970185 -17.07 7.966295e-05    1.043    0.041
       501  -8.0186    112.6523     16.8333   8.0305943521e+01   5.4721953489e+01    0.1882122    0.1180676 -34.16 0.0004795587    1.691    0.409
       502  -8.1137     29.9566     16.0064   1.0876437853e+02   6.9264841289e+01    0.1589894    0.1384224 -53.29 0.0006664546    1.652    0.395
       503  -8.3510      7.6482     15.3704   1.1956816633e+02   7.1381273235e+01    0.1412385    0.1290171 -72.38 0.0008339898    1.650    0.394
       504  -7.9049     17.2097     14.2173   1.1417023130e+02   7.0811178776e+01    0.1385291    0.1188913 -36.89 0.0004932183    1.329    0.247
       505  -7.4738    119.6962     11.3625   7.6554092997e+01   5.3653922466e+01    0.1367054    0.1019671 -59.82 0.0007037515    1.731    0.422
       506  -8.6814    218.7581    247.7001   1.1507909904e+02  -5.6751128039e+00    0.2401088    0.1431815 -36.20  0.001495716    2.066    0.516
       507  -7.7595     83.3008     10.6732   8.5549336131e+01   6.1647411650e+01    0.1194007    0.1008555 -55.83 0.0003501979    1.639    0.390
       508  -7.6019     76.3127     10.6547   8.7720511449e+01   6.2995056645e+01    0.1190827   0.09963185 -55.34 0.0007046639    1.710    0.415
       509  -8.2419    201.1596    249.3266   1.1829909257e+02  -3.2017910487e+00    0.2408644   0.07999543  35.53  0.001072962    2.614    0.617
       510  -9.2587    175.8405    247.6230   1.2245750037e+02   9.5174627866e-01    0.2937669    0.2433456  88.94  0.001105048    1.797    0.443
       511  -8.7415    156.3699    248.1983   1.2595643593e+02   3.9461420715e+00    0.2046085     0.150496  66.99 0.0006122278    1.624    0.384
       512  -8.7721    132.2823    247.9320   1.3017914703e+02   7.7437963618e+00    0.2312174    0.1553674  72.05 0.0006651985    1.783    0.439
       513  -8.0237    113.3253    248.8509   1.3360380922e+02   1.0475458153e+01    0.1873145    0.1014859 -73.96  0.001054286    2.530    0.605
       514  -9.1989    104.0376    247.0662   1.3505167766e+02   1.2121033059e+01    0.3549727    0.1844222 -85.00  0.001826781    3.024    0.669
       515  -8.9431    243.0922    246.8166   1.1092426920e+02  -9.1020429160e+00    0.3151041    0.1630961 -20.43  0.001778008    2.149    0.535
       516  -8.9781    232.8169    247.3039   1.1267876645e+02  -7.6924376546e+00    0.1999796    0.1689518  -7.21 0.0008297381    1.318    0.242
       517  -9.2927    210.9061    246.5933   1.1624629168e+02  -4.3693166186e+00    0.2203304    0.1669239 -48.31 0.0008276369    1.956    0.489
       518  -7.7387     40.6510    248.3351   1.4579436540e+02   2.0236735067e+01    0.1159614    0.0531674  64.33 0.0007047495    1.779    0.438
