#   1 NUMBER                 Running object number                                     
#   2 MAG_AUTO               Kron-like elliptical aperture magnitude                    [mag]
#   3 X_IMAGE                Object position along x                                    [pixel]
#   4 Y_IMAGE                Object position along y                                    [pixel]
#   5 X_WORLD                Barycenter position along world x axis                     [deg]
#   6 Y_WORLD                Barycenter position along world y axis                     [deg]
#   7 A_WORLD                Profile RMS along major axis (world units)                 [deg]
#   8 B_WORLD                Profile RMS along minor axis (world units)                 [deg]
#   9 THETA_WORLD            Position angle (CCW/world-x)                               [deg]
#  10 FWHM_WORLD             FWHM assuming a gaussian core                              [deg]
#  11 ELONGATION             A_IMAGE/B_IMAGE                                           
#  12 ELLIPTICITY            1 - B_IMAGE/A_IMAGE                                       
         1 -11.9470    176.6613     64.2444   2.9020582851e+02   5.9664524714e+00   0.08587877    0.0459305  62.85  0.006804783    2.988    0.665
         2 -12.0627    221.3287     37.8981   2.8951782109e+02   5.9937760929e+00   0.09527849   0.05211026  82.17  0.006997153    3.667    0.727
         3 -12.1505    215.3136     26.2257   2.8951730458e+02   6.1643363247e+00   0.09384012   0.04807017  53.10  0.007895304    2.479    0.597
         4 -13.3793    223.3222     16.0315   2.8936045140e+02   6.2317149592e+00    0.1864608   0.05501245  37.88  0.008539749    3.090    0.676
         5 -11.0730    215.2710      4.8822   2.8938711479e+02   6.4087705220e+00   0.03668016   0.02189234  71.10  0.003152036    2.598    0.615
         6 -11.7227    232.1048      8.8286   2.8921279045e+02   6.2600617679e+00   0.03066607   0.01881695 -47.67 0.0007398655    1.662    0.398
         7 -10.3176     69.6138     27.2632   2.9124486147e+02   7.0453826551e+00    0.0342381   0.01854224  82.21  0.002033416    3.798    0.737
         8 -11.7075    194.2424     45.1758   2.8988180366e+02   6.0769146601e+00    0.1039731   0.04975848  62.90  0.004871716    4.396    0.773
         9 -10.3500    248.3514     17.9106   2.8907695160e+02   6.0561875414e+00   0.02505057    0.0127764  43.79  0.001963403    2.022    0.505
        10 -10.2437    120.3029      9.1825   2.9053492544e+02   6.9424833766e+00   0.02066548   0.02001928 -10.69  0.001576849    1.038    0.037
        11  -8.6571    176.5058      9.9860   2.8987582543e+02   6.5886284919e+00   0.01445157  0.008519759 -83.15  0.001264662    2.369    0.578
        12  -9.8909    172.6745      3.5408   2.8988161061e+02   6.6858998989e+00   0.03294393   0.01945294  78.57   0.00274169    2.811    0.644
        13 -10.0589    248.7030      3.2661   2.8898309026e+02   6.2214786693e+00   0.02561471   0.01970048  71.80  0.002776698    1.546    0.353
        14  -9.4086      2.9965      8.2594   2.9191751445e+02   7.6689305970e+00  0.009482906  0.009118129  31.44  0.001156086    1.024    0.023
        15  -8.8219     32.4927      5.4790   2.9155125327e+02   7.5212663069e+00  0.006622479  0.006458361  29.84 0.0008102329    1.014    0.014
        16  -8.4119    161.8799      2.1651   2.9000067528e+02   6.7679055980e+00   0.01018376  0.008784194  60.82 0.0005337942    1.241    0.194
        17  -8.3199     12.3262      3.3383   2.9177700611e+02   7.6685451093e+00  0.007173132  0.004963462 -26.02 0.0007051552    1.726    0.421
        18  -8.6809      2.1988      1.3949   2.9188510931e+02   7.7523852949e+00  0.009772416  0.005769121  38.79 0.0006750996    1.651    0.394
        19  -8.6559    233.4983    145.4892   2.9003190521e+02   4.6867231674e+00  0.006643242  0.006464177  -0.59  0.000224428    1.026    0.025
        20  -9.9402     73.4361    249.0387   2.9254801795e+02   4.4779735816e+00   0.01624453   0.01005983 -33.87  0.001546751    1.912    0.477
        21  -7.5050    192.4721    144.4460   2.9050891067e+02   4.9503279236e+00   0.00665111  0.006409487  41.01 5.679891e-05    1.035    0.034
        22  -7.7672    202.7748    138.9729   2.9035410108e+02   4.9498996846e+00   0.00863847  0.005509063 -60.93 0.0003972758    1.592    0.372
        23  -8.8688    133.5670    137.4923   2.9116129026e+02   5.3908169325e+00   0.01080202   0.01010971 -33.85 0.0001064526    1.088    0.081
        24  -8.4206    198.1283    126.2318   2.9033114035e+02   5.1244432080e+00  0.009680036     0.008699 -11.50 0.0003197766    1.167    0.143
        25  -8.2667    201.9733    125.5802   2.9028184127e+02   5.1083274762e+00   0.01012516  0.006405632  27.25 0.0003797029    1.549    0.354
        26 -11.1013    243.9217    117.1746   2.8973629868e+02   4.9471429664e+00   0.02869076   0.01648568 -67.55 0.0005499026    1.896    0.472
        27  -8.4541    130.8983    122.3448   2.9110051049e+02   5.5808717759e+00  0.009314289    0.0083961  17.41 0.0005633918    1.103    0.094
        28  -7.5642    222.5175    120.5734   2.9000917472e+02   5.0396385153e+00  0.006658833  0.006373179  40.28 0.0001653644    1.039    0.038
        29  -8.3930    200.3207    115.6762   2.9024087892e+02   5.2319782197e+00  0.007071725  0.004995369  61.38 0.0005397363    1.677    0.404
        30  -9.4128    187.6746    114.4850   2.9038271289e+02   5.3231981737e+00   0.01252961  0.006185841 -61.62  0.001104122    2.060    0.515
        31  -8.9315    205.1190    109.8751   2.9014890059e+02   5.2690173431e+00   0.01266745  0.009411353  15.69  0.001360305    1.412    0.292
        32  -9.9784    189.6397    103.8160   2.9029441857e+02   5.4334259065e+00   0.01275693   0.01041081  49.62 0.0001458296    1.265    0.210
        33 -10.3154    238.9968     77.2004   2.8955001397e+02   5.4352332803e+00    0.0231222   0.01553239 -15.73  0.002247258    1.944    0.486
        34  -9.7008    239.1278     71.2266   2.8951194107e+02   5.5028258273e+00   0.02003099  0.009690989 -78.30  0.001501098    3.245    0.692
        35 -11.1234    245.1571     98.1984   2.8960581229e+02   5.1569097368e+00   0.02602326   0.01920797 -76.41  0.002079546    1.520    0.342
        36 -11.0534    243.2401     88.6100   2.8956978432e+02   5.2784989906e+00   0.03921473   0.01044844 -61.34  0.002597715    3.733    0.732
        37 -10.3601    240.0273     82.5471   2.8957056499e+02   5.3676756476e+00   0.01692693   0.01437057  56.01  0.001942046    1.244    0.196
        38  -8.9308    193.5089     98.9686   2.9021919394e+02   5.4652389752e+00  0.009940388  0.006652578 -63.04 0.0003765218    1.538    0.350
        39 -10.0471    187.1419     92.2994   2.9025355935e+02   5.5807244680e+00   0.01773332  0.008355098 -51.27   0.00133002    2.097    0.523
        40  -9.1939    150.4799     90.8075   2.9067705352e+02   5.8225800294e+00   0.01819696   0.01132115 -41.34  0.001365044    1.733    0.423
        41  -8.3591    135.6461     90.2220   2.9084860780e+02   5.9201356355e+00   0.01117218  0.008340697  43.50 0.0006551928    1.346    0.257
        42  -9.1291    159.8464     81.2306   2.9050803562e+02   5.8749457796e+00   0.01431383   0.01033248 -23.90  0.001322166    1.635    0.388
        43  -9.8877    163.0757     78.1937   2.9045137593e+02   5.8899514736e+00   0.01529093   0.01395523 -45.95 0.0008917502    1.111    0.100
        44  -9.7575    144.3056     79.0426   2.9067814123e+02   5.9952466501e+00   0.01562108   0.01194644 -67.01 0.0008256585    1.369    0.270
        45 -10.4559    182.7892     76.9550   2.9021118440e+02   5.7832435624e+00   0.02477714   0.01693594  62.52  0.002486606    1.789    0.441
        46  -9.0551    129.3957    249.1949   2.9188942757e+02   4.1347716367e+00  0.009446614  0.006546122 -78.34 0.0006543307    1.685    0.406
        47  -7.9239    213.8061     77.1875   2.8984680746e+02   5.5901710856e+00  0.009078506  0.007589857 -26.83 0.0003910115    1.285    0.222
        48  -9.1790    220.2129     74.3567   2.8975397974e+02   5.5832338529e+00   0.01536037   0.01263958  20.48  0.001758529    1.215    0.177
        49  -8.7367    231.9384     79.6860   2.8964837297e+02   5.4501540139e+00  0.009925411  0.008487689  30.30  0.001151997    1.140    0.123
        50 -10.9759    159.5066     66.8895   2.9042446571e+02   6.0413583894e+00   0.01826871   0.01229661 -46.96  0.001339262    1.517    0.341
        51 -11.7525      3.6171    242.0890   2.9332923219e+02   4.9825966788e+00   0.04784331   0.02370529 -62.06  0.004287619    2.055    0.513
        52 -10.2899     69.2239    244.5347   2.9257040644e+02   4.5553367127e+00   0.01431958   0.01127688 -43.29 0.0004356531    1.306    0.234
        53  -8.7859    108.4769    241.5019   2.9208929786e+02   4.3507566684e+00  0.006618913  0.006480785  11.70 5.887413e-05    1.008    0.008
        54 -10.1722    229.7718     61.6185   2.8956342290e+02   5.6703467406e+00   0.04715433   0.02492173  37.87  0.001962097    1.821    0.451
        55  -9.2630    144.1389     59.2269   2.9055911641e+02   6.2233369490e+00   0.01403362   0.01052357  48.22 0.0007560125    1.383    0.277
        56  -7.7297     72.8117     58.3934   2.9139695518e+02   6.6691540118e+00  0.008724906  0.006382452  12.41 0.0003397989    1.474    0.321
        57  -9.9917    185.3387     55.3393   2.9004900310e+02   6.0151988702e+00   0.01378236   0.01275021  34.56 0.0005542601    1.061    0.057
        58 -10.1714    155.7950     45.4987   2.9033758736e+02   6.3091541545e+00    0.0207142    0.0120484  55.21  0.001885962    2.112    0.526
        59  -8.7457    136.0780     46.1404   2.9057438789e+02   6.4226432498e+00  0.009778476  0.009659306  32.07 0.0006468326    1.017    0.017
        60  -8.5056    237.4824    235.5370   2.9053372208e+02   3.6302221523e+00  0.006649263  0.006435582  -3.72 8.812468e-05    1.035    0.034
        61 -10.3483    149.0010     42.3999   2.9039888283e+02   6.3862969416e+00   0.02301249  0.009160309  46.47  0.001726394    2.929    0.659
        62  -9.3310    250.6031     41.3454   2.8919392361e+02   5.7742502373e+00   0.01162652  0.006444371 -61.16  0.000248613    1.831    0.454
        63 -10.4369    202.7951     38.2224   2.8973837215e+02   6.1039802430e+00   0.01762459   0.01329778 -25.78 0.0005883193    1.508    0.337
        64 -10.4629    137.1414     38.4230   2.9051467002e+02   6.5045253924e+00   0.02197827  0.007706293  34.50  0.001696256    2.587    0.613
        65  -8.6239     76.1102     38.6927   2.9123777273e+02   6.8747764374e+00   0.01506343  0.009684511 -87.96  0.001335821    2.107    0.525
        66  -9.7074    123.2718     38.0100   2.9067602801e+02   6.5942042555e+00   0.01333071  0.008100084  41.80  0.001305081    1.642    0.391
        67  -7.9868     48.0359     38.5078   2.9156875844e+02   7.0482036015e+00   0.01012656  0.004716975  48.34 0.0007867817    2.509    0.601
        68  -9.8231    241.7296     33.0354   2.8924759553e+02   5.9239335153e+00   0.02311614   0.01106349  43.08   0.00198821    2.140    0.533
        69  -7.7085    135.5269    230.4268   2.9170328774e+02   4.3126491174e+00   0.00662085  0.006408727   7.73 4.698866e-06    1.025    0.024
        70  -7.7874     61.6690    228.6890   2.9256353646e+02   4.7832491257e+00  0.007052007  0.005021705 -23.94 0.0007042806    1.671    0.402
        71 -12.6152     20.6355    223.1121   2.9301379402e+02   5.0970297032e+00   0.03818311    0.0337818  64.83  0.002569299    1.210    0.173
        72  -7.9158    159.6210     28.3003   2.9018725688e+02   6.4826305816e+00  0.007276589  0.004847188  57.39 0.0007024644    1.765    0.434
        73  -7.6236    154.3394     28.2760   2.9024948583e+02   6.5153040509e+00   0.00688192  0.005061029 -19.55 0.0002957851    1.615    0.381
        74  -9.3622    178.7097     23.8307   2.8993453254e+02   6.4166499147e+00   0.02493997    0.0138947  31.18  0.002376646    1.717    0.418
        75 -10.1076    145.1863     22.5040   2.9032231047e+02   6.6375114565e+00   0.01166088   0.01091853 -69.72 0.0002620961    1.105    0.095
        76 -11.9505    178.7755     42.6432   2.9004882911e+02   6.2008743501e+00   0.03204615   0.01435457 -45.96  0.001858514    2.369    0.578
        77  -8.6983     46.8973    223.4044   2.9270576400e+02   4.9338784953e+00    0.0121605  0.009154968 -49.96 0.0003385811    1.340    0.254
        78  -8.1975    155.8098     17.4043   2.9016562382e+02   6.6307455583e+00  0.008945829  0.006396509  10.95 0.0002144734    1.543    0.352
        79  -8.3209     15.6734     14.3263   2.9180437516e+02   7.5223459628e+00  0.007102559  0.004973891  61.01  0.000507642    1.697    0.411
        80 -10.2583    201.9015     60.7347   2.8988660217e+02   5.8517155530e+00   0.05361131   0.01820709  47.92  0.003438776    4.105    0.756
        81 -12.5079     39.3399    204.5285   2.9268060941e+02   5.1965755158e+00    0.0428317   0.03612347   6.52   0.00174268    1.246    0.197
        82  -8.9782    196.3097     55.9345   2.8992320814e+02   5.9410267706e+00   0.01206688    0.0107961 -31.87 0.0003889063    1.156    0.135
        83 -11.9637     44.9336    197.8948   2.9257440356e+02   5.2386708091e+00   0.05445082   0.03220865  50.43  0.004234286    1.894    0.472
        84  -9.9364    189.2570    190.1741   2.9082540292e+02   4.4456925187e+00   0.01122288   0.01040517  38.09  0.000240444    1.065    0.061
        85 -11.4509     57.6160    186.0329   2.9235279948e+02   5.2975773645e+00   0.04342369   0.03368918 -15.22  0.004750475    1.484    0.326
        86  -8.2557    214.0391    167.6311   2.9039612746e+02   4.5523051813e+00   0.02071935  0.007243036  47.73  0.001361159    3.836    0.739
        87  -7.4728    159.6947    158.7300   2.9098240462e+02   4.9873298902e+00  0.006701961  0.005056961 -21.14 0.0003098765    1.536    0.349
        88  -8.4938     16.8208    151.4073   2.9262449014e+02   5.9433727195e+00  0.009228434  0.006419891  11.18 0.0004705306    1.599    0.374
        89 -10.0072     67.5136    144.1548   2.9198166153e+02   5.7178681420e+00   0.02712838   0.01708608  46.19  0.001754482    1.656    0.396
