#   1 NUMBER                 Running object number                                     
#   2 MAG_AUTO               Kron-like elliptical aperture magnitude                    [mag]
#   3 X_IMAGE                Object position along x                                    [pixel]
#   4 Y_IMAGE                Object position along y                                    [pixel]
#   5 X_WORLD                Barycenter position along world x axis                     [deg]
#   6 Y_WORLD                Barycenter position along world y axis                     [deg]
#   7 A_WORLD                Profile RMS along major axis (world units)                 [deg]
#   8 B_WORLD                Profile RMS along minor axis (world units)                 [deg]
#   9 THETA_WORLD            Position angle (CCW/world-x)                               [deg]
#  10 FWHM_WORLD             FWHM assuming a gaussian core                              [deg]
#  11 ELONGATION             A_IMAGE/B_IMAGE                                           
#  12 ELLIPTICITY            1 - B_IMAGE/A_IMAGE                                       
         1 -11.2417     80.7804     26.7600   4.0876920838e+01   6.1896321069e+01    0.3784014    0.2064912 -37.86  0.001426899    1.907    0.476
         2 -12.0499    125.0636     17.3941   2.6071512619e+01   5.1614627658e+01    0.4502907    0.2928788 -29.64 0.0004164102    1.612    0.380
         3 -11.0834     25.8676     13.0670   6.2182463817e+01   7.5393148519e+01    0.2989972    0.2500242 -56.77 0.0008704638    1.418    0.295
         4 -10.3245     22.9744      8.9708   6.1793563372e+01   7.6565282992e+01    0.2179481    0.1745928  24.76 0.0005962268    1.187    0.157
         5 -10.7090    240.2339     14.9600   1.4936793788e+01   2.5249828906e+01    0.2392726    0.1782818  -6.84  0.001060937    1.791    0.442
         6 -11.9667     35.5189     12.0980   5.4232465740e+01   7.3971392637e+01    0.3964126    0.2893735  61.82  0.001578268    1.816    0.449
         7 -11.0993     42.2206     10.0740   4.8498272162e+01   7.3015134439e+01    0.4529915    0.2825132  43.72  0.001197989    1.497    0.332
         8 -11.6442    203.3599     11.8816   1.6271694837e+01   3.2960788240e+01    0.2242703    0.1913626 -45.69 0.0002254119    1.127    0.112
         9 -10.3950     90.2829     11.4994   3.0485888187e+01   6.1465503844e+01    0.3936422     0.223385  27.52  0.001625418    2.470    0.595
        10 -10.1952    185.4156     12.2218   1.7605478564e+01   3.6956656076e+01    0.1884493   0.09707772 -41.54 0.0005119538    1.635    0.389
        11 -11.8348    125.9299     10.7187   2.3346308325e+01   5.2094000782e+01    0.5954944    0.2439241 -44.28 0.0001818547    2.393    0.582
        12  -9.8728     64.5557     11.3009   3.8426126058e+01   6.7930489991e+01    0.3261438    0.1440935 -24.35  0.001290463    2.654    0.623
        13 -12.6017     55.2257      9.8656   4.1491159562e+01   7.0273134339e+01     0.511624    0.2738874  41.80  0.002327894    1.820    0.451
        14 -10.4448     11.4910     11.5071   7.4455260278e+01   7.7482331005e+01     0.230934    0.2183405  23.82 0.0009702116    1.195    0.163
        15 -10.3469      8.0862      8.9467   7.6544834163e+01   7.8325958328e+01    0.2293746    0.1711394  53.52 0.0004511556    1.778    0.438
        16 -11.5138    214.1917      8.9994   1.4918650759e+01   3.0949431687e+01    0.4078811    0.1386973 -46.42  0.001901603    2.195    0.544
        17 -11.5330    216.5413      5.4826   1.3950928789e+01   3.0806461010e+01    0.3404657    0.1336988 -84.10   0.00155419    2.852    0.649
        18 -10.1747    164.9117     10.9432   1.8934856530e+01   4.2007944526e+01     0.228372    0.1286268 -59.41 0.0006067046    1.672    0.402
        19  -9.9282    102.9027     10.8758   2.7357650051e+01   5.8211262220e+01    0.2764197    0.1416382  61.21  0.001207535    1.731    0.422
        20 -10.1880     97.0043     10.2180   2.8292532475e+01   5.9840695135e+01    0.2598594    0.1682492 -47.49   0.00125519    1.643    0.391
        21  -9.7658     85.9575     10.6299   3.1154754999e+01   6.2681956331e+01    0.1989636    0.1665723  64.45 0.0004605484    1.090    0.083
        22  -9.6028    121.3138      9.2817   2.3461244243e+01   5.3465594030e+01     0.224303    0.1298976  70.63 0.0004406585    1.565    0.361
        23 -10.3360      3.4497      8.6660   8.1604789857e+01   7.8739635387e+01    0.3509999    0.1916012 -60.94  0.001834213    1.757    0.431
        24  -9.7446    108.7094      9.0486   2.5436186073e+01   5.6852141187e+01    0.1799362    0.1737041 -20.72  0.001067879    1.168    0.144
        25 -11.4724     29.9976      8.2850   5.5519084246e+01   7.5566016947e+01    0.3450616    0.2292452  26.16  0.001106175    1.530    0.347
        26  -9.5996    116.5054      8.5185   2.3893562230e+01   5.4823237373e+01    0.1421704    0.1277408  85.76 0.0002541521    1.007    0.007
        27 -10.5809    224.0222      3.9497   1.3235913519e+01   2.9439194381e+01    0.1405335    0.1351615 -29.94 0.0004162467    1.335    0.251
        28 -11.7639    151.5301      5.8713   1.8566458016e+01   4.5870255931e+01    0.2732941    0.2108279 -67.02 0.0002723818    1.163    0.140
        29 -10.5306    148.6383      2.1266   1.7585094623e+01   4.6953161205e+01    0.2400413    0.2034807  70.34 0.0006455735    1.202    0.168
        30 -10.1532    247.0757      5.9762   1.2710951816e+01   2.4885601929e+01     0.167081    0.1185066 -51.19 0.0003555901    1.050    0.048
        31  -9.7963    111.9591      6.0755   2.3592393205e+01   5.6271392494e+01    0.2261641    0.1531095  42.59  0.001119682    1.623    0.384
        32  -9.5655    176.8010      9.8014   1.7585270725e+01   3.9229529601e+01    0.1871565    0.1253807 -57.58 0.0003508736    1.305    0.234
        33 -10.7225     54.4753      4.9277   3.8543999480e+01   7.1056790578e+01    0.4461873    0.1193309 -31.18  0.001521654    3.720    0.731
        34 -11.7116    194.5821      4.5236   1.4905378844e+01   3.5621058093e+01    0.3307978    0.1989092  67.17 0.0009451311    1.776    0.437
        35 -12.7058     20.2098      2.3319   5.9166539621e+01   7.8123225998e+01    0.3272355    0.2627819  17.16  0.001417122    1.158    0.136
        36 -10.6427    104.4983      4.1355   2.3991611352e+01   5.8442976045e+01    0.2506495    0.1810339  85.37 0.0004336186    1.312    0.238
        37  -9.9798     44.1733      4.1152   4.3070727197e+01   7.3435825440e+01    0.2377131    0.1642058  41.99 0.0004711233    1.326    0.246
        38 -10.7041     34.7607      3.7676   4.8589358477e+01   7.5390639883e+01    0.2287144    0.2035375   0.00 0.0009802297    1.093    0.085
        39 -10.0098     48.5271      4.1404   4.0798927563e+01   7.2489583174e+01    0.2371451    0.1850159  70.78 0.0009763264    1.463    0.317
        40 -10.2803     13.4371      2.8977   6.6502343838e+01   7.8952187998e+01    0.2693602    0.1762741  47.05  0.001444817    1.942    0.485
        41  -9.6216    161.4908      2.5838   1.6630842021e+01   4.3657485967e+01    0.1323946    0.1149148 -76.86 7.422897e-05    1.041    0.040
        42 -10.9985    138.3742      1.8915   1.8505740342e+01   4.9635928100e+01     0.251113     0.183045  83.06 0.0004448985    1.240    0.193
        43  -9.0754     67.6795      2.6761   3.2032612870e+01   6.8142652967e+01    0.1475701   0.09390772  34.80   0.00046226    1.677    0.404
        44  -9.5882    245.2480      1.3674   1.1808288028e+01   2.5648657320e+01    0.1349261   0.08527809 -70.34 0.0003430694    1.433    0.302
        45  -9.6442     84.7664      1.3117   2.6553327860e+01   6.3913347099e+01    0.1925037    0.1097098  61.25 0.0004037065    1.530    0.347
        46 -10.6473     30.0419      1.3339   4.9986184922e+01   7.6623612148e+01    0.2346789    0.1128472  45.57 0.0003762269    1.965    0.491
        47 -10.1714     27.6736    129.3126   9.2656211667e+01   4.5995857894e+01    0.2945907    0.1838827  53.64 0.0006558776    1.534    0.348
        48  -9.4139    109.6847    250.7160   8.2478655148e+01   1.0575179931e+01     0.110468   0.07543527   4.03 0.0002875037    1.581    0.367
        49 -12.7278     19.4844    248.3189   1.0146969150e+02   2.0252223468e+01     1.461784    0.3665045  18.99  0.004968946    5.576    0.821
        50  -9.9647     10.1152    129.1533   9.8987105975e+01   4.7418520105e+01    0.2118868    0.1753469 -51.52   0.00121962    1.331    0.249
        51 -10.6084    247.4933    127.0317   3.7838291317e+01   1.0465508787e+01    0.1781628   0.09043509 -32.91  0.000610563    1.557    0.358
        52  -9.6353     65.0319    125.2295   7.8635740581e+01   4.2646241256e+01    0.2037228     0.182387  46.66 -0.0006383859    1.068    0.064
        53  -9.4854     14.9353    129.9909   9.7315583708e+01   4.6861850447e+01    0.1635844    0.1468608  66.08 0.0003082989    1.019    0.019
        54 -10.1022    208.6007    123.2274   4.2432141067e+01   1.6937046169e+01    0.1772321    0.1729303  48.87 0.0006003723    1.257    0.205
        55  -9.7957     74.5211    121.9624   7.4732011258e+01   4.2041633365e+01    0.2175633    0.1503821 -64.12 0.0003549853    1.490    0.329
        56  -9.7851     26.5320    121.4828   9.2261685848e+01   4.8192094582e+01     0.230081    0.1396059   1.05 0.0007374033    2.095    0.523
        57 -11.5642     11.7262    120.5428   9.7800981296e+01   4.9595529081e+01    0.5356545    0.2799566 -11.16  0.002254405    2.665    0.625
        58  -9.6329     82.5103    118.0614   7.1211942329e+01   4.1708653375e+01     0.221298    0.1514104 -58.56 0.0004189609    1.494    0.331
        59 -11.3361     69.2214    115.1059   7.5224174105e+01   4.4634384145e+01    0.3524416    0.2903027  89.90 0.0003368078    1.298    0.229
        60 -13.1151     23.2858    113.3433   9.2632729525e+01   5.0669138936e+01    0.3413839    0.3174955  38.35 0.0005036151    1.112    0.101
        61  -9.1836    127.2065    113.0510   5.6597323181e+01   3.4345151807e+01    0.1924985    0.1201891 -45.13 0.0005566602    1.615    0.381
        62 -10.1859     40.4081    112.6912   8.5722740121e+01   4.9166850555e+01    0.2121998     0.127515 -58.98 0.0008319048    1.623    0.384
        63 -11.1425      2.7266    111.9122   1.0070528335e+02   5.2426840682e+01     0.267268    0.2020422  88.51 0.0003075838    1.196    0.164
        64 -10.5606     17.9512    105.7779   9.3986070736e+01   5.3142010072e+01    0.2493954    0.1276805  49.25   0.00107787    1.950    0.487
        65 -10.3145     14.5217    111.5205   9.5965707294e+01   5.1830815146e+01    0.2045069     0.122986  83.50 0.0006674655    1.628    0.386
        66 -11.1758     13.8285    107.4969   9.5876765950e+01   5.2966170715e+01    0.3590827    0.1835743 -58.44   0.00125622    1.876    0.467
        67  -9.8254     63.1524    110.3387   7.6486698747e+01   4.6801743547e+01    0.2220009    0.1280485  41.49 0.0001300764    1.674    0.403
        68 -10.1906      6.1891    107.1467   9.8997213672e+01   5.3523417750e+01    0.1998775    0.1434098  60.89 0.0005693424    1.328    0.247
        69  -9.9763      1.0000    104.9036   1.0098586923e+02   5.4382971708e+01    0.2215021    0.0706226 -83.01 0.0003437669    2.843    0.648
        70  -9.8977      5.6282    103.2257   9.8940877897e+01   5.4608989802e+01    0.2032681    0.1110773 -69.11 0.0009474206    1.669    0.401
        71 -10.7459    247.7234    101.9722   3.2865496891e+01   1.3673367668e+01    0.1765595    0.1609148 -27.84 0.0006789472    1.172    0.146
        72 -10.0732    112.7732    102.2156   5.7809428547e+01   3.9692479672e+01    0.2031301     0.181771   3.19 0.0003369566    1.282    0.220
        73 -11.2778     18.5507     98.3878   9.2882272096e+01   5.5107223827e+01    0.7029818    0.2704203  51.50  0.002552908    2.872    0.652
        74 -10.2832     17.5554     93.7812   9.2758697867e+01   5.6433306941e+01    0.3622785    0.2256129  81.69   0.00133297    1.660    0.397
        75 -10.8615     20.9112     92.5756   9.1060789468e+01   5.6507953726e+01    0.3169452    0.2217723 -53.25 0.0008769861    1.404    0.288
        76  -9.6455    217.7393     98.4209   3.5729540789e+01   1.9040489073e+01    0.1516365    0.1181171  35.19  0.000464553    1.509    0.337
        77  -9.4801    139.7014     98.2804   4.9660032906e+01   3.4747890107e+01    0.1466313    0.1181639 -84.83 0.0001869297    1.542    0.351
        78 -11.6862     57.6453     92.1404   7.4642178871e+01   5.2383716045e+01    0.3840015     0.309836 -53.16 0.0009382081    1.240    0.194
        79 -10.3366     44.1103     94.0956   8.0873665331e+01   5.3734173226e+01     0.234176    0.2020626 -35.78 0.0007400042    1.250    0.200
        80  -9.9818     10.5143     94.0146   9.5991045924e+01   5.6830208929e+01    0.2019796    0.1645051 -80.74 0.0004090867    1.130    0.115
        81 -10.0257      7.6548     91.0025   9.7001644425e+01   5.7805085763e+01     0.255331    0.1712132 -81.93  0.001288788    1.371    0.270
        82 -10.9012    125.3553     93.0279   5.1808158962e+01   3.8961708940e+01    0.2643033    0.2182605  47.76 0.0002135616    1.210    0.174
        83 -10.0915     92.0075     92.7462   6.1749560209e+01   4.6124058699e+01    0.2185614    0.2055215  47.91 0.0003895168    1.048    0.046
        84 -12.6158    160.1992     89.1615   4.2766764349e+01   3.1964505597e+01    0.5396465    0.3228926  35.14 0.0006599581    2.117    0.528
        85 -11.5919    113.7160     91.8568   5.4687076595e+01   4.1765566125e+01    0.3842257     0.243671  43.39 0.0001651347    1.577    0.366
        86 -10.7646    105.7014     91.7366   5.7038833190e+01   4.3519596538e+01    0.2844504     0.259644  79.19 0.0003323362    1.143    0.125
        87  -9.5424      1.5198     90.7749   9.9810689344e+01   5.8153952916e+01    0.2868935    0.1107681 -73.59  0.001156129    2.244    0.554
        88  -8.9988     44.2772     88.6457   7.9642813307e+01   5.5165303477e+01    0.1561073     0.109748  68.97 0.0007008614    1.649    0.394
        89 -13.7924     65.4878     81.7707   6.8629274015e+01   5.3759349470e+01    0.6087988    0.4731067  61.33 0.0007880449    1.416    0.294
        90 -10.1980     17.6103     84.8577   9.1526920278e+01   5.8851207696e+01    0.2099453    0.1882702 -35.65 0.0003489412    1.172    0.147
        91  -9.2204     54.9960     84.7862   7.3947897798e+01   5.4687627287e+01    0.1904825    0.1219797  31.56 0.0004640766    1.577    0.366
        92 -10.5434      4.4933     83.4794   9.7779073010e+01   5.9989088602e+01    0.2421683    0.1067257  29.09 0.0007734263    2.265    0.559
        93  -9.3663     79.4487     83.4702   6.3574053379e+01   5.0795437507e+01    0.1531102    0.1506313  73.40 3.918061e-05    1.011    0.011
        94 -10.4488     84.9155     79.8301   6.0440142857e+01   5.0569757231e+01    0.3998099    0.2607015  20.70  0.001333265    2.148    0.535
        95  -9.2472     88.3375     76.2600   5.8078992237e+01   5.0676752271e+01    0.2864664    0.1834774 -38.69 0.0007142093    1.710    0.415
        96 -11.1530     47.9450     79.4503   7.5759463292e+01   5.7089052757e+01    0.2942291    0.2530253 -77.95 0.0005273746    1.190    0.160
        97 -11.0671      8.8344     79.4555   9.5178309676e+01   6.0859679651e+01    0.4003827    0.1966015  54.04  0.001620178    2.230    0.552
        98 -11.2503      5.3662     75.2847   9.6477968981e+01   6.2149247232e+01    0.3717935    0.1650346 -79.41  0.001362625    2.072    0.517
        99 -10.1283    157.4884     77.9579   4.0221293693e+01   3.4531328696e+01     0.220333    0.1391718 -37.02 0.0005429152    1.532    0.347
       100 -10.4398    177.6794     76.8039   3.6345261792e+01   3.0209348074e+01    0.4278065    0.1868369  51.47  0.001759233    2.435    0.589
       101  -9.6853     74.8673     76.7609   6.3302104313e+01   5.3270862318e+01    0.2043476    0.1732914  71.79 0.0002196775    1.299    0.230
       102 -11.2906     12.1688     76.6647   9.3096552158e+01   6.1421084732e+01    0.3206487    0.1892272 -22.17  0.001238235    1.992    0.498
       103 -10.0483     53.3482     75.9007   7.2284437776e+01   5.7206755870e+01    0.2796289    0.2013447  46.64  0.001324552    1.427    0.299
       104  -8.8910    244.6830     72.3419   2.7035031103e+01   1.7923087932e+01    0.1240673   0.07188419 -52.84 0.0007048756    1.712    0.416
       105  -9.9676    141.8042     71.8498   4.1637001619e+01   3.9258956173e+01    0.3167799    0.1605342  37.35  0.001142235    2.760    0.638
       106  -9.6989    117.4088     71.6946   4.7503656984e+01   4.5091241730e+01    0.3116039    0.1727877  32.85  0.001129356    2.576    0.612
       107  -9.8044    105.8834     71.8834   5.0871391648e+01   4.7742377812e+01    0.2111097     0.172548  70.20 0.0006028328    1.311    0.237
       108 -12.8213     80.6623     67.0476   5.7822108938e+01   5.4336903901e+01    0.5762479    0.4325784  10.75 0.0005392805    1.837    0.456
       109  -9.3364     91.3668     70.1435   5.4991558808e+01   5.1372867324e+01    0.2061911    0.1432983 -60.20  0.000359772    1.612    0.380
       110  -9.9251     11.0192     70.2538   9.2771591405e+01   6.3203392364e+01    0.1897769    0.1769105  12.81 0.0007238672    1.154    0.134
       111 -10.1737    131.3705     68.9292   4.3084276703e+01   4.2280360819e+01    0.2469416    0.2036277  26.36 0.0004316792    1.459    0.315
       112 -10.0399     45.2104     68.3922   7.4030251833e+01   6.0297042300e+01     0.286615    0.1959033 -59.96  0.001355766    1.439    0.305
       113 -11.9608    212.0018     67.3508   2.9280226133e+01   2.4478908276e+01    0.2316189    0.1908949 -37.88 0.0003338641    1.058    0.055
       114  -9.7201    154.9493     67.2325   3.7614282685e+01   3.6931770175e+01    0.1934805    0.1841301 -80.25  0.001094814    1.033    0.032
       115  -9.6125     37.3195     67.3322   7.7798042865e+01   6.1605944583e+01    0.1556335    0.1055954 -30.67 0.0007048695    1.694    0.410
       116 -11.5501      7.6361     63.2110   9.3612884870e+01   6.5250055088e+01    0.4555288    0.3248639  49.27 0.0009692989    1.509    0.337
       117 -11.9233     11.5707     59.6774   9.0663904076e+01   6.5961663138e+01    0.3143213    0.2777266  14.58 0.0002227374    1.207    0.171
       118 -11.9114     17.2223     64.5419   8.8271655099e+01   6.4309765751e+01    0.3638938      0.34534  30.98 0.0005695643    1.117    0.105
       119 -13.6185     21.0203     58.4821   8.4688490996e+01   6.5584981622e+01    0.4499972    0.3425484 -51.15 0.0008397091    1.231    0.188
       120  -9.9689     63.8408     65.8182   6.4348575829e+01   5.7909145986e+01    0.2726122    0.1976297 -37.38  0.001032157    1.496    0.332
       121  -9.0767     49.9587     67.0000   7.1245075915e+01   5.9948797639e+01     0.233623    0.0843612  31.99 0.0005461555    2.796    0.642
       122  -9.2555     58.7222     65.6693   6.6623457307e+01   5.8849924610e+01    0.1521798    0.1162183 -21.85 0.0006917868    1.600    0.375
       123  -9.1254    166.4487     64.5174   3.4806770115e+01   3.4674095950e+01    0.1428961    0.1310042 -57.45 2.469954e-05    1.010    0.010
       124 -11.1258    128.3145     63.5680   4.2078167224e+01   4.3987577409e+01    0.2471693    0.2427532 -57.71 0.0002120829    1.064    0.060
       125 -10.9589     51.5145     62.9211   6.9158482106e+01   6.0702671925e+01     0.494531    0.2953483 -80.28  0.001262449    2.671    0.626
       126  -9.7805    119.9259     62.5923   4.3822316361e+01   4.6210914550e+01    0.2017289    0.1827221  63.33  0.001052767    1.082    0.076
       127  -9.1751    235.3398     62.2568   2.5715917734e+01   2.0785438700e+01    0.1070838    0.0890324  12.27  0.000314011    1.580    0.367
       128 -11.0406     98.0415     60.8319   4.9489409379e+01   5.1785940128e+01    0.2698586    0.2334638  50.89 0.0003595879    1.131    0.116
       129 -10.3728     39.3172     59.6436   7.4452068176e+01   6.3287361220e+01    0.4201255    0.2317127  15.56   0.00172251    2.242    0.554
       130 -11.5726     58.4944     58.9365   6.4374882858e+01   6.0467731978e+01    0.3285309    0.2208917  38.49  0.000551515    1.475    0.322
       131  -9.5243    130.7301     57.2901   3.9441396860e+01   4.4483432683e+01    0.1498412    0.1123074 -70.71 0.0002637759    1.508    0.337
       132 -10.0388     71.1523     56.3036   5.7700857533e+01   5.8636999129e+01    0.2809122    0.2042566 -84.78 0.0006913753    1.997    0.499
       133  -9.8785    229.1883     56.3571   2.4957637830e+01   2.2635709915e+01    0.1600838    0.1341914 -55.07  0.000702841    1.113    0.101
       134 -12.4730    114.8330     53.5519   4.1977876196e+01   4.9080766252e+01    0.3241648    0.3028789 -77.31 0.0002390048    1.056    0.053
       135 -11.2455     85.9452     54.3353   5.1152888477e+01   5.5853695621e+01    0.5840729    0.2897584  48.32  0.001313493    1.959    0.490
       136 -10.1583     78.2143     49.9888   5.2310936900e+01   5.8440912883e+01    0.2757259     0.206309  64.08 0.0004524936    1.479    0.324
       137  -9.7513     33.7973     55.3389   7.6202683122e+01   6.5054441444e+01    0.2044219    0.1337559  10.90 0.0009446469    1.759    0.431
       138  -9.9155      1.4262     54.0060   9.6037780840e+01   6.7912896424e+01    0.1961418     0.119508 -75.68 0.0009896402    1.497    0.332
       139 -10.4188      4.2241     52.0125   9.3916806384e+01   6.8322727435e+01    0.5215067    0.1213377 -54.41  0.001812694    3.169    0.684
       140 -10.3095    225.3484     52.9600   2.4529955144e+01   2.3776859711e+01    0.1799188    0.1313545 -38.78 0.0004414483    1.125    0.111
       141  -9.2401    182.4741     53.4799   2.9352386024e+01   3.2631448110e+01    0.1381609    0.1215157 -55.71 4.357145e-05    1.017    0.016
       142 -10.1134     98.3261     51.7853   4.6014041896e+01   5.3443143977e+01    0.3474454     0.236363 -68.16 0.0006885347    1.928    0.481
       143 -10.1398     65.9245     46.4934   5.5984733627e+01   6.1753125122e+01    0.3101428    0.3054983  68.01   0.00115717    1.043    0.041
       144 -10.8186     65.7168     52.7723   5.8677536113e+01   6.0483674053e+01    0.4205523    0.1799272  40.09  0.001328025    2.337    0.572
       145 -12.1325     62.0180     49.8050   5.9166663634e+01   6.1840011687e+01    0.3173777     0.255656 -52.32 0.0003686774    1.284    0.221
       146  -8.8360    148.6797     52.2624   3.4192587275e+01   4.0836685587e+01    0.1483229    0.1066336 -72.50 0.0002270858    1.551    0.355
       147 -10.4686    138.4016     50.3190   3.5498747264e+01   4.3699295219e+01     0.247434    0.2243107  60.40 0.0004772998    1.128    0.113
       148 -11.5395    105.1375     47.9761   4.2523368201e+01   5.2455799103e+01    0.7756822    0.3803192 -56.77  0.002067737    2.891    0.654
       149 -10.9067    158.2053     48.2802   3.1343075491e+01   3.9088148177e+01    0.4563979    0.2582976  88.93  0.001873702    2.374    0.579
       150 -10.2382     14.0777     48.8016   8.6700057280e+01   6.8595917054e+01    0.1981439    0.1793032  63.88 0.0004150593    1.212    0.175
       151  -9.5745     82.6854     48.3193   4.9927350888e+01   5.7763159643e+01    0.1538592    0.1197005 -85.33 0.0002112861    1.653    0.395
       152  -9.3813     74.6800     47.3162   5.2603014564e+01   5.9741184755e+01     0.152103    0.1196026 -89.82 0.0005776212    1.658    0.397
       153  -9.7978     53.8455     46.9726   6.1990308051e+01   6.3972030123e+01    0.2489679    0.1626324 -23.65 0.0008264159    2.061    0.515
       154 -10.3741    129.6261     45.7073   3.5707617755e+01   4.6636769778e+01     0.277821     0.222549 -22.87  0.001149178    1.414    0.293
       155  -9.4955     79.4066     45.4983   4.9974138029e+01   5.9042066403e+01    0.1468702    0.1444167  53.50 4.956331e-05    1.019    0.018
       156 -10.3598     16.9877     44.0101   8.3400787227e+01   6.9572145531e+01    0.3761713    0.2245752  59.18  0.001712858    2.218    0.549
       157  -9.7368      1.7632     45.4025   9.4445793994e+01   7.0106577278e+01    0.1860951    0.1159451 -16.49 0.0009503423    1.693    0.409
       158  -9.4412    117.6937     44.3059   3.7867867945e+01   4.9900306284e+01    0.2249589    0.1993844 -41.57 0.0005393765    1.162    0.139
       159  -9.9622    116.9648     41.2515   3.6891777763e+01   5.0564436773e+01    0.2095612    0.1885523  75.20 0.0003027445    1.059    0.056
       160  -9.7304    115.3194     38.6318   3.6275901062e+01   5.1386808705e+01    0.2400654    0.1641614 -65.34 0.0007288952    1.699    0.411
       161  -9.5808     93.4492     44.5068   4.4650233715e+01   5.5926535921e+01    0.1500787     0.144285  68.72  0.000173884    1.005    0.005
       162  -9.6087     89.4602     44.5471   4.5973399303e+01   5.6878417895e+01    0.1504815    0.1432319  42.92 -1.711923e-05    1.062    0.058
       163 -10.8586     26.4209     43.0249   7.6625890408e+01   6.8902314027e+01    0.3963923    0.2359976   4.96  0.001301909    2.058    0.514
       164 -11.3876     37.3629     41.4413   6.8951813363e+01   6.7870851904e+01    0.4683185    0.2873951  43.07  0.001606658    1.726    0.421
       165 -11.8819    183.1530     39.8823   2.5518866389e+01   3.4298351106e+01    0.4713322    0.2804659 -78.93  0.002253952    1.964    0.491
       166 -11.1955    141.5265     40.9845   3.1785875856e+01   4.4302756502e+01    0.2616546    0.2032074  74.02 0.0003525962    1.260    0.207
       167  -9.3961    110.6948     40.9974   3.8322498808e+01   5.2207677911e+01     0.212409    0.1889315 -59.59   0.00112619    1.137    0.120
       168 -11.1550     90.9564     39.9161   4.3522152234e+01   5.7320734783e+01    0.2508578    0.2313691 -26.99            0    1.165    0.142
       169  -9.7185     58.0671     41.4973   5.7474597538e+01   6.4331349398e+01    0.2240642    0.1408298  41.96 0.0004502788    1.555    0.357
       170 -11.2655     81.9209     38.4551   4.5961582415e+01   5.9735520629e+01    0.3309852    0.3068602  52.85  0.001385809    1.033    0.032
       171 -10.8895     51.5442     38.7578   5.9563133933e+01   6.6119126212e+01    0.3017603    0.2346012  50.59 0.0006367335    1.356    0.262
       172  -9.1869     10.6524     39.7084   8.6721453669e+01   7.1094887080e+01    0.1457503   0.08705693 -34.25 8.171479e-05    1.666    0.400
       173  -9.6689    191.8724     38.1652   2.4102656343e+01   3.2538683539e+01    0.1885087    0.1502633 -60.73 0.0002496446    1.124    0.110
       174 -12.0422    121.6247     36.8871   3.4196016032e+01   5.0015278421e+01    0.4790332    0.2826758 -42.08  0.002136188    1.689    0.408
       175  -9.5328    102.8656     36.1613   3.8418957105e+01   5.4953946682e+01    0.2196866    0.1862468 -77.46 0.0002735852    1.252    0.202
       176  -9.6133     67.4484     35.9637   5.0535513552e+01   6.3460207336e+01    0.1997333    0.1256001 -64.50 0.0004075809    2.384    0.581
       177 -10.5523      3.1069     35.8367   9.1505593456e+01   7.2448436540e+01    0.1807486    0.1719695  67.58 0.0002796664    1.172    0.147
       178 -10.1603     45.4766     34.1164   6.0723313210e+01   6.8147457377e+01    0.3513056    0.1378292 -47.30 0.0007281436    2.578    0.612
       179  -9.7799     14.2480     35.5762   8.2738957200e+01   7.1842314104e+01    0.2586532     0.116157  25.79  0.001132426    2.205    0.547
       180  -9.8563     49.8020     33.7330   5.8086946160e+01   6.7447007395e+01    0.1869401    0.1683832 -85.27 0.0005126453    1.339    0.253
       181  -9.8833     27.9644     33.6974   7.1829026867e+01   7.0875316672e+01    0.2269092    0.1610631 -39.70 0.0005464056    1.373    0.272
       182 -12.0123    212.9523     31.9317   2.0590266890e+01   2.8754976028e+01    0.2336427    0.1898942 -51.68 0.0003091359    1.005    0.005
       183  -9.9589    127.8786     32.7319   3.1380842735e+01   4.8972201794e+01    0.2040045    0.1742193  81.52 0.0003582709    1.111    0.100
       184 -11.7031    144.4566     31.0397   2.7935931856e+01   4.4900176095e+01    0.3457066     0.243176 -48.83 -2.700692e-05    1.364    0.267
       185 -12.4656     11.0527     29.8731   8.3317378354e+01   7.3438267449e+01    0.3316705    0.2450251  33.08  0.001875706    1.457    0.313
       186 -10.0435     89.9120     31.2216   4.0012645109e+01   5.8973102194e+01    0.2549701    0.1526417  36.17 0.0006636454    2.002    0.501
       187 -10.0400    130.3128     22.3793   2.7106684973e+01   4.9652700107e+01    0.2802622    0.1927956  38.41  0.001256925    1.755    0.430
       188 -11.1573    135.7089     29.0883   2.8659923870e+01   4.7411971149e+01    0.2487473    0.2078844  84.21 0.0003069668    1.130    0.115
       189 -10.1135    131.9938     26.4974   2.8347576811e+01   4.8709295440e+01     0.232878    0.1986755 -42.68 0.0004180482    1.186    0.157
       190  -9.8754     39.0724     29.9952   6.2548925104e+01   7.0060772423e+01    0.2112052    0.1601196  -6.21 0.0004778315    1.553    0.356
       191  -9.5744      1.2787     30.6686   9.1753558721e+01   7.3783983174e+01    0.1271223   0.09363112  59.67 0.0001608071    1.603    0.376
       192  -9.6498    152.1968     29.1673   2.6182090164e+01   4.3161001221e+01     0.196586    0.1459238 -64.05 0.0004368371    1.300    0.231
       193  -9.8546    162.9097     27.7575   2.4347634272e+01   4.0648186666e+01    0.1968268    0.1680258 -86.70   0.00111639    1.102    0.093
       194  -9.6070    230.2142    247.4045   6.0051994678e+01  -1.8633081364e+00    0.1215845   0.07382801  23.73 0.0004405144    1.488    0.328
       195  -9.9963    216.9339     25.5689   1.8747376176e+01   2.8654673929e+01    0.1823739    0.1351476 -43.39 0.0001539951    1.111    0.100
       196 -10.4553    110.7444     25.2948   3.1970822049e+01   5.4449851298e+01    0.2729345     0.175891   4.75 0.0009225938    2.430    0.588
       197  -9.9884     59.6811     24.3506   4.8085148196e+01   6.7150485555e+01    0.3121098    0.1770318 -31.54  0.001387657    1.938    0.484
       198 -10.2352     51.8495     23.8149   5.1693968359e+01   6.8879411151e+01      0.32752    0.2577348 -88.13  0.001648704    1.856    0.461
       199 -11.6130     47.8613     23.3969   5.3639806709e+01   6.9740856153e+01    0.2480953    0.2375015  25.01 0.0002763132    1.047    0.045
       200 -10.0358     25.6811     24.4707   6.9083698360e+01   7.3165469557e+01    0.3308509    0.1082474 -50.24  0.001235426    2.849    0.649
       201 -10.9782     33.2977     23.9673   6.3187426378e+01   7.2182911861e+01     0.298512    0.1894203  38.07 0.0002943783    1.565    0.361
       202 -11.0188     32.9552     20.1243   6.1212356919e+01   7.2980986947e+01    0.2813411    0.2182216  -4.69 0.0006773105    1.420    0.296
       203 -10.2534     14.3000     15.9591   7.4231901979e+01   7.6274722712e+01      0.24449    0.2126977 -44.40 0.0009800754    1.139    0.122
       204  -9.9561     21.2621     22.1950   7.1426413274e+01   7.4193229425e+01    0.2352127    0.1564677  -3.64 0.0008636416    1.753    0.430
       205 -11.5560     16.6871     20.7945   7.4605794341e+01   7.4999555244e+01    0.4602538    0.3399135  16.93  0.002134271    1.344    0.256
       206 -11.1131      2.6574     20.6065   8.7557239265e+01   7.6113875730e+01     0.344088    0.2467101  45.51 0.0009789404    1.652    0.395
       207  -9.9503    100.5978     22.2272   3.2995579482e+01   5.7501124813e+01    0.2213204    0.1459172 -31.91 0.0007442106    1.602    0.376
       208  -9.5548     97.1981     22.1518   3.3811628430e+01   5.8394582793e+01      0.23525    0.1650409  71.02 0.0002218138    1.385    0.278
       209 -10.2296    131.3319    247.0899   7.7694269834e+01   8.6360009131e+00    0.1549145    0.1253746  19.74 0.0007315835    1.093    0.085
       210  -9.8955    106.9040     21.1049   3.1041537830e+01   5.5989163897e+01    0.2202457    0.1589299  37.53 0.0004047558    1.572    0.364
       211 -10.8710     90.6966     25.8758   3.7313684036e+01   5.9558772772e+01    0.3570486     0.219151 -46.79  0.001615749    1.761    0.432
       212  -9.6101     40.7476     21.3991   5.6726713308e+01   7.1424042909e+01    0.1327826     0.109346 -78.33 0.0006951261    1.698    0.411
       213 -11.7275    205.4004     18.9745   1.7933961647e+01   3.1783040319e+01    0.3358946    0.1821134  60.51  0.001660809    2.090    0.522
       214 -10.5136    163.5008     19.9610   2.1864092775e+01   4.1403480106e+01    0.2361519    0.1862105  84.30 0.0003329306    1.208    0.172
       215 -10.8188     70.5266     18.3434   4.0186920429e+01   6.5581100233e+01    0.2763731    0.2330445 -58.68  0.001184529    1.343    0.255
       216 -10.5167    225.5052     18.0023   1.6409729954e+01   2.7746651660e+01    0.1742292    0.1011453 -30.13 0.0004640952    1.534    0.348
       217 -10.9765     24.4261     17.8469   6.6385875605e+01   7.4683600426e+01    0.2420376    0.1925368  -4.96 0.0002839614    1.282    0.220
       218 -10.1702    115.8973    246.8148   8.0824313084e+01   1.0448927177e+01    0.1724549    0.1299408   9.92 0.0006199445    1.252    0.201
       219 -12.1813     10.1391    245.2793   1.0335258782e+02   2.1575456789e+01    0.4285925    0.2047805 -68.13  0.002559106    2.659    0.624
       220 -11.8873      1.4821    233.4970   1.0496195072e+02   2.4392283495e+01    0.3797703    0.1955477 -89.86  0.002070826    2.083    0.520
       221  -9.9065    215.0001     16.0096   1.6567824926e+01   3.0072875047e+01    0.1505085    0.1170706 -49.08 0.0004173094    1.043    0.041
       222  -9.6632    159.7958     15.8420   2.0967396352e+01   4.2776044117e+01    0.1943143    0.1777374  57.84 0.0006549319    1.245    0.197
       223 -10.7517     51.7288    244.1518   9.4383582208e+01   1.7931072383e+01    0.2753665    0.1671304  44.76  0.001776963    1.285    0.222
       224  -9.2942    194.6225    242.8186   6.5259270783e+01   2.1449854158e+00    0.1205262   0.09426255 -30.47 0.0009302722    1.595    0.373
       225  -9.8401    207.7522     12.7421   1.6213006651e+01   3.1929061700e+01    0.1769869    0.1112823 -53.94 0.0005851396    1.310    0.236
       226  -9.5463    147.6664    243.6587   7.4060385835e+01   7.2379617971e+00    0.1177605   0.07318017  -0.49 3.982418e-07    1.754    0.430
       227 -10.2307    153.3072     12.7917   2.0672227805e+01   4.4735947108e+01    0.2257636    0.1663452 -81.90 0.0003200679    1.262    0.208
       228  -9.4512     52.6790    129.7129   8.3717954758e+01   4.3158063834e+01     0.145991    0.1123916 -27.87 0.0003961005    1.598    0.374
       229 -11.0661     26.6320    237.1939   9.9568605129e+01   2.1583737449e+01    0.1324962    0.1019743 -72.85 0.0003079338    1.626    0.385
       230  -9.4999     59.1597    236.1087   9.2263676896e+01   1.8567555620e+01    0.1608073    0.1054969  46.84 0.0003484588    1.267    0.210
       231 -12.9912      5.2796    242.1177   1.0430829347e+02   2.2530269886e+01    0.6250572    0.3891013  89.96  0.003854198    1.784    0.439
       232 -10.8724     31.6401    232.9423   9.8286010020e+01   2.1898782409e+01    0.3216269    0.1110054  31.50   0.00128647    2.026    0.506
       233  -9.1697    239.2743    234.3314   5.6904938258e+01  -1.3727149658e+00     0.103081   0.05607892  -4.66 0.0006104791    1.595    0.373
       234  -9.5650    245.9421    230.4915   5.5383557707e+01  -1.5993500421e+00     0.134449   0.07717735  20.11 0.0004747332    1.496    0.332
       235  -9.7961    139.8074    227.8122   7.3767568967e+01   1.0462648128e+01    0.1884719    0.1230794  53.07  0.001072863    2.160    0.537
       236 -11.1406      2.6445    247.9675   1.0495951137e+02   2.1715773578e+01    0.2471284    0.2058523  19.41  0.001798437    1.391    0.281
       237  -9.8175    223.5705    226.1950   5.8170577711e+01   1.0389903341e+00     0.144467   0.07807385 -19.49 0.0005393159    1.652    0.395
       238 -11.6963      3.1790    221.1097   1.0435413147e+02   2.6608123228e+01    0.5177373    0.1262833  62.36  0.002140712    3.495    0.714
       239  -9.9369     19.1093    220.8802   1.0068395077e+02   2.5333866317e+01     0.340442    0.1205945  57.00  0.001468001    2.416    0.586
       240 -10.6670      7.5963    221.1105   1.0334712255e+02   2.6257354051e+01    0.2348873    0.1021442 -81.98  0.001252506    2.500    0.600
       241 -10.1685    170.2066     10.3591   1.8290222027e+01   4.0765638239e+01    0.1866917     0.110042 -83.63 0.0002144746    1.661    0.398
       242  -9.5317    210.3623    215.8225   5.8807607188e+01   3.6729252498e+00    0.1499136   0.08341609 -22.14 0.0006315424    1.670    0.401
       243  -8.9200     79.6857     10.6157   3.2895639326e+01   6.4288689673e+01    0.1535875   0.09922658  30.93  0.000143634    1.820    0.451
       244  -9.1150     85.7335    215.0195   8.4412320799e+01   1.9395876296e+01     0.125763    0.1123104 -78.06 0.0001868118    1.358    0.264
       245  -9.8398    111.3114    214.6678   7.8400323257e+01   1.6231253880e+01    0.1266272   0.08541013  52.50 0.0003936144    1.675    0.403
       246  -9.5355    229.7839    208.9775   5.4643829174e+01   2.3605187159e+00    0.1371981   0.07187249 -29.59 0.0008717031    1.694    0.410
       247 -10.3653     39.1412    207.3029   9.5217776801e+01   2.6188682858e+01    0.1757544    0.1638867  61.44 0.0004285595    1.179    0.152
       248 -11.3421      4.3353    206.3123   1.0375558430e+02   2.9492880142e+01    0.4207914    0.1457819  44.10   0.00207626    1.996    0.499
       249 -10.5737    232.0114    180.9331   4.9781852691e+01   5.5194249267e+00      0.19186    0.1352598 -28.74 0.0004111798    1.311    0.237
       250  -9.4987     22.1605    180.3683   9.8165528674e+01   3.3715141464e+01    0.1976478    0.0906276  36.51 0.0009437079    1.749    0.428
       251  -9.1160     37.5753    172.4083   9.3265603712e+01   3.4114378807e+01    0.1346576    0.1148744  51.45 0.0001078235    1.007    0.007
       252  -9.2555    229.4937    165.5192   4.7478874619e+01   7.8242495598e+00    0.1164756   0.09073565 -11.62 0.0001253738    1.012    0.012
       253 -10.4819     13.7759    164.3896   9.9756228540e+01   3.8204820395e+01    0.1790704     0.122585   6.47 0.0009610971    1.724    0.420
       254  -9.4150     10.3278    161.3341   1.0064152855e+02   3.9212269860e+01    0.1295286   0.09370665 -42.81 0.0007009553    1.720    0.419
       255 -10.3694     29.5078    155.1707   9.4349159385e+01   3.9127480925e+01    0.2274275    0.1761045  34.96 0.0003782643    1.209    0.173
       256  -9.0393     39.3096    151.6760   9.0918971379e+01   3.9027753850e+01    0.1535461    0.0905182  57.43 0.0005385967    1.652    0.395
       257 -11.3121     28.9527    139.2057   9.3162503083e+01   4.3270696494e+01    0.3328323    0.1835501 -73.29 0.0004465567    1.762    0.432
       258 -10.1428      1.9682    140.0972   1.0236136818e+02   4.5087367443e+01    0.2003248    0.1658397  65.06 0.0003275738    1.044    0.042
       259  -9.9379     24.2576    137.9969   9.4670321940e+01   4.4009861320e+01    0.2270527    0.1652787  57.25 0.0004214196    1.265    0.210
       260 -10.7643     21.4684    135.5865   9.5437248082e+01   4.4878289250e+01    0.2361094    0.1976384  32.01 6.713949e-05    1.198    0.166
       261  -9.4921    235.5253    137.5148   4.1408390950e+01   1.0754750081e+01    0.1182697   0.09392348 -19.90 0.0008099598    1.004    0.004
       262 -10.3482     24.4302    134.1644   9.4276703985e+01   4.5000570244e+01    0.4828628    0.1857591  55.07  0.001733283    2.709    0.631
       263 -10.0296     95.8661    134.2335   7.0279165972e+01   3.5465638931e+01    0.2629189    0.2048576 -70.64   0.00129212    1.421    0.296
       264  -9.3619     28.5235    134.5752   9.2872847519e+01   4.4524975847e+01    0.1419506    0.1258928  62.51 5.124786e-05    1.025    0.025
       265  -9.8625    105.1558    133.1550   6.7308497384e+01   3.4089970804e+01    0.2196587    0.2017185   1.37 0.0004160732    1.177    0.150
       266  -9.9526      1.5056    132.4969   1.0219934698e+02   4.7069585733e+01     0.132675    0.1183392  76.29 0.0008103088    1.042    0.040
