#   1 NUMBER                 Running object number                                     
#   2 MAG_AUTO               Kron-like elliptical aperture magnitude                    [mag]
#   3 X_IMAGE                Object position along x                                    [pixel]
#   4 Y_IMAGE                Object position along y                                    [pixel]
#   5 X_WORLD                Barycenter position along world x axis                     [deg]
#   6 Y_WORLD                Barycenter position along world y axis                     [deg]
#   7 A_WORLD                Profile RMS along major axis (world units)                 [deg]
#   8 B_WORLD                Profile RMS along minor axis (world units)                 [deg]
#   9 THETA_WORLD            Position angle (CCW/world-x)                               [deg]
#  10 FWHM_WORLD             FWHM assuming a gaussian core                              [deg]
#  11 ELONGATION             A_IMAGE/B_IMAGE                                           
#  12 ELLIPTICITY            1 - B_IMAGE/A_IMAGE                                       
         1 -14.1580     69.7314    148.2940   5.0969967743e+01   3.5845320470e+01     3.520051     1.771949  88.13  0.001669071    4.018    0.751
         2 -13.3967    215.1509     56.1704   3.5740113145e+02   2.6509581416e+01     1.060379    0.9323499 -24.00  0.004636876    1.367    0.268
         3 -13.6410    229.3514     47.1776   3.5421129335e+02   2.5104270738e+01    0.8594434    0.8510732  50.54  0.004712177    1.414    0.293
         4 -10.7187      2.5008      2.7965   4.0983609973e+01   7.9325660061e+01    0.4135138     0.183351 -49.99  0.001637376    2.327    0.570
         5 -10.4650      2.0000     13.0284   4.8174848093e+01   7.7499694030e+01    0.2907635    0.1140186 -49.69  0.001231816    2.260    0.558
         6  -9.1625    193.6565      4.7288   3.4699206791e+02   3.6881783429e+01     0.104926    0.0865102  53.59 0.0001777675    1.614    0.380
         7  -8.9497    187.6694      1.3389   3.4649794527e+02   3.8468128792e+01    0.1344859   0.06400872 -58.29 0.0006214624    1.739    0.425
         8 -10.5095    103.8834    238.4898   5.3810934228e+01   1.1114333140e+01    0.3098218    0.1945293 -57.61  0.001801208    1.887    0.470
         9 -10.0664     75.0032    248.1034   6.1175419108e+01   1.2584831912e+01    0.4012847    0.1674046 -53.31  0.001983372    2.793    0.642
        10  -9.2454     52.4104    250.6320   6.6390802238e+01   1.4460892041e+01    0.3281985   0.09010418  26.36  0.001344492    2.866    0.651
        11 -14.8854     66.5846    188.7470   5.7524061568e+01   2.6053645524e+01     21.31583     8.826905  84.56   0.04019396   12.857    0.922
        12 -10.3664     46.9823    229.3461   6.6238805298e+01   1.9177595327e+01    0.2723319    0.1977148  39.28 0.0007412294    1.138    0.121
        13 -10.2055     72.7277    233.1587   6.0434279711e+01   1.5656394962e+01     0.281848    0.2318896 -80.50 0.0009635409    1.430    0.301
        14 -11.9320    133.2936    229.6443   4.6306386635e+01   9.2222148880e+00    0.4697522    0.3179802  23.01  0.002829919    1.273    0.214
        15 -11.7537    125.6610    229.7093   4.7971289268e+01   1.0121997486e+01    0.4587242    0.3181635  10.82  0.002727325    1.361    0.265
        16  -8.2149    194.5524    229.4400   3.4218002028e+01   2.3209746599e+00    0.1135183   0.08737019  -4.88 0.0001530812    1.012    0.012
        17 -10.5366    163.4579    221.4057   3.8907012142e+01   7.0124599333e+00    0.3950589    0.1726076 -41.77  0.001483908    2.266    0.559
        18 -10.0089    175.0042    223.5138   3.6957653774e+01   5.3368457873e+00    0.1784608    0.1390935 -20.51 0.0005192363    1.161    0.138
        19 -14.5698     10.0145    206.8783   7.4090033449e+01   2.7530364793e+01     1.272855    0.9539164   6.17  0.003262948    1.582    0.368
        20  -8.3385    131.9710    211.9362   4.4207290530e+01   1.2571751936e+01    0.1482305    0.1314461   2.42            0    1.032    0.031
        21  -9.3540     95.2876    209.8815   5.2568468936e+01   1.7701447431e+01    0.3160531    0.1691822 -82.26   0.00128229    3.286    0.696
        22 -10.3955    103.6886    203.4489   4.9681341765e+01   1.7960601141e+01    0.2706445    0.2377964 -11.71 0.0001989681    1.182    0.154
        23  -9.4733    210.9100    199.1062   2.6691608054e+01   4.9497972509e+00    0.2079306    0.1438389 -12.49 0.0008969629    1.260    0.207
        24 -11.4065     96.4795    195.6131   5.0436118738e+01   2.0602447733e+01    0.4412044    0.3412088  40.48  0.001700088    1.231    0.187
        25 -11.0335    102.0311    192.9916   4.8657423621e+01   2.0423853326e+01      0.35562    0.2770014  28.04  0.001468857    1.193    0.162
        26 -12.4825    107.8197    189.9541   4.6750332590e+01   2.0283211999e+01    0.6788724    0.5394742  11.14  0.003748366    1.285    0.222
        27 -10.7018    120.4900    188.5044   4.3387963432e+01   1.8795668610e+01    0.2892372    0.1285237  31.11 0.0009703306    2.134    0.531
        28 -13.8106      2.1103    242.6690   7.7146583074e+01   2.0550139181e+01     1.335181    0.6961536  70.15   0.00787449    1.771    0.435
        29 -11.2630    116.1268    181.2253   4.3300993872e+01   2.0991702803e+01    0.3844889    0.1989534 -60.11  0.001644535    2.218    0.549
        30  -9.7656    104.5403    172.5818   4.4875535193e+01   2.4661499442e+01    0.3138402    0.2401608  83.63  0.001549773    1.713    0.416
        31  -9.9743    176.5019    169.5231   2.7704184277e+01   1.4289627899e+01    0.2267401    0.1191168 -52.37  0.001008271    2.216    0.549
        32  -8.7156    150.6595    249.6952   4.5232282712e+01   4.0318669659e+00    0.1200601   0.07449944  -5.25 0.0006201766    1.679    0.404
        33 -12.8552     57.3488    144.7886   5.4440411820e+01   3.8467376754e+01    0.7028611    0.4875993 -42.89 0.0008386619    1.580    0.367
        34 -11.4836     54.8142    160.8661   5.7551283994e+01   3.4511853655e+01    0.4895731    0.3300057 -22.39  0.002070836    2.003    0.501
        35 -11.5219     60.3828    157.0006   5.5276487567e+01   3.4825558025e+01     0.483386    0.3763694 -55.06   0.00193763    1.311    0.238
        36 -10.3632    180.4632    166.8791   2.6445899155e+01   1.4185403593e+01    0.3767137    0.2333982 -50.57  0.001433099    1.748    0.428
        37  -9.5403    110.7119    167.3396   4.2349077390e+01   2.4925639252e+01      0.25515    0.2171323  78.90 0.0006568643    1.410    0.291
        38 -10.2780    234.0023    167.7576   1.7736192277e+01   6.8980138663e+00    0.2298468    0.1263459 -52.74  0.001187912    2.654    0.623
        39 -10.2878    234.5268    157.9962   1.5915505771e+01   8.2738981132e+00     0.189276   0.09115069 -36.50  0.001042655    1.625    0.385
        40 -10.7084     38.3750    149.7040   6.1461294362e+01   3.9389183896e+01    0.4929678    0.3326547  74.43  0.002330549    1.568    0.362
        41  -9.6480    134.5135    148.5777   3.2706872725e+01   2.5224806079e+01    0.4767233    0.2338681 -62.61   0.00168216    3.075    0.675
        42  -8.6244    112.2187    150.3993   3.8795834698e+01   2.8624961765e+01    0.1931085    0.1370192  45.94 8.500287e-05    1.464    0.317
        43 -14.1240     55.4134    233.6954   6.4548863269e+01   1.7419947523e+01     3.714488     2.239941 -23.62   0.01853029    2.579    0.612
        44 -10.3292    108.9561    145.4762   3.8704794661e+01   3.0343614009e+01    0.2826399    0.2684679  44.02 0.0006330817    1.067    0.063
        45 -10.0140    235.7955    145.4125   1.3431324799e+01   9.9861797018e+00    0.1460889    0.1051826  18.07  0.000720439    1.709    0.415
        46  -8.5043    229.3126    144.6631   1.4176815770e+01   1.0957006533e+01    0.1147292   0.08414663 -55.87 0.0005009082    1.689    0.408
        47 -10.2211     36.7637    142.6470   6.1141390847e+01   4.1487560971e+01    0.3090375    0.2408808  89.67 0.0007543188    1.260    0.206
        48  -9.4242     33.1644    138.9192   6.1933760853e+01   4.2886304641e+01    0.3352804    0.1914374 -62.69 0.0007818498    1.649    0.394
        49  -8.7731     27.9123    144.4925   6.4414912490e+01   4.1864356228e+01    0.2060792    0.1399988  26.94 0.0005711691    1.498    0.332
        50 -11.2004     74.4602    136.3118   4.7309713795e+01   3.8296756311e+01    0.4545591    0.3266167  82.70   0.00203463    1.712    0.416
        51 -11.3681     42.8838    133.8504   5.7774138021e+01   4.3232980241e+01    0.5521513    0.4534887 -56.68  0.001571213    1.210    0.174
        52  -9.6442     39.0292    129.7626   5.8567785729e+01   4.4798928465e+01    0.2974187    0.2166045  66.98 0.0006258815    1.451    0.311
        53 -10.0945     37.3385    126.2747   5.8674798556e+01   4.5952036116e+01     0.246313    0.2341268 -17.10 0.0003551196    1.154    0.133
        54 -10.2683     34.9797    124.0271   5.9230035968e+01   4.6829887145e+01     0.278205    0.2501469 -25.93 0.0003357471    1.227    0.185
        55  -9.3310     37.9911    137.0471   5.9978091156e+01   4.2897893305e+01    0.2366139    0.1945302  64.95 0.0006418905    1.206    0.171
        56 -11.6307     82.5110    132.0035   4.3843288450e+01   3.8144704259e+01    0.2984169    0.2738601 -54.62 0.0003802691    1.083    0.077
        57  -9.7455    105.6307    130.6433   3.6494446973e+01   3.4491657042e+01     0.379344    0.2785484 -59.65  0.001058536    1.391    0.281
        58  -9.5739    107.0945    126.4739   3.5129580957e+01   3.5227647095e+01    0.2940209    0.2401464  -1.41 0.0009292684    1.515    0.340
        59 -14.3127      5.0927    233.6433   7.6231301068e+01   2.2122183327e+01     1.849791    0.5340663  46.70  0.008475222    2.409    0.585
        60  -8.1595    219.3084    126.6787   1.2065124857e+01   1.5191288820e+01    0.1211202   0.08679563 -58.45  0.000344337    1.643    0.391
        61 -14.3007     35.5180    173.2257   6.4845105535e+01   3.3446890998e+01     3.334959     1.643122  49.44   0.01448966    1.941    0.485
        62 -10.5129     93.7955    121.6105   3.7986702859e+01   3.8841912081e+01    0.3390495    0.2876451 -15.64 0.0007683976    1.385    0.278
        63 -10.4782     95.9023    133.9774   4.0087692234e+01   3.5392198574e+01    0.5237632    0.3841909 -16.51  0.002329097    1.826    0.452
        64  -9.0388    115.1655    121.2503   3.1631361138e+01   3.4941735892e+01    0.2621446    0.1708272 -10.88 0.0009575858    2.828    0.646
        65 -14.0430     53.6150    218.4934   6.3813922180e+01   2.0772945021e+01     2.278955     1.173016 -82.64  0.006247323    2.345    0.574
        66 -10.3819     26.6475    118.0208   6.1599017300e+01   4.9333285946e+01    0.3144199    0.2568699  73.38 0.0007018072    1.231    0.188
        67 -11.4721    244.9333    114.7771   6.4870526357e+00   1.3262990727e+01    0.3170133    0.2378323 -45.46  0.001947794    1.178    0.151
        68  -9.5808    104.9460    116.0775   3.3280191054e+01   3.8116783223e+01    0.2244257    0.2185042 -77.24 0.0003036687    1.019    0.019
        69  -9.8047     42.5041    115.0475   5.4821589911e+01   4.8469445575e+01    0.2918066    0.1982106  48.64 0.0009577447    1.534    0.348
        70 -12.0021     77.6125    145.6947   4.8027913678e+01   3.5369104141e+01    0.7970483    0.5598577 -13.35  0.001203317    1.978    0.494
        71 -10.9864     24.2278    105.1882   6.0667384789e+01   5.3126053042e+01    0.3675975    0.3407605  49.26  0.001510434    1.120    0.108
        72  -9.1069    113.7232    104.0687   2.7679709605e+01   3.9159844906e+01    0.2146339    0.1924888 -50.33 0.0003051021    1.083    0.077
        73 -10.6830     12.8049    101.7562   6.5148638024e+01   5.4989398105e+01    0.4521918    0.2086953 -47.25  0.001182521    2.135    0.532
        74  -9.9910     17.4836    101.4869   6.3040197384e+01   5.4718973440e+01    0.2310937    0.1970593 -10.56 0.0008560875    1.298    0.229
        75  -8.2013     85.3181     93.7089   3.3585670655e+01   4.7252950241e+01    0.1566193    0.1215442  78.42 0.0003099648    1.600    0.375
        76  -8.9910     20.8208     90.8034   5.9750921182e+01   5.7377090547e+01    0.2141782    0.1858571 -45.23 0.0004876108    1.124    0.111
        77 -11.1667     54.5902     88.3554   4.3852823747e+01   5.3956122476e+01     0.501766    0.2656515 -56.25  0.002051122    1.814    0.449
        78  -8.4621     99.5583     87.4892   2.7132442439e+01   4.5806205851e+01    0.1563139    0.1442747 -84.22 0.0004419872    1.112    0.101
        79  -9.3825     38.1065     86.0638   5.0592202277e+01   5.6837587242e+01    0.2305193    0.1691101  63.29 0.0004280508    1.606    0.377
        80 -15.8429     25.2868    179.9286   6.8415594907e+01   3.2721251256e+01     8.410928     3.409303  79.88   0.02501411    3.087    0.676
        81 -10.5002     46.1113     79.7351   4.5209474072e+01   5.7399864995e+01    0.3342567    0.3025996  23.52  0.001702096    1.138    0.121
        82  -8.2139     30.6533     72.7263   5.0809349286e+01   6.1170116854e+01    0.1504891    0.1041739 -25.92 0.0006999621    1.626    0.385
        83 -12.0625    205.0758     62.4403   3.5985797685e+02   2.7547855267e+01    0.4450226    0.3455268 -78.74  0.001097047    1.328    0.247
        84 -15.7123      4.8206    214.5284   7.5674007124e+01   2.6220764566e+01     3.874268     2.037124  40.22    0.0172584    1.519    0.342
        85  -9.2541    125.0000    245.9066   5.0039196013e+01   7.4400439287e+00    0.2871946   0.06804834 -55.24  0.001060395    5.017    0.801
        86  -9.7116     21.8137     47.5885   4.8023525101e+01   6.8244912609e+01    0.1925437    0.1200709  35.85 0.0007692904    1.678    0.404
        87  -9.9651     63.7980     63.2114   3.1944277819e+01   5.8349792027e+01    0.2164517    0.2013934  80.30 0.0005879694    1.171    0.146
        88 -10.7796      2.7872     31.1747   5.5698206513e+01   7.3644326757e+01    0.3414388     0.215732 -56.85  0.001877676    1.459    0.315
        89 -10.8242      8.0394     26.0249   4.9265412583e+01   7.4346851233e+01    0.3997101    0.1863757  37.85  0.001835258    2.414    0.586
        90 -10.2654      2.4542     26.6820   5.4258140247e+01   7.4653600047e+01    0.2684224    0.2248196 -13.23 0.0006949822    1.096    0.088
        91 -10.1590      2.3494     22.6717   5.2659904049e+01   7.5517605612e+01    0.2375924    0.1914422  65.01 0.0008771438    1.697    0.411
        92  -8.5706     17.6537     57.3024   5.3757373743e+01   6.6358776783e+01    0.1405546    0.1021186  57.18 0.0005353121    1.688    0.407
        93 -10.1051     22.8426     28.1111   3.8915810647e+01   7.2257956985e+01    0.1900612    0.1810929  34.93 0.0005121239    1.208    0.172
        94  -9.7376     60.7693     21.5438   1.4712429769e+01   6.6421088662e+01     0.266558    0.2207718  65.48 0.0008431625    1.253    0.202
        95  -8.7833    189.4630     15.4793   3.4990819412e+02   3.6658983310e+01    0.1238281   0.09776312 -61.94  9.95249e-05    1.003    0.003
        96 -11.8253     39.7956    231.3080   6.8074815183e+01   1.9493640063e+01    0.4281757    0.3850239  66.26  0.001866165    1.147    0.128
        97  -8.5978    108.6508    242.6802   5.3202617546e+01   9.8293943476e+00    0.1251046   0.08420265  -8.39 0.0007048493    1.738    0.425
        98  -8.5646    198.4784    241.4633   3.5234626288e+01   2.7067220318e-01    0.1095043   0.08319023  -2.67 0.0001012828    1.048    0.046
