#   1 NUMBER                 Running object number                                     
#   2 MAG_AUTO               Kron-like elliptical aperture magnitude                    [mag]
#   3 X_IMAGE                Object position along x                                    [pixel]
#   4 Y_IMAGE                Object position along y                                    [pixel]
#   5 X_WORLD                Barycenter position along world x axis                     [deg]
#   6 Y_WORLD                Barycenter position along world y axis                     [deg]
#   7 A_WORLD                Profile RMS along major axis (world units)                 [deg]
#   8 B_WORLD                Profile RMS along minor axis (world units)                 [deg]
#   9 THETA_WORLD            Position angle (CCW/world-x)                               [deg]
#  10 FWHM_WORLD             FWHM assuming a gaussian core                              [deg]
#  11 ELONGATION             A_IMAGE/B_IMAGE                                           
#  12 ELLIPTICITY            1 - B_IMAGE/A_IMAGE                                       
         1 -11.5627    220.1232     10.2342   5.0781990968e+01   2.8199109189e+01      1.05492    0.6883214 -79.86  0.004227513    1.738    0.425
         2 -12.2216    229.2251      3.4950   4.8024353011e+01   2.6534918112e+01      2.14192    0.8908422  77.55  0.007992192    2.568    0.611
         3  -8.7064     86.9808      5.6629   7.2947000795e+01   6.2084001821e+01    0.2871654    0.1745496 -14.05    0.0010611    1.640    0.390
         4  -7.7970    179.0000      4.0077   5.3520242869e+01   3.9650683197e+01     0.242864   0.08259988 -19.35 0.0008167026    3.042    0.671
         5  -8.9493      6.6041      3.5939   1.0742606342e+02   7.3327371294e+01    0.1950778    0.1653459 -43.12 0.0009324144    1.182    0.154
         6  -7.5753    152.4767      2.5002   5.6797030890e+01   4.6862155967e+01    0.1456216     0.134283  38.43 0.0003735431    1.024    0.023
         7  -8.0961     64.0482      2.2211   7.9035635407e+01   6.6764361928e+01     0.156734   0.09977903  40.91  0.000659086    1.649    0.394
         8  -7.5387    129.2959    246.3358   1.1713161552e+02   1.2273501378e+01   0.09313247   0.07175359  25.66 0.0002374504    1.648    0.393
         9  -9.1383    248.7384    249.6155   9.9208258368e+01  -5.2347173647e+00    0.2725803    0.1671916  28.29  0.001805743    1.119    0.106
        10  -8.8522    249.2652    244.0263   9.8376978830e+01  -4.8790383305e+00    0.2092319    0.1424291  21.77  0.001651858    1.091    0.083
        11  -9.4246    239.9444    250.4102   1.0058965423e+02  -4.0897351306e+00    0.6186134   0.09874875  45.51  0.001990038    6.880    0.855
        12 -10.5188    242.3046    244.4552   9.9453343985e+01  -3.9456456922e+00    0.3906706    0.2189417  23.94  0.001990906    1.450    0.310
        13  -8.4582    210.6820    249.5755   1.0483326241e+02   1.2273075580e-01    0.1733943    0.1383426 -39.60 0.0007085522    1.863    0.463
        14  -8.3105    106.2574    250.6443   1.2108028383e+02   1.4860935584e+01    0.1672865   0.06796268  45.10 0.0003365348    1.748    0.428
        15 -10.1455     52.8733    248.8511   1.2902867504e+02   2.1601732756e+01    0.1892663    0.1316001  66.48 0.0004193189    1.089    0.082
        16  -9.7504      4.8382    250.0055   1.3589325643e+02   2.6247237672e+01    0.1493967    0.0951976  57.92 0.0004059787    1.150    0.131
        17  -9.7862    234.7060    243.2217   1.0041149299e+02  -2.7725642819e+00    0.2047111    0.1823605  10.18  0.001783917    1.420    0.296
        18  -9.0811     46.1173    243.0210   1.2973781126e+02   2.3167045402e+01    0.1793302    0.1162786  46.70 0.0004249286    1.370    0.270
        19  -7.3197    166.5894    243.2589   1.1092739751e+02   7.2466055700e+00    0.1082798   0.06454682  57.02 0.0006952978    1.740    0.425
        20  -7.5901    137.0757    243.5141   1.1563812217e+02   1.1522523420e+01    0.1557108   0.07684194  44.61 0.0004583307    1.470    0.320
        21  -8.2568    117.2027    242.9614   1.1874322379e+02   1.4383633254e+01    0.1544676    0.1045985  59.91 0.0004304403    1.238    0.193
        22  -8.4802     99.5478    242.8114   1.2151937938e+02   1.6779089832e+01    0.1763713    0.1060049  47.00 0.0005461603    1.248    0.198
        23  -8.9412     85.7543    242.1157   1.2362916028e+02   1.8649989795e+01    0.1617983    0.1143801  54.21 0.0003212638    1.072    0.067
        24  -9.9808      3.2818    241.3752   1.3586740542e+02   2.7615219830e+01    0.1790338    0.1053425  57.74 0.0004752467    1.153    0.133
        25  -9.4928     58.8843    240.4106   1.2767308964e+02   2.2122875179e+01    0.1801929    0.1206551  60.28 0.0004451178    1.025    0.025
        26  -9.0844    226.8675    239.7565   1.0112438110e+02  -1.3463837103e+00    0.2576683    0.1382761  27.34  0.001687149    1.562    0.360
        27  -9.4617    109.2049    239.2366   1.1969888798e+02   1.5972486444e+01    0.1805022     0.140804  57.91 0.0002813122    1.091    0.083
        28 -11.1013     30.7228    236.6682   1.3173755891e+02   2.5706025325e+01    0.4095567    0.2765951 -88.81  0.003617442    1.424    0.298
        29 -12.8051     38.7411    215.4226   1.2945387064e+02   2.8161084516e+01    0.8792504    0.6921682 -79.33  0.002419309    1.468    0.319
        30  -9.4035     69.1882    188.7663   1.2222701973e+02   2.9179660903e+01    0.2304652    0.1714491  56.39 0.0004041162    1.137    0.120
        31  -9.9647     51.4086    204.6188   1.2666867675e+02   2.8556251812e+01    0.2893367     0.176647  60.62 0.0003837378    1.254    0.203
        32 -12.2831     56.6432    194.5297   1.2501585169e+02   2.9681831488e+01     1.088578     0.805269  73.11  0.008334689    1.065    0.061
        33  -8.7907     38.8448    238.8713   1.3062424505e+02   2.4544373335e+01    0.1525356    0.1040194  64.32 0.0003486787    1.028    0.027
        34  -9.3674    247.7301    237.9933   9.7765569035e+01  -4.1879305756e+00    0.2456859    0.0995006  35.57   0.00145857    1.795    0.443
        35  -8.5760    139.3265    238.0792   1.1474427913e+02   1.1876590713e+01    0.2018957    0.1156569  49.28 0.0003863531    1.314    0.239
        36  -7.7624    121.7888    237.8900   1.1755858892e+02   1.4412276683e+01    0.1400131   0.09452502  61.27 0.0003664662    1.311    0.237
        37  -7.0904     65.2544    238.2734   1.2656663905e+02   2.1693381095e+01   0.07757871   0.06868398  55.07 0.0001962756    1.456    0.313
        38  -9.0047     50.1824    237.4115   1.2883734476e+02   2.3537388378e+01    0.1974995    0.1079347  56.49 0.0007736265    1.280    0.219
        39  -8.7114     45.8597    235.1460   1.2937941617e+02   2.4345263683e+01    0.2229854     0.105362  60.84 0.0009671632    1.580    0.367
        40  -8.0476     82.6359    234.8823   1.2360588005e+02   2.0067290684e+01    0.1321167   0.09828877  69.72 0.0004916085    1.149    0.129
        41  -8.0495     96.0107    234.2912   1.2141373606e+02   1.8426127286e+01    0.1442269   0.09871085  51.96 0.0003204658    1.092    0.084
        42  -8.3900      6.8985    233.9671   1.3513233508e+02   2.8381069042e+01    0.1342521   0.08551066  66.70 0.0003628508    1.012    0.012
        43  -9.8855    247.2237    232.5849   9.7072199372e+01  -3.6734479803e+00    0.5457087    0.1313005  35.15   0.00229417    3.622    0.724
        44  -7.9590    143.5147    233.3797   1.1357988065e+02   1.1857347743e+01    0.1794034   0.07892545  44.11 0.0006243106    1.691    0.409
        45  -7.7272    132.5005    233.5337   1.1540021317e+02   1.3455098546e+01    0.1087553   0.08015598  50.22 0.0001828049    1.009    0.009
        46 -10.1281     17.6263    238.6147   1.3373781966e+02   2.6702622297e+01    0.2263028    0.1441762  56.51 0.0004439605    1.161    0.139
        47  -7.7659    206.2059    232.4103   1.0333768298e+02   2.4282317625e+00    0.1502401   0.08175182  47.02 0.0005114431    1.591    0.372
        48  -9.6214     15.3519    229.7489   1.3374924221e+02   2.8241272320e+01    0.3035591     0.158236  80.37  0.001357749    1.530    0.346
        49  -7.3646    168.6205    231.2379   1.0923013971e+02   8.3274103416e+00    0.1096331   0.06786237  56.06 0.0002905772    1.629    0.386
        50  -7.5326    111.5554    231.5501   1.1864935173e+02   1.6705435043e+01    0.1065424   0.07848246  54.38 9.095626e-05    1.003    0.003
        51  -8.0955    217.0744    229.4758   1.0123407803e+02   1.0647187209e+00    0.1539937    0.1203341  24.09 0.0005117667    1.107    0.097
        52  -7.8475     88.3246    229.8584   1.2231187950e+02   2.0070599811e+01    0.1339604    0.1015033  63.91 0.0004100104    1.074    0.069
        53  -8.2313    104.5188    229.3124   1.1960951931e+02   1.7991919593e+01    0.1889422    0.1075522  47.11 0.0005982842    1.331    0.249
        54  -7.6943     11.5255    224.4764   1.3412975672e+02   2.9403357736e+01    0.1486962   0.06916911  62.15  0.000636283    1.494    0.331
        55  -7.1450    136.4971    228.5182   1.1422731656e+02   1.3532037203e+01    0.1103196   0.08288382  49.13 -3.073518e-05    1.004    0.004
        56  -8.3656     48.9715    228.0245   1.2851263599e+02   2.5077331032e+01    0.1493356    0.1010937  64.48 0.0003655176    1.040    0.038
        57  -7.4089    149.2793    227.6702   1.1200803280e+02   1.1723869070e+01    0.1056692   0.07256526  64.74 0.0003485763    1.601    0.375
        58  -9.3204      5.6056    226.1135   1.3507007247e+02   2.9683714609e+01    0.1632868     0.111979  72.07 0.0003625683    1.096    0.087
        59  -8.1760     95.9479    226.1495   1.2075717687e+02   1.9611137663e+01    0.1595935    0.1032624  61.44 0.0003476083    1.261    0.207
        60  -8.0920    238.9397    225.4672   9.7284898355e+01  -1.8511630043e+00    0.1650191   0.08190724  39.31 0.0005105661    1.538    0.350
        61  -7.2039    178.2783    225.3343   1.0692148693e+02   7.5262356723e+00    0.1070787   0.07465325  20.29 0.0005656357    1.609    0.378
        62  -8.9151    247.8749    223.8879   9.5698581827e+01  -3.0304529002e+00    0.2381929    0.1325729  14.10   0.00149343    1.815    0.449
        63  -7.1514    123.6965    223.3233   1.1583868099e+02   1.6130301695e+01    0.1106079   0.06890596  64.85 0.0007030836    1.637    0.389
        64  -7.9205    107.0115    222.6280   1.1859285076e+02   1.8615794526e+01    0.1526302    0.1043246  51.99 0.0004347776    1.109    0.098
        65  -7.0179    158.6840    222.2878   1.0980877903e+02   1.0967800035e+01    0.1092454   0.07390773  61.12 0.0002546275    1.589    0.371
        66  -6.9766    194.7153    221.6648   1.0373973626e+02   5.3555209351e+00     0.111099   0.07353336  19.65 0.0003471579    1.623    0.384
        67  -7.4018    138.2011    221.6044   1.1319620411e+02   1.4210837567e+01    0.1504097   0.08566067  38.59 0.0003710915    1.522    0.343
        68  -8.3671    101.3939    220.8762   1.1938348068e+02   1.9654227253e+01    0.1758197    0.1103921  55.00  0.000384864    1.233    0.189
        69  -8.3217     54.9053    221.0472   1.2714882794e+02   2.5491704267e+01    0.1509258    0.1057813  63.12 0.0003318039    1.019    0.018
        70  -8.4764     19.4941    220.3681   1.3275231707e+02   2.9301738787e+01    0.1702077   0.09983352  58.07  0.000592823    1.208    0.172
        71  -7.3321    218.2227    218.9584   9.9560136349e+01   1.9360028548e+00    0.1213375   0.08957168 -23.06 0.0004336376    1.615    0.381
        72  -7.2150    178.2852    219.6613   1.0618876714e+02   8.2009191125e+00    0.1055081   0.08004162  64.94 0.0007015832    1.632    0.387
        73  -7.6449    143.9497    218.9947   1.1192127690e+02   1.3689473613e+01    0.1313753    0.1063242  49.54 0.0003662982    1.051    0.049
        74  -7.8046     63.4819    219.4981   1.2563878700e+02   2.4736740542e+01    0.1027002   0.07539831  63.38 0.0001508991    1.025    0.025
        75  -8.6682      1.5908    217.8985   1.3540562669e+02   3.1311066559e+01    0.1265115     0.078514  76.57 0.0004814815    1.158    0.137
        76  -7.5867    189.5039    217.6034   1.0404348572e+02   6.6501773485e+00    0.1158121   0.08652571  36.76 0.0001880883    1.027    0.026
        77  -8.0403    123.0658    215.8288   1.1516835193e+02   1.7300631020e+01    0.1631322    0.1163553  57.36 0.0003076034    1.167    0.143
        78  -7.9041    229.5090    215.5316   9.7263292833e+01   5.1640029506e-01    0.1148596   0.08450563  26.94 -3.394688e-05    1.015    0.015
        79  -8.2169     24.7987    215.1256   1.3168725683e+02   2.9625079461e+01    0.1419518   0.08875969  67.24 0.0003638719    1.127    0.113
        80  -7.9422     13.4516    214.5134   1.3345610013e+02   3.0797843708e+01   0.09486127   0.06506304  69.38 0.0001501568    1.030    0.029
        81  -7.5158    114.3590    211.7830   1.1626230047e+02   1.9186548239e+01     0.127363    0.1026786 -53.90 0.0003786362    1.605    0.377
        82  -8.2010      2.3649    210.6116   1.3504476426e+02   3.2408253512e+01    0.1291951   0.07462772  59.25   0.00105518    1.227    0.185
        83  -9.3465     68.7975    182.8345   1.2175816642e+02   3.0292473639e+01    0.4481904    0.2968928  15.07  0.002255661    3.068    0.674
        84  -7.6130    102.4774    209.5496   1.1812868597e+02   2.1238295656e+01    0.1106316   0.08696637  56.85 6.082059e-05    1.040    0.038
        85  -8.0080    136.1463    206.9118   1.1185977576e+02   1.6617359694e+01    0.1683716    0.1273381  57.89 0.0003400324    1.169    0.144
        86  -7.1898    127.3059    206.6878   1.1340981079e+02   1.8020738484e+01    0.1155032   0.07526961  66.19 0.0003123621    1.618    0.382
        87  -8.0650     82.1654    205.9400   1.2138547610e+02   2.4583573720e+01    0.1574546     0.110708  64.73 0.0002940705    1.148    0.129
        88  -7.4840    117.5070    205.5599   1.1503661815e+02   1.9677388748e+01    0.1153667   0.08956978  56.25  0.000119152    1.030    0.029
        89  -7.1199    106.3639    204.2741   1.1690140656e+02   2.1518198402e+01    0.1026378   0.08385699  23.58 0.0007004153    1.664    0.399
        90  -8.2856     73.0078    200.2497   1.2252786211e+02   2.6709760999e+01    0.1667584     0.127201  76.88 0.0004113987    1.127    0.113
        91  -7.4386     25.5218    201.4705   1.3090012435e+02   3.1809841371e+01   0.09924439   0.07176385  70.83 0.0001094967    1.039    0.038
        92  -7.8300    102.2255    200.2266   1.1722826650e+02   2.2767619621e+01     0.151268    0.1043892  64.62  0.000297636    1.287    0.223
        93  -7.9722     37.0299    199.9821   1.2885496671e+02   3.0903421654e+01    0.1532321    0.1121482  70.23 0.0004730519    1.023    0.022
        94  -7.3849    134.5201    199.5038   1.1124321073e+02   1.7987565931e+01    0.1192417   0.09498875  54.71 0.0001001579    1.056    0.053
        95  -7.8787     84.0143    198.4814   1.2037793590e+02   2.5579259685e+01    0.1534548   0.09142201  45.18  0.000367239    1.441    0.306
        96  -9.0263    107.3528    197.0421   1.1594429155e+02   2.2544896397e+01    0.2031521    0.1388066  49.25 0.0003115979    1.207    0.171
        97  -7.7663     92.9976    195.0014   1.1838493058e+02   2.4942571427e+01    0.1441922    0.1300731  28.90 0.0003312544    1.484    0.326
        98  -8.8863      3.9569    194.2260   1.3418326704e+02   3.5001158744e+01    0.1503125   0.09931357  79.49  0.000308884    1.113    0.102
        99  -7.7635    194.1629    194.3850   9.9828863934e+01   8.7059178079e+00    0.1699371   0.09801149  49.54 0.0007397848    1.618    0.382
       100  -7.4513    143.6919    194.7511   1.0894429562e+02   1.7231489315e+01    0.1114119    0.0845469  26.19 0.0001711119    1.507    0.337
       101  -7.3547    178.9923    193.7559   1.0239790830e+02   1.1404867593e+01    0.1588339   0.08637308  43.23 0.0004519837    1.507    0.337
       102  -7.8440    135.9548    192.2688   1.1004648494e+02   1.8880493920e+01    0.1682645    0.1236046  47.01 0.0002177146    1.132    0.117
       103  -7.2094     85.2965    192.7141   1.1958726885e+02   2.6390723607e+01    0.1147892   0.06948094  66.48 0.0002879679    1.548    0.354
       104  -8.0777     39.9890    192.2900   1.2785145670e+02   3.1926195982e+01    0.1460926    0.1044237  63.49 0.0004741042    1.087    0.080
       105  -7.2411     99.3181    189.2956   1.1658996970e+02   2.5018659304e+01    0.1011362   0.09080114  12.34 0.0005329438    1.609    0.379
       106  -7.3687    176.2952    187.7002   1.0194353468e+02   1.2710594545e+01     0.115842   0.09113389  68.29 0.0001983555    1.571    0.364
       107  -7.3799     92.7766    186.9931   1.1758308781e+02   2.6351829190e+01    0.1332412     0.089569 -69.95 0.0003664311    1.579    0.367
       108  -7.4918      4.5089    186.5594   1.3377465093e+02   3.6284511040e+01    0.0982734   0.06876404  73.53 8.824882e-05    1.017    0.016
       109  -8.3032    105.9555    182.3601   1.1450608481e+02   2.5241879540e+01    0.1778798    0.1427809  79.81 0.0003787516    1.201    0.168
       110  -7.8775     39.1469    183.1345   1.2738311079e+02   3.3651416386e+01    0.1439596    0.1162614  80.73 0.0003263314    1.141    0.124
       111  -7.3561    170.4279    182.5156   1.0219626004e+02   1.4491072538e+01    0.1249661     0.106006  38.70 8.824457e-05    1.023    0.022
       112  -8.5994     58.9593    179.8966   1.2338236837e+02   3.2030505841e+01    0.2038591    0.1352574 -80.53 0.0006525238    1.409    0.290
       113  -8.0699    115.8368    179.9613   1.1227168154e+02   2.4139657523e+01      0.16423    0.1490387  42.25 0.0003330994    1.223    0.182
       114  -7.8446     79.1544    179.7792   1.1945057059e+02   2.9509195662e+01    0.1376742    0.1299445  57.40 0.0003657608    1.323    0.244
       115  -7.8442     23.4944    178.4561   1.2997498963e+02   3.6060729973e+01    0.1044574   0.07591995  74.18 8.512912e-05    1.006    0.006
       116  -8.5524    207.0593    175.7039   9.4429709152e+01   8.8287856762e+00    0.2266523    0.1786302  -6.03  0.000984469    1.353    0.261
       117 -10.5803    100.9978    175.9755   1.1469854971e+02   2.7118338296e+01     0.170751     0.144462  68.71  0.001174422    1.027    0.026
       118  -7.5756     29.5765    176.4742   1.2871690191e+02   3.5842658870e+01    0.1048131   0.07870571  76.90 5.908578e-05    1.028    0.027
       119  -7.4482    154.2376    175.0061   1.0405684027e+02   1.8518542852e+01    0.1427333    0.1084005 -47.55            0    1.528    0.345
       120  -7.2820     96.0000    174.0285   1.1545961470e+02   2.8209468597e+01     0.177419   0.06533998 -61.06 0.0007687078    2.897    0.655
       121  -8.0669    186.6179    173.2766   9.7662407095e+01   1.2902685590e+01    0.1256472   0.09593933  68.04 0.0007002325    1.713    0.416
       122  -7.8114     53.3282    172.8127   1.2385629601e+02   3.4007196442e+01    0.1810524    0.1270729  30.54 0.0009446745    1.811    0.448
       123  -7.9523     40.8060    173.2259   1.2633971867e+02   3.5307564281e+01    0.1286324    0.1130608 -86.02 0.0003706094    1.301    0.231
       124  -7.5499     65.8246    170.1828   1.2111492664e+02   3.3012552889e+01    0.1353564    0.1240425 -82.58 0.0003068232    1.290    0.225
       125  -7.7288    138.1870    167.1507   1.0596954612e+02   2.2652731168e+01    0.1692028    0.1347338  68.49 0.0002928998    1.299    0.230
       126  -8.2863     88.0029    166.9065   1.1621793528e+02   3.0686329541e+01    0.1762028    0.1462265  66.25 0.0003067432    1.029    0.029
       127  -7.9119     57.8565    167.1186   1.2242532612e+02   3.4563781286e+01    0.1682377    0.1205093  72.80 0.0003051588    1.177    0.150
       128  -8.1889    244.8371    166.2305   8.6335935377e+01   3.2122043795e+00    0.1736237    0.1553375  21.83 0.0006377529    1.223    0.182
       129  -7.3177    102.5083    165.5142   1.1303487290e+02   2.8811921682e+01    0.1248161    0.1039971  68.14 3.356586e-06    1.052    0.049
       130  -8.6189     77.0040    164.5456   1.1821619304e+02   3.2650686350e+01    0.1965211    0.1527617 -58.74 0.0007580801    1.464    0.317
       131  -8.6117    130.2028    238.8996   1.1629640608e+02   1.3087649065e+01    0.1931882    0.1268125  55.17 0.0003941587    1.232    0.189
       132  -8.7321    245.1481    161.6493   8.5395458026e+01   3.6793449261e+00    0.2147278    0.1581904  -8.22 0.0002712278    1.285    0.222
       133  -7.5469     83.2490    162.6425   1.1668517503e+02   3.2167518076e+01    0.1221229   0.07950092  77.49 0.0003405729    1.602    0.376
       134  -8.9886     87.8074    159.2016   1.1528669734e+02   3.2191396559e+01    0.1851887    0.1434776  72.24  0.000494941    1.171    0.146
       135  -7.3158    127.3086    158.7605   1.0685817832e+02   2.6029054157e+01    0.1260714   0.09008377  66.93 0.0001827656    1.495    0.331
       136  -9.8155     92.2852    156.9641   1.1403082062e+02   3.1977149910e+01    0.3165891    0.1557197  48.56  0.001042665    1.861    0.463
       137  -8.1928    245.6408    156.8689   8.4369370438e+01   4.1438954538e+00    0.2193272    0.1451498  29.39 0.0006533656    1.336    0.252
       138  -7.9925    109.5693    155.7685   1.1014623016e+02   2.9545100367e+01    0.1635256    0.1166015 -76.75 0.0004700328    1.535    0.349
       139  -8.9117    213.6264    154.7261   8.9297946003e+01   1.0390246588e+01    0.2252976    0.1971514  36.19  0.000437617    1.132    0.116
       140  -8.9827    102.6425    155.1120   1.1153788061e+02   3.0768153249e+01    0.1681425    0.1483537 -83.59 0.0005300135    1.119    0.106
       141  -7.7154     64.4809    155.4790   1.1982821486e+02   3.6038988678e+01    0.1183291   0.09653605  77.73 0.0008099711    1.013    0.013
       142  -7.1111    116.4655    154.4814   1.0846830540e+02   2.8660644453e+01    0.1274114    0.1146566  64.50 6.892099e-05    1.021    0.020
       143  -7.7206     35.9557    154.0535   1.2575553323e+02   3.9514358763e+01    0.1323005    0.1027302  79.14 0.0003485735    1.013    0.013
       144 -10.0278     98.6429    151.6654   1.1189905099e+02   3.2057688429e+01     0.323614    0.2208031  26.81  0.001765563    1.930    0.482
       145  -8.3660     98.1765    147.0138   1.1130258530e+02   3.3048364824e+01    0.2287396    0.1663853 -53.24 0.0008637113    1.483    0.326
       146  -9.1706     88.3432    151.5627   1.1414406943e+02   3.3614301064e+01    0.2231784    0.2037742 -18.94 0.0007916481    1.536    0.349
       147  -9.2617     94.1163    147.8917   1.1233974964e+02   3.3492316655e+01     0.228898    0.1534078  55.17 0.0007353845    1.402    0.287
       148  -7.6537     52.1661    150.6530   1.2196418552e+02   3.8467505839e+01    0.1393682     0.106745  30.00 0.0004078933    1.655    0.396
       149  -7.1206    140.5246    149.4961   1.0249409428e+02   2.5361040421e+01    0.1325696    0.1216288  50.67 0.0008100054    1.028    0.027
       150  -7.2163     26.6251    149.3115   1.2732946579e+02   4.1355441637e+01    0.1202148   0.06196662  66.02 0.0007030982    1.785    0.440
       151  -8.5452     67.5166    148.0115   1.1828529231e+02   3.7159705009e+01    0.2706318    0.1109664  52.79  0.001263413    2.456    0.593
       152  -8.4540    134.8784    145.8455   1.0303514450e+02   2.7067232681e+01    0.3374403    0.2467079  -9.73  0.001167346    2.256    0.557
       153  -9.2882     89.5079    145.3057   1.1298951444e+02   3.4696783023e+01    0.3245612    0.2095543 -27.26  0.001498493    3.137    0.681
       154  -9.2301    102.2182    145.0599   1.1009397948e+02   3.2805413366e+01     0.211757    0.1809668  15.91  0.000781864    1.561    0.359
       155  -7.6053    108.6550    143.3153   1.0836585242e+02   3.2113552008e+01    0.1372223   0.09365287  74.16  0.000617607    1.716    0.417
       156  -8.9081     77.4885    143.5048   1.1545376832e+02   3.6766486183e+01    0.1232707    0.1060208  81.28 0.0008105654    1.001    0.001
       157  -8.4287     82.5242    142.5331   1.1416919595e+02   3.6266436708e+01    0.1255067    0.1070942  79.26 7.538411e-05    1.032    0.031
       158  -7.2539     47.3191    142.2964   1.2214598035e+02   4.0709569756e+01    0.1053377   0.08501317 -46.86 0.0007017736    1.613    0.380
       159  -9.0830    133.2222    139.4620   1.0220874333e+02   2.8570051146e+01    0.3572665    0.2778613 -38.89  0.001996976    1.460    0.315
       160  -7.4139      2.6574    141.2772   1.3182966678e+02   4.4919602506e+01    0.1090905   0.05739078  65.48 0.0003873144    1.624    0.384
       161  -7.7538    143.4958    139.9932   1.0007437129e+02   2.6541869330e+01    0.1885279    0.1355053 -46.70 0.0004043524    1.491    0.329
       162  -8.6296    232.7192    137.0140   8.2324911125e+01   9.0267016793e+00    0.2162552    0.1691979  37.03 0.0005638585    1.205    0.170
       163  -7.8002     60.1655    136.8338   1.1855643789e+02   4.0373363529e+01    0.1465784    0.1362893 -59.60 0.0004663405    1.311    0.237
       164  -8.6329     87.1295    133.5276   1.1172693413e+02   3.7459908273e+01    0.2095206    0.1638519 -70.77 0.0003057585    1.216    0.178
       165  -8.5565     65.5820    133.9091   1.1689478903e+02   4.0319871241e+01    0.2994054    0.1524605  38.06  0.001140349    2.047    0.511
       166  -7.8094    135.0000    126.0029   9.9121220743e+01   3.0815838033e+01    0.2266028   0.07912397 -47.30 0.0008065846    2.971    0.663
       167  -7.7219     38.5286    125.4953   1.2232253127e+02   4.5142963813e+01    0.1168242   0.09493217 -87.28 -5.641027e-05    1.021    0.021
       168  -7.2877    111.6270    121.7163   1.0371698049e+02   3.5970119615e+01    0.1325293    0.1090695   0.03 0.0007015676    1.707    0.414
       169  -7.5728     92.9651    119.0641   1.0778690958e+02   3.9612622935e+01    0.1546418    0.1413155  88.36 0.0004739011    1.012    0.012
       170  -7.6663     67.0493    117.5083   1.1408348825e+02   4.3634747464e+01    0.1671116    0.1201389  43.69 0.0004081627    1.464    0.317
       171  -7.6429    117.7975    110.8342   9.9900050595e+01   3.7092669879e+01    0.1902269    0.1596259  85.03 0.0004174499    1.313    0.238
       172  -9.3750    135.1647    106.2201   9.4610984401e+01   3.4648107645e+01    0.4593682    0.2672426 -31.92  0.001829395    2.115    0.527
       173  -9.8842    142.0194     98.0035   9.0925204603e+01   3.4817643535e+01    0.6171085    0.3686951  13.07  0.001998858    4.082    0.755
       174  -7.8365     37.5447     99.4989   1.1915461415e+02   5.0874423188e+01    0.1205295    0.0985358 -75.91 0.0001532682    1.020    0.019
       175  -7.2635      4.7244     97.3598   1.2793064524e+02   5.3881793297e+01    0.1146496   0.06612626  75.55 0.0003681444    1.658    0.397
       176  -7.2662     72.7155     92.9977   1.0796131588e+02   4.8232331445e+01    0.1619205    0.1060139 -59.13 0.0002415034    1.374    0.272
       177  -7.4018     55.6777     92.3164   1.1274718653e+02   5.0548424255e+01    0.1284702   0.08962295  78.48 0.0007042335    1.664    0.399
       178  -7.2603     32.4964     92.4973   1.1952773792e+02   5.2878813796e+01    0.1200908   0.09730995 -77.51 0.0008106203    1.017    0.017
       179  -8.5014    173.1644     89.7366   8.1800068411e+01   2.9309573545e+01    0.2765563    0.2156858 -26.64 0.0006034872    1.313    0.239
       180  -9.8369    151.3044     87.3266   8.5889518992e+01   3.4784726461e+01    0.4661084    0.4122151  68.84  0.001846822    1.228    0.186
       181  -9.5700    153.4769     84.4670   8.4589891475e+01   3.4811775327e+01    0.5778047     0.346856 -48.87  0.002135439    1.810    0.448
       182  -9.2537    246.2082     84.3028   6.7773236144e+01   1.3132535931e+01     0.246149    0.1896652 -26.48 0.0006140746    1.203    0.169
       183  -9.5082    229.8147     81.7984   6.9524561778e+01   1.7136419992e+01    0.3034943    0.2608184  15.31 0.0004960779    1.155    0.134
       184  -8.9300    234.0304     78.2122   6.7958164269e+01   1.6652490034e+01    0.2622805    0.1986506 -22.31 0.0008905923    1.243    0.196
       185  -7.4085     31.2945     78.2913   1.1753393444e+02   5.6115041912e+01    0.1178728   0.07758605 -44.86 0.0002526257    1.554    0.356
       186  -8.5114    186.0356     75.8111   7.5318106307e+01   2.8507144508e+01    0.3496239    0.2397312  32.50  0.001025712    1.604    0.377
       187  -9.3615    161.8094     75.2260   8.0056625686e+01   3.4490594751e+01    0.5220437    0.2802594  60.13  0.001141003    2.106    0.525
       188 -11.0402    165.7396     71.0363   7.7963455047e+01   3.4250956699e+01    0.7560923    0.6753841 -50.49  0.002412833    1.185    0.156
       189  -9.0368    145.4607     73.3995   8.3192709296e+01   3.8650117913e+01    0.2558229    0.2346356  -3.34  0.000639711    1.128    0.114
       190  -7.7840    116.3801     72.3052   9.0201323876e+01   4.5157082718e+01    0.2014655    0.1326312 -49.58 0.0009366539    1.525    0.344
       191  -8.1201     15.1989     71.8112   1.2159228941e+02   5.8759900142e+01     0.166944    0.1315882 -87.41 0.0005056997    1.182    0.154
       192 -11.5009    179.0247     55.2344   7.0449591133e+01   3.3420976129e+01    0.8575694    0.7863636  24.37  0.001760324    1.092    0.084
       193  -7.2059     19.6997     58.7393   1.1770905386e+02   6.1295933558e+01    0.1135955   0.07253763 -43.54 0.0001901143    1.511    0.338
       194  -7.9860    129.5157     49.9429   7.9427480917e+01   4.6407170746e+01    0.2138105    0.1982858  44.38 0.0003447792    1.107    0.097
       195  -9.4729    186.6292     46.7295   6.6422432174e+01   3.2675540172e+01     0.326711    0.2963207  69.48 0.0005523191    1.151    0.131
       196  -8.4909    104.0593     44.3971   8.4347916296e+01   5.2837890436e+01    0.2622503    0.1891235 -19.50 0.0006252301    1.482    0.325
       197  -7.4181     42.7771     40.0497   1.0405089462e+02   6.3203679916e+01    0.1640512   0.08710659 -53.35 0.0005167715    1.586    0.369
       198  -7.2418    157.6594     37.6962   6.8762727906e+01   4.1426963644e+01    0.1621765    0.1110559  26.80  0.000703986    1.677    0.404
       199  -9.8420    179.6926     34.6856   6.3715008759e+01   3.6088632328e+01    0.3179536    0.2703261  30.61 0.0004941521    1.205    0.170
       200 -10.7680    181.0582     30.9811   6.2269858715e+01   3.6193340000e+01    0.3970174    0.3622525  23.21 0.0004025881    1.109    0.098
       201  -9.5649    224.6456     33.1921   5.6870761466e+01   2.4598199932e+01    0.4159513    0.2586813 -22.06  0.001152692    1.578    0.366
       202 -11.0811    198.8504     32.8936   6.0173825316e+01   3.1267259757e+01    0.4036481    0.3348759  61.56 0.0004683807    1.208    0.172
       203  -7.4492     96.3954     29.1911   8.0691289565e+01   5.6904596822e+01    0.1983438    0.1212919 -42.02 0.0009391101    1.652    0.395
       204  -8.2805    129.8741     26.9778   7.0798435691e+01   4.9827280720e+01    0.2166929    0.2065961   1.37 0.0004410273    1.030    0.030
       205 -11.0699    206.7253     24.3057   5.6472006796e+01   3.0200981950e+01    0.4130498    0.3508088  38.67 0.0006760295    1.221    0.181
       206  -7.6216    109.9576     24.2132   7.4703234908e+01   5.4804095314e+01    0.1810908    0.1144365  52.87 0.0003919743    1.641    0.391
       207  -7.9901     98.9870     23.6647   7.7582350845e+01   5.7221740767e+01    0.1871631    0.1711823  28.13 0.0004112612    1.118    0.106
       208  -8.9118    226.6065    246.7475   1.0208327035e+02  -1.9157341405e+00    0.2071157    0.1183917  -5.29  0.001356644    2.352    0.575
       209  -7.7921    185.5457    248.7063   1.0857326309e+02   3.8684901212e+00    0.1864247   0.06899481  42.79 0.0006052043    1.924    0.480
       210  -8.0337    190.2442     14.2582   5.5448708574e+01   3.5639179004e+01    0.2438812   0.09456518 -34.69 0.0008927251    2.421    0.587
       211  -7.4079    140.4335     11.5153   6.2425885271e+01   4.9091546555e+01    0.1495314      0.13149  26.74 5.402864e-05    1.091    0.083
       212  -9.5774     66.9463    247.3522   1.2685055784e+02   2.0207521538e+01    0.1524941    0.1154992  69.90 0.0002480533    1.171    0.146
       213  -9.4663     37.3030    246.7542   1.3120760745e+02   2.3568513830e+01    0.1797334     0.110925  67.93 0.0004730282    1.160    0.138
       214  -9.3987     20.9157    247.5859   1.3358751853e+02   2.5092852066e+01    0.1612631    0.1006509  63.77 0.0003469212    1.028    0.027
       215  -9.3078     12.7707    247.3713   1.3472270545e+02   2.5894915649e+01    0.1588425   0.09772953  65.63 0.0002975371    1.046    0.044
