#   1 NUMBER                 Running object number                                     
#   2 MAG_AUTO               Kron-like elliptical aperture magnitude                    [mag]
#   3 X_IMAGE                Object position along x                                    [pixel]
#   4 Y_IMAGE                Object position along y                                    [pixel]
#   5 X_WORLD                Barycenter position along world x axis                     [deg]
#   6 Y_WORLD                Barycenter position along world y axis                     [deg]
#   7 A_WORLD                Profile RMS along major axis (world units)                 [deg]
#   8 B_WORLD                Profile RMS along minor axis (world units)                 [deg]
#   9 THETA_WORLD            Position angle (CCW/world-x)                               [deg]
#  10 FWHM_WORLD             FWHM assuming a gaussian core                              [deg]
#  11 ELONGATION             A_IMAGE/B_IMAGE                                           
#  12 ELLIPTICITY            1 - B_IMAGE/A_IMAGE                                       
         1 -15.4006      6.2700     69.2124   1.1640179955e+02   6.0757495967e+01     1.984113    0.8525046 -64.79  0.007094381    1.746    0.427
         2 -13.5171     58.3995     64.4803   9.5912189537e+01   5.7135203319e+01     1.771656    0.8593901 -30.12  0.007197354    2.725    0.633
         3 -14.6745    119.6901     54.6569   7.2685286492e+01   4.7985875584e+01      1.06215    0.7703103  39.34  0.001951145    1.380    0.275
         4 -13.2384    131.6825     32.7304   6.1808791522e+01   4.8507752344e+01    0.6459218    0.4973346 -15.62  0.002150995    1.386    0.279
         5 -14.6496    121.0195     37.6011   6.6181513212e+01   5.0365637996e+01     1.514102    0.6569244  51.07  0.005999757    2.168    0.539
         6 -12.2663    232.4796      2.3062   3.8517499955e+01   2.6565687350e+01    0.4881046    0.2650369  56.78  0.002107415    1.987    0.497
         7 -15.3592    218.1760     16.4948   4.3272262036e+01   2.8452944732e+01      2.14377      1.17698 -28.12   0.01032064    1.908    0.476
         8 -15.0984    212.3966     41.1199   5.0396086862e+01   2.6810934406e+01     2.846185    0.8266249  70.28  0.008321579    4.407    0.773
         9 -14.9625    189.6247     20.2909   4.7586850980e+01   3.5218150420e+01     2.031527    0.9355798 -38.97  0.008668104    2.115    0.527
        10 -14.7353     42.2650      6.4452   7.9263929814e+01   6.9287959495e+01     1.577259    0.9430615   3.31  0.008904733    1.824    0.452
        11 -13.4367      2.5656     10.8054   1.0175978613e+02   7.2530463078e+01     0.642221    0.2700942 -52.64  0.003605694    2.013    0.503
        12 -13.1128      8.0111      2.6658   9.4996759075e+01   7.3481954788e+01    0.5367326    0.3588231  29.72  0.002373295    1.918    0.479
        13 -16.0355     13.8008     19.8369   9.9464871921e+01   7.0222392544e+01     1.922612    0.9032252 -36.48   0.01002658    1.694    0.410
        14 -13.1803    139.3579     22.0958   5.6331502187e+01   4.7934855043e+01    0.6830434     0.362129  56.13   0.00109443    1.699    0.412
        15 -14.6971    166.6852     30.0954   5.3983173198e+01   3.9995492127e+01     1.190696     1.057147  74.32  0.004071681    1.084    0.077
        16 -14.8496    147.3316     30.2608   5.7593222437e+01   4.4943371570e+01     1.486042    0.9313775  58.58  0.004727548    1.494    0.330
        17 -14.2815     23.9064     13.9169   9.1787119884e+01   7.0348939983e+01    0.7077346    0.3575135  29.86  0.002711873    2.198    0.545
        18 -12.5652    120.2179     26.6819   6.2271836752e+01   5.2023128511e+01      0.67074    0.4047283  49.55   0.00306593    1.532    0.347
        19 -12.6826     71.7980     16.8909   7.2486029167e+01   6.3305607629e+01    0.5166234    0.2834368 -32.62  0.002661058    1.786    0.440
        20 -15.4015     97.7476     12.4559   6.2330963595e+01   5.8724172096e+01     1.668262    0.7741967  50.48  0.005091846    1.938    0.484
        21 -11.4413     60.1508     17.1126   7.6958552858e+01   6.5231544314e+01    0.3077684    0.1659514 -31.77  0.001615656    1.728    0.421
        22 -11.6933    153.1543      8.7741   4.9249715678e+01   4.5842225398e+01    0.2431692     0.221793  65.13 0.0008487061    1.011    0.011
        23 -11.0901     59.0837      6.5672   7.2261004795e+01   6.6741252104e+01    0.2062725    0.1899879  44.00  0.001416349    1.470    0.320
        24 -11.0932    160.8213      5.9216   4.7156568414e+01   4.4146527714e+01    0.2188258     0.169182  43.18 0.0007444089    1.304    0.233
        25 -10.9366     68.1416      4.5007   6.7877346081e+01   6.5414690851e+01     0.220373    0.1335219 -43.61  0.001144701    2.274    0.560
        26 -11.6831    119.6723      3.6921   5.3466479555e+01   5.4598142040e+01    0.4116383    0.1704165  68.77  0.001619137    2.658    0.624
        27 -11.5229    116.9860      1.4877   5.3153152253e+01   5.5422031275e+01     0.304659    0.1917339  62.05 0.0007736308    1.473    0.321
        28 -11.8431     78.2255      2.3859   6.3494511598e+01   6.3742799290e+01    0.3263933    0.2318303  38.82  0.001356834    1.251    0.200
        29 -11.0319     83.0238      1.2354   6.1488630514e+01   6.2901998244e+01    0.2743262    0.1145298  54.76  0.001150278    2.283    0.562
        30 -12.0049     61.6103      2.0015   6.8986009819e+01   6.6825391208e+01    0.3107171    0.2028593  46.43  0.001289534    1.605    0.377
        31 -10.7633    112.0318      1.5253   5.4224240408e+01   5.6575856570e+01    0.2810647    0.1853528  64.79  0.001492865    1.496    0.332
        32 -11.6779     58.5312     35.3735   8.5566303980e+01   6.2668858647e+01    0.4776919    0.2235359  32.69  0.002239527    2.299    0.565
        33 -12.7946     57.1962    246.7911   1.2339231885e+02   1.7643613493e+01    0.7427578    0.3234021  33.41  0.003861348    2.853    0.650
        34 -13.6706     28.3017    246.1790   1.2808747042e+02   2.1144407817e+01      0.67121    0.2986837  79.08  0.004095786    2.052    0.513
        35 -11.8662      2.9118    249.8681   1.3215502308e+02   2.3136646688e+01     0.307307    0.1225722  48.53  0.001878129    1.810    0.448
        36 -13.8211      8.9249    245.6935   1.3109072782e+02   2.3252100232e+01    0.6889292    0.3150933  57.98  0.003170767    1.531    0.347
        37 -12.3317    201.0713    191.9923   8.8801362332e+01   3.8147941286e+00    0.3460571    0.2785377  -0.96  0.001674767    1.287    0.223
        38 -11.9795     97.5002    188.4975   1.0996273911e+02   2.3092380361e+01    0.1330243     0.115425  69.37 0.0008106729    1.010    0.010
        39 -11.8939     49.0648    181.5166   1.1963317996e+02   3.1341609518e+01    0.3687636    0.2248082 -58.76  0.002117643    1.743    0.426
        40 -12.6824    198.4700    181.6191   8.7336794835e+01   5.9922625394e+00    0.2969645    0.2830823 -75.24   0.00155297    1.322    0.243
        41 -12.4638     85.2089    180.4384   1.1159806740e+02   2.6710014327e+01    0.3438897    0.2073586  79.31  0.001668169    1.972    0.493
        42 -12.9003    124.4998    167.9975   1.0069694744e+02   2.2850281276e+01    0.4960848    0.2850419 -59.60  0.002247065    1.876    0.467
        43 -12.0091     77.3452    156.9330   1.1012863621e+02   3.3152400598e+01    0.4140024    0.2802227  35.41  0.001580675    1.626    0.385
        44 -13.1604     73.8629    153.3441   1.1044456322e+02   3.4483592524e+01    0.6703573    0.5039691  37.87  0.002847422    1.451    0.311
        45 -12.2470    210.3036    155.1992   7.9563984962e+01   8.1847188717e+00    0.5088071    0.2731816  34.50  0.002179947    1.989    0.497
        46 -12.3312     90.1280    169.5721   1.0896030347e+02   2.8352972122e+01    0.2504191    0.1762006 -29.19    0.0012105    2.288    0.563
        47 -12.0747    111.6200    156.2963   1.0165278168e+02   2.7754502577e+01    0.4118317    0.2331135  87.29  0.001387978    3.733    0.732
        48 -11.7735     85.9806    152.7870   1.0735184209e+02   3.2821939338e+01    0.4266098    0.2422791 -50.67  0.002000931    1.830    0.453
        49 -11.8321    103.2200    150.2768   1.0262219328e+02   3.0592275604e+01    0.3887754    0.2775815 -39.13  0.001914331    1.679    0.405
        50 -11.9239     24.3712    150.6503   1.2210786187e+02   4.0845440495e+01    0.3377631    0.2259478 -82.47  0.001541118    1.207    0.172
        51 -11.3347      6.6714    147.2172   1.2589942945e+02   4.3085953253e+01    0.3149243    0.1483365  64.81  0.001683268    2.145    0.534
        52 -11.4443     88.4903    140.0476   1.0450519890e+02   3.5410801585e+01    0.2925482      0.22596 -38.96  0.001531102    1.517    0.341
        53 -12.5202     44.3078    134.5576   1.1524355588e+02   4.2605588869e+01    0.4969477    0.4658473 -70.92   0.00335172    1.188    0.158
        54 -12.9475    246.1945    133.8100   6.8403696771e+01   4.6241158325e+00    0.4718581    0.3537761 -47.56  0.002550618    1.463    0.317
        55 -14.5521    232.6385    129.3938   6.9650970484e+01   8.0301490124e+00     1.017026    0.7779759 -33.70  0.005420597    1.220    0.180
        56 -10.7538     63.3347    134.1811   1.1013725466e+02   4.0434367500e+01    0.1870137     0.175097 -71.15  0.001168314    1.129    0.114
        57 -10.6055     10.8022    134.3228   1.2377466697e+02   4.5688707994e+01    0.1291305    0.1131668   9.65 0.0009260696    1.592    0.372
        58 -13.1346    119.8904    102.3924   8.7439764622e+01   3.8435017335e+01    0.6382728    0.3371475  39.28  0.001997323    2.022    0.506
        59 -12.3762     76.9848    117.0950   1.0317289162e+02   4.2622306107e+01    0.6538228    0.4234847 -64.13  0.003218988    1.462    0.316
        60 -13.6003     86.0700    113.7354   9.9831279005e+01   4.2021810042e+01     1.552013    0.9423679 -30.90  0.005658643    2.305    0.566
        61 -14.1737    105.9106    121.3582   9.5997569996e+01   3.6832716177e+01     1.621812     1.115649  33.02  0.007631882    1.627    0.385
        62 -14.7584    106.2381    106.2533   9.2256203713e+01   4.0251916497e+01     1.642344     1.313602  -4.72  0.007254161    1.639    0.390
        63 -11.0597     25.6562    127.0790   1.1917672689e+02   4.6175147701e+01    0.2046067    0.1713141 -34.00 0.0008889909    1.509    0.337
        64 -12.7240     28.6327    122.5265   1.1778863687e+02   4.6981436756e+01    0.3526507    0.2417046 -72.96  0.002129556    1.187    0.158
        65 -11.1786     60.1428    125.3691   1.0952014451e+02   4.2944683249e+01    0.2843589    0.1951445  -3.20  0.001367757    2.437    0.590
        66 -11.6379    181.0294    121.2801   7.7565658116e+01   2.0828481526e+01    0.3304833    0.2199443  61.63  0.001416329    1.759    0.432
        67 -11.3900     22.8923     71.8217   1.1091299552e+02   5.9136907692e+01    0.3067214     0.195002  15.40 0.0005863443    1.950    0.487
        68 -14.1107     17.7891    110.9541   1.1926235262e+02   5.0563307525e+01     1.291159    0.7334173 -28.68  0.006768524    2.553    0.608
        69 -14.9788     20.3412     97.1053   1.1648779600e+02   5.3586345802e+01     1.870123     1.168899 -18.97   0.01043452    2.245    0.555
        70 -11.5698    109.6589    249.3845   1.1450948059e+02   9.9896605961e+00    0.3077763    0.1385022  42.15  0.001668877    1.769    0.435
        71 -13.4158      6.1325     43.8130   1.1086938354e+02   6.6140681662e+01    0.8210565    0.4148835  26.32   0.00481907    2.429    0.588
        72 -11.5976     45.1654    110.4847   1.1121003589e+02   4.8227341210e+01    0.4088058    0.2820662 -57.84  0.002322261    1.248    0.199
        73 -11.4705    121.3399    112.2088   8.9613522068e+01   3.5953482335e+01    0.2853107    0.1804196  55.01  0.000891789    1.761    0.432
        74 -11.2561    176.6886    110.6343   7.5770556366e+01   2.3928757303e+01    0.3509652    0.2661518   8.74  0.001553864    1.742    0.426
        75 -11.3652     62.3502    110.8662   1.0617494271e+02   4.6123943408e+01    0.2647445    0.1702429  59.67  0.001297164    1.901    0.474
        76 -11.4147    222.9614    109.6983   6.6603125683e+01   1.3425178486e+01    0.2051399    0.1994134  43.15  0.001017776    1.099    0.090
        77 -12.0564     33.3234    104.7455   1.1376460386e+02   5.0743897846e+01    0.3928649    0.2760214 -47.99  0.001890621    1.368    0.269
        78 -12.1752    136.0887    103.2247   8.3367655950e+01   3.4803847276e+01     0.708775     0.283159  48.75  0.002404906    2.592    0.614
        79 -12.3505     62.4219     99.5470   1.0375282467e+02   4.8786226901e+01    0.8237991     0.487611  66.76   0.00352515    2.697    0.629
        80 -12.6572     51.2646     99.0200   1.0714075242e+02   5.0264110011e+01    0.7588373    0.4620887  -2.07  0.002911768    2.811    0.644
        81 -12.3942     49.1703     94.5234   1.0685745002e+02   5.1549170572e+01    0.4061518    0.3607223 -81.22  0.001770684    1.155    0.134
        82 -12.2944    137.1959     95.6850   8.0986198242e+01   3.6151953366e+01    0.4731856    0.3766191  74.23  0.001429679    1.519    0.342
        83 -11.5365    125.3602     92.6539   8.3238874391e+01   3.9393174792e+01    0.3924645    0.2622328 -85.35  0.001457456    2.759    0.638
        84 -11.5557     42.9936     90.9303   1.0809809437e+02   5.3039949710e+01    0.3398179    0.1648193 -64.98  0.001049085    1.869    0.465
        85 -13.2321    249.1094     97.8090   5.9627702905e+01   9.7586792259e+00    0.5711398    0.1996944 -34.21  0.002117856    2.542    0.607
        86 -12.1632     89.7362     88.2643   9.2343413320e+01   4.7269175790e+01    0.4895101    0.3411125  45.03  0.001849311    1.558    0.358
        87 -12.1141    149.6795     85.1348   7.4817332026e+01   3.5388126290e+01    0.5564311    0.3744998  26.11  0.002303846    1.931    0.482
        88 -12.3121    129.2844     85.7858   8.0172402459e+01   3.9965114933e+01    0.7842774    0.4039835  49.40  0.003069819    2.002    0.500
        89 -13.0600    135.5685     79.6579   7.6670208392e+01   3.9769463087e+01    0.7477494    0.4677287  50.07   0.00322557    1.621    0.383
        90 -11.0152     34.5907     86.8259   1.1002243337e+02   5.4793776764e+01    0.1979826    0.1633989 -23.27 0.0008528594    1.371    0.271
        91 -13.0298    188.4717     84.3039   6.6217808575e+01   2.6024791574e+01    0.7909566    0.3404852  43.46  0.002499605    2.639    0.621
        92 -13.8482    237.2345     80.2843   5.7085941287e+01   1.5082373903e+01    0.8584673    0.4600711  77.73  0.003348618    2.922    0.658
        93 -13.3622    163.9665     71.5652   6.7493325784e+01   3.4406252731e+01     1.513175    0.5104135  47.09  0.004742627    3.029    0.670
        94 -12.7857    160.0384     68.2963   6.7343185618e+01   3.5961893132e+01    0.7982268    0.4323318 -49.44  0.002674262    2.073    0.518
        95 -13.5014    160.6812     80.9294   7.1018877650e+01   3.3523857694e+01    0.9661769    0.6492629  19.93  0.003349172    2.160    0.537
        96 -14.3631    169.2780     77.3783   6.8099721342e+01   3.2043416445e+01     1.508762    0.6128525  51.46  0.005258163    2.414    0.586
        97 -13.3050     65.9078     49.0106   8.7954789771e+01   5.9158025494e+01    0.5268675    0.4922248 -48.85  0.003332825    1.258    0.205
        98 -13.8965    170.9591    243.0291   1.0266463503e+02   1.3410812472e+00    0.9368695    0.4958234  37.35  0.005224789    1.531    0.347
        99 -12.3055     79.6490     60.9704   8.7245038269e+01   5.4703234956e+01    0.4581334    0.4013017  13.81  0.001946492    1.175    0.149
       100 -13.5112     81.4740     54.6994   8.4446614766e+01   5.5599287882e+01     1.525201    0.5307333  44.47  0.005558244    3.177    0.685
       101 -13.6936     74.0337     74.2640   9.3384985428e+01   5.2861100840e+01     1.388596    0.7630755  11.12  0.005052972    3.650    0.726
       102 -13.4631     87.6433     65.1827   8.5979706578e+01   5.2501811633e+01    0.8718708    0.5519425 -14.18  0.002839151    2.285    0.562
       103 -12.9048     54.9150     81.9587   1.0202160446e+02   5.3766825223e+01    0.5464416    0.3284021 -41.67  0.001967096    1.564    0.361
       104 -13.8645     60.9784     75.6294   9.8253224809e+01   5.4411833822e+01    0.6528242     0.403173 -39.83  0.001075285    1.518    0.341
       105 -13.5003    213.7860     78.8606   6.0269114336e+01   2.0763043641e+01     1.109517    0.6486326  78.94  0.004381014    2.481    0.597
       106 -13.0116    216.9082     73.6001   5.8390724167e+01   2.0866845679e+01    0.7103382    0.4545724 -73.73  0.003004492    2.181    0.541
       107 -12.1214    114.2437     80.1807   8.2625256836e+01   4.4345494808e+01    0.4235393    0.3191524 -50.45 0.0009847587    1.351    0.260
       108 -10.7559     90.1873     81.2063   9.0176665218e+01   4.8733470164e+01    0.2045261    0.1766085 -80.42  0.001089629    1.387    0.279
       109 -13.3067      2.2117     97.2320   1.2201774298e+02   5.4702856703e+01    0.7356044    0.1989516 -72.54  0.003064982    2.823    0.646
       110 -11.2197     42.4305     76.9667   1.0510888170e+02   5.6274234722e+01    0.2389245    0.1987823  23.45  0.001500932    1.406    0.289
       111 -14.0299    198.8003     69.5469   6.0235551787e+01   2.5966564503e+01    0.9786922    0.7689756  30.59  0.003213866    1.499    0.333
       112 -13.4030    133.4797     66.1426   7.2926005620e+01   4.2802790102e+01    0.9215125    0.7357387  -4.79  0.003537304    1.464    0.317
       113 -12.4075    241.8721     71.2981   5.4247930745e+01   1.5430178311e+01    0.3746775    0.2644016 -88.95  0.001494441    1.748    0.428
       114 -10.5719    100.9908     69.9939   8.3329610629e+01   4.9068979330e+01    0.2815909    0.1924317 -65.62  0.001236615    2.055    0.513
       115 -11.5623    100.1846     65.2526   8.2013322062e+01   5.0156265910e+01    0.3697636    0.2639303 -20.57  0.001535036    1.569    0.363
       116 -12.2741     38.5379     68.0420   1.0425683619e+02   5.8628941271e+01    0.6242957    0.3311057  24.10  0.003210265    2.233    0.552
       117 -13.9465    178.0068     57.7461   6.0518989643e+01   3.3141927071e+01    0.9291583    0.7468835 -43.01  0.002635375    1.243    0.196
       118 -13.8022     96.6747    238.8578   1.1583228475e+02   1.3635253096e+01    0.6723065    0.4297355  47.47    0.0029748    1.260    0.207
       119 -12.6552    135.4737     50.6611   6.7242502264e+01   4.4966648594e+01    0.6126089    0.3460402  33.61  0.002410188    2.144    0.534
       120 -13.6390     91.0724    232.2690   1.1623109354e+02   1.5594765169e+01    0.4878918    0.2849628  88.10  0.002761263    2.042    0.510
       121 -12.9494    110.1253     42.0497   7.0773857867e+01   5.2154099948e+01    0.5621279    0.2579011  44.19  0.001431688    2.133    0.531
       122 -12.2162    147.4835    239.1077   1.0648067914e+02   5.7063349143e+00    0.1989373      0.14446  55.14 0.0008404879    1.279    0.218
       123 -10.5241     38.7576     60.1840   1.0201874740e+02   6.0288153843e+01    0.1986696    0.1340356  77.37 0.0009541677    2.793    0.642
       124 -10.9540     47.5209     56.8756   9.7635225424e+01   6.0037469878e+01    0.1947856    0.1820777 -83.16   0.00104834    1.354    0.261
       125 -12.6935    247.7793     54.4508   4.9454234006e+01   1.6578870114e+01    0.5892891    0.3359635 -50.94  0.002854726    1.653    0.395
       126 -12.6734    249.0102     48.9932   4.8020311574e+01   1.7066710070e+01    0.3995526    0.3110693 -57.16  0.002306986    1.165    0.142
       127 -11.9584    230.3184     55.4320   5.1801991291e+01   2.0441605907e+01    0.3996603     0.208709  70.31   0.00173171    2.126    0.530
       128 -13.4630    103.2412     50.7424   7.6002735548e+01   5.2194904263e+01    0.8299379    0.5556613 -61.63 0.0004757554    2.236    0.553
       129 -12.5341     98.1422     50.1949   7.7363789314e+01   5.3319979949e+01    0.5447213    0.3823896 -51.98  0.001684316    1.686    0.407
       130 -11.1580     23.7054     49.7513   1.0504701993e+02   6.3786260994e+01     0.326586    0.1494113 -21.22  0.001261054    3.303    0.697
       131 -10.9464     27.2163     46.3750   1.0256347863e+02   6.4183341927e+01    0.2499895    0.1749416  16.05  0.001573531    1.638    0.389
       132 -11.9422     14.2635    223.7375   1.2925857830e+02   2.6622403179e+01    0.4318635    0.1839974  66.57  0.002176977    1.902    0.474
       133 -12.2067     24.7189    217.4903   1.2712667119e+02   2.6724648831e+01     0.593909    0.3160408  56.73  0.003878819    1.475    0.322
       134 -13.7736     25.7971    227.4757   1.2751004246e+02   2.4739635946e+01    0.6027118    0.3254468 -69.02   0.00373139    1.916    0.478
       135 -13.4125     20.7269    225.2147   1.2824610760e+02   2.5691473915e+01    0.4188761    0.2837655  86.13  0.002300783    1.198    0.166
       136 -11.9251     24.3988     59.8974   1.0752620566e+02   6.1614303587e+01    0.2965016    0.1883123 -50.07 0.0008573784    1.238    0.192
       137 -12.5344     75.9133     37.4488   7.9866112179e+01   5.9581310885e+01    0.3641649     0.245655  33.78  0.001314878    1.501    0.334
       138 -11.9417     69.5979     36.5600   8.1802659569e+01   6.0779419917e+01    0.4240319    0.2171092  30.97  0.001426287    2.139    0.533
       139 -13.7675    242.0735     34.9209   4.5399136527e+01   2.0517209803e+01    0.8158449    0.5647674  72.61  0.002702727    1.474    0.322
       140 -12.6537    237.1123    230.2276   8.8922886299e+01  -7.4130254099e+00    0.2175414    0.1534175  43.92  0.001388504    1.623    0.384
       141 -11.9245     40.6001    243.7981   1.2596552503e+02   2.0164364173e+01     0.304059    0.1649701  88.06  0.002020819    1.681    0.405
       142 -13.1897     66.2761    223.3545   1.2002434355e+02   2.0667133029e+01     0.701185    0.5087621  41.87  0.004710543    1.426    0.299
       143 -13.9746     62.8818    214.6681   1.1991755062e+02   2.2771640054e+01    0.9443222    0.4640763  48.99  0.005286617    1.687    0.407
       144 -12.2429     46.1555     33.8638   9.0033168892e+01   6.4580885563e+01    0.4906637    0.2602023 -31.07  0.002518689    1.765    0.434
       145 -12.8750     94.7270    218.8345   1.1417624986e+02   1.7498869556e+01    0.3442964    0.2256926  58.27  0.001515962    1.301    0.231
       146 -12.6841     57.1680    203.0473   1.1999724719e+02   2.5816536428e+01    0.8022288    0.2805059 -72.43  0.003597362    2.865    0.651
       147 -11.1207     85.4910    215.9816   1.1567737804e+02   1.9399983849e+01    0.2542611    0.1359622  54.75  0.001379405    1.614    0.380
       148 -11.1898     31.4026     31.0809   9.5417952662e+01   6.6710761866e+01    0.2075543    0.1431227  -0.70 0.0007442764    1.526    0.345
       149 -12.0903    185.6198    213.7324   9.5580486680e+01   3.1712988105e+00    0.2090113    0.1732835 -52.51  0.001293216    1.525    0.344
       150 -13.5335      9.2228    210.7942   1.2947069885e+02   2.9556005643e+01    0.9462235    0.5491584  72.89  0.006595064    1.292    0.226
       151 -10.5408     89.4351     30.4154   7.2414355609e+01   5.8175846633e+01    0.1358729    0.1203783   7.26 2.886536e-05    1.007    0.007
       152 -12.8795     56.5610     27.4379   8.3042836428e+01   6.4254454810e+01    0.5637578    0.2907891  41.87  0.001883087    2.193    0.544
       153 -12.8095     67.7630     24.4862   7.7385838226e+01   6.2957296460e+01    0.6582271    0.3362171  37.91  0.003246694    1.959    0.490
       154 -11.6721     27.2465     33.0957   9.8066085426e+01   6.6736822313e+01    0.3441831    0.2246527 -50.80  0.002112271    1.423    0.297
       155 -10.9941     97.9833     27.1724   6.8448859108e+01   5.6896445656e+01    0.1997906    0.1912466  78.41  0.001213606    1.301    0.231
       156 -11.9228     46.8356     21.0957   8.4316505019e+01   6.6594174809e+01    0.3889581     0.286333  15.26   0.00230725    1.322    0.243
       157 -12.7641     16.9904    195.1664   1.2717892747e+02   3.1909337552e+01    0.7781356    0.2695794 -75.37  0.003969299    2.411    0.585
       158 -14.1788     29.9564    169.3673   1.2260572077e+02   3.6109531615e+01      1.51746    0.7628872  70.14  0.007450034    2.000    0.500
       159 -13.5177     22.3372    181.2536   1.2517893741e+02   3.4287486890e+01    0.6160982    0.4482651 -67.39  0.003073371    1.428    0.300
       160 -13.0908    157.7105     43.9458   6.0101249812e+01   4.0443016814e+01    0.8611703    0.5228682  34.96  0.003649597    1.952    0.488
       161 -11.6894    169.4960     43.7508   5.7796503253e+01   3.7438194080e+01    0.2911431    0.2062132  62.06 0.0009107479    1.367    0.269
       162 -14.7728      8.7177    183.4518   1.2803365487e+02   3.5083097111e+01    0.9955426     0.782548  64.14  0.007582764    1.213    0.176
       163 -14.9599     16.0141    175.6834   1.2605841324e+02   3.6071849598e+01     2.177207    0.9672033  68.27     0.010801    2.178    0.541
       164 -11.2943    157.2520    213.2581   1.0105451780e+02   8.2115378000e+00    0.1858488    0.1102629 -63.59 0.0008959764    2.429    0.588
       165 -11.1702    136.8187    211.3327   1.0486571011e+02   1.2088004071e+01    0.2081069     0.174005 -84.77 0.0007796289    1.367    0.269
       166 -11.1766     55.5254     41.0676   8.8993447798e+01   6.2090586766e+01     0.180037    0.1546206 -14.42 0.0003486576    1.047    0.044
       167 -12.5229     41.8669    206.9559   1.2328709952e+02   2.6885319656e+01    0.3195103    0.1580272  70.56  0.001533158    1.911    0.477
       168 -10.9994     80.4937    208.4970   1.1588898270e+02   2.1573491147e+01    0.2264381   0.08638087  49.05   0.00102709    2.246    0.555
       169 -11.1135    150.9600    206.8725   1.0134902386e+02   1.0417287570e+01    0.3013502    0.1611621  30.69  0.001370372    2.100    0.524
       170 -13.0825     40.6057    195.4559   1.2262593823e+02   2.9369486717e+01    0.4541012    0.1930528  85.78  0.002077876    2.748    0.636
       171 -10.2694    212.3185    200.3486   8.8198630883e+01   5.2566448435e-01     0.137656     0.091933   7.90  0.000704836    1.733    0.423
       172 -12.6451    164.3213    194.9524   9.6689147057e+01   1.0111992777e+01    0.5723038    0.3189747 -65.30  0.002346418    3.099    0.677
