#   1 NUMBER                 Running object number                                     
#   2 MAG_AUTO               Kron-like elliptical aperture magnitude                    [mag]
#   3 X_IMAGE                Object position along x                                    [pixel]
#   4 Y_IMAGE                Object position along y                                    [pixel]
#   5 X_WORLD                Barycenter position along world x axis                     [deg]
#   6 Y_WORLD                Barycenter position along world y axis                     [deg]
#   7 A_WORLD                Profile RMS along major axis (world units)                 [deg]
#   8 B_WORLD                Profile RMS along minor axis (world units)                 [deg]
#   9 THETA_WORLD            Position angle (CCW/world-x)                               [deg]
#  10 FWHM_WORLD             FWHM assuming a gaussian core                              [deg]
#  11 ELONGATION             A_IMAGE/B_IMAGE                                           
#  12 ELLIPTICITY            1 - B_IMAGE/A_IMAGE                                       
         1 -13.7916    202.0832     43.4971   3.9108974033e+01   2.9917337859e+01    0.9532093    0.8235758 -59.52  0.003074016    1.102    0.093
         2 -14.2458    212.9031     33.5820   3.5671637011e+01   2.8848185616e+01    0.8271806    0.7489148  30.89  0.001921933    1.571    0.364
         3 -10.8263      1.8256     29.3082   9.4043175012e+01   7.0398363115e+01    0.1847852    0.1390401 -46.16 0.0006743141    1.321    0.243
         4 -12.7206    241.6749     10.4858   2.8603336035e+01   2.5693493491e+01    0.4487312    0.4195842  32.39  0.002821809    1.714    0.416
         5 -12.8039    235.2485      8.7305   2.8690186172e+01   2.7147176024e+01    0.6040852    0.2764779 -48.63  0.002958516    1.771    0.435
         6 -12.7698    240.1172      4.0547   2.7492976842e+01   2.6696693078e+01    0.5535569    0.3109755  88.17  0.003032923    1.574    0.365
         7 -11.3634      2.1070      3.3509   8.2330804236e+01   7.4463060127e+01    0.2725728    0.1264355 -42.09  0.001591557    2.136    0.532
         8 -12.0210     58.3037      6.8576   5.6339901868e+01   6.6210205912e+01    0.2711654    0.2170055  70.46  0.001021839    1.797    0.444
         9 -11.2068     43.6675      5.1616   6.1181083970e+01   6.8916314211e+01    0.2212579   0.09361221 -33.93  0.001105765    2.652    0.623
        10 -11.5840    123.2404    200.8562   9.1818966711e+01   1.4685217338e+01    0.3527343     0.258602 -77.08   0.00136581    1.708    0.415
        11 -12.2648    140.1808    249.6885   9.5271998871e+01   2.2358352144e+00    0.3927559    0.2910619  45.00  0.002346986    1.311    0.237
        12 -16.0479     71.0857    149.8775   9.6880877397e+01   3.5633609898e+01     8.209603      4.17669  66.75   0.01046786    3.890    0.743
        13 -11.1776     89.5124    174.4858   9.6001001026e+01   2.6522820744e+01      0.26353    0.2536499  89.86 0.0006668506    1.012    0.012
        14 -14.4115     52.3580    185.1951   1.0738198618e+02   2.9051195638e+01     1.677295     1.372978  71.61  0.009606448    1.153    0.132
        15 -10.3998    185.8170    172.8071   7.2072947187e+01   9.6691517088e+00    0.2637556    0.2406923 -15.21  0.001102744    1.018    0.018
        16 -10.6197     82.3330    195.1643   1.0106463062e+02   2.2513344368e+01    0.2856113    0.2263656 -12.91  0.001396548    1.715    0.417
        17 -15.9142     36.6562    191.2322   1.1199173808e+02   2.9385975927e+01     5.518383     2.165741  68.04   0.01249752    4.317    0.768
        18 -11.6800    240.3356    169.1504   6.1102228453e+01   1.2793362919e+00    0.2122264    0.1710966  10.21 0.0007118919    1.343    0.255
        19  -9.9867    110.7327    167.4356   8.9027339615e+01   2.4737386855e+01    0.2749122    0.1886368 -69.40 0.0006718235    1.656    0.396
        20  -9.6690    102.8712    165.0578   9.0689001123e+01   2.6692449925e+01    0.2232392    0.1983867  77.73  0.001148225    1.193    0.162
        21 -11.2450     35.9165    161.8238   1.0887147275e+02   3.6881127677e+01    0.3099677    0.2627237  59.97 0.0004560121    1.199    0.166
        22 -11.8357     32.8327    155.9696   1.0899186845e+02   3.8707390885e+01    0.4350334    0.3141328 -83.61  0.001644936    1.278    0.217
        23 -12.4730     87.3505    151.6599   9.2456047563e+01   3.2682968288e+01    0.6750124    0.4523413 -27.41   0.00174164    1.982    0.495
        24 -11.4935    133.6963    144.9284   7.8179372830e+01   2.5897312856e+01     1.239256    0.3172514 -54.34  0.002835653    5.569    0.820
        25  -9.2222    111.9779    150.2369   8.5187021522e+01   2.8774990528e+01     0.198356    0.1319663  38.20 0.0003702138    1.535    0.349
        26 -12.1369     55.1776    147.1132   1.0114192770e+02   3.8501183612e+01    0.6574466    0.4978943 -44.58  0.003375456    1.348    0.258
        27 -10.3599    174.8791    149.1401   6.9306537087e+01   1.6682036093e+01    0.2304943    0.2092356 -73.36 0.0005850135    1.250    0.200
        28  -9.9553     35.6895    145.2500   1.0669845504e+02   4.1199341694e+01    0.2237545    0.1645725 -17.79 0.0006274559    1.756    0.430
        29 -11.2706     29.5540    143.9948   1.0835404753e+02   4.2125040255e+01    0.3744007    0.3108292   0.11  0.002167401    1.487    0.327
        30 -11.1664    101.7488    137.9140   8.5374439325e+01   3.3712121120e+01    0.6120026    0.3832554 -20.00  0.002255434    2.617    0.618
        31 -11.1334    106.0139    131.0664   8.2549869881e+01   3.4626767560e+01    0.4798272    0.3365313 -57.36  0.001809568    1.437    0.304
        32 -10.4342    111.0049    129.0107   8.0616082977e+01   3.4182028244e+01    0.3433485    0.2351879  25.31 0.0008754685    1.708    0.414
        33 -12.4153     88.9462    137.3217   8.9028957628e+01   3.6088947937e+01    0.3155082    0.2681318 -43.49 0.0003759674    1.159    0.138
        34 -11.3065     25.4431    137.3494   1.0867430857e+02   4.4216218952e+01    0.3545082    0.1721673  39.30  0.001611257    2.231    0.552
        35 -11.2958    134.9131    128.5156   7.3953870482e+01   2.9496197036e+01    0.3859649    0.3164914 -54.95   0.00185725    1.226    0.184
        36 -15.8532      4.6904    169.7401   1.1795112486e+02   3.7670551470e+01     6.837965    0.5252333 -70.68  0.006831243    5.571    0.820
        37 -11.0876     98.2110    124.7511   8.3344658277e+01   3.7618004035e+01    0.3175676    0.2592796   3.62   0.00059347    1.465    0.317
        38 -10.9583     86.5613    176.5194   9.7130886889e+01   2.6473090097e+01    0.2280442    0.2177995  59.36 0.0004790433    1.050    0.048
        39 -10.5668    116.9949    123.7937   7.7626724401e+01   3.4259792199e+01    0.2605421    0.1875068   4.87 0.0009704368    2.005    0.501
        40 -10.2157    135.0000    119.9708   7.1779045159e+01   3.1430516140e+01    0.2674848   0.08844804 -46.00   0.00080308    2.947    0.661
        41  -9.9696    107.5213    118.0910   7.8906484560e+01   3.7477452610e+01    0.2185841    0.2083094  26.30 0.0003460723    1.080    0.074
        42  -9.7525     83.0244    117.3388   8.6261823454e+01   4.2089279545e+01    0.2078341    0.1946753  35.59 0.0004374837    1.124    0.110
        43 -10.5667    231.3257    113.7763   5.1045505996e+01   1.2594520872e+01    0.2440826    0.2181996 -45.70 0.0008186247    1.056    0.053
        44 -10.6135     40.1162    113.7915   9.9908316714e+01   4.8840596866e+01     0.207658    0.1854727  80.43 0.0005639939    1.250    0.200
        45  -9.9363    135.0000    112.0373   6.9711264254e+01   3.3200251056e+01    0.2656488   0.08812694 -44.91 0.0008031371    2.947    0.661
        46  -9.9879    205.5019    110.2016   5.4321258228e+01   1.8285873106e+01    0.2379148     0.205036  55.68 0.0006419353    1.282    0.220
        47 -10.9090    115.4646    109.1241   7.4239867583e+01   3.7973871127e+01    0.3342101    0.3057406  10.78  0.001716633    1.165    0.141
        48 -11.6290     33.2843    108.4893   1.0125303678e+02   5.0855784840e+01    0.3547174     0.259664 -70.75  0.001908084    1.325    0.245
        49 -11.8613     53.3905    111.2022   9.4744236767e+01   4.7955399780e+01    0.3648672    0.2322997 -70.11  0.001261836    1.709    0.415
        50 -10.9959    119.1663    103.8526   7.1752356163e+01   3.8381991303e+01    0.2363714    0.2168195 -84.41 0.0004811281    1.210    0.173
        51 -10.6329     42.4904    103.9243   9.6985942663e+01   5.1039108504e+01    0.2491531    0.1861526  45.75 0.0006526896    1.567    0.362
        52 -11.1766     36.3696    101.3260   9.8648000396e+01   5.2319704259e+01    0.2534216    0.2361939  86.23  0.001360168    1.224    0.183
        53 -10.6211    120.8345     98.1293   6.9686217760e+01   3.9267118727e+01    0.2341842     0.214816 -84.06 0.0005126231    1.210    0.174
        54 -18.0179     14.1955    240.6367   1.2060576337e+02   2.0568545845e+01     7.033562     2.647707  24.43   0.02513319    3.654    0.726
        55  -9.5060    152.1911     84.0446   5.7929725739e+01   3.5023124588e+01    0.2518641    0.1642827 -65.53 0.0008068724    1.991    0.498
        56  -9.1346     73.4919     83.9955   8.0425902482e+01   5.1415007492e+01    0.1850996    0.1308765 -76.20  0.000380829    2.232    0.552
        57  -9.4623    159.4972     83.5190   5.6229334730e+01   3.3424134177e+01     0.148092    0.1422902 -76.17 7.963447e-05    1.001    0.001
        58  -8.8829    102.3317     73.7128   6.7672943161e+01   4.8096773824e+01     0.143776    0.1189413  86.93 0.0007014537    1.621    0.383
        59  -9.3188    129.8182     65.1617   5.7528072463e+01   4.3557924219e+01    0.1915074    0.1661701  24.60 0.0002935548    1.254    0.203
        60 -10.7283     13.4637     60.0342   9.7933480643e+01   6.3673135123e+01    0.2341945    0.1922174 -43.97 0.0004441436    1.105    0.095
        61 -13.2640    191.9631     50.9984   4.2191053068e+01   3.1152188777e+01      0.73965    0.5369025  38.62  0.001095519    1.832    0.454
        62 -11.3971    131.3519    191.3934   8.8223989446e+01   1.5434611706e+01    0.3010119    0.2536508  44.32  0.001587794    1.176    0.150
        63 -10.2569    168.5545    233.2739   8.6860170178e+01   8.9520467600e-01     0.235513     0.194333  51.02  0.001398972    1.470    0.320
        64 -15.9151      9.3613    207.6866   1.1962347308e+02   2.8213561510e+01     1.512111     1.138874 -47.79  0.006983163    1.711    0.416
        65  -9.5425    198.4135     23.4733   3.4855987079e+01   3.3253272370e+01     0.123543    0.1053551 -80.04  0.000145496    1.043    0.041
        66  -9.9515     78.1064     57.5303   7.0067186315e+01   5.5782269029e+01     0.300667    0.1311117  47.82  0.001187055    2.506    0.601
        67  -9.3309    189.5901     15.1881   3.3815098217e+01   3.6156683514e+01    0.1488692    0.1215212 -18.64 0.0005832348    1.616    0.381
        68 -10.4362     66.9547    196.9473   1.0514973868e+02   2.4260853975e+01    0.2150159    0.1842892  71.20 0.0005176747    1.084    0.078
        69 -11.5965    111.4590    203.9932   9.5171135930e+01   1.5914818352e+01    0.2451383    0.1858129  48.19 0.0004005015    1.281    0.219
        70 -11.2341     81.0281    182.0034   9.9468595955e+01   2.5940302209e+01    0.3688798    0.3173069 -60.77   0.00123151    1.156    0.135
        71 -11.1830     99.3803    180.9166   9.4472831441e+01   2.3339813019e+01     0.300956    0.2665046 -40.46 0.0007105839    1.206    0.171
        72 -12.1887    193.2254    195.4338   7.5037860807e+01   3.9599052008e+00      1.05554    0.5204592 -61.73  0.003051897    5.908    0.831
