#   1 NUMBER                 Running object number                                     
#   2 MAG_AUTO               Kron-like elliptical aperture magnitude                    [mag]
#   3 X_IMAGE                Object position along x                                    [pixel]
#   4 Y_IMAGE                Object position along y                                    [pixel]
#   5 X_WORLD                Barycenter position along world x axis                     [deg]
#   6 Y_WORLD                Barycenter position along world y axis                     [deg]
#   7 A_WORLD                Profile RMS along major axis (world units)                 [deg]
#   8 B_WORLD                Profile RMS along minor axis (world units)                 [deg]
#   9 THETA_WORLD            Position angle (CCW/world-x)                               [deg]
#  10 FWHM_WORLD             FWHM assuming a gaussian core                              [deg]
#  11 ELONGATION             A_IMAGE/B_IMAGE                                           
#  12 ELLIPTICITY            1 - B_IMAGE/A_IMAGE                                       
         1 -13.0118     71.1869     77.1232   1.1270804679e+02   5.2413441468e+01     3.569928     2.504596  78.72  0.008036894    2.855    0.650
         2 -13.9815    108.5650     69.7207   9.9058994017e+01   4.7404811690e+01     4.362518     2.739112 -31.92   0.02060496    1.636    0.389
         3 -12.1049     51.4862     34.9193   1.0574849052e+02   6.2492978232e+01     1.549984     1.019035 -40.41  0.009443298    1.536    0.349
         4 -12.6469     39.9962     64.3077   1.1958970409e+02   5.8727710927e+01     1.442444     1.170331  69.38  0.008989709    1.934    0.483
         5 -12.3779    130.1401     20.4424   7.7429258226e+01   4.9812662193e+01     1.209334    0.7475216  54.86  0.004688817    1.417    0.294
         6 -12.6292    112.2078     21.7032   8.1922366510e+01   5.3637897153e+01     1.013734    0.7602832 -14.32  0.004400934    1.424    0.298
         7 -12.6456     92.2723     17.0349   8.5413375440e+01   5.8179897271e+01      0.76592    0.3525673  -7.86  0.003068547    3.494    0.714
         8 -11.3283    117.3353     15.8363   7.8667538886e+01   5.3145719497e+01    0.3463896    0.3029355 -74.35 0.0009392566    1.466    0.318
         9 -13.6499     98.9221      6.8348   7.9804178301e+01   5.7860845764e+01    0.9019402    0.6379325  43.50  0.002818775    1.194    0.163
        10 -11.9763    116.1197      7.3807   7.6001382834e+01   5.4204023228e+01     1.489926    0.4303425  42.54  0.005490064    3.307    0.698
        11 -11.8922    123.5764     10.0532   7.5338711703e+01   5.2320771116e+01    0.4155184    0.4054111 -21.24  0.001270145    1.195    0.163
        12 -12.3336     68.4145     20.4899   9.4103892479e+01   6.2005045956e+01     1.107769    0.4619864  28.36  0.004773505    2.930    0.659
        13 -12.5028     77.3121     30.4824   9.5052299565e+01   5.9282953684e+01     1.415485    0.7858014  -7.87  0.001289503    2.435    0.589
        14 -12.0563     66.5434     30.7715   9.8764615490e+01   6.0973520419e+01     1.232651    0.4661561  37.85  0.005552335    2.598    0.615
        15 -12.8639    163.5002     11.4933   6.8699457263e+01   4.2804543854e+01     2.188083     1.623523   3.75   0.01214015    1.769    0.435
        16 -12.2012    142.9792     39.0313   8.0680183805e+01   4.4613435077e+01     1.887051     1.089718  30.96  0.008223863    2.177    0.541
        17 -11.4988    133.1452     36.8569   8.2134254230e+01   4.7193326122e+01     1.153607    0.6218112   7.69  0.003201774    4.161    0.760
        18 -12.8524    140.9654      8.7931   7.1593655386e+01   4.8450862027e+01     1.906212     1.141162 -84.55  0.005314487    2.495    0.599
        19 -12.9210     88.1186     51.3198   9.9118755932e+01   5.4370574267e+01      3.12674     1.972876 -12.93   0.01522026    1.943    0.485
        20 -10.7772     54.4247     17.6660   9.7885284430e+01   6.4456804295e+01    0.4226329    0.2748221  -0.65  0.002603911    1.491    0.329
        21 -10.9105     78.3277      7.2543   8.5600220421e+01   6.1744952334e+01     0.635585    0.4169553   2.21  0.003140153    1.536    0.349
        22  99.0000     30.6804     12.7076   1.0519784695e+02   6.8045277963e+01    0.8803231    0.2557264 -28.97  0.003453522    4.202    0.762
        23 -12.3920     19.0145     13.6580   1.1066685732e+02   6.9074454738e+01     0.813041    0.5176973 -39.78  0.005651605    1.556    0.357
        24 -10.1290     26.3182      4.7573   1.0360154216e+02   6.9499048650e+01    0.5461036      0.25725 -19.92    0.0031254    2.077    0.519
        25 -11.4612     37.5052     27.8003   1.0846773316e+02   6.5218901345e+01    0.3846137    0.2753585 -33.49   0.00124412    1.289    0.224
        26 -12.2991     28.4987     26.9908   1.1182883043e+02   6.6271696592e+01     1.156185    0.4792935 -31.77  0.006004207    2.187    0.543
        27 -12.0942     41.7830     17.2920   1.0256951795e+02   6.6172989194e+01       1.2126    0.5083153 -32.66  0.006415925    2.157    0.536
        28 -11.2537     50.7967     10.7939   9.6340992932e+01   6.5777127164e+01    0.5268324     0.361363  22.75    0.0035377    1.275    0.216
        29 -10.9573     13.5969     24.6980   1.1731131461e+02   6.7904305519e+01    0.4710397    0.2369709 -19.70  0.001896988    2.005    0.501
        30 -12.7428     20.1923     42.5463   1.2055182025e+02   6.4465448777e+01    0.5895183    0.4447722 -77.26 0.0005554001    2.254    0.556
        31 -11.1651      9.8187     19.4705   1.1706118009e+02   6.8981841175e+01    0.3858277    0.2305673   8.49  0.001773799    1.690    0.408
        32 -11.4722     69.1340      4.3072   8.7216646302e+01   6.3616297931e+01    0.7226272    0.3409662  36.11   0.00389279    1.851    0.460
        33 -11.8701     57.2701      4.1494   9.1115143561e+01   6.5535347564e+01    0.7069675    0.3893226  52.60  0.003911988    2.416    0.586
        34 -11.9516      3.5370     17.4650   1.1915951535e+02   6.9712563507e+01    0.4983519     0.170535 -34.46  0.001536067    2.352    0.575
        35 -12.9783      4.3775      9.6065   1.1574254093e+02   7.0804017350e+01    0.9533312    0.4979595 -28.12  0.006473156    1.471    0.320
        36 -10.2476    191.9723     39.0296   7.1908393124e+01   3.2556546522e+01    0.9612167    0.5360568  28.19  0.003584462    3.460    0.711
        37 -11.2225    203.1908     37.4569   6.9891071814e+01   2.9988715374e+01     1.050845    0.4692448  41.94  0.002855814    3.363    0.703
        38  -9.6850    217.6214     14.2919   6.2590220926e+01   2.9354691636e+01    0.3011352    0.2722362  -1.71  0.001560519    1.528    0.345
        39  -9.2867    221.9061     11.6672   6.1561410030e+01   2.8641842791e+01    0.4009723    0.1924099 -57.52  0.001894581    2.129    0.530
        40 -10.1847    187.3109     21.3874   6.7960532054e+01   3.5904614073e+01    0.6893128    0.3574844 -61.27  0.002983128    2.425    0.588
        41 -11.0610    215.5445     21.9914   6.4594576123e+01   2.8947280775e+01    0.6506491     0.461673 -82.99  0.003660737    1.321    0.243
        42 -11.0051    211.8779     15.2287   6.3421485739e+01   3.0616776841e+01    0.8079581    0.3836872 -39.28  0.003890235    2.093    0.522
        43 -10.4140    186.2623     13.9774   6.6174596257e+01   3.6979726142e+01    0.4335502    0.2578433  57.09  0.001014426    1.530    0.347
        44 -10.4198    189.6730      8.5939   6.4369550110e+01   3.6705100261e+01     1.100717    0.2233196  52.84  0.003408368    4.566    0.781
        45 -11.7670    204.1266      6.6717   6.2248962044e+01   3.3405194230e+01    0.6089035    0.3465374  65.20  0.001781183    1.532    0.347
        46 -11.6936    209.1482      3.7225   6.1037142630e+01   3.2509665019e+01     1.028422    0.3542769  74.66  0.001645947    2.680    0.627
        47  -9.9907    231.3532     19.3143   6.2312488031e+01   2.5548138349e+01    0.7124206    0.3313082 -51.11  0.003404589    2.028    0.507
        48  -9.9641    229.7879      3.3855   5.9024446309e+01   2.7727464706e+01    0.6481895    0.3477798  34.31  0.002645678    4.268    0.766
        49 -10.9803    222.5173      1.9889   5.9370926698e+01   2.9549714368e+01    0.4896724    0.2344154  78.88  0.001709861    1.861    0.463
        50 -10.6996    245.1212     19.9555   6.1135942142e+01   2.2343118198e+01    0.6464907    0.3335431 -87.71  0.003153938    2.053    0.513
        51 -11.1885    232.9117     11.2459   6.0418328329e+01   2.6139710042e+01    0.5877489    0.3202816 -77.84 0.0005152224    1.872    0.466
        52 -10.9086    202.7274     19.0808   6.5394975265e+01   3.2386733634e+01    0.5120019    0.4173361  64.96   0.00207293    1.186    0.157
        53  -9.2521    178.8191     14.7877   6.7387374432e+01   3.8721518603e+01    0.2510673    0.1897013  25.14 0.0006517189    1.710    0.415
        54 -10.2976    243.3870     12.4927   5.9744511417e+01   2.3628911904e+01    0.3618434    0.2790529 -54.55  0.001292779    1.220    0.181
        55 -10.8268    247.7671      6.1160   5.8086579051e+01   2.3398006375e+01    0.6249889    0.3198253 -58.22  0.003366012    1.751    0.429
        56  -9.1391    241.9753      1.6557   5.7652036191e+01   2.5170537566e+01    0.2029099     0.133466 -72.72 0.0009354236    1.296    0.228
        57 -10.2554    180.6639      7.6853   6.5261827957e+01   3.8992285744e+01    0.4481833    0.3187424 -21.58  0.001523486    1.725    0.420
        58  -9.7461    173.8416      8.9620   6.6507555001e+01   4.0532168426e+01    0.2155705    0.1936631  85.88 0.0008078738    1.073    0.068
        59 -10.2766    175.0158      4.3604   6.5115975497e+01   4.0685256354e+01    0.5469656    0.3570906  86.79  0.002966842    1.505    0.336
        60  -8.4344    189.5041      1.4379   6.2596493092e+01   3.7446597534e+01    0.1297954    0.1073395  76.02 6.866198e-05    1.045    0.043
        61  -9.6728     92.2976    119.4805   1.1729271203e+02   3.9960538937e+01    0.6514271    0.1800791 -46.62  0.001997389    3.540    0.718
        62 -11.3087     26.8195     51.8963   1.2082202715e+02   6.2265998090e+01    0.5144536    0.2317083 -30.19  0.002562141    2.325    0.570
        63  -8.8256     11.2185    248.8095   1.5076393871e+02   2.2136338235e+01    0.1897632   0.06351548  67.00 0.0009475643    2.785    0.641
        64  -9.3378    234.0128    247.8562   1.1086570125e+02  -1.1663616647e+01    0.1846424    0.1345979  56.46  0.001096631    2.064    0.515
        65  -9.0364      3.5005    245.9964   1.5178298621e+02   2.3446250042e+01    0.1288927   0.06575714 -61.11 0.0008100071    2.490    0.598
        66  -9.9516    141.9071    243.7560   1.2747757060e+02   4.3778898028e+00    0.2889392    0.1783005  35.08 0.0008565471    1.616    0.381
        67  -9.7074    211.1446    241.0966   1.1392794246e+02  -7.1289848945e+00    0.2305602     0.159326 -29.87  0.001260775    1.622    0.383
        68  -9.6865     13.1808    238.4282   1.4988839226e+02   2.3843434732e+01    0.2271016    0.1381081 -58.10  0.001506823    2.249    0.555
        69  -8.8396     24.6819    235.3219   1.4784343467e+02   2.3179630594e+01    0.1192179   0.05949399  69.67 0.0002854089    1.667    0.400
        70  -9.5586     12.3713    232.3469   1.4966310341e+02   2.5080459530e+01    0.2390039   0.09957924  68.04  0.001340301    2.092    0.522
        71  -8.8811    136.6131    224.8131   1.2591245196e+02   8.6917962460e+00    0.1795801    0.1242525 -73.29 0.0009516857    1.744    0.427
        72  -8.5065     52.3029    224.6814   1.4224202915e+02   2.1931882915e+01    0.1264741   0.07079031  71.18 0.0003376057    1.626    0.385
        73 -10.2712    123.9943    206.0109   1.2574730818e+02   1.4656917154e+01    0.1974416    0.1743961  64.85   0.00116711    1.009    0.009
        74  -8.1766    244.6823    204.6539   1.0124850629e+02  -7.3934635909e+00    0.1367141   0.09063529   2.59 0.0007048675    1.725    0.420
        75  -8.9811    234.3085    201.5152   1.0253440124e+02  -5.1568395310e+00    0.2342149    0.1151593 -36.66  0.001083552    2.044    0.511
        76 -10.1821     26.7162    191.9312   1.4417094433e+02   3.1821547122e+01    0.3577147       0.2247 -75.11  0.002253391    1.322    0.244
        77  -9.9293    104.8265    117.3112   1.1332905757e+02   3.8267680659e+01    0.5882185    0.4085166  83.26  0.002526433    2.193    0.544
        78  -9.7647     98.0579    114.9323   1.1462095550e+02   4.0017365645e+01    0.3804807    0.2847387  41.78  0.001326061    1.413    0.292
        79  -9.2797     41.5329    118.4856   1.3133589881e+02   4.6996957086e+01    0.1845918    0.1627624  70.45 0.0006820553    1.264    0.209
        80  -9.2939     39.2014    115.4293   1.3144277058e+02   4.7929119544e+01    0.2347527    0.1600921 -78.38 0.0008494088    1.481    0.325
        81  -9.5862     13.0541    117.2989   1.3892376707e+02   4.9716007363e+01     0.231812     0.186112  61.78  0.001313378    1.442    0.307
        82  -8.7614     27.8978    115.8620   1.3467363327e+02   4.8875870045e+01    0.1813008    0.1307177 -53.29 0.0003213022    1.205    0.170
        83 -10.1080    132.8689    111.6255   1.0444293426e+02   3.3948938346e+01    0.4916605    0.4460082 -50.73  0.002347774    1.088    0.081
        84  -9.7921    133.6425    103.5185   1.0209709049e+02   3.5516536219e+01     0.528698    0.2553315 -43.92  0.002003614    2.051    0.513
        85  -9.3782     92.9752    111.6777   1.1525924259e+02   4.1626650186e+01    0.3736873    0.2956351  18.09  0.001930912    1.513    0.339
        86 -12.5622     31.8505     86.8858   1.2798810683e+02   5.4908562570e+01     1.838445     1.293504  59.38    0.0103966    2.010    0.502
        87 -10.6282     67.6881    107.5379   1.2159340419e+02   4.6403769335e+01    0.6930894     0.354652 -36.76  0.002965611    2.304    0.566
        88 -10.2325     73.9227    108.1367   1.1990180329e+02   4.5400695605e+01     0.332918    0.2953493  62.55 0.0008203845    1.277    0.217
        89  -9.7996    105.7192    109.4078   1.1112368050e+02   3.9879758044e+01    0.3602728    0.3057137  22.95   0.00189128    1.314    0.239
        90  -9.3183     35.3790    109.6859   1.3148947620e+02   4.9596619568e+01     0.264497    0.1978075  65.82  0.001591778    1.640    0.390
        91  -9.3672    120.4938    109.0501   1.0700945746e+02   3.7091243335e+01    0.2309946    0.2113731  46.97  0.001029876    1.120    0.107
        92  -8.9454     53.5692    105.2486   1.2526865324e+02   4.8691128637e+01    0.2596056    0.1184004 -62.35  0.001131039    2.108    0.526
        93 -11.0542     18.0409    186.2540   1.4537394965e+02   3.3925381080e+01    0.2920187    0.2753038 -74.63  0.001324696    1.425    0.298
        94 -10.6424      6.3327    185.8892   1.4760308853e+02   3.5084575896e+01    0.4051751    0.1540511  57.93   0.00204561    2.636    0.621
        95  -8.8439    140.5705    101.6643   9.9841738887e+01   3.4375807649e+01     0.290334    0.1507219 -38.66  0.001074306    1.998    0.500
        96  -9.6342    114.6913    100.3496   1.0626871439e+02   4.0132001992e+01    0.3503279    0.1755764 -52.29  0.001009044    2.111    0.526
        97 -10.7120    117.4361     98.7567   1.0508567653e+02   3.9920970018e+01    0.5328658    0.4776258 -89.58  0.002486059    1.274    0.215
        98  -9.1748      8.1316     93.8735   1.3669578682e+02   5.5156336305e+01    0.2475681    0.1930113  61.12  0.001327898    1.623    0.384
        99 -10.8766      4.1124     99.5434   1.3877865637e+02   5.4177491832e+01    0.4831624    0.2929506 -70.19  0.002882305    1.324    0.245
       100  -8.9304      9.8038     99.8243   1.3718449111e+02   5.3773218393e+01    0.1994821    0.1438007 -77.82 0.0008114005    1.293    0.227
       101 -11.3521      3.9491     80.2338   1.3558096654e+02   5.8259459475e+01    0.6024792    0.3110895 -61.61  0.002764679    1.465    0.317
       102 -10.7979      3.2325     89.2731   1.3739410612e+02   5.6413653067e+01    0.5259057    0.2296811 -48.62  0.002938356    1.801    0.445
       103 -11.2972     13.5795     88.8042   1.3414338614e+02   5.5892879697e+01    0.3481206    0.2697549 -59.33 0.0009867779    1.046    0.044
       104  -9.0840    151.1659     99.8760   9.6768086411e+01   3.2326367402e+01    0.3449849     0.209299 -52.86  0.001415318    1.799    0.444
       105  -9.6293     38.4424    176.9763   1.4029456439e+02   3.3851531491e+01    0.3716507   0.08809537 -65.17  0.001402273    3.274    0.695
       106  -9.6967    159.3109     96.8437   9.4037362312e+01   3.1021869917e+01    0.3330618    0.3322018   3.67  0.001098602    1.037    0.035
       107 -12.0542     15.7653     60.6516   1.2731086807e+02   6.1464698195e+01    0.9552807    0.8353583  76.96  0.006990103    1.631    0.387
       108  -9.4476    187.9061     93.0371   8.6927143759e+01   2.4834263244e+01    0.4564767    0.2029421 -48.33  0.001626301    2.396    0.583
       109  -8.8087    206.5874     91.7842   8.3110929035e+01   2.0532388233e+01    0.2262921    0.1323162 -49.59 0.0009524182    1.724    0.420
       110  -8.9159      1.5262    177.9230   1.4791661899e+02   3.7191275530e+01    0.1748922   0.08500432 -78.76 0.0008658465    1.565    0.361
       111  -8.9581    194.2182     90.0833   8.4940966423e+01   2.3838725359e+01    0.2344389    0.2135517   7.27  0.000988669    1.296    0.228
       112  -9.8112     74.4340     88.9421   1.1495967510e+02   4.9521031915e+01     0.374514    0.2454551  17.09  0.001844479    1.926    0.481
       113  -9.3653     62.9605    167.9826   1.3370894041e+02   3.2915031813e+01    0.2119364    0.1749656 -86.59 0.0008429196    1.039    0.038
       114 -10.0467      9.4766     86.0366   1.3490745547e+02   5.6735539583e+01    0.2435606    0.1342689 -61.49 0.0006754518    1.395    0.283
       115  -9.5320    161.9534     87.8958   9.0980045083e+01   3.2121003385e+01    0.3063739    0.2354195 -69.18 0.0005613684    1.547    0.354
       116  -9.8300    152.8976     87.4075   9.2906719582e+01   3.4375723936e+01    0.3452906    0.2712296  43.19 0.0009076527    1.282    0.220
       117  -9.2295    237.9864     86.7311   7.6823436060e+01   1.4103666173e+01    0.2031718    0.1872508 -83.87  0.001179233    1.076    0.070
       118  -8.9039    146.3140     87.0173   9.4354862952e+01   3.5993060254e+01    0.2471549    0.1286614 -18.94 0.0007045191    4.244    0.764
       119  -9.7486    161.1006     82.1610   8.9567296832e+01   3.3394984700e+01    0.5483547    0.3919028  84.52   0.00238952    1.872    0.466
       120 -10.4332    152.1978     67.0140   8.7180852428e+01   3.8207033218e+01    0.7972805     0.268867  46.65  0.002612618    2.947    0.661
       121 -10.4313    134.5583     80.8727   9.5477401112e+01   3.9844394096e+01    0.6155534     0.368419 -34.88  0.002410919    1.744    0.427
       122 -11.3498    145.8006     75.9463   9.1279612344e+01   3.8172022392e+01     1.614184    0.6507214  45.01  0.005709733    2.507    0.601
       123  -9.6373    217.7542     79.9222   7.8286552112e+01   1.9938295352e+01     0.722054    0.3505803 -18.91  0.002047607    5.147    0.806
       124 -10.9045    140.6498     68.5996   9.0322124062e+01   4.0664632723e+01    0.6880558    0.5402474  72.54  0.002182787    1.474    0.322
       125  -9.5553    123.2080     80.9907   9.8459318726e+01   4.2301488169e+01    0.3542966    0.2278315  30.63  0.001045971    1.801    0.445
       126 -10.5188     36.7284     75.8075   1.2378341170e+02   5.6770458102e+01    0.2386452     0.177219 -35.91 0.0003634896    1.176    0.150
       127  -8.8078    192.7188     74.0723   8.1032079081e+01   2.7032410696e+01    0.2494419    0.1757912 -54.45  0.001169334    1.468    0.319
       128  -9.4632    215.0262     71.8386   7.6727685334e+01   2.1943613674e+01    0.3024088    0.2164427 -25.04 0.0009676248    1.661    0.398
       129  -9.8654    132.4648     68.4522   9.2281717840e+01   4.2559452049e+01    0.5147879    0.3283333  70.63  0.001994322    2.213    0.548
       130  -9.2472      5.7242     71.0818   1.3320926052e+02   6.0025730393e+01    0.2743776     0.182245  75.73 0.0007518478    2.404    0.584
       131  -8.4609      1.3443     70.3071   1.3452613418e+02   6.0411597572e+01    0.2243947    0.1166817 -36.29  0.001005175    1.755    0.430
       132 -10.5334    250.2359     67.2744   7.0772278293e+01   1.4556243499e+01    0.5699582    0.1870037 -33.96  0.002013187    3.261    0.693
       133  -9.3298    170.1593     55.8133   8.0215690472e+01   3.5601132685e+01    0.2752288     0.236578  48.07 0.0006877334    1.158    0.136
       134 -11.7612    164.3232     62.7152   8.3340869452e+01   3.5962833902e+01    0.7257535    0.6624108  16.71  0.003961056    1.223    0.182
       135 -10.7034    165.0216     56.9843   8.1550396537e+01   3.6694383637e+01    0.5467841     0.433143  -3.97  0.001977895    1.597    0.374
       136  -9.2772    178.3757     60.2729   7.9922036746e+01   3.2863563258e+01    0.3607663    0.2703868 -30.22 0.0008453612    1.459    0.315
       137 -11.5061    174.4770     56.5804   7.9617986740e+01   3.4409234264e+01    0.9715225    0.6171938  -6.44  0.001538639    2.616    0.618
       138  -8.9222    189.0762     64.8268   7.9227497179e+01   2.9468039581e+01    0.2309393    0.1913297 -78.18 0.0006523742    1.258    0.205
       139  -8.9665    135.5052     63.4838   9.0006252679e+01   4.2713265987e+01    0.2786569    0.1443783 -36.67 0.0005995281    1.985    0.496
       140 -12.4041     37.7222     47.0361   1.1518025691e+02   6.2112001322e+01    0.9039872    0.7428133  58.69   0.00356391    1.996    0.499
       141  -9.3403    219.2812     60.8439   7.3400079619e+01   2.2677949922e+01    0.2907162    0.2347451  62.79 0.0004652085    1.246    0.197
       142 -10.1274    222.3883     57.3265   7.2116054177e+01   2.2475187182e+01    0.3828355    0.2914985 -65.39  0.001271966    1.267    0.211
       143  -8.8512    184.5724     60.9953   7.8995035950e+01   3.1202601485e+01    0.3707806    0.1648587  72.47  0.001199087    3.332    0.700
       144  -9.2746    149.2513     59.1307   8.5487769162e+01   4.0199659429e+01    0.5043146    0.2645272 -50.28  0.002021772    2.298    0.565
       145 -10.0653    157.8685     50.8138   8.1181130036e+01   3.9382249402e+01    0.4340915    0.3812603 -33.09  0.001693957    1.216    0.178
       146 -11.5962    140.2554     51.6749   8.5226326325e+01   4.3477401797e+01     1.041204    0.3573073  47.78  0.002478675    2.718    0.632
       147  -9.7346    152.8031     56.2337   8.3846868142e+01   3.9798076934e+01    0.3362963    0.2772252  -7.36  0.001199901    1.422    0.297
       148 -10.4556    150.0831     51.7006   8.3065107206e+01   4.1140288645e+01    0.5530062    0.4007855   8.80  0.001948789    1.860    0.462
       149 -10.2447    201.3733     57.6053   7.5282297817e+01   2.7547244559e+01    0.5076383    0.3810777  13.36  0.002418169    2.017    0.504
       150  -9.5050    158.6550     58.3077   8.3227644046e+01   3.8053448892e+01    0.4084682    0.2814849  -3.89  0.001800987    2.114    0.527
       151 -10.5522    187.8997     50.2451   7.5524548445e+01   3.2002607387e+01     1.243643     0.686271  23.50  0.003969455    4.518    0.779
       152 -10.1629      3.0930     57.5021   1.3114895792e+02   6.2828155376e+01    0.3110271     0.231827 -74.43  0.002198559    1.561    0.359
       153  -9.0915    235.8510     55.1635   6.9842415014e+01   1.9643663605e+01    0.1734816    0.1677368  10.91 0.0007228706    1.336    0.251
       154  -8.9451     47.8394     54.9321   1.1397189204e+02   5.9625854131e+01    0.1950685     0.136632 -23.68  0.001057371    1.309    0.236
       155  -9.5437    171.3602     48.6542   7.7960268542e+01   3.6363889659e+01    0.6106953    0.2657514  48.68   0.00212786    2.257    0.557
       156  -9.1753      7.6353     49.9874   1.2759066395e+02   6.3986970173e+01    0.3528979    0.2801436  63.16  0.002478488    2.039    0.509
       157  -8.6555     64.5703     50.4508   1.0656514902e+02   5.8258656597e+01    0.2570135    0.1200946  36.91  0.001223411    2.244    0.554
       158  -8.7068     27.3576    168.6621   1.4178095847e+02   3.6893699689e+01    0.1319222   0.07496238  72.33 0.0007039791    1.812    0.448
       159  -8.8353      9.0733    167.5135   1.4553984883e+02   3.8823163736e+01    0.1448428    0.1115388  41.52 0.0008352125    1.563    0.360
       160  -9.4258     13.4966    164.9888   1.4437863111e+02   3.9003295281e+01    0.2060568     0.171238  53.62  0.001187895    1.371    0.271
       161 -10.2294      2.5859    159.8980   1.4621383172e+02   4.1011210275e+01    0.5546793    0.1784855 -76.60  0.002553357    2.499    0.600
       162 -10.4457     16.8036    158.8211   1.4304999835e+02   4.0090355124e+01    0.3898569    0.2523521 -42.85  0.002349094    1.987    0.497
       163 -11.9214     19.5889    147.4668   1.4117047656e+02   4.2407865732e+01    0.7312872    0.4741891 -63.18  0.003530409    1.300    0.231
       164 -10.6419     11.5515     41.5016   1.2367917435e+02   6.5268508287e+01    0.3547746    0.2250763 -18.64  0.001071379    1.489    0.328
       165  -9.2597     22.3129    138.1322   1.3937349682e+02   4.4294043668e+01    0.1778187    0.1637608 -41.25 0.0006733084    1.336    0.251
       166 -10.3415     18.9052     26.0926   1.1553187984e+02   6.7269229852e+01    0.2609843    0.1620453  -8.97 0.0007464744    1.538    0.350
       167  -8.6933     83.2224    154.5992   1.2674409804e+02   3.3151629571e+01    0.1793675    0.1384822  26.37 0.0006148036    1.607    0.378
       168 -10.5573     34.9062    150.3171   1.3790831359e+02   4.0318763031e+01    0.3292997    0.2543834  71.80  0.001421413    1.292    0.226
       169 -11.2829      4.4549     27.2091   1.2215095373e+02   6.8128086534e+01     0.437246    0.2674633  14.98  0.003098417    1.798    0.444
       170 -10.6976     39.0423    146.1328   1.3634557312e+02   4.0859472394e+01    0.4588467     0.301921 -71.05  0.001594014    1.264    0.209
       171  -8.9468     60.5278    147.9797   1.3129703664e+02   3.7923461043e+01    0.2033011    0.1164507 -63.15 0.0005188686    1.523    0.344
       172 -10.6103     15.4733     31.3488   1.1883609414e+02   6.6707274418e+01    0.3032893    0.2130103 -33.46  0.001100234    1.093    0.085
       173  -9.4489      5.0799    147.1655   1.4446305845e+02   4.3631039393e+01    0.2422976    0.1270964 -72.51  0.001427752    1.439    0.305
       174  -9.7715      7.2554    143.0170   1.4353570035e+02   4.4392822677e+01    0.3369922    0.2166415  66.32  0.002136124    1.637    0.389
       175  -9.6237      1.4285    145.0676   1.4507390027e+02   4.4355815881e+01    0.3143832    0.0851562 -72.25  0.001140755    2.745    0.636
       176  -8.6407     52.7450    151.5926   1.3377820954e+02   3.8042482924e+01    0.1687001    0.1151473  52.31 0.0005153529    1.551    0.355
       177  -8.8759     98.1679    141.1900   1.2042016014e+02   3.3894593494e+01    0.2115003    0.1695549  86.20  0.001081705    1.368    0.269
       178  -9.9579     67.2622    148.5787   1.2970531733e+02   3.6891593090e+01    0.3112473    0.2063217 -78.77  0.001199111    1.517    0.341
       179 -10.0793    194.6723     30.8173   6.9385137246e+01   3.2952710692e+01    0.3273718    0.2832288   9.00  0.001266805    1.516    0.340
       180  -9.8551    207.2345     44.5770   7.1109793283e+01   2.8017855527e+01    0.5904571    0.3806316 -89.22  0.002822079    1.726    0.421
       181 -10.1748    210.3528     32.9446   6.7828571399e+01   2.8829987606e+01    0.3434601    0.3251394 -78.61  0.001261708    1.140    0.123
       182  -8.8251    246.3439    140.6684   8.7727029716e+01   2.8775667772e+00    0.1426616    0.1085318 -70.42 -3.119437e-05    1.755    0.430
       183 -10.0845    200.8295     32.5398   6.8977561662e+01   3.1213877563e+01    0.5235286     0.292455 -73.52  0.001708078    2.312    0.567
       184  -8.8798    200.2612     45.5497   7.2360968773e+01   2.9599788827e+01    0.2548441     0.153035 -46.68 0.0006108587    1.668    0.401
       185  -9.1843    152.6325     45.5421   8.0670924113e+01   4.1414057663e+01    0.2596168    0.1756725 -37.77 0.0007109609    1.567    0.362
       186 -10.1197    231.3248     44.4179   6.7941517521e+01   2.2259610579e+01    0.3766916    0.2264647  36.39  0.001655684    2.737    0.635
       187 -10.1579    220.7753     45.9248   6.9610053171e+01   2.4541511265e+01    0.3975973    0.2528168 -35.91  0.001999482    1.633    0.388
       188  -9.1759    196.5947     42.1674   7.2034764473e+01   3.0981054656e+01    0.2285643    0.2053544 -86.66 0.0005399286    1.026    0.025
       189  -8.6772    166.2221     43.3897   7.7398373202e+01   3.8380610544e+01    0.2031269    0.1307438  72.92 0.0003441832    1.641    0.391
       190 -10.4334    161.8853     39.4242   7.7048371376e+01   3.9986524888e+01    0.5422866    0.2714836 -32.27  0.001950308    2.147    0.534
       191  -8.9709    214.9921     42.0735   6.9441258330e+01   2.6476502272e+01    0.2161025    0.1662786  31.61  0.001130367    1.784    0.439
       192  -9.6841     77.1953     41.4627   9.9146054785e+01   5.7754267618e+01    0.2521751    0.2227468  39.41  0.001010447    1.315    0.240
       193  -8.5947      4.7043     41.2133   1.2634022325e+02   6.5739187163e+01   0.08196076   0.08106245 -21.18 0.0006720084    1.445    0.308
       194 -10.2831    180.6758     38.0084   7.3393762684e+01   3.5508323895e+01    0.4961913    0.3693128 -42.96  0.002642961    1.409    0.290
       195 -12.2813     51.8861     91.3839   1.2264627415e+02   5.1932886273e+01     1.948646    0.6341943 -43.37  0.007366524    2.979    0.664
       196  -8.3418    248.9545     44.3637   6.5925683240e+01   1.8252715947e+01    0.2117179   0.07834969  47.29  0.000704081    4.528    0.779
       197  -8.8837    173.3227     38.8581   7.4849508798e+01   3.7228541864e+01    0.2411117    0.1814824  81.59 0.0007180748    1.361    0.265
       198 -10.1479    124.7887     37.3295   8.4225959851e+01   4.9023861248e+01    0.3379519      0.29838   9.11  0.001103685    1.151    0.131
       199  -9.8206    125.3819     32.8020   8.2580868886e+01   4.9468177097e+01    0.2768111    0.2089064  13.77 0.0008267118    1.481    0.325
       200  -9.7232    220.4024     35.5530   6.7204195698e+01   2.6062050853e+01    0.4483132    0.2499414 -83.25   0.00199658    2.170    0.539
       201 -10.1017    247.1098     32.8602   6.3659078588e+01   2.0243310909e+01    0.4730359    0.2245366  54.10  0.001616723    2.411    0.585
       202 -10.8729    237.2583     32.5352   6.4604856488e+01   2.2512984811e+01    0.5096537    0.3579418  72.20  0.002163449    1.347    0.258
       203  -9.0485    242.3096     31.3388   6.3818830002e+01   2.1521547367e+01    0.1761311    0.1698094  38.61 0.0005691731    1.406    0.289
       204  -9.8353     48.6969    138.0389   1.3271195707e+02   4.1691559541e+01    0.4664867    0.2164616  56.80  0.001953596    2.978    0.664
       205 -11.3483     55.6264    129.1598   1.2938154771e+02   4.2957571163e+01    0.9725066    0.3023795 -59.30  0.003691458    2.670    0.625
       206 -10.2817      3.7601    135.3210   1.4351770669e+02   4.6350614589e+01    0.3917214     0.258241  79.59  0.001880882    1.497    0.332
       207 -10.1800     11.9747    125.4805   1.4031696568e+02   4.7967492642e+01    0.3032233    0.2181864 -54.80  0.002025648    1.269    0.212
       208  -9.8350      9.0074    134.7435   1.4219656107e+02   4.6110715689e+01    0.2411162    0.1978676 -13.75 0.0009027883    1.707    0.414
       209 -10.5407     15.5072    132.4746   1.4032889724e+02   4.6132348717e+01    0.3046456    0.2728985 -65.80  0.001540481    1.193    0.162
       210 -10.6116     12.9661    130.0009   1.4064773014e+02   4.6882034485e+01    0.3752418    0.2456751 -50.82  0.001372353    1.467    0.318
       211 -11.1308    177.1892     29.5912   7.1642584918e+01   3.7444145264e+01    0.4879107    0.4108455 -19.76  0.001609506    1.404    0.288
       212 -10.7591    183.6868     27.3780   7.0057206645e+01   3.6098913322e+01    0.4060293    0.3235033  37.36 0.0009630263    1.452    0.311
       213  -8.7643     98.5196    135.4819   1.1914315649e+02   3.5177875777e+01    0.1470269    0.1364252 -74.81 0.0001133459    1.015    0.015
       214  -8.8455     23.6763    133.8920   1.3847461621e+02   4.5142676178e+01     0.181805    0.1691459 -21.57  0.001303606    1.384    0.278
       215 -10.6580    226.7024     28.6524   6.4881618917e+01   2.5470227428e+01    0.5409244    0.2777762 -52.69  0.001990716    1.883    0.469
       216  -9.4489    168.5451     36.6798   7.5057078997e+01   3.8700164049e+01    0.3331381    0.2308849 -45.80  0.001348944    1.544    0.352
       217  -8.5279    201.2101     25.9248   6.7271902369e+01   3.1947068081e+01    0.1779094     0.161645 -72.75 0.0004311264    1.101    0.092
       218  -9.1846    193.3229     24.6188   6.7979550987e+01   3.4044141424e+01    0.2799878    0.1792616  13.04  0.001148305    2.830    0.647
       219 -10.3446     65.8039    114.7793   1.2373220574e+02   4.5008122357e+01    0.6410123    0.2194144  47.62  0.002085283    4.109    0.757
       220  -9.7227    241.3738     23.7508   6.2287402844e+01   2.2710574373e+01    0.3108826    0.1886959 -58.53 0.0005903984    1.497    0.332
       221 -11.2646     67.7234    123.0152   1.2489702848e+02   4.2847598062e+01    0.7048653    0.3289246 -41.62  0.002894619    2.440    0.590
       222 -10.9918     72.5093    128.8881   1.2475572210e+02   4.0813621176e+01    0.5735675    0.3076661 -53.85  0.002095723    1.661    0.398
       223 -10.2042     54.4182    137.6596   1.3117034135e+02   4.1111669164e+01    0.3272504    0.2816599  69.28  0.002005844    1.218    0.179
       224  -9.5422    239.9317     18.4897   6.1308037459e+01   2.3687319924e+01    0.2246681    0.2027391 -69.43   0.00138912    1.189    0.159
       225 -10.7252     65.3848    130.4176   1.2698081971e+02   4.1429128419e+01    0.4042153     0.280436  58.27    0.0021273    1.657    0.397
       226  -9.7461     98.0653     22.1507   8.5731442078e+01   5.6492578022e+01    0.2275177    0.2013275  31.08 0.0007621487    1.085    0.078
       227  -9.2425     95.4942    130.9453   1.1897623857e+02   3.6759105624e+01    0.2341864     0.136034 -53.81  0.001039001    1.611    0.379
       228  -9.3420    197.8741     16.8455   6.5434563614e+01   3.3823808258e+01    0.2307541    0.1940573  63.96 0.0007623166    1.171    0.146
       229  -9.7321    177.7486     19.8522   6.8901748962e+01   3.8437903420e+01      0.29182    0.2434897 -64.00  0.001727912    1.246    0.198
       230 -10.0911     37.9526    127.8078   1.3388506139e+02   4.5215079125e+01    0.4437563    0.2059972 -35.74  0.001814135    3.374    0.704
       231  -9.0692     86.8872     15.6906   8.6426738580e+01   5.9340603724e+01      0.25002    0.1669775  11.17   0.00143618    1.542    0.352
       232  -8.7964     61.5474     15.8350   9.4571766857e+01   6.3627807726e+01    0.1303392    0.1038609 -26.08 0.0001140886    1.365    0.267
       233  -7.9600     28.0869    120.9351   1.3543567170e+02   4.7710723623e+01    0.6169586    0.1887641 -65.64  0.002262242    2.668    0.625
       234  -8.7289    191.9347     12.9645   6.5195314588e+01   3.5698682231e+01    0.1968904    0.1628224  82.58 0.0005856371    1.038    0.037
       235  -9.5626     17.5105    122.9265   1.3854235217e+02   4.8127962479e+01    0.2966453    0.1741894 -87.64 0.0008473222    1.774    0.436
       236  -8.7570     19.9216    119.3631   1.3739010632e+02   4.8742141926e+01    0.3838071    0.2212326 -86.26  0.002078152    1.864    0.464
       237 -10.1693     26.3027    128.2626   1.3701456635e+02   4.6198606575e+01    0.3476722    0.2739855  27.00  0.002295235    1.594    0.373
       238  -9.7032     22.0073    128.0381   1.3809303388e+02   4.6614630056e+01    0.3743541    0.2133185  79.72  0.001937369    2.188    0.543
       239 -10.8788     48.3968    125.2917   1.3065173351e+02   4.4695817627e+01    0.3397993    0.2707793 -87.85  0.002048402    1.280    0.219
       240 -13.0572     13.8983    105.6664   1.3694684277e+02   5.2229372719e+01     2.116375    0.9446236 -38.73   0.01052456    2.519    0.603
