#   1 NUMBER                 Running object number                                     
#   2 MAG_AUTO               Kron-like elliptical aperture magnitude                    [mag]
#   3 X_IMAGE                Object position along x                                    [pixel]
#   4 Y_IMAGE                Object position along y                                    [pixel]
#   5 X_WORLD                Barycenter position along world x axis                     [deg]
#   6 Y_WORLD                Barycenter position along world y axis                     [deg]
#   7 A_WORLD                Profile RMS along major axis (world units)                 [deg]
#   8 B_WORLD                Profile RMS along minor axis (world units)                 [deg]
#   9 THETA_WORLD            Position angle (CCW/world-x)                               [deg]
#  10 FWHM_WORLD             FWHM assuming a gaussian core                              [deg]
#  11 ELONGATION             A_IMAGE/B_IMAGE                                           
#  12 ELLIPTICITY            1 - B_IMAGE/A_IMAGE                                       
         1  -8.7235     73.4232     18.2865   5.3511580559e+01   6.2972932943e+01    0.1729982    0.1188193 -36.99 0.0005452815    1.504    0.335
         2 -11.0913     97.4299    227.6663   9.6191324634e+01   1.6677255311e+01    0.2436012    0.1294884  37.31   0.00138312    1.631    0.387
         3 -10.5648     91.1670    227.6739   9.7392551071e+01   1.7537282461e+01    0.2258217    0.1188786 -40.10  0.001099117    3.442    0.709
         4  -9.6903     87.3338    223.3326   9.7714501032e+01   1.8806205338e+01    0.1059723   0.09055749  -2.34 0.0003006331    1.732    0.422
         5 -10.9794     78.1287    222.7619   9.9450337271e+01   2.0138303049e+01    0.2589141    0.1327334 -49.05  0.001382269    2.715    0.632
         6  -9.8846     71.0041    219.0000   1.0050621028e+02   2.1741137052e+01    0.1913435   0.05610811  36.36            0    2.960    0.662
         7 -10.4966     91.5039    201.8293   9.4606306495e+01   2.2137711789e+01    0.2225413    0.1531206  27.05  0.001278992    1.676    0.403
         8 -10.3762    125.5140    187.5183   8.5485100296e+01   1.9585280885e+01    0.2260475     0.127027 -67.96   0.00103939    2.470    0.595
         9  -9.2350     77.9870    177.3277   9.4618637885e+01   2.8982618101e+01    0.2261353   0.06534385  51.66 0.0007051482    4.390    0.772
        10 -12.8236    134.6671    171.0463   8.0833778743e+01   2.1154949033e+01    0.5142712    0.4058068  27.60   0.00288694    1.329    0.248
        11  -9.4639     97.6609    172.3490   8.9397173668e+01   2.7090855065e+01    0.1433104   0.09429388  70.48 -7.129172e-05    1.790    0.441
        12 -10.0565     90.2295    169.6253   9.0729865503e+01   2.8813793593e+01    0.2845443    0.1474405  83.58 0.0009656972    4.266    0.766
        13 -12.7408    149.0770    169.4834   7.7447784063e+01   1.8877888843e+01    0.5497627    0.4104995  86.44   0.00278294    1.983    0.496
        14 -12.2571    159.6033    160.7867   7.3586735312e+01   1.8545096770e+01    0.3836724     0.298878 -33.01  0.002105749    1.364    0.267
        15  -9.6525     97.9883    157.7494   8.7036428934e+01   3.0142152462e+01    0.1824829    0.1118494  40.15 0.0006489711    1.586    0.369
        16 -11.8387    166.4558    154.0581   7.0819293119e+01   1.8474836124e+01    0.4719115    0.2634766  62.92  0.001841636    2.930    0.659
        17 -12.8487    137.5296    151.6537   7.6595682287e+01   2.4447824235e+01    0.5116079     0.446734  31.23  0.002896318    1.162    0.139
        18 -12.2922    156.7356    148.8775   7.1794181145e+01   2.1311660578e+01    0.5312026    0.3687739  89.72  0.002283206    2.581    0.613
        19 -10.9223    120.4063    146.1066   7.9496641825e+01   2.8769312661e+01    0.3097993    0.1796021  56.72  0.001349306    1.981    0.495
        20 -11.3925    148.9923    141.5104   7.1925861052e+01   2.4250394300e+01    0.3053935    0.2302642   5.38  0.001472346    1.791    0.442
        21 -11.1010    125.2586    137.4615   7.6563793172e+01   2.9692665548e+01    0.3679177    0.1361225  44.96  0.001311814    2.665    0.625
        22 -10.0932    114.4882    154.4752   8.2496096938e+01   2.8058483475e+01    0.1387687    0.1300545  66.84 0.0001203152    1.014    0.013
        23  -9.7876     95.4767    141.4846   8.4816088594e+01   3.4140637493e+01    0.1399434    0.1302893  82.15  0.000264034    1.011    0.011
        24  -9.9477    161.9876    133.0000   6.7214524663e+01   2.3276324204e+01    0.2424442   0.08128513  46.28 0.0007632715    2.969    0.663
        25 -12.1746    173.9274    141.4353   6.6622010854e+01   1.9300612386e+01    0.4787804    0.3278036  20.91  0.002271486    1.808    0.447
        26 -10.9183    138.3337    131.8332   7.2227156891e+01   2.8311044172e+01     0.301337     0.207686   1.72  0.001246165    2.478    0.596
        27 -10.8150     61.1412    128.8444   9.1843329505e+01   4.2237468522e+01    0.3008629    0.1733497  19.19  0.001340894    2.526    0.604
        28 -10.6063    139.4281    126.1542   7.0673167525e+01   2.9250862139e+01    0.4922816    0.2753083  13.65  0.001149957    7.724    0.871
        29  -9.5641    123.6849    127.3261   7.4735944900e+01   3.2148090767e+01    0.1501044    0.1152125  85.86 0.0007043594    1.670    0.401
        30  -9.3961     58.6458    125.6945   9.2019748609e+01   4.3311916258e+01    0.1348188    0.1016155 -31.51 0.0007041303    1.715    0.417
        31 -10.0040    169.1704    122.4016   6.3233030349e+01   2.3766650018e+01    0.2092203    0.1397484  59.68 0.0009530034    1.731    0.422
        32 -10.3149     74.0006    115.9774   8.5719366810e+01   4.3435298493e+01    0.1748552    0.1600284 -74.30 0.0009036442    1.011    0.011
        33 -11.3912    117.3885    106.1038   7.1223845395e+01   3.7941950814e+01     0.394823    0.2748279  73.16  0.001734735    1.971    0.493
        34 -11.8582     68.3980    103.1728   8.4647895328e+01   4.7272137586e+01    0.3899795     0.286545  23.03  0.002023813    1.647    0.393
        35 -10.5624     83.1681    102.8408   8.0043703959e+01   4.5020687356e+01    0.1979748    0.1695424 -29.03 0.0006024021    1.311    0.237
        36 -11.0688    109.2415    100.2391   7.1874063543e+01   4.0828542936e+01    0.3028717    0.2300725  72.46  0.001446674    1.625    0.385
        37 -10.6823     53.1411    100.6885   8.8965473513e+01   4.9958686732e+01    0.3219902    0.1733872 -30.74  0.001277819    3.029    0.670
        38 -10.1975    116.3836     95.7858   6.8736833529e+01   4.0331674274e+01    0.2203795    0.1383972 -35.92 0.0009545275    1.704    0.413
        39  -9.6699     68.5129     92.5097   8.2074039812e+01   4.9726750658e+01     0.140662    0.1290973 -53.15 0.0002346796    1.036    0.035
        40 -10.2677     44.5947     89.2276   8.9357153636e+01   5.3704199821e+01    0.1992151    0.1067372 -52.07 0.0009249455    1.654    0.395
        41 -10.1827    112.1748     87.2234   6.7445257464e+01   4.2983366667e+01    0.2621378    0.1731959   0.88 0.0009708495    2.944    0.660
        42 -11.2544     56.6313     83.8849   8.3881923649e+01   5.3416089055e+01    0.3855242    0.1398763 -46.67  0.001446933    2.639    0.621
        43  -9.9887     94.4957     81.9835   7.0981238371e+01   4.7604196967e+01    0.2072696    0.1266592 -69.11 0.0007556935    2.469    0.595
        44  -9.3436     66.6785     71.6947   7.6936724351e+01   5.4658456718e+01    0.1410456    0.1052826 -18.58 0.0003028535    1.637    0.389
        45 -10.0091    102.4827     69.9598   6.4852926542e+01   4.8466216016e+01    0.2316815    0.1410121 -42.61  0.001032093    1.591    0.371
        46  -9.6617     26.0320     64.8088   9.0553892898e+01   6.1269281788e+01    0.2095351    0.1568134 -58.93 0.0002831095    1.144    0.126
        47 -10.0570     94.5693     52.4186   6.1111329042e+01   5.3379909864e+01    0.2420645    0.2299434 -14.63 0.0001241702    1.013    0.013
