#   1 NUMBER                 Running object number                                     
#   2 MAG_AUTO               Kron-like elliptical aperture magnitude                    [mag]
#   3 X_IMAGE                Object position along x                                    [pixel]
#   4 Y_IMAGE                Object position along y                                    [pixel]
#   5 X_WORLD                Barycenter position along world x axis                     [deg]
#   6 Y_WORLD                Barycenter position along world y axis                     [deg]
#   7 A_WORLD                Profile RMS along major axis (world units)                 [deg]
#   8 B_WORLD                Profile RMS along minor axis (world units)                 [deg]
#   9 THETA_WORLD            Position angle (CCW/world-x)                               [deg]
#  10 FWHM_WORLD             FWHM assuming a gaussian core                              [deg]
#  11 ELONGATION             A_IMAGE/B_IMAGE                                           
#  12 ELLIPTICITY            1 - B_IMAGE/A_IMAGE                                       
         1 -14.2917    203.3718     19.8185   6.2360670482e+01   3.2256014924e+01     2.458164     1.519121  30.60    0.0115451    2.874    0.652
         2 -11.8356      2.0579     14.3213   1.1477034332e+02   7.0500688899e+01    0.3786536    0.2072015 -40.59  0.002501122    1.527    0.345
         3 -12.0327      1.7655      5.4204   1.1128305207e+02   7.1741498496e+01    0.5924978    0.2834114 -34.52  0.003932812    1.641    0.391
         4 -11.1034    189.7935     15.5823   6.2963687824e+01   3.5943652579e+01    0.2776923    0.1997729  88.91 0.0009230728    1.263    0.208
         5 -12.0589    139.5189    248.7672   1.2503952664e+02   2.9750878439e+00    0.4536088    0.3587717  82.57   0.00275758    1.481    0.325
         6 -12.6787    101.0033    247.5294   1.3240578838e+02   9.5358328382e+00    0.7089652    0.5262706  81.42  0.004376715    1.343    0.255
         7 -11.1586     93.1218    249.8795   1.3416430337e+02   1.0323245931e+01    0.3874634    0.3440088 -25.52  0.002545167    1.760    0.432
         8 -12.1970     88.6025    244.0770   1.3441211870e+02   1.2127106256e+01    0.6243984    0.3320394  81.53  0.002615487    2.563    0.610
         9 -12.5903      5.3002    246.8319   1.4933222927e+02   2.2289414932e+01     1.413622    0.6932073  83.85  0.008927395    1.640    0.390
        10 -14.4757     34.4487    246.0430   1.4446124336e+02   1.9179885339e+01     10.56479     2.932544  30.92   0.02595576   12.637    0.921
        11 -12.5548     16.2063    241.4286   1.4724616826e+02   2.2176433670e+01     1.608647    0.3129193  55.93  0.004885978    4.901    0.796
        12 -11.3052     99.5768    237.6739   1.3155751299e+02   1.1664487698e+01    0.3207411    0.2086767 -81.62  0.001558688    1.707    0.414
        13 -11.5333     23.1316    236.2730   1.4573638016e+02   2.2429923848e+01    0.3112185    0.2840979  62.29  0.001282881    1.470    0.320
        14 -15.7064      8.0515    199.5958   1.4587269440e+02   3.1664814193e+01     8.744463     1.300657 -72.58   0.02057503    4.857    0.794
        15 -12.7670     38.9451    225.7319   1.4209683286e+02   2.2735986237e+01    0.3563918    0.2890925 -72.60 0.0007881355    1.362    0.266
        16 -14.1951     46.1486    216.3735   1.3988754803e+02   2.3833475043e+01     1.276444    0.7759166  73.14  0.005933891    1.501    0.334
        17 -10.9007     75.4569    228.8841   1.3535555143e+02   1.7159307253e+01    0.3221959    0.1802413  76.16  0.001434012    2.008    0.502
        18 -11.2145     61.4485    228.4054   1.3805228131e+02   1.9255294269e+01    0.4609453    0.1870667  67.60  0.001751984    3.583    0.721
        19 -11.7910    152.4198    228.8620   1.1956887374e+02   4.3389368757e+00     0.697283    0.2088621  37.28  0.002333788    3.399    0.706
        20 -10.8505     69.1821    227.9598   1.3649722242e+02   1.8262441668e+01    0.3263449    0.1876912  69.38  0.001719729    1.721    0.419
        21 -11.9772     62.6327    217.6802   1.3673116925e+02   2.1371151808e+01    0.5353584    0.2108751  48.16  0.002432274    2.261    0.558
        22 -11.0479     81.0850    248.8203   1.3631815623e+02   1.2345324339e+01    0.2511845    0.1690654  63.21  0.001536886    1.241    0.194
        23 -11.6620    108.4472    247.0480   1.3091167657e+02   8.4372030137e+00    0.3337148    0.2802213  66.80  0.001235415    1.057    0.054
        24 -10.7237    227.9481    204.3503   1.0000360783e+02  -4.7389634794e+00    0.3104271    0.2394246 -60.68 0.0007608153    1.852    0.460
        25 -11.2968     27.3501    204.2869   1.4249968467e+02   2.8685277659e+01    0.3362278    0.1289306  50.54  0.001221558    2.409    0.585
        26 -10.0065    192.0269    193.0379   1.0492645993e+02   3.7943219777e+00    0.5194833    0.2816116 -66.19  0.001674602    4.323    0.769
        27 -11.5579     64.9494    193.1686   1.3341759903e+02   2.6545477091e+01    0.3978484    0.2605667 -48.45  0.001565818    1.826    0.452
        28  -8.5550    181.5287    192.4496   1.0702103534e+02   5.9407403063e+00    0.1444401    0.1368706  23.28 6.224793e-05    1.012    0.012
        29 -11.7666     70.1401    185.9643   1.3129995770e+02   2.7493215908e+01    0.3022984    0.2570635 -50.97 0.0004912486    1.367    0.269
        30 -11.1605     79.6093    174.1720   1.2733886797e+02   2.8897689361e+01    0.2646194    0.2292785 -79.10 0.0003702487    1.050    0.048
        31 -13.3236     66.8757    171.5588   1.3002286723e+02   3.1384469870e+01    0.5279615    0.2860797 -45.60  0.001546036    2.190    0.543
        32 -10.7575    106.5707    173.3949   1.2064475007e+02   2.4632684931e+01    0.7750562    0.1364288  44.64   0.00190578    5.554    0.820
        33 -12.1672     86.3445    165.5460   1.2426606939e+02   2.9929054952e+01    0.9802631    0.5834298  59.53  0.002215182    1.923    0.480
        34 -13.2479     66.9984    143.6735   1.2543353059e+02   3.8130196200e+01     2.879194     1.346363 -83.69  0.002618655    5.639    0.823
        35  -9.6730     99.3795    149.6513   1.1796089436e+02   3.1611239178e+01    0.3890683    0.2642731 -38.14 0.0007399836    1.705    0.413
        36  -9.2298    102.4646    145.5399   1.1630729108e+02   3.2060637370e+01    0.3102912    0.1595773 -38.03 0.0009143999    2.520    0.603
        37 -12.1682     88.0877    148.8463   1.2077396182e+02   3.3707131399e+01    0.3050107    0.2582451 -40.68 0.0004803389    1.282    0.220
        38 -11.2352     38.7864    146.6648   1.3337430482e+02   4.0833437481e+01    0.3255803    0.2098664  50.54  0.001046453    1.709    0.415
        39 -12.0537     28.7913    143.4728   1.3549287784e+02   4.2591445032e+01       0.4021    0.2471706 -61.73  0.002258612    1.345    0.257
        40 -10.5917     97.8088    132.6082   1.1477701245e+02   3.5986683397e+01    0.2914207    0.2416431 -25.14 0.0009017875    1.408    0.290
        41  -9.2714    244.2802    128.6371   8.1384886410e+01   5.7814243697e+00    0.1446185    0.1014217 -64.11 0.0007013715    1.675    0.403
        42  -9.3429    107.3139    122.8824   1.0990287941e+02   3.6551585015e+01    0.2038737    0.1798647 -45.61 0.0002965864    1.104    0.094
        43  -9.5878    110.4698    135.5308   1.1200146003e+02   3.2988318946e+01    0.3299178    0.2283902 -14.40  0.001337748    2.353    0.575
        44  -9.8582    230.7784    167.7699   9.2108904106e+01   1.1828529353e+00    0.3402863    0.1649061 -58.89  0.001081572    4.275    0.766
        45 -11.0754    168.0540    112.9918   9.2102836187e+01   2.5655603010e+01    0.3829049    0.3082768 -80.58  0.001117827    1.462    0.316
        46  -9.5249    204.5963    110.7218   8.4105041555e+01   1.7611552366e+01    0.3420317    0.2244928  28.89  0.001429494    2.199    0.545
        47 -10.9751      1.8856     90.5413   1.3499295309e+02   5.6567958214e+01    0.5520516    0.1118627 -65.24  0.002045405    3.662    0.727
        48 -11.5190      2.7669     78.4887   1.3248803450e+02   5.9049128443e+01    0.7222639   0.03729186 -58.65  0.002437283    4.437    0.775
        49  -9.2539    157.4974     77.5157   8.4952161698e+01   3.5037010443e+01    0.1503108    0.1433393  80.98 0.0008102923    1.030    0.029
        50  -8.8813    109.1955     42.8262   8.5954967700e+01   5.1457112720e+01    0.1843104     0.176658  73.76 0.0003782755    1.224    0.183
        51 -10.5718    244.9045    249.7227   1.0504188915e+02  -1.4025010254e+01    0.2744521   0.09036827  39.13   0.00121795    2.863    0.651
        52 -10.6372    191.1750    249.6633   1.1504733725e+02  -5.8518617012e+00    0.3459066   0.09782947  33.36  0.001106334    4.305    0.768
        53 -14.9880     53.8269    208.9000   1.3760302597e+02   2.4482123367e+01     6.371902     1.166543  50.29   0.01785215    6.215    0.839
