#   1 NUMBER                 Running object number                                     
#   2 MAG_AUTO               Kron-like elliptical aperture magnitude                    [mag]
#   3 X_IMAGE                Object position along x                                    [pixel]
#   4 Y_IMAGE                Object position along y                                    [pixel]
#   5 X_WORLD                Barycenter position along world x axis                     [deg]
#   6 Y_WORLD                Barycenter position along world y axis                     [deg]
#   7 A_WORLD                Profile RMS along major axis (world units)                 [deg]
#   8 B_WORLD                Profile RMS along minor axis (world units)                 [deg]
#   9 THETA_WORLD            Position angle (CCW/world-x)                               [deg]
#  10 FWHM_WORLD             FWHM assuming a gaussian core                              [deg]
#  11 ELONGATION             A_IMAGE/B_IMAGE                                           
#  12 ELLIPTICITY            1 - B_IMAGE/A_IMAGE                                       
         1 -14.9579     68.4592    144.2478   1.0083290281e+02   3.7646424669e+01     5.083639     2.582052  69.33   0.01075033    3.975    0.748
         2 -14.5639    201.9242     40.1869   4.2232722119e+01   2.9972310732e+01     2.007809      1.47145  33.48   0.00658809    1.898    0.473
         3 -14.4250    213.4408     29.0611   3.8264665495e+01   2.8735690128e+01     1.133932     0.952533   4.55   0.00297945    1.723    0.420
         4 -12.7724    241.7551      4.7097   3.0676220983e+01   2.5396453875e+01    0.4848584    0.4727093 -26.42  0.003221514    1.468    0.319
         5 -12.7185    235.5346      4.3665   3.1015457653e+01   2.6720289544e+01    0.4916729    0.3417455 -54.81  0.003251938    1.213    0.176
         6 -10.5853     58.1788      6.7226   6.0835961691e+01   6.6449410984e+01    0.1750119    0.1442676  51.56 0.0006453895    1.435    0.303
         7  -9.8688    112.3073    205.8906   9.9604110294e+01   1.6210079465e+01    0.2310372    0.1865816 -83.63 0.0004205159    1.372    0.271
         8 -13.6994     82.8859    219.7260   1.0797022892e+02   1.7818137612e+01     1.453002    0.5881327  39.66  0.003229796    2.155    0.536
         9 -15.9894      6.4826    170.4909   1.2049287864e+02   3.7877779530e+01     7.044142     1.220565 -73.02   0.02371611    4.181    0.761
        10 -17.5380     18.7795    242.4188   1.2264925118e+02   2.1173255406e+01      7.56491     2.310383  28.46   0.03084141    4.572    0.781
        11  -9.0368     82.2416    194.9675   1.0507081892e+02   2.3341639115e+01    0.1769065    0.1118736 -67.08 0.0007983891    1.591    0.372
        12  -9.1372    120.3171    194.6284   9.6010934828e+01   1.7292723623e+01    0.1507031    0.1069797  73.51 0.0007034045    1.792    0.442
        13  -8.6764     76.5126    194.5148   1.0636761113e+02   2.4283080185e+01    0.1379392    0.1201812  72.42 0.0008101778    1.031    0.030
        14 -14.1230     21.1329    222.1167   1.2101180403e+02   2.5004303701e+01     0.666869    0.5043179  79.21   0.00140154    1.061    0.057
        15 -10.3795    149.3963    187.4474   8.8011276049e+01   1.3652142927e+01    0.3271245    0.2459216  50.82  0.001024395    1.376    0.273
        16  -9.8955     79.5786    182.9588   1.0405678922e+02   2.6531679524e+01    0.2538475    0.1947859  75.74 0.0006962999    1.326    0.246
        17 -10.0362     99.3884    180.7715   9.8809826493e+01   2.3950748538e+01     0.251912    0.2256549  18.84 0.0006266698    1.277    0.217
        18  -9.1311     89.7625    180.5930   1.0117639454e+02   2.5538338904e+01    0.1916602    0.1243211  49.12 0.0004242945    1.504    0.335
        19 -10.6318    189.3240    177.3132   7.7311461709e+01   8.2879157661e+00    0.5015215    0.2978802 -54.36  0.002208272    2.098    0.523
        20  -9.2338    148.5315    175.5423   8.5938996213e+01   1.6334571115e+01    0.2910888    0.1895363 -74.04 0.0006021284    2.419    0.587
        21 -10.7281    146.4740    171.8668   8.5693048717e+01   1.7521467612e+01    0.2779008    0.2599395 -81.08 0.0007733908    1.167    0.143
        22 -12.9120     80.1703    160.2835   1.0037540412e+02   3.1935847559e+01     1.018415     0.509093  56.58 0.0004203153    2.534    0.605
        23 -13.7019     68.1611    155.6505   1.0286148647e+02   3.4836842865e+01    0.6426786    0.4962417 -50.15    0.0014531    1.323    0.244
        24 -15.6102      9.4680    208.0659   1.2244539761e+02   2.9135738558e+01     1.303551      1.19643 -52.11  0.004128393    1.515    0.340
        25 -10.0291    128.6509    172.6743   9.0136281714e+01   2.0697306091e+01    0.1538527    0.1186068  -8.32 0.0007049124    1.754    0.430
        26  -9.1740    110.8311    167.8460   9.3681872805e+01   2.5041935517e+01    0.2059474    0.1712064  83.67   0.00038506    1.327    0.246
        27  -9.3159    136.0926    165.0986   8.6823146277e+01   2.1011184350e+01    0.2118979    0.1776298  66.48 0.0006487174    1.326    0.246
        28 -12.4457     87.3731    153.6107   9.7241772687e+01   3.2458999584e+01    0.6524715    0.4637824 -24.89  0.001767032    1.954    0.488
        29 -11.3935    133.6634    144.5623   8.3029556706e+01   2.6183531301e+01      1.26195    0.3582355 -55.18  0.003055216    5.251    0.810
        30 -12.1301     54.3327    146.6110   1.0525632049e+02   3.8923792870e+01     0.820607    0.5822386  33.26  0.004336237    1.544    0.352
        31 -10.6563    174.3814    148.7211   7.4348058987e+01   1.6906217889e+01     0.366547    0.2812355 -66.92  0.001296553    1.626    0.385
        32  -8.9838    111.7343    149.7515   8.9882882969e+01   2.9194707994e+01    0.2451668    0.1146392  49.69 0.0008799257    2.397    0.583
        33 -10.0182    144.3306    146.5015   8.0807228250e+01   2.3578690261e+01    0.3031297    0.1986127 -76.14  0.001154854    2.466    0.595
        34 -15.5069     42.9456    199.0443   1.1462569827e+02   2.7629223706e+01     3.923819      1.53177  64.01   0.01450431    3.489    0.713
        35 -10.3122    198.3242    139.9989   6.7402271038e+01   1.3751279817e+01     0.328709    0.2172713 -61.07 0.0008450953    1.976    0.494
        36 -11.1739    101.5162    139.1671   9.0420893072e+01   3.3611144132e+01    0.5906436    0.3933153 -15.99  0.002335217    2.489    0.598
        37 -12.3435     88.7827    138.9463   9.3978522571e+01   3.5856887754e+01    0.2968878    0.2623656 -48.53  0.000405683    1.121    0.108
        38 -11.1284     25.9416    137.5499   1.1203480318e+02   4.4221918148e+01    0.3347351    0.2062789  43.83  0.001245994    1.763    0.433
        39 -10.7134    105.9560    130.9723   8.7336293721e+01   3.4784573147e+01    0.4030743    0.3216977 -61.99  0.001669714    1.269    0.212
        40 -10.3787    110.8844    129.8838   8.5699943709e+01   3.4115342668e+01    0.3530403    0.2734618   8.19 0.0008425721    1.682    0.405
        41 -11.2687    135.4902    127.2982   7.8476293363e+01   2.9753749996e+01    0.6821383    0.1806032 -50.90  0.001746867    4.402    0.773
        42 -12.3036     66.7680    174.0733   1.0601233326e+02   3.0493217490e+01    0.4321096    0.2963377 -36.71  0.001957145    1.920    0.479
        43  -9.9602    161.0165    128.0024   7.2445363687e+01   2.4104355901e+01    0.2581364    0.1988408 -83.03  0.001149574    1.757    0.431
        44 -14.4116     51.7838    188.9971   1.1155868962e+02   2.8883874285e+01     1.675788      1.07903  73.60   0.00889771    1.566    0.361
        45 -11.1111     98.1522    125.8742   8.8383420550e+01   3.7439300535e+01    0.3236296    0.2613095 -17.83 0.0006704309    1.497    0.332
        46 -12.1719     71.3657    169.1796   1.0412108319e+02   3.1043032167e+01     0.461204    0.2897436 -53.28 0.0008554989    1.597    0.374
        47 -10.9683    118.1069    123.1928   8.2076213668e+01   3.4275308748e+01    0.5376924    0.3377011  -0.37  0.001736124    3.651    0.726
        48  -9.8032     87.1326    120.5065   9.0396299935e+01   4.0654981641e+01    0.3167465    0.2230931  80.07  0.001368459    2.055    0.513
        49  -9.9509    107.3876    118.9732   8.4034745461e+01   3.7365977802e+01    0.2268122    0.2086669  13.15 0.0003973921    1.173    0.148
        50 -10.5436     34.6505    171.7415   1.1380992006e+02   3.4967639535e+01    0.2826602     0.192508  79.51 0.0005584556    1.395    0.283
        51 -10.2182    205.3912    110.1173   5.9050026809e+01   1.7924157812e+01    0.3009855    0.2220601  45.76  0.000957884    1.477    0.323
        52  -9.8253    114.9841    109.0254   7.9284449466e+01   3.8150941330e+01    0.2902278    0.1665836 -25.77  0.001030309    2.638    0.621
        53 -10.0818    134.4866    105.0463   7.2930376571e+01   3.4874822553e+01    0.4241466    0.1526923 -43.45  0.001365347    2.739    0.635
        54  -9.2267    137.8268    104.8500   7.2023307485e+01   3.4176217839e+01    0.2128123     0.185213 -82.78 0.0004412836    1.319    0.242
        55 -11.1968     33.7512    108.4120   1.0497293097e+02   5.0693554842e+01    0.2906381     0.247546 -75.07   0.00176049    1.137    0.121
        56 -10.3969     52.5217    103.4969   9.7582899220e+01   4.9835696094e+01    0.2409701    0.1394648  10.65  0.001040754    2.433    0.589
        57 -10.7676     36.0859    101.1472   1.0273594595e+02   5.2221624590e+01    0.2836845    0.2153133  64.60  0.001567471    1.640    0.390
        58 -10.1388     41.2395     98.1283   1.0028252732e+02   5.2412770879e+01    0.2622955    0.1632235  55.64  0.001245187    2.185    0.542
        59 -11.5986    242.6248     93.7372   4.9588533002e+01   1.3072544179e+01    0.2646311    0.1507616 -45.74  0.001320539    1.516    0.340
        60 -10.3314     52.8863     90.6698   9.4339698507e+01   5.2804919018e+01    0.2565489    0.1702272 -44.57 0.0007140628    1.352    0.260
        61  -9.2197    156.3291     88.6223   6.3101953226e+01   3.3175479337e+01    0.1651331      0.11889 -74.35 0.0007021854    1.846    0.458
        62  -9.3715     75.0420     85.0602   8.4968014323e+01   5.0865150224e+01    0.2114939    0.1771472  79.89 0.0005546089    1.603    0.376
        63 -10.0508    112.2331     81.8114   7.2217833610e+01   4.4515296678e+01    0.4881546    0.3044272  77.13  0.001685655    3.417    0.707
        64  -9.7715    159.0291     82.5063   6.0790121812e+01   3.3670601473e+01    0.2274202     0.148836  54.24 0.0004791006    1.532    0.347
        65  -8.8041     69.4196     81.4376   8.5851816528e+01   5.2541447074e+01    0.1390987    0.1310635 -40.59 0.0001696514    1.091    0.084
        66  -8.7803     58.2996     67.2741   8.5529173709e+01   5.7153801926e+01    0.1364867   0.09763398 -14.53  0.000176084    1.532    0.347
        67 -10.7601     13.4411     59.9183   1.0187734067e+02   6.3414771884e+01    0.2468404    0.1902828 -54.56 0.0004367717    1.176    0.150
        68 -13.1295    192.0843     47.2529   4.5309230013e+01   3.1338447603e+01    0.7453066    0.6220559  44.15  0.001115003    1.389    0.280
        69 -11.4995    108.1154    203.5815   1.0022767326e+02   1.7387798946e+01    0.3736371     0.287355  22.51  0.001283384    1.490    0.329
        70 -12.1080    194.0290    196.7691   8.0163146542e+01   3.8757866808e+00     1.136907    0.6580182 -63.45  0.004316892    3.710    0.730
        71  -9.2675     37.0849     56.7012   9.0637419710e+01   6.1957335331e+01    0.1716248    0.1459126 -12.64  0.000361548    1.092    0.084
        72 -10.8116    187.9523     31.2582   4.1696474086e+01   3.4418186335e+01    0.1902056    0.1642025  83.36 0.0005173901    1.062    0.058
        73 -10.3589    198.0150     23.7767   3.8618135399e+01   3.2922893410e+01    0.2536395      0.19649 -16.22 0.0009798463    1.664    0.399
        74 -10.3544      4.9380     25.6551   9.5050266087e+01   7.0590343335e+01    0.3047974   0.08318767  25.39  0.001355417    3.713    0.731
        75 -11.1261    139.0084     44.7249   5.3631364815e+01   4.4622118873e+01    0.3267765    0.2600039 -83.47 0.0004828938    1.469    0.319
        76  -9.6230    189.5009     14.9628   3.7333915581e+01   3.5906836704e+01    0.1803447     0.124005 -33.99 0.0006667411    1.553    0.356
        77 -11.1859    204.5944    200.2817   7.8728416278e+01   1.4959990045e+00    0.3650274    0.1559894  33.74  0.001534778    2.369    0.578
        78  -9.9301     89.6966    212.9313   1.0566645795e+02   1.8253864909e+01    0.3154297    0.1954028  74.38   0.00153175    1.972    0.493
