#   1 NUMBER                 Running object number                                     
#   2 MAG_AUTO               Kron-like elliptical aperture magnitude                    [mag]
#   3 X_IMAGE                Object position along x                                    [pixel]
#   4 Y_IMAGE                Object position along y                                    [pixel]
#   5 X_WORLD                Barycenter position along world x axis                     [deg]
#   6 Y_WORLD                Barycenter position along world y axis                     [deg]
#   7 A_WORLD                Profile RMS along major axis (world units)                 [deg]
#   8 B_WORLD                Profile RMS along minor axis (world units)                 [deg]
#   9 THETA_WORLD            Position angle (CCW/world-x)                               [deg]
#  10 FWHM_WORLD             FWHM assuming a gaussian core                              [deg]
#  11 ELONGATION             A_IMAGE/B_IMAGE                                           
#  12 ELLIPTICITY            1 - B_IMAGE/A_IMAGE                                       
         1 -11.4509    163.3685     49.4788   7.0771524966e+01   3.8088333018e+01     1.169152    0.9071134 -14.91  0.005670979    1.418    0.295
         2 -11.1970    178.3349     19.7377   5.8757237900e+01   3.8045240334e+01    0.8378658     0.794126 -39.35  0.004915544    1.110    0.099
         3  -8.9079    120.4480      8.4432   6.5160273035e+01   5.3914016649e+01    0.2556891    0.2234229  38.36 0.0008386536    1.024    0.023
         4  -7.4424    146.6728      1.7063   5.7652917013e+01   4.8033726562e+01    0.1484055   0.09133994  39.05  0.000702099    1.625    0.384
         5 -10.7665    184.0978    200.8006   1.0288385263e+02   7.1382541982e+00    0.6125068    0.2192165  36.27  0.002412827    2.724    0.633
         6  -8.3963    114.3233    250.7339   1.2215293816e+02   1.0971489016e+01    0.3087018    0.0808419  38.76  0.001204995    3.375    0.704
         7 -18.1298     65.4522    223.5491   1.2838958843e+02   2.2027906626e+01     3.744354     2.905766  81.99   0.01360129    1.176    0.149
         8  -7.6733    128.1946    246.3453   1.1932329533e+02   9.5696116691e+00   0.09028908   0.08188412   4.67 0.0001872748    1.518    0.341
         9  -7.8682    133.8846    201.8717   1.1291684747e+02   1.5728238431e+01    0.1786907    0.1611385  27.70 0.0004470823    1.227    0.185
        10  -9.5250    166.1255    205.0796   1.0702562793e+02   9.6463341375e+00    0.4463636    0.1498458  36.64  0.001639366    2.973    0.664
        11  -9.1519    205.7670    200.8930   9.8840341884e+01   3.3183631060e+00    0.2164705    0.1871839 -58.99  0.001368089    1.663    0.399
        12 -11.2637    191.9512    193.0343   1.0006530742e+02   6.9010033250e+00    0.8149523    0.4324694 -49.88  0.003846548    2.540    0.606
        13  -8.6667    112.9042    245.5125   1.2190714570e+02   1.1945098508e+01    0.1585201    0.1539607 -45.36 0.0003246874    1.457    0.314
        14  -8.1352    128.2691    196.1406   1.1325010680e+02   1.7686723283e+01    0.2218617      0.16697  86.65  0.001270236    1.599    0.375
        15  -8.9271    109.6101    245.1791   1.2244839732e+02   1.2471077814e+01    0.3308298    0.2037143  27.02  0.001959205    2.167    0.539
        16  -9.1460    110.9699    192.4539   1.1630892875e+02   2.1208752193e+01    0.2539861    0.1620403  60.56 0.0009883586    1.549    0.355
        17  -9.2171    153.6182    185.9245   1.0646995322e+02   1.5063289122e+01    0.3197877    0.2134362 -65.33  0.001620439    2.013    0.503
        18  -8.4187    132.2518    190.5327   1.1161814567e+02   1.8026470053e+01    0.1904861    0.1721641 -80.09 0.0004462737    1.213    0.175
        19  -8.5281    169.0210    189.5388   1.0394743985e+02   1.1631957906e+01    0.2119679    0.1836161 -76.56  0.000662424    1.481    0.325
        20  -8.6214    124.0088    186.3142   1.1271858486e+02   2.0218166559e+01    0.3770078    0.2611697  17.41 0.0008278987    2.131    0.531
        21  -8.2790    154.4655    239.6840   1.1393322969e+02   6.4731511690e+00    0.2272962    0.1159093 -45.03  0.001282012    2.557    0.609
        22  -8.2069    132.2750    231.4824   1.1697544971e+02   1.1150675790e+01    0.2114009    0.1735089  28.71  0.001465007    1.342    0.255
        23  -8.6626    143.3211    183.8124   1.0826444555e+02   1.7304720025e+01    0.2365708    0.1953818  70.35  0.001385027    1.310    0.237
        24  -7.9302    180.6612    179.2922   9.9810518775e+01   1.1158320656e+01    0.1320359    0.1051914  70.46 0.0007026175    1.647    0.393
        25  -8.8302      2.5341    178.2609   1.3702130822e+02   3.7177690233e+01    0.1862502    0.1772116 -29.06  0.001586642    1.645    0.392
        26 -10.3811    188.2920    176.5178   9.7778867076e+01   1.0163263145e+01    0.4378657    0.3258241 -42.36  0.001693914    1.515    0.340
        27  -9.2662    161.3363    176.1658   1.0318854921e+02   1.5356431808e+01    0.3112919    0.2420652 -66.06 0.0009604185    1.620    0.383
        28  -9.2543    135.6380    174.8083   1.0842175879e+02   2.0370085469e+01    0.2669866    0.1616632  63.65  0.001221107    2.071    0.517
        29  -9.1252    192.3161    230.8590   1.0600429045e+02   1.5921458354e+00    0.1627161    0.1515134  70.72  0.001184231    1.476    0.323
        30  -9.8129    185.7134    229.2713   1.0695534944e+02   2.8646651649e+00    0.2984374     0.220414 -56.17   0.00190406    1.972    0.493
        31  -9.6653    165.5492    227.6919   1.1039411776e+02   6.3725550647e+00    0.2649778    0.2210356  87.98  0.001397322    1.652    0.395
        32 -11.2621    177.1710    223.7117   1.0770964000e+02   5.0159566269e+00    0.5594987    0.4988775 -31.14  0.003336817    1.372    0.271
        33  -9.3652    139.8931    170.6158   1.0678228355e+02   2.0396989643e+01    0.4997748    0.1511822  41.42  0.001722031    3.060    0.673
        34  -9.3768    126.8410    170.0937   1.0956373368e+02   2.2862473820e+01    0.2281239     0.204823 -39.45  0.001365439    1.287    0.223
        35  -9.0781    243.0393    168.9463   8.6224432675e+01   1.1542183763e+00    0.2864227    0.1714351  43.09 0.0008743245    1.663    0.399
        36  -9.0857    243.4171    164.0107   8.5163335250e+01   1.7571162181e+00    0.2297832    0.1737827  32.30 0.0001804544    1.250    0.200
        37  -7.7566    140.2835    164.3406   1.0558194083e+02   2.1538303637e+01    0.2034095    0.1763176  48.17 0.0008482616    1.061    0.058
        38  -8.4933    137.7272    161.0255   1.0554702485e+02   2.2669424776e+01    0.2754886    0.2073601  78.63 0.0007732096    1.665    0.399
        39 -11.2252    184.2592    216.2998   1.0530973962e+02   4.8623888376e+00    0.7126811    0.3171662 -45.66   0.00329548    2.836    0.647
        40 -10.7453    183.3284    208.5115   1.0427543808e+02   6.1333706613e+00    0.5432637    0.3904635  87.06  0.002734652    2.810    0.644
        41  -8.6668    164.9918    161.0262   9.9572793359e+01   1.7386286036e+01    0.2064095    0.1917019  31.97            0    1.024    0.023
        42  -8.9314    243.6052    159.1277   8.4129042768e+01   2.3948838181e+00    0.2359323    0.1699873  31.07 0.0003579019    1.307    0.235
        43 -10.1335    211.7016    157.1093   8.9376423595e+01   8.7245295861e+00    0.2508539    0.2252682  33.33 0.0004659279    1.119    0.106
        44  -9.2456    145.0452    155.8937   1.0293521587e+02   2.2285279947e+01    0.4324033    0.2477868  68.75   0.00160395    3.102    0.678
        45  -9.4359    158.1697    227.5751   1.1173385587e+02   7.5944464136e+00    0.4103013    0.3298472 -89.07  0.002396319    1.719    0.418
        46  -8.7281    190.1333    154.4011   9.3000229071e+01   1.3496288857e+01    0.4097199    0.1627591  41.81  0.001551325    2.392    0.582
        47 -10.4150    135.4462    151.1845   1.0420667072e+02   2.5076997396e+01     0.963452    0.4232094 -62.97  0.003134618    3.960    0.747
        48  -9.4464    138.5318    150.4973   1.0336080417e+02   2.4623590100e+01    0.3482165    0.2685814 -71.66  0.001259692    1.533    0.348
        49  -8.6557    151.0168    149.0426   1.0022607820e+02   2.2454733949e+01    0.2379505    0.1766774  76.08  0.001130348    1.788    0.441
        50 -10.7019    149.2056    223.0839   1.1280917491e+02   9.7255992443e+00    0.3816389    0.2860739  15.36 0.0002688283    1.696    0.410
        51  -8.8215     17.5183    147.3504   1.3177286344e+02   4.2334391251e+01    0.3172513    0.1652198 -64.88  0.001591402    1.686    0.407
        52  -8.2230     15.7114    142.6262   1.3177779919e+02   4.3501246266e+01    0.2445737    0.1246626 -70.54  0.001041679    1.605    0.377
        53 -10.8120    154.1568    217.6454   1.1114889509e+02   9.7391230441e+00    0.8767561    0.2499241  46.36  0.003364447    3.057    0.673
        54  -9.1420    160.3243    142.6554   9.6797143798e+01   2.1800580254e+01    0.4451798    0.3296349 -45.58  0.002229594    1.425    0.298
        55  -9.5718    158.3257    139.4822   9.6551831103e+01   2.2832704955e+01    0.4016855    0.3296759  38.22  0.001869084    1.179    0.152
        56  -9.3119    166.4010    219.4709   1.0909865618e+02   7.4161900761e+00    0.2767169    0.2182612 -40.52  0.001039786    1.555    0.357
        57  -9.2323    141.5283    143.0175   1.0115190871e+02   2.5553417445e+01     0.223308    0.1923586  43.89 0.0004096481    1.113    0.101
        58  -9.5175    120.8636    142.3247   1.0592320959e+02   2.9661554711e+01    0.3086909    0.2282349  60.51  0.001279969    1.422    0.297
        59  -8.8147    231.0507    139.3114   8.2020876020e+01   7.6467216728e+00    0.2274787    0.1864574 -26.56 0.0003488714    1.186    0.156
        60  -9.4883     11.2489    217.7509   1.3742555867e+02   2.9022995407e+01    0.3667322    0.1709411  83.69  0.001819557    1.810    0.448
        61 -10.0980     44.2367    137.5419   1.2433603514e+02   4.1969020979e+01    0.3621716    0.2508133   5.57  0.002019812    2.302    0.566
        62  -7.6144    216.5066    138.4577   8.4423358394e+01   1.0722325937e+01    0.1399643     0.132102   6.00 0.0001071966    1.066    0.062
        63 -10.3565    116.7773    134.6577   1.0538844403e+02   3.2057373778e+01    0.4796009    0.3488537 -10.61   0.00218529    2.205    0.547
        64 -10.6349    107.3581    133.5193   1.0752836374e+02   3.3993743488e+01    0.5222387    0.4226846 -43.14  0.001154229    1.325    0.245
        65  -9.6542    103.0037    129.5204   1.0784242090e+02   3.5630024573e+01    0.4051802    0.2846934  84.40  0.001696846    1.873    0.466
        66  -8.4141    101.6809    137.2268   1.0968535047e+02   3.4151291933e+01    0.2388444    0.2134564  61.14 0.0006220081    1.088    0.081
        67 -10.9452     11.7507    207.3454   1.3684655267e+02   3.0846793480e+01    0.4529848     0.332858  62.46  0.002459444    1.150    0.130
        68  -8.9033    126.5816    133.9458   1.0281458710e+02   3.0366900434e+01     0.398804    0.2608625  44.72  0.001423741    1.491    0.329
        69  -7.8301    163.9854    134.0081   9.4062589423e+01   2.2700110479e+01    0.1749395    0.1713443  11.97  0.000352226    1.032    0.031
        70  -8.3696    153.8239    129.8775   9.5415647162e+01   2.5675421333e+01    0.2033261    0.1791174  89.37   0.00105687    1.314    0.239
        71  -7.8322      6.1121    228.5550   1.3871584135e+02   2.7630859770e+01    0.1320954   0.07678013  45.78 0.0008254348    1.521    0.342
        72  -9.3327    120.9574    127.3740   1.0279809922e+02   3.2849051724e+01    0.2909469    0.1881665  27.74 0.0009827795    1.910    0.476
        73  -9.3476     47.5133    124.5112   1.2170559541e+02   4.4559972145e+01    0.2317293    0.2034255 -77.18  0.001534058    1.047    0.045
        74  -7.9278    128.3241    124.2960   1.0026086104e+02   3.2077830478e+01    0.1462692    0.1182755   0.23 0.0002279218    1.623    0.384
        75  -8.2433    109.8030    122.8481   1.0467470354e+02   3.5905434540e+01    0.2102936    0.1909864 -23.65 0.0006567024    1.247    0.198
        76  -8.7385      2.7611    117.2495   1.3264588776e+02   4.9953248517e+01    0.1931159    0.1287095 -77.81 0.0007319618    1.157    0.136
        77  -7.3976    186.3958    114.7665   8.4638885915e+01   2.1334153674e+01     0.148989    0.1186468  81.79 0.0005952763    1.655    0.396
        78  -7.4292    247.5616    113.5366   7.3452650693e+01   8.1923456127e+00    0.1370873    0.1228127 -15.17 0.0002045008    1.012    0.012
        79  -8.2889    114.1343    110.8844   1.0078716266e+02   3.7719929910e+01    0.2225808    0.1963189  85.11 0.0004787824    1.244    0.196
        80  -8.6612    135.5794    238.5731   1.1718150369e+02   9.5764314259e+00    0.2896853    0.2442351 -80.06  0.001346792    1.462    0.316
        81 -10.9542     64.8165    108.0800   1.1404228446e+02   4.6265399966e+01    0.7512227    0.5773887  -7.27  0.004133293    1.807    0.447
        82  -9.1614    176.6251    211.2311   1.0596200927e+02   6.8917688351e+00    0.2309162    0.2058926 -88.38 0.0005295263    1.508    0.337
        83  -8.0827    107.6393    104.7014   1.0104116369e+02   4.0282725929e+01    0.1480828    0.1160308  -5.35 0.0007034676    1.714    0.416
        84  -8.0298     72.2535     94.8755   1.0898400846e+02   4.8255074625e+01    0.1950516    0.1736167 -77.15  0.001158704    1.145    0.126
        85  -7.4830      2.9707     95.0064   1.3024893090e+02   5.4833220069e+01    0.1369925    0.1047717 -74.22 0.0003408659    1.008    0.007
        86  -8.7944    172.1877     92.1939   8.1681501542e+01   2.8758076935e+01    0.2438486    0.2330507   0.54 0.0003449499    1.054    0.051
        87  -7.9391    134.8114     91.9617   9.0391646757e+01   3.7451654556e+01     0.201853    0.1935541 -43.88  0.001084834    1.049    0.046
        88  -9.7602    121.7819    204.6169   1.1570386408e+02   1.7244827034e+01    0.5421455    0.2291664  51.90  0.002435596    2.281    0.562
        89  -8.9375     34.0872     85.8404   1.1915898006e+02   5.4674272358e+01     0.334929    0.1829799  16.99   0.00174205    2.409    0.585
        90  -9.7960    228.3123     84.2441   6.9309296006e+01   1.6718986812e+01    0.2489991    0.2353875   5.66 0.0002871016    1.078    0.073
        91  -9.2072    232.8413     80.0335   6.7567409974e+01   1.6317772705e+01    0.3183076    0.2041163  43.70  0.001522902    1.686    0.407
        92  -8.4952    115.0815     74.3845   9.0513235021e+01   4.5148718041e+01    0.2479603    0.2030123 -47.90 0.0002268723    1.241    0.194
        93  -7.9441    172.1044     65.8606   7.4094589515e+01   3.3324506251e+01    0.2193147    0.2054165 -74.95 0.0002822411    1.140    0.123
        94 -10.3514    152.3844     63.3188   7.7512183233e+01   3.8654418907e+01    0.4120294    0.3818977  86.35  0.001082467    1.183    0.155
        95  -9.2988    144.0904     60.0707   7.8387258865e+01   4.1216941737e+01    0.2797161    0.2060258 -42.16  0.001065458    1.399    0.285
        96  -8.4023    153.0168    248.8086   1.1526078889e+02   5.4626564246e+00    0.1656192    0.1488661  43.08 0.0005758898    1.193    0.162
        97  -9.9146    168.4358     40.3918   6.6902397198e+01   3.8079195917e+01    0.4313023    0.3774282   2.81 0.0008230225    1.247    0.198
        98  -9.0919    146.0664     55.2834   7.6363849720e+01   4.1522589253e+01    0.4121853    0.2022114  34.88 0.0006615933    2.675    0.626
        99 -10.4662    127.9945     52.1508   7.9703468276e+01   4.6335453215e+01    0.2666596    0.2389075 -21.19 0.0002960792    1.112    0.101
       100  -7.7734    139.2066     48.8605   7.5811570764e+01   4.4207785073e+01    0.2001092    0.1673625  10.82 0.0002600806    1.292    0.226
       101  -9.5313    223.4497     35.6338   5.7349660486e+01   2.4660600807e+01    0.3747063    0.2396181 -27.21  0.001381445    1.584    0.369
       102  -7.3317    196.7218     28.6779   5.8838525007e+01   3.2236982828e+01    0.1431638    0.1069602  29.93 0.0002685072    1.583    0.368
       103 -11.9253    237.0955    246.1956   1.0062568231e+02  -6.9454777155e+00    0.2119092    0.1665118  21.57   0.00022587    1.150    0.130
       104  -8.6351    169.6168     19.5278   6.0008545535e+01   4.0344969086e+01    0.2739974    0.2056039  34.00 0.0005435405    1.436    0.303
       105  -8.7759    190.6825     15.9803   5.5933097573e+01   3.5237669005e+01    0.1996764     0.187765 -44.46  0.001175682    1.108    0.098
       106  -7.6111    162.7880    247.7659   1.1343871960e+02   4.0948146972e+00    0.1502633    0.1066048  51.47 0.0003708253    1.299    0.230
