#   1 NUMBER                 Running object number                                     
#   2 MAG_AUTO               Kron-like elliptical aperture magnitude                    [mag]
#   3 X_IMAGE                Object position along x                                    [pixel]
#   4 Y_IMAGE                Object position along y                                    [pixel]
#   5 X_WORLD                Barycenter position along world x axis                     [deg]
#   6 Y_WORLD                Barycenter position along world y axis                     [deg]
#   7 A_WORLD                Profile RMS along major axis (world units)                 [deg]
#   8 B_WORLD                Profile RMS along minor axis (world units)                 [deg]
#   9 THETA_WORLD            Position angle (CCW/world-x)                               [deg]
#  10 FWHM_WORLD             FWHM assuming a gaussian core                              [deg]
#  11 ELONGATION             A_IMAGE/B_IMAGE                                           
#  12 ELLIPTICITY            1 - B_IMAGE/A_IMAGE                                       
         1 -10.9073     36.9114     39.3583   1.1202070514e+02   6.3639720138e+01    0.7698279     0.482379 -40.28  0.001320841    1.410    0.291
         2 -10.3864     10.1728     18.8423   1.1577857786e+02   6.9215032950e+01     1.154764    0.4258987 -18.21  0.003840523    6.913    0.855
         3 -10.7636     37.1690      9.4217   1.0009351511e+02   6.7818857867e+01    0.7981878    0.3352236 -38.23   0.00239733    2.516    0.603
         4 -10.8659     18.7477      6.7291   1.0687698489e+02   7.0150026705e+01    0.9934826    0.7900876  56.02  0.006528968    3.074    0.675
         5 -10.5442     31.7873     64.8476   1.2186321524e+02   5.9581133418e+01     2.050557    0.6186491 -34.53  0.006477417    5.425    0.816
         6  -9.4540      2.2606     14.5669   1.1779422053e+02   7.0397617461e+01    0.4753438    0.1883798 -53.68  0.002227147    3.175    0.685
         7 -10.3788      5.0354      4.6317   1.1242449637e+02   7.1591270385e+01    0.3995397    0.2869994 -14.01  0.001437309    1.051    0.049
         8 -10.5635      6.7888     30.0954   1.2127480459e+02   6.7693604209e+01    0.5817032    0.2415603 -43.47  0.002083932    1.771    0.435
         9 -11.1616     24.1426     32.0542   1.1459033217e+02   6.6050351885e+01     1.581417    0.4448777 -34.74  0.004244384    3.712    0.731
        10  -8.5344     71.9458      8.5554   8.7142210206e+01   6.2784576830e+01    0.2174454    0.1518592  -6.58 0.0006513361    1.373    0.271
        11 -10.4706     74.0589     15.9940   8.9500638053e+01   6.1654180934e+01      1.50151    0.4963438 -19.31  0.005096628    5.063    0.802
        12  -8.6478     78.7279      3.1438   8.2879630159e+01   6.2085672570e+01    0.2418121    0.1899697 -41.32 0.0008440192    1.726    0.421
        13  -9.8497     79.4091     23.9547   9.0948247157e+01   5.9818227027e+01    0.5411196    0.2646962  25.23  0.001932805    2.517    0.603
        14 -10.6486    134.1045     30.7945   7.9126908208e+01   4.7752906409e+01    0.3937973    0.2723497   5.87            0    1.858    0.462
        15 -10.4472     74.7576     54.6807   1.0364117398e+02   5.6145618229e+01     1.591479    0.6313795 -27.39  0.003860228    4.044    0.753
        16  -9.0798    104.4790     15.0658   8.0573068583e+01   5.5976964511e+01    0.4122401    0.2040998  14.37   0.00164229    3.420    0.708
        17  -9.3351    103.0133     21.4167   8.3249166359e+01   5.5617604547e+01    0.4007856    0.2482423 -30.59  0.001537973    1.737    0.424
        18  -9.4925    100.8400     32.3573   8.7776810781e+01   5.4768868372e+01    0.6807264    0.2183585 -30.57  0.001929179    3.275    0.695
        19 -10.0226     60.8102     31.6033   1.0015206911e+02   6.1814026002e+01    0.8073665    0.3682112 -24.47  0.003495981    2.456    0.593
        20  -9.6235     63.8864      2.8531   8.7332592895e+01   6.4674273015e+01    0.3704035    0.2605557 -48.00  0.001760947    2.358    0.576
        21 -10.4705     51.4488     14.6176   9.6745455628e+01   6.5335724416e+01     1.288426    0.6101381  11.07  0.005345301    3.770    0.735
        22  -9.5026     63.2233     21.4349   9.5304811599e+01   6.2786987070e+01    0.3658328    0.2617803 -49.02  0.001610873    2.109    0.526
        23 -10.1868     64.2141     12.9961   9.1511017213e+01   6.3605957752e+01    0.4915425    0.3114913 -10.10   0.00221968    1.540    0.351
        24 -10.1838    152.4980     28.4865   7.4753130473e+01   4.3666012582e+01    0.6221088    0.3146729  45.79  0.002784846    1.924    0.480
        25  -8.7076     96.9991     12.3074   8.1453000529e+01   5.7766240494e+01    0.3818631    0.2036144  16.97  0.001749935    2.459    0.593
        26  -8.8889    125.0109     13.0228   7.5213288094e+01   5.1734039980e+01    0.3164897    0.2385041 -66.18   0.00178921    1.776    0.437
        27  -8.6874    126.6755      9.0009   7.3542312770e+01   5.1729404029e+01    0.3114366    0.2113855  45.18  0.000850962    1.285    0.222
        28  -8.9549    125.7051      4.9741   7.2401470437e+01   5.2297016631e+01    0.4320091    0.2076531  34.15  0.001931662    2.325    0.570
        29  -7.6548    120.9961      5.7104   7.3578491485e+01   5.3286457652e+01    0.1956099    0.1473208  70.95 0.0004945681    1.372    0.271
        30  -9.6225    118.9180     21.2372   7.9313688143e+01   5.2261854118e+01    0.3880703    0.2486963  -9.65  0.001565658    1.850    0.460
        31  -8.8785    120.4060     16.3956   7.7328771205e+01   5.2433175580e+01    0.3607694    0.2163671  -2.24    0.0016996    2.162    0.538
        32  -9.7871    232.3838     13.2190   6.0286105545e+01   2.6116019395e+01    0.3382041    0.2601008 -38.54   0.00117218    1.451    0.311
        33  -7.3825     85.4630      2.5026   8.0738557555e+01   6.0890990040e+01    0.1587323    0.1078345 -31.08 0.0009700343    1.714    0.416
        34  -9.5763     85.1496     13.0014   8.4957526728e+01   5.9984498903e+01      0.38645    0.2453711 -49.86  0.001705052    2.502    0.600
        35  -7.8223     80.4659     12.5053   8.6133065529e+01   6.0893039513e+01    0.2309786    0.1373247 -38.38  0.001277405    2.060    0.515
        36  -7.7965     85.0184      6.4725   8.2429713560e+01   6.0629946112e+01    0.3059465    0.1450897  28.98  0.001479505    2.240    0.554
        37  -8.4529     88.9835      3.2449   8.0089188893e+01   6.0155756917e+01    0.2935687    0.1807966 -31.18  0.001375736    1.860    0.462
        38  -9.2495    133.3381     12.1811   7.3283251604e+01   4.9918001732e+01     0.367406    0.1699383 -39.05  0.001414908    2.489    0.598
        39  -8.2758    131.1513      6.5374   7.1878014955e+01   5.0929077657e+01    0.2290544    0.1837327   2.31 0.0007394631    1.424    0.298
        40  -8.9880    135.0137      2.4035   6.9860547410e+01   5.0390211465e+01    0.4137778    0.2205879  35.22  0.002051326    2.035    0.509
        41  -8.0463    141.5199     12.0814   7.1738313217e+01   4.8023476464e+01    0.1789003    0.1316715 -21.34  0.001024443    1.567    0.362
        42  -9.1252    114.4066      9.8290   7.6385423320e+01   5.4369960782e+01    0.3338601    0.1668237  39.81 3.878166e-05    1.856    0.461
        43  -8.9185    115.1465      4.3402   7.4317023515e+01   5.4684751384e+01     0.290806     0.187103 -33.00 0.0008658637    1.799    0.444
        44  -8.9654    109.8749      7.6182   7.6618283632e+01   5.5539046276e+01    0.2055466     0.186231 -42.78 0.0006808788    1.355    0.262
        45  -8.9364    111.3053      4.3226   7.5133684657e+01   5.5514480046e+01    0.2570285    0.1437604  28.65 0.0008925992    1.904    0.475
        46  -8.6720    137.6018      9.2266   7.1550659122e+01   4.9203893514e+01    0.1644334    0.1223055   4.21 0.0004203507    1.616    0.381
        47  -8.7289    102.0049      8.3645   7.8731792374e+01   5.7118312504e+01    0.2437834    0.1857784 -35.36 0.0006201867    1.563    0.360
        48  -8.7529    104.2047      2.3718   7.6019214182e+01   5.7172389470e+01    0.3951811    0.2090557  27.88  0.001795581    2.028    0.507
        49  -7.8375    204.7822      8.0254   6.1859697105e+01   3.3156358490e+01    0.1793783    0.1379473  27.79 0.0003800379    1.859    0.462
        50  -9.2116     96.2626      4.4496   7.8685835479e+01   5.8623052197e+01    0.3336871    0.2787349 -63.91  0.002146571    1.725    0.420
        51  -8.0461    142.9616      4.9778   6.9302366465e+01   4.8326973752e+01    0.1934234     0.142895 -68.75 0.0005034325    1.644    0.392
        52  -8.0269    151.3399      3.0053   6.7372293291e+01   4.6517872687e+01    0.2071613   0.06621205 -46.33 0.0007051348    4.446    0.775
        53  -7.1391    176.0121      1.2013   6.3472287096e+01   4.0754107419e+01    0.1670779   0.08692601  69.80 0.0008254526    1.609    0.379
        54  -9.7643     65.5527    103.6237   1.2055112652e+02   4.7713033497e+01    0.6992326    0.4793327  13.61  0.003591566    1.896    0.472
        55  -8.6158    215.9785    250.0187   1.1370467466e+02  -9.2651520787e+00    0.1970751    0.1291443  12.00  0.001129246    1.673    0.402
        56 -11.3137    197.0163    248.3096   1.1694674749e+02  -5.9431788292e+00     0.750147    0.3513519  42.66  0.003735698    1.818    0.450
        57  -8.7629    158.7597    111.7952   9.7301765728e+01   2.8147955431e+01    0.3014196    0.2087087 -54.25 0.0005510919    1.521    0.343
        58  -8.8454     36.5519    111.8525   1.3087377904e+02   4.9164253151e+01    0.2422619    0.1540789  52.25  0.001325612    1.953    0.488
        59  -8.5382    149.8847    110.0762   9.8952613565e+01   3.0557949235e+01    0.3283404    0.2022759 -48.07 0.0007528588    1.635    0.388
        60  -9.9865     30.3667    108.9812   1.3214309169e+02   5.0381603851e+01     0.291726    0.2458165 -12.95  0.001570999    1.435    0.303
        61 -10.9291     44.4782    102.3493   1.2665206986e+02   5.0506926798e+01    0.7658657    0.4442707  73.08  0.003182309    3.477    0.712
        62  -9.1142     40.0784    106.6406   1.2884821576e+02   4.9996466369e+01    0.2450244    0.1571252 -75.61 0.0006929476    1.664    0.399
        63  -9.9075     15.8093     70.8133   1.2901253507e+02   5.9659053379e+01    0.5575026    0.2301695 -63.04   0.00219306    2.246    0.555
        64  -9.0471    222.1181    249.3566   1.1247880362e+02  -1.0144229531e+01    0.2491918    0.1412505  48.31 0.0009814681    1.967    0.492
        65  -8.7932     40.9753     20.6067   1.0329059644e+02   6.5954827079e+01    0.2537053    0.1385613 -32.10 0.0001997516    1.637    0.389
        66 -10.7164    178.2366    248.1240   1.2045624542e+02  -2.7451821930e+00    0.4112202    0.2852835  30.06  0.002420986    1.348    0.258
        67 -11.1564    164.1799    248.4406   1.2316986892e+02  -3.8324780226e-01      0.54513    0.3896848  46.72  0.003293583    1.178    0.151
        68  -6.8809    115.7038    243.6866   1.3177792769e+02   8.6791778682e+00    0.1112007   0.09897291  13.25  0.000701102    1.600    0.375
        69 -10.8902     20.8344    101.3124   1.3357136989e+02   5.2867843208e+01     1.292652    0.5806783 -81.48  0.005177232    3.504    0.715
        70  -9.7988     17.1677     60.9956   1.2614519089e+02   6.1494441466e+01    0.6969377    0.2407599 -52.32    0.0034204    2.136    0.532
        71 -10.8698     21.8925     53.6830   1.2240408724e+02   6.2521287451e+01    0.7144419    0.4758227 -87.61  0.002828357    3.417    0.707
        72 -10.7395     25.8249     78.2209   1.2729520607e+02   5.7411658659e+01    0.7647287    0.5806899 -68.83  0.004972565    1.382    0.277
        73  -9.8290     14.4600    111.4517   1.3708587787e+02   5.1091920744e+01    0.4109024     0.239322  72.46  0.001742126    2.363    0.577
        74 -10.0019     34.4796     90.7481   1.2727273416e+02   5.4029958869e+01    0.5857283    0.2728256 -73.39  0.002375944    3.195    0.687
        75 -10.2155     36.8441     81.1000   1.2428444157e+02   5.5850609780e+01     1.023164    0.4954444 -10.12  0.003725023    4.841    0.793
        76 -10.2978     11.8338     45.7667   1.2403168278e+02   6.4683389286e+01    0.8382257    0.3711064  -0.68   0.00307548    3.291    0.696
        77  -7.3562    121.3292    238.2414   1.3003999233e+02   8.7330466431e+00    0.1578934    0.1141639 -77.14 0.0003036696    1.555    0.357
        78  -7.3801     40.3626    237.7337   1.4488359732e+02   2.0807898403e+01    0.1223897   0.06289543  65.84 0.0006989855    1.645    0.392
        79 -10.1292      4.3670     41.9650   1.2592888127e+02   6.5818497727e+01    0.4921572    0.2499117 -51.78  0.001977296    1.548    0.354
        80  -9.7535    187.8872    233.8860   1.1640789029e+02  -2.2024389196e+00    0.2663985    0.2189444 -65.47  0.001193122    1.625    0.384
        81  -7.7025     77.5223    105.9467   1.1753069967e+02   4.5498203870e+01     0.209264    0.1039068 -35.23 0.0008091904    2.540    0.606
        82  -9.6954      5.4068    103.7738   1.3846597269e+02   5.3374211842e+01    0.4221991     0.336424  55.22  0.002030821    1.545    0.353
        83  -9.5681    149.4611    103.2514   9.7237693480e+01   3.2078987490e+01    0.4215946    0.2867581 -55.63 0.0009071326    1.599    0.375
        84  -8.3603    165.9537    103.9025   9.3586211905e+01   2.8074380920e+01    0.2685468    0.2188054 -44.98 0.0003890228    1.225    0.184
        85  -9.5952     81.5245     99.6494   1.1477373018e+02   4.6281952043e+01    0.7057124    0.2742372 -52.38   0.00103505    2.433    0.589
        86  -8.0644     73.6834    102.6306   1.1786885595e+02   4.6803656921e+01    0.2663979    0.1604187 -55.67 0.0005712863    1.552    0.356
        87  -9.1718    158.9355    100.7123   9.4325042972e+01   3.0382660410e+01    0.4743912    0.2075658 -45.37   0.00119195    2.308    0.567
        88  -9.4808     94.2379     97.3734   1.1041144276e+02   4.4677093296e+01    0.3402803    0.2957219 -66.66 0.0006290664    1.248    0.199
        89  -8.7781     96.0359     91.0001   1.0813769983e+02   4.5708996288e+01    0.4565742    0.2867092  -1.37  0.001737392    3.047    0.672
        90  -7.8908     63.4476     82.2226   1.1579866456e+02   5.2595404742e+01     0.317827    0.1974273 -69.33 0.0008610797    2.337    0.572
        91 -10.4038     62.8089     95.6459   1.1947839596e+02   4.9835126113e+01     0.556936    0.3506415 -77.65  0.001593541    2.414    0.586
        92  -9.0431     63.7344     86.8183   1.1693918161e+02   5.1602501951e+01    0.7609846    0.4083326   2.93  0.002661492    4.427    0.774
        93  -8.6858     14.0694    104.8436   1.3615385658e+02   5.2581348575e+01    0.2047064    0.1416357 -34.17 0.0006953624    1.567    0.362
        94  -7.9039    170.7162     95.8080   9.0382120498e+01   2.8530915120e+01    0.3016647    0.1412007 -32.47 0.0008257758    2.537    0.606
        95  -7.3665    202.0266     95.7333   8.4138732081e+01   2.0954528345e+01    0.1804839    0.1320492  59.24 0.0003214078    1.387    0.279
        96  -8.8968    164.4515     94.5515   9.1411851681e+01   3.0285910462e+01     0.317074    0.2674112 -51.95 0.0007276525    1.198    0.165
        97 -10.3170      4.4711     89.7970   1.3649769114e+02   5.6430751671e+01    0.5951708    0.2951132 -86.19  0.001987396    2.843    0.648
        98  -9.4684      7.0485     78.0021   1.3350969309e+02   5.8746069747e+01    0.7387133    0.2334328 -32.52   0.00277136    4.768    0.790
        99  -9.3147    138.6878     92.6680   9.6965325815e+01   3.6686648465e+01     0.400014    0.2994198 -76.55 0.0009288916    1.789    0.441
       100  -9.6343    140.3608     82.6395   9.3683863961e+01   3.8251794852e+01    0.5116225    0.2573057 -38.50  0.001501978    2.031    0.508
       101  -9.0947    139.8987     75.4940   9.1701753510e+01   3.9674501963e+01    0.5249377    0.3349133 -45.63  0.001862808    1.632    0.387
       102  -8.9665    157.5005     91.8677   9.2240669476e+01   3.2471031215e+01    0.3026782     0.217436 -46.78 0.0005934074    1.410    0.291
       103  -9.4071    110.9975     89.7540   1.0348279310e+02   4.3156379526e+01    0.7356705    0.3665613  27.39  0.002542076    3.190    0.687
       104  -8.1324    174.3876     88.7711   8.7710559206e+01   2.8976810413e+01    0.2101106    0.1496503 -28.93 0.0005764218    1.573    0.364
       105  -8.8538    150.5456     88.9402   9.3037033105e+01   3.4683551664e+01     0.275906    0.2210316 -45.78 0.0008015346    1.262    0.208
       106  -8.1635     80.3720     86.1598   1.1151721760e+02   4.9333890484e+01     0.202844    0.1736067 -48.32 0.0005109371    1.136    0.120
       107 -10.1677     85.1444     86.5395   1.1015437450e+02   4.8491441235e+01    0.4369135    0.3476666 -88.89  0.001037608    1.800    0.444
       108  -9.4356     87.3710     78.7254   1.0721208241e+02   4.9694743459e+01    0.5755186    0.3465711  14.79  0.001928376    2.510    0.602
       109  -8.6495    163.3039     86.8397   8.9549509183e+01   3.2036065679e+01    0.3039917    0.2241082 -65.25 0.0007749918    1.598    0.374
       110 -10.1940     47.9221     84.5682   1.2147861685e+02   5.3991428277e+01    0.5037943    0.3517361  86.80  0.001849996    2.403    0.584
       111  -9.2372     48.6972     77.4290   1.1937874092e+02   5.5380037257e+01    0.6121691    0.3682719 -15.38  0.003031665    2.244    0.554
       112  -8.5724     25.9564    231.3274   1.4687983668e+02   2.3760500934e+01    0.1830026    0.1284257 -86.09 0.0001455865    1.212    0.175
       113  -9.3354    157.6457     83.1810   8.9782379475e+01   3.4082721032e+01    0.5335016    0.2598765 -35.68   0.00161231    2.178    0.541
       114  -8.6899    157.1701     76.0909   8.7873686664e+01   3.5482772661e+01     0.419906    0.2256647 -30.07  0.001656058    2.158    0.537
       115  -8.1471    156.6508     70.0733   8.6255035483e+01   3.6655408313e+01    0.2925404    0.1890502 -59.25 0.0006826615    1.914    0.478
       116 -10.3043    103.8600     82.5953   1.0343607972e+02   4.5973748899e+01    0.5271069    0.2991091 -52.38 0.0009368164    1.950    0.487
       117  -8.2080    170.4827     83.5256   8.7096416138e+01   3.0901434625e+01    0.1545451    0.1460494 -87.91 0.0008094023    1.048    0.046
       118  -8.5851    241.0205     82.5274   7.4706385101e+01   1.4214568331e+01    0.2005286    0.1171397 -87.92 0.0006345178    2.591    0.614
       119  -8.4555    149.7690     80.8460   9.0917222575e+01   3.6392841865e+01    0.3477841    0.1958619 -49.18 0.0006659469    1.926    0.481
       120  -8.3714    149.1082     76.0851   8.9693607357e+01   3.7413890082e+01    0.3224411    0.2456998  71.18  0.001182783    1.482    0.325
       121  -8.8074    118.9367     80.4545   9.8572939237e+01   4.3376018170e+01    0.3168887    0.2249319 -57.09 0.0006311992    1.647    0.393
       122  -8.2859    119.8014     76.1783   9.7054574875e+01   4.3998651518e+01     0.271394    0.2017986 -16.76 0.0006908044    1.576    0.366
       123  -9.1847     74.1720     79.2177   1.1149950832e+02   5.1693798943e+01    0.6192164    0.2199288 -48.43  0.001940992    2.623    0.619
       124  -7.8969     68.8577     79.3628   1.1324997591e+02   5.2436333910e+01    0.2758052     0.133772 -40.97  0.001237931    1.912    0.477
       125  -8.6112    166.4840     78.9724   8.6676492401e+01   3.2703637579e+01    0.2261384    0.1514237 -37.60 0.0005427148    1.535    0.349
       126  -9.5987    105.3218     71.6027   9.9683546585e+01   4.7782866534e+01    0.7303647    0.4292218 -28.16   0.00257868    1.915    0.478
       127  -8.1400    184.2816     78.0968   8.2868697337e+01   2.8471003737e+01    0.2553832    0.2010415  45.87 0.0005921666    1.327    0.246
       128  -8.4380    130.3834     64.2559   9.0640605086e+01   4.3794670030e+01    0.3429048    0.1962034 -39.14  0.001329289    1.792    0.442
       129  -9.4804    127.3400     75.1270   9.4743804492e+01   4.2568899007e+01    0.4307579    0.3198626 -65.60 0.0006515411    1.741    0.426
       130  -8.8620    129.1766     69.2440   9.2482640904e+01   4.3212123166e+01    0.7074496     0.342819  27.60  0.002147474    4.183    0.761
       131  -9.9290     81.5466     72.3236   1.0710348773e+02   5.1894476987e+01    0.4188294    0.3007974 -67.32 0.0009553808    2.009    0.502
       132  -9.0540     83.4914     64.5937   1.0406768473e+02   5.3005370596e+01    0.5375752    0.3475398  -9.31  0.002532374    2.078    0.519
       133 -10.6900     54.9039     70.8965   1.1546268563e+02   5.5955073615e+01    0.8109816    0.5742639  78.97  0.001133561    2.929    0.659
       134  -9.1895     54.8834     63.3480   1.1322716500e+02   5.7398740178e+01    0.4269457    0.2819725   6.75  0.001945771    1.795    0.443
       135 -10.1923     61.8388     60.7896   1.1001717031e+02   5.6966012690e+01    0.6248997    0.2644641  29.93   0.00146052    2.670    0.625
       136  -8.3138    162.4804     72.9536   8.5828715643e+01   3.4741867455e+01    0.3214566     0.216876 -64.17  0.001086609    1.869    0.465
       137  -9.1606    115.3060     72.1781   9.7054637418e+01   4.5671619692e+01    0.5449211     0.268874 -37.16  0.001013585    2.057    0.514
       138  -8.5833    169.5122     71.8608   8.4061786477e+01   3.3202496919e+01    0.3194436    0.1892293 -38.63  0.001381017    1.725    0.420
       139  -9.6038    146.8896     68.3627   8.7934276290e+01   3.9287112120e+01    0.6559798    0.2855822 -39.00  0.001875958    2.339    0.573
       140  -9.8210     94.6764     68.2513   1.0177122401e+02   5.0397241463e+01    0.6327116    0.2331902 -44.66 0.0009437923    2.740    0.635
       141  -8.7203     95.7444     60.4886   9.8951769890e+01   5.1567022297e+01    0.4033398    0.2288263 -13.31  0.001587563    2.889    0.654
       142  -8.7555     98.6926     56.6639   9.6812346704e+01   5.1653121802e+01    0.3590373     0.264039   5.09  0.001121526    1.573    0.364
       143  -9.2994    138.2771     65.1928   8.8998291957e+01   4.1838523989e+01    0.5786349    0.2703673 -34.64  0.001470129    2.256    0.557
       144  -7.8753    126.2879     60.1875   9.0398867689e+01   4.5379154415e+01    0.3268808    0.1066885  55.55 0.0004379249    3.562    0.719
       145  -9.1030    121.2278     66.1478   9.3583821747e+01   4.5486821555e+01    0.3582351    0.2450642 -56.15  0.000743281    1.815    0.449
       146  -8.2047    121.8570     61.1907   9.1855914048e+01   4.6185573877e+01    0.2587271    0.2092631  -5.26 0.0007215856    1.381    0.276
       147  -9.3493    109.7426     64.0283   9.6038214625e+01   4.8248279643e+01     0.327738    0.2748052 -59.67 0.0007285119    1.436    0.304
       148  -9.0445    110.6734     58.0295   9.3841474550e+01   4.9062080364e+01    0.3618733    0.2764263   1.74 0.0009355215    1.508    0.337
       149  -8.7047    170.3604     64.9475   8.1953982336e+01   3.4145871439e+01    0.2661317    0.2022187  73.07 0.0006810281    1.368    0.269
       150  -8.7032    157.6290     63.1600   8.4036200936e+01   3.7567200226e+01    0.2845603    0.2152622 -56.10 0.0008198369    1.458    0.314
       151 -10.0659    241.5312     61.8378   6.9964794433e+01   1.7422971755e+01    0.2764673    0.2393015  83.69 0.0003041209    1.139    0.122
       152  -9.5224    245.8422     57.8852   6.8565950116e+01   1.7063068861e+01    0.2780572    0.2216671 -26.25 0.0008556917    1.532    0.347
       153  -9.0719    164.1938     61.7639   8.2277669870e+01   3.6182973579e+01     0.395119    0.2021785 -22.22  0.001454509    2.815    0.645
       154  -8.9544    152.8230     60.1372   8.4172379277e+01   3.9218149085e+01    0.3853502    0.1809877 -38.35  0.001456798    2.188    0.543
       155  -8.7131     87.5907     58.5610   1.0081169056e+02   5.3361209133e+01    0.3544834    0.2153149 -44.04  0.001156283    1.699    0.411
       156 -10.3791     85.0811     48.0553   9.8027696760e+01   5.5508821599e+01    0.5189841    0.3683624 -64.94 0.0009597611    2.454    0.592
       157  -7.2654     23.5299    218.4269   1.4638913504e+02   2.6609362009e+01    0.1136576   0.08538974  82.06 8.147397e-05    1.055    0.052
       158  -7.6348     45.8207    209.1533   1.4149928312e+02   2.5942500093e+01    0.1495987    0.1251127 -77.11            0    1.278    0.217
       159  -9.8826     10.0439    207.3322   1.4799644652e+02   3.0278261179e+01    0.4045031    0.2667626  20.10  0.002549723    2.606    0.616
       160 -10.0598     76.2617     31.8797   9.4983454727e+01   5.9354430340e+01     0.346238    0.3157195  65.41  0.001356006    1.565    0.361
       161 -10.1763    171.3475    206.2870   1.1506400564e+02   5.6315740764e+00    0.2467431    0.2236107  48.90 0.0002297593    1.049    0.046
       162  -9.2702     84.6974     21.9136   8.8543024365e+01   5.9110974686e+01    0.3217419    0.2127205  37.16  0.001164508    1.349    0.259
       163  -8.7156     10.0750     60.4698   1.2860656118e+02   6.2062294113e+01    0.2515351    0.1893983 -77.08  0.001705971    1.661    0.398
       164  -9.6029    149.8163     47.2635   8.0950908996e+01   4.1880830152e+01     0.503235    0.2122117 -29.43  0.001365892    2.696    0.629
       165  -9.4228    153.1356     40.7304   7.8309234512e+01   4.1977686307e+01    0.4248366    0.2237612 -39.19  0.001360527    2.014    0.503
       166  -8.8984    153.4008     35.1753   7.6591238929e+01   4.2633786797e+01    0.2628924    0.1979753 -41.06 0.0008677348    1.440    0.305
       167  -8.9979    146.5980     58.2337   8.4964557530e+01   4.1012148426e+01    0.4606673    0.2552943 -25.67  0.001925297    2.161    0.537
       168  -8.0007    147.6854     52.6688   8.3041034972e+01   4.1604832237e+01    0.2615658    0.1800613 -18.82  0.000795057    1.745    0.427
       169  -9.1000    130.0011     57.9134   8.8753490595e+01   4.4915103011e+01    0.3019088    0.1989368 -46.24 0.0007202074    1.668    0.401
       170 -10.3674    138.1628     37.5075   8.0398146827e+01   4.5973073018e+01    0.4194584    0.2769744 -47.52  0.002088371    1.752    0.429
       171  -9.2751    138.8615     56.0869   8.6064610410e+01   4.3170063340e+01    0.5756909    0.2617357 -39.72  0.001709455    2.283    0.562
       172  -9.4531    142.0200     47.5629   8.2709525995e+01   4.3698306333e+01    0.6541978    0.2727899 -27.40  0.001601559    2.885    0.653
       173  -9.7019    130.5345     46.0904   8.4860570781e+01   4.6572057758e+01    0.7475278    0.3225265 -23.13  0.001480838    3.187    0.686
       174  -8.6153    132.9084     36.2440   8.1144327571e+01   4.7355083446e+01    0.3905147    0.2279589 -48.56 0.0005195694    2.107    0.525
       175  -9.0680    191.9788    194.0010   1.0852213254e+02   3.9250312656e+00    0.6633842    0.3392086 -62.64  0.002201359    4.133    0.758
       176  -8.3470    123.1085     40.7454   8.4896903103e+01   4.8979443269e+01    0.4784999     0.276013   8.69  0.001866039    3.088    0.676
       177  -9.1011    121.1255     46.9333   8.7431114540e+01   4.8551102994e+01    0.3868712    0.2355621 -31.79 0.0004839279    1.719    0.418
       178  -9.3082    118.2497     55.5532   9.0991501315e+01   4.7871441349e+01    0.3711752    0.2676248 -59.40 0.0007667888    1.838    0.456
       179  -8.2587    119.0073     51.3164   8.9412097883e+01   4.8362976320e+01    0.3469469    0.1334053  39.36  0.001224722    2.941    0.660
       180  -9.5043    162.5314     54.0784   8.0394273568e+01   3.7784182538e+01    0.3458847    0.2313832 -24.29  0.001623815    1.748    0.428
       181  -8.2449     50.2168     35.4118   1.0547705106e+02   6.2707892835e+01    0.2045919    0.1507326 -34.74 0.0007446226    1.315    0.240
       182  -9.2940     52.9711     39.3722   1.0590565656e+02   6.1747826934e+01    0.6047034    0.2329573 -32.14  0.002647888    2.664    0.625
       183  -9.9863     49.9349     54.2470   1.1212442405e+02   5.9654648123e+01    0.4884301    0.2919088 -55.71  0.001811962    2.038    0.509
       184  -9.6496     55.7408     43.5951   1.0640536215e+02   6.0718940773e+01    0.7681586    0.3950784  -2.76  0.002855126    4.284    0.767
       185  -9.5859     44.1898     53.1721   1.1387795908e+02   6.0507424955e+01    0.3220729    0.1876769 -38.25 0.0007926327    1.459    0.314
       186  -7.2698    172.4562    191.5654   1.1213199279e+02   8.2539149155e+00    0.1445106    0.1346822  34.98 0.0001548786    1.039    0.037
       187  -9.0687    105.4715     51.8287   9.3241468491e+01   5.1101179925e+01    0.5519351    0.2526764 -31.47  0.001762511    2.317    0.568
       188 -10.1488     69.4423     40.6302   1.0050826056e+02   5.9212516503e+01    0.7753983    0.4074139 -34.48  0.002650068    1.808    0.447
       189  -9.2496    157.5840     49.0959   7.9917957989e+01   3.9732546984e+01    0.5251645    0.1852643 -41.12  0.001869933    2.952    0.661
       190  -7.6772    249.6926     51.6430   6.6768053348e+01   1.7141873279e+01    0.1222062    0.1057399  20.59 0.0007041587    1.726    0.421
       191  -8.2298    242.0902     50.9539   6.7478827847e+01   1.8933241619e+01     0.228299     0.122002  46.15  0.001009669    2.542    0.607
       192  -9.1361    112.5763     44.7247   8.8904339031e+01   5.0701135570e+01    0.7835414    0.3299232 -20.92  0.002502375    3.830    0.739
       193  -8.2510    226.1995     44.0110   6.7799426095e+01   2.3595307237e+01    0.2093887    0.1342077 -87.92 0.0008027058    1.641    0.390
       194  -8.6296    147.2889     40.8535   7.9521348677e+01   4.3371470332e+01    0.3246867     0.201809 -26.57  0.001551303    1.804    0.446
       195  -9.0287    144.0863     36.4188   7.8811725055e+01   4.4714898599e+01    0.2559487    0.2045283 -56.36 0.0005641701    1.440    0.306
       196  -9.0825    104.8110     40.7726   8.9649127125e+01   5.2857097887e+01    0.3691977     0.204869 -40.15   0.00103865    1.966    0.491
       197  -8.4333    106.0193     36.4569   8.7815164731e+01   5.3194225615e+01    0.2716602    0.2002304  30.56  0.000956442    1.290    0.225
       198 -10.2694     89.5012     38.2126   9.3166027526e+01   5.6166142899e+01    0.7371677    0.2808067  36.22  0.002898307    2.874    0.652
       199  -8.0812    160.0000     39.0995   7.6513516284e+01   4.0518148001e+01    0.2185389   0.08166994 -30.81 0.0007998123    2.924    0.658
       200  -8.7315    118.9063     34.5432   8.3846235160e+01   5.0714252887e+01    0.2886277    0.1880782 -28.55 0.0007854542    1.634    0.388
       201  -9.8255    100.9987    175.9945   1.2538860263e+02   2.5282896818e+01    0.2022836    0.1819897  83.62  0.001156874    1.005    0.005
       202  -7.7617    235.4819    155.5161   9.2065063882e+01   2.4048230782e+00    0.1428134    0.1296397 -14.03  0.000809484    1.059    0.056
       203  -8.8315    118.0514    150.9987   1.1660739470e+02   2.8035288344e+01    0.2169957    0.2038531 -80.09            0    1.016    0.015
       204  -8.1040     97.0000     32.9754   8.9073650757e+01   5.5446794319e+01    0.3251635    0.1684018 -20.02   0.00149416    2.255    0.557
       205  -7.5829      2.9400    150.2038   1.4473361151e+02   4.3241587225e+01    0.1221545   0.09094335  36.45 0.0003767218    1.668    0.400
       206  -8.5763    133.7290    146.3266   1.1172790235e+02   2.6009210046e+01    0.6774128    0.1377362 -53.20  0.001445584    6.627    0.849
       207 -10.2747     45.4772     29.1689   1.0491955532e+02   6.4220722055e+01    0.3987358     0.368399 -60.32   0.00283604    1.748    0.428
       208  -9.8526     66.9775    144.4371   1.2838532913e+02   3.8013745197e+01    0.5160882    0.3337148  66.05  0.002415725    1.841    0.457
       209  -8.4025    183.3277    143.1616   9.9526163296e+01   1.5890306491e+01    0.2365674    0.2063373  36.37 0.0003344474    1.185    0.156
       210 -10.2961    229.6315    136.5399   8.8903777332e+01   7.0539680677e+00    0.2710042    0.2595114  62.25  0.001556775    1.127    0.113
       211  -9.0821    110.2162     32.9662   8.5488315042e+01   5.2773285515e+01    0.3664289    0.2269462 -39.88  0.000965872    1.816    0.449
       212 -10.1885    139.3447    102.7814   9.9594774370e+01   3.4473856825e+01    0.9606653     0.377568 -48.81  0.001783747    2.707    0.631
       213  -8.1312    115.8044    135.8234   1.1390850015e+02   3.2014951453e+01    0.2377912    0.2018704  36.96  0.001214162    1.260    0.206
       214  -8.5609     92.0374     20.9945   8.6061333982e+01   5.7839240981e+01    0.3624229    0.1432725  41.66  0.001133392    2.279    0.561
       215  -8.6046     95.9069     17.0732   8.3524952125e+01   5.7506588466e+01    0.2195048    0.1718896 -10.83  0.000397403    1.305    0.234
       216  -8.4977    112.1628    133.7936   1.1439943775e+02   3.3182828123e+01    0.3759733    0.2352655  74.39  0.001236961    2.580    0.612
       217  -8.8739    144.0112     25.5531   7.5455655090e+01   4.6037683583e+01    0.2416225    0.1783769 -50.20 0.0006149026    1.565    0.361
       218  -8.6645    128.2258     25.7319   7.8747393450e+01   4.9689101721e+01    0.2771719    0.2182056 -46.84 0.0008198019    1.487    0.327
       219  -9.0990    135.1033    131.9340   1.0808998832e+02   2.9011064606e+01    0.4750687    0.4449195 -30.93  0.002125174    1.141    0.124
       220  -7.4792     86.9328    134.0000   1.2114177359e+02   3.7544339670e+01    0.2219342   0.08290465  37.46 0.0007675342    2.884    0.653
       221  -9.6239     98.6434    128.8988   1.1689371248e+02   3.6787585634e+01    0.5792067     0.362475  76.18  0.002264959    2.668    0.625
       222 -10.0305     71.0452    125.8419   1.2380657641e+02   4.1856772520e+01    0.5634383    0.3573846 -79.31  0.001687125    1.936    0.483
       223 -10.0121     67.7777    128.5962   1.2525715943e+02   4.1660780394e+01    0.4243897    0.3743997  13.26  0.001740111    1.378    0.274
       224 -10.1106     58.4057    124.8703   1.2712440619e+02   4.3756782074e+01    0.6185085    0.3702597  80.01  0.002468682    2.667    0.625
       225  -9.2345     91.3732     26.1700   8.8189398907e+01   5.7370570647e+01    0.3612316    0.2224672 -46.03  0.001147629    2.168    0.539
       226  -7.7054    140.2180     22.9972   7.5392969770e+01   4.7217671696e+01    0.1618307    0.1112831 -25.44  0.000396965    1.631    0.387
       227  -8.5354    129.6693     21.6910   7.7109905989e+01   4.9804294482e+01    0.2152942      0.17045  33.32  0.001187851    1.226    0.184
       228  -8.9014    111.3100     21.3416   8.1140964322e+01   5.3895778145e+01    0.2713412     0.178224 -17.70  0.001479365    1.669    0.401
       229  -8.4060    139.6581     17.5871   7.3799800304e+01   4.7919538082e+01    0.2144243    0.1259744 -25.17 0.0007451071    1.928    0.481
       230  -9.0700    132.5385     17.2330   7.5069471066e+01   4.9609774072e+01    0.2363476    0.1673248  59.56 0.0007184854    1.262    0.207
       231  -8.6295    112.2411     15.5467   7.8879836280e+01   5.4295137857e+01    0.2139763    0.1945487 -36.07  0.000581403    1.298    0.230
       232  -9.7985    116.9463    125.4312   1.1120394724e+02   3.4197869021e+01     0.532042    0.3522723  79.10  0.001345027    2.403    0.584
       233  -9.6512     27.4824    123.0305   1.3530122633e+02   4.7447497683e+01    0.5232997    0.2805132  71.53  0.002323939    2.851    0.649
       234  -7.2183    159.6805    125.6453   1.0060841784e+02   2.4988917113e+01    0.1628713    0.1281183   0.09 9.315079e-05    1.752    0.429
       235  -9.3219     41.1185    121.7779   1.3136004845e+02   4.6438239471e+01     0.464404    0.2253209 -73.51  0.001603547    2.193    0.544
       236 -10.1544    140.5529    118.3438   1.0338183799e+02   3.0871461833e+01    0.7200248    0.3693134 -45.99  0.001129731    1.932    0.482
       237 -10.3464    131.7755    119.7482   1.0595346414e+02   3.2455956751e+01    0.9158394    0.5730411  77.40  0.002200478    2.907    0.656
       238  -9.9884    108.5989    114.5561   1.1079233907e+02   3.8279890438e+01    0.7096674    0.4595202 -89.67  0.001464502    2.887    0.654
       239 -10.5565    123.7456     90.1103   1.0009847824e+02   4.0472247898e+01     1.497488    0.6493896 -32.48  0.003286961    3.031    0.670
       240  -9.5322    109.3302    106.2456   1.0846553715e+02   3.9989080458e+01    0.5776499     0.463406  48.11  0.002949056    1.305    0.234
       241 -10.4572    108.3477     99.4644   1.0693182389e+02   4.1645823456e+01     1.215463    0.6405032  64.87  0.002493747    4.110    0.757
       242 -11.1548    121.7031    111.3749   1.0644357560e+02   3.6409639337e+01     1.311743    0.6138341 -44.63  0.003796146    2.100    0.524
       243 -10.4577    128.1344    100.6035   1.0187422966e+02   3.7382235876e+01     1.025262    0.5413535 -27.33  0.002332424    2.872    0.652
       244  -9.2125    247.7605    117.9658   8.1707483246e+01   6.6579620011e+00    0.2476387    0.2018671  51.42  0.000374279    1.357    0.263
       245 -10.1647     91.8208    113.1188   1.1512139001e+02   4.1603994260e+01     0.623939    0.4227448 -76.97  0.001624707    1.990    0.497
       246  -8.9494     92.6944    103.8320   1.1255703383e+02   4.3536961355e+01    0.6222309    0.3828208  12.74  0.002480099    2.760    0.638
       247  -8.3988    152.8083    115.5530   9.9677369223e+01   2.8726744536e+01    0.2974997    0.2169735 -45.73 0.0005983186    1.365    0.267
       248 -10.4770    133.6071    109.6315   1.0288069035e+02   3.4282246533e+01    0.8793573    0.3695991 -49.33  0.002577598    2.455    0.593
       249 -10.1880     78.0200    112.9285   1.1903237010e+02   4.3842291810e+01    0.5204546    0.3291041 -79.07  0.001771524    2.278    0.561
       250  -7.6279    166.8837    113.8870   9.5983911765e+01   2.5811044241e+01    0.2177206    0.1846678 -75.17 0.0004643417    1.303    0.233
       251  -9.1980     59.3924    109.6371   1.2374315548e+02   4.7152153613e+01    0.4304447    0.2762192  88.12  0.001392254    2.445    0.591
       252 -10.0037     65.7109    111.0101   1.2218426769e+02   4.6023576929e+01    0.4232546    0.3389638  87.39  0.001192583    1.490    0.329
