#   1 NUMBER                 Running object number                                     
#   2 MAG_AUTO               Kron-like elliptical aperture magnitude                    [mag]
#   3 X_IMAGE                Object position along x                                    [pixel]
#   4 Y_IMAGE                Object position along y                                    [pixel]
#   5 X_WORLD                Barycenter position along world x axis                     [deg]
#   6 Y_WORLD                Barycenter position along world y axis                     [deg]
#   7 A_WORLD                Profile RMS along major axis (world units)                 [deg]
#   8 B_WORLD                Profile RMS along minor axis (world units)                 [deg]
#   9 THETA_WORLD            Position angle (CCW/world-x)                               [deg]
#  10 FWHM_WORLD             FWHM assuming a gaussian core                              [deg]
#  11 ELONGATION             A_IMAGE/B_IMAGE                                           
#  12 ELLIPTICITY            1 - B_IMAGE/A_IMAGE                                       
         1 -13.1059    200.2728     33.3460   6.2076331973e+01   3.1781437060e+01    0.7706655    0.7270524  58.44  0.004545274    1.324    0.245
         2 -13.7543    217.4924     15.2696   5.6360981688e+01   3.0105402662e+01    0.9495592    0.7963753  51.59  0.006000146    1.578    0.366
         3 -12.8642      2.4554      4.2409   1.0597042706e+02   7.2252476726e+01    0.5751989    0.4343474 -18.72  0.004714339    1.239    0.193
         4  -9.1867     66.9014    243.8567   1.3490110246e+02   1.4646610551e+01     0.261138    0.1668003  31.47 0.0008512326    1.841    0.457
         5 -11.4939    184.6798    249.2478   1.1136314716e+02  -5.1702278411e+00     0.428795    0.2869604  26.21  0.001954235    1.380    0.275
         6 -10.4461    175.5366    250.1519   1.1335411991e+02  -3.8604275310e+00    0.2677646    0.1551382  23.45  0.001268796    1.868    0.465
         7 -10.9513    164.5151    241.9983   1.1435761478e+02  -6.3188974903e-01    0.1842753     0.175058  25.52 0.0007861044    1.081    0.075
         8 -10.8943    169.1338    249.2323   1.1451866319e+02  -2.6676324788e+00    0.2971369     0.230924  -6.09 0.0003509244    1.517    0.341
         9 -11.3223    170.9718    244.0002   1.1333144958e+02  -2.0596702339e+00    0.2417633    0.2258186  22.27 0.0006983471    1.073    0.068
        10 -10.7910    162.7501    250.3420   1.1599459981e+02  -1.8177553246e+00    0.3626406    0.1843303  40.09 0.0003906196    1.713    0.416
        11 -11.2664    159.2952    244.0781   1.1576575162e+02  -1.3578013229e-01    0.3455471    0.2409318  79.06  0.001287616    2.387    0.581
        12 -11.6244    149.7340    247.5986   1.1827980829e+02   8.1735080714e-01    0.3874164    0.2958252 -55.21  0.002258544    1.516    0.340
        13 -11.3034    143.5471    249.3706   1.1981798168e+02   1.5191708052e+00    0.4521208    0.2113805  52.80   0.00191811    2.442    0.591
        14 -12.1315    116.8075    238.4560   1.2394145460e+02   8.0681342501e+00     1.902441     1.182991 -12.91  0.006531398    5.036    0.801
        15 -11.3006    115.4928    250.3014   1.2574730758e+02   5.9397450332e+00    0.8063515    0.2989656  36.47  0.003101701    2.542    0.607
        16 -11.2427    109.8190    248.0755   1.2664124822e+02   7.2845645756e+00    0.6045669    0.3372245 -76.22  0.002855418    2.401    0.584
        17 -12.5216    135.4073    236.3310   1.1966386161e+02   5.3700435201e+00      1.69828    0.3904678 -52.69  0.005326414    4.692    0.787
        18 -11.2673    122.0873    245.5514   1.2376961765e+02   5.7872648456e+00    0.5300131    0.3326417 -80.02  0.001822028    2.195    0.544
        19 -12.1810    125.7399    242.2253   1.2255556669e+02   5.8341898393e+00    0.4969077    0.3907801 -80.71  0.001018971    1.466    0.318
        20 -10.9469     97.0689    238.9521   1.2818498539e+02   1.1157761979e+01    0.2483778    0.2101573 -77.16 0.0006811168    1.230    0.187
        21 -11.9936    102.8976    239.7531   1.2705678811e+02   1.0066641758e+01    0.5753151    0.4182295 -37.63  0.003112533    1.908    0.476
        22 -11.1745     99.2515    248.3945   1.2885063494e+02   8.8943831695e+00    0.4856972    0.3376533  69.11  0.002420767    1.446    0.308
        23 -10.2902    102.5449    247.4800   1.2806809148e+02   8.5591006004e+00    0.2318176    0.2063918 -53.74  0.001208069    1.360    0.265
        24  -9.9021     81.4633    247.2223   1.3232943108e+02   1.1844878591e+01    0.3456155    0.1919183 -84.66  0.001708175    2.149    0.535
        25  -9.9189     90.8357    250.2103   1.3076350115e+02   9.8320107139e+00    0.2506738    0.1766094  38.72  0.001187209    1.384    0.277
        26 -11.4093     86.5000    248.2362   1.3142314006e+02   1.0885445518e+01     0.356093    0.3006936  29.86 0.0007617462    1.430    0.301
        27  -8.7215     63.2758    250.3185   1.3622122405e+02   1.3825503431e+01    0.1057469   0.09639008 -46.08 0.0003208517    1.571    0.364
        28  -9.8486     50.0516    250.0607   1.3872433931e+02   1.5657639879e+01    0.3038663    0.1589884  43.01  0.001267049    1.708    0.415
        29 -12.1916      5.5893    186.3858   1.4236982236e+02   3.4703732766e+01     1.047442      0.53403 -73.57  0.001962421    1.558    0.358
        30 -13.2328     14.0521    215.3756   1.4291952967e+02   2.7307180548e+01     1.706101     1.382702  83.36   0.01198137    1.096    0.088
        31 -12.3814     11.6022    206.1923   1.4270907641e+02   2.9608881647e+01     1.254889    0.7187137  17.45  0.006683557    2.819    0.645
        32 -12.7631     41.4553    206.5426   1.3647100246e+02   2.6284184698e+01     1.878954    0.8024814  75.51  0.006827577    3.676    0.728
        33 -12.8118     27.1122    225.9886   1.4117739906e+02   2.3564471806e+01    0.5055241    0.4260853 -55.93 0.0007853444    1.559    0.358
        34 -14.0297     33.2310    218.8810   1.3936628251e+02   2.4436742033e+01     1.026709    0.8393801 -89.62  0.006851304    1.105    0.095
        35 -10.2960     73.7994    244.0410   1.3354046538e+02   1.3622810052e+01    0.3234973    0.2728188 -73.29  0.002095561    1.289    0.224
        36  -8.5784     68.9779    247.0000   1.3479501673e+02   1.3703679957e+01    0.2101216   0.06349755  37.73 0.0005917422    3.041    0.671
        37 -11.8950    178.8629    244.0808   1.1172280914e+02  -3.3665748676e+00    0.4057636    0.2889496  36.86  0.001216602    1.260    0.206
        38 -11.4102     92.1626    241.7470   1.2953987445e+02   1.1345169217e+01    0.4733493    0.3289888 -89.69  0.002638396    1.548    0.354
        39 -10.5157     84.5120    229.8905   1.2976009015e+02   1.5036420706e+01     0.296783     0.219305 -52.20  0.001665508    1.588    0.370
        40 -10.0131     90.0058    237.8125   1.2953145328e+02   1.2498024593e+01    0.2389181    0.1785581 -51.60  0.001100096    1.600    0.375
        41 -10.8915     85.6692    235.7831   1.3020485517e+02   1.3592452083e+01    0.4719133    0.2687551  67.01  0.002273956    1.942    0.485
        42  -9.9555    244.6797    241.3384   9.8516603802e+01  -1.2744252704e+01    0.1022206   0.09913696 -85.08  0.000111221    1.712    0.416
        43 -10.7113     84.1658    241.1571   1.3112506666e+02   1.2689499881e+01    0.3424266    0.1927636  38.79    0.0011566    1.684    0.406
        44 -12.8499     27.3518    247.0590   1.4269315678e+02   1.9077668929e+01    0.9256995    0.6052483  37.32  0.005434671    1.711    0.416
        45  -8.9298     66.8291    239.7861   1.3451445013e+02   1.5510054378e+01    0.1837329    0.1216026  68.99 0.0005853754    1.378    0.274
        46  -9.7284    173.1186    236.1772   1.1163410926e+02  -1.0227146610e+00    0.1750076    0.1539966  59.01 0.0002455888    1.303    0.233
        47 -11.7799    129.3288    235.1613   1.2080089405e+02   6.6361757803e+00    0.3587896    0.2514752  77.85    0.0018076    1.846    0.458
        48 -13.0099    133.3638    248.9436   1.2187282399e+02   3.2809481065e+00     1.426398    0.6321902  28.98  0.005646504    2.847    0.649
        49  -8.6125     70.5550    235.4511   1.3331145122e+02   1.5902540781e+01    0.1301076    0.1082411  70.88 0.0008060019    1.013    0.013
        50 -13.6722      6.3041    245.9161   1.4633596078e+02   2.1621294482e+01      1.59947    0.7780089  86.12  0.009389013    1.737    0.424
        51 -10.5637    168.6695    233.6637   1.1215694027e+02   1.9010594320e-01    0.3597245    0.2236662  15.42   0.00132336    2.157    0.536
        52 -10.6755     98.7564    230.7840   1.2680931443e+02   1.2613266493e+01    0.3377912    0.2406803   6.11  0.001603641    2.456    0.593
        53 -11.6812    105.5921    228.3101   1.2500003261e+02   1.2035528009e+01    0.4439002    0.3660332  61.47  0.002156245    1.096    0.087
        54 -11.3151    109.2979    232.0638   1.2469792272e+02   1.0628527914e+01    0.4459105    0.2745844  72.99  0.002070314    2.094    0.522
        55 -11.1200    113.3414    230.6490   1.2362833497e+02   1.0256845242e+01    0.3439978    0.2892928 -67.34  0.001183392    1.268    0.211
        56 -10.0794    156.8107    232.2943   1.1445450428e+02   2.4824572294e+00    0.2380549    0.1937105 -37.27 0.0004998277    1.361    0.265
        57  -8.3647     92.2950    232.6855   1.2843437143e+02   1.3229485260e+01    0.1395404   0.09119228  69.13 0.0002798656    1.600    0.375
        58 -10.1125    250.2212    230.9906   9.5715722078e+01  -1.1962441102e+01    0.1621297     0.087653 -35.57 0.0008090177    1.698    0.411
        59  -9.1970     45.6817    231.0874   1.3793751572e+02   2.0219075895e+01    0.2009733    0.1252937  79.06  0.001094514    1.473    0.321
        60 -13.4547     40.9216    242.2300   1.3981362342e+02   1.8440171340e+01     1.191862    0.8205475  76.15  0.002265132    1.199    0.166
        61 -10.0580     79.3993    225.9266   1.3038769415e+02   1.6680236400e+01    0.4204143    0.2548201 -75.68  0.001422607    1.699    0.411
        62  -9.3139     77.0596    220.6810   1.3027121307e+02   1.8201921104e+01    0.2076471    0.1574078  69.98 0.0003634364    1.207    0.171
        63 -10.2834    117.0037    224.5924   1.2196951611e+02   1.0927784994e+01     0.317741    0.2812687  17.76 0.0008367668    1.334    0.251
        64  -9.6531     92.4810    225.9423   1.2755335529e+02   1.4661813342e+01    0.2022418    0.1892093  33.24 0.0007914508    1.269    0.212
        65  -9.9747     51.6116    225.3451   1.3619465162e+02   2.0717524170e+01    0.2074576    0.1814735 -86.55 0.0003040518    1.180    0.153
        66  -9.3318     65.0797    224.4360   1.3328064248e+02   1.9092677585e+01    0.2374654     0.158355 -46.76    0.0012507    1.969    0.492
        67  -9.2618    164.3236    224.0181   1.1148116932e+02   2.7754543743e+00    0.1842755    0.1764435 -42.43 0.0003379389    1.134    0.118
        68 -11.0376     98.6845    223.0964   1.2581914703e+02   1.4296079658e+01    0.3262847    0.2781924  44.81  0.001348934    1.165    0.142
        69 -10.8793    142.0889    219.8254   1.1565685314e+02   7.5644853627e+00    0.4159597    0.3185283 -62.60  0.001579444    1.448    0.310
        70 -10.4427     70.5963    219.2772   1.3151570379e+02   1.9467834251e+01    0.5169774    0.3086527 -88.61  0.002542853    1.824    0.452
        71  -9.9115    246.0000    220.5186   9.4586724266e+01  -9.7876058567e+00    0.2744537   0.06369556 -40.58 0.0009418351    3.992    0.750
        72 -10.4417    110.1852    218.8823   1.2266523226e+02   1.3325277134e+01    0.4703253     0.220369 -76.25  0.001566147    3.932    0.746
        73  -9.8503     87.5708    223.4214   1.2830782257e+02   1.5987904902e+01    0.2507017    0.2000945  84.20 0.0008462805    1.195    0.163
        74  -8.7855     89.3044    218.6396   1.2731204792e+02   1.6787743886e+01    0.1484781   0.09540781  72.23  0.000703875    1.727    0.421
        75  -9.6360     88.1337    212.7824   1.2679880484e+02   1.8306378088e+01    0.2852667    0.1872625 -75.44  0.000957166    1.571    0.363
        76  -8.9358     90.5072    208.9745   1.2573479857e+02   1.8810897887e+01     0.201987    0.1332769 -64.82 0.0003861901    1.508    0.337
        77 -10.2749     63.0447    209.2000   1.3200280301e+02   2.2859735437e+01     0.537734    0.3155932 -51.17  0.002650894    1.951    0.487
        78  -8.7886    130.7995    211.3697   1.1682220171e+02   1.1393098269e+01    0.1847083     0.132535  32.71 0.0001193803    1.428    0.299
        79 -10.4738    111.4712    206.5975   1.2052136308e+02   1.5873622869e+01    0.4338411    0.2722724 -79.33  0.001161148    2.013    0.503
        80  -9.3833    156.1485    208.1777   1.1052933900e+02   7.4623396223e+00    0.2021071    0.1879657  11.30 0.0002836896    1.115    0.103
        81  -8.8392    134.3569    207.7868   1.1541119876e+02   1.1540913321e+01    0.2018437     0.132878 -44.17 0.0009392034    1.669    0.401
        82  -8.8329     74.4266    208.4914   1.2935036143e+02   2.1394956514e+01     0.140119    0.1181553  78.45 0.0001372832    1.047    0.045
        83 -11.0171     55.3013    208.1229   1.3360179535e+02   2.4161626594e+01    0.6742883    0.3626717 -88.61  0.002935216    2.051    0.512
        84  -9.1981     32.8214    206.9166   1.3836423762e+02   2.7210084969e+01    0.1857018    0.1468876 -66.45 0.0006074365    1.313    0.238
        85 -10.1113    246.3709    206.4143   9.1913532146e+01  -7.5691333029e+00    0.2440025    0.1075636  24.41  0.000964644    3.331    0.700
        86  -9.8476     91.2778    205.1250   1.2501195385e+02   1.9586599900e+01    0.3925169    0.1974162  31.84  0.001310445    2.259    0.557
        87  -9.3268    101.3102    201.9710   1.2218873124e+02   1.8679948760e+01     0.234438    0.1156412 -82.99 0.0007044675    4.255    0.765
        88 -10.8763     83.8432    201.5319   1.2624077360e+02   2.1610600050e+01    0.2614591    0.2270167 -80.83 0.0002591134    1.091    0.084
        89  -9.8241     42.9505    200.3096   1.3548956885e+02   2.7567362420e+01    0.3193681    0.1881145 -48.52   0.00125617    2.067    0.516
        90 -11.9566     55.8332    194.0605   1.3182323541e+02   2.7436085814e+01    0.5127714    0.2906975 -51.40  0.001030385    1.920    0.479
        91 -10.5169     21.2929    194.1692   1.3965301198e+02   3.1420863421e+01      0.37964    0.2208818 -57.75  0.001019738    1.725    0.420
        92 -10.6797     27.5443    194.8844   1.3835109424e+02   3.0603705782e+01    0.4582608    0.2514185 -89.77  0.001398176    1.726    0.421
        93 -10.5847     30.7620    193.0075   1.3744865388e+02   3.0701338818e+01     0.269441    0.1968426 -61.93 0.0003162591    1.362    0.266
        94  -9.5060    103.0833    196.1774   1.2085773030e+02   1.9750167789e+01    0.2013688    0.1990838  42.91 0.0003409046    1.155    0.134
        95 -10.4579    250.1078    193.8144   8.8870123600e+01  -6.0124754558e+00    0.2911875    0.1923891 -29.99  0.001527605    1.340    0.254
        96  -9.2334     78.0168    194.0049   1.2655562100e+02   2.4311708829e+01    0.2066943    0.1849727  78.14  0.001194165    1.027    0.027
        97  -9.6085    191.5350    191.4720   9.9632502977e+01   4.3339564209e+00    0.2479118    0.2271581 -31.40 0.0005927279    1.070    0.065
        98 -12.9643     13.6092    238.6430   1.4461226827e+02   2.2345807567e+01     1.041982    0.4803284  46.13  0.003312501    1.889    0.471
        99  -8.5812     15.2752    190.2928   1.4060974342e+02   3.2918787665e+01    0.1158623   0.08303861 -55.69 0.0002423214    1.522    0.343
       100 -10.3263    250.3083    187.9408   8.7705101986e+01  -5.0389248718e+00    0.3206823    0.1366687 -35.46  0.001401757    2.152    0.535
       101  -9.0015     40.8940    188.8306   1.3468433431e+02   3.0557768850e+01    0.1972058    0.1361323  69.60  0.001087052    1.401    0.286
       102  -8.8315     77.0182    188.5100   1.2600027056e+02   2.5801094249e+01    0.1937423    0.1371465  41.12  1.39578e-05    1.442    0.307
       103 -10.6405     71.5463    186.8648   1.2709826106e+02   2.7014616128e+01    0.3227644    0.2850344 -11.85  0.001385796    1.524    0.344
       104  -8.6190    145.5530    187.4483   1.0913132942e+02   1.4016015463e+01    0.1497494    0.1450274  65.97 0.0001166135    1.017    0.016
       105 -10.2618     83.6283    186.7294   1.2410884978e+02   2.5223138164e+01    0.2458106    0.2125937  77.11 0.0003057605    1.089    0.081
       106 -11.6618     62.5658    186.0522   1.2917465752e+02   2.8483243480e+01    0.3422126    0.2580776 -42.74 0.0005396466    1.597    0.374
       107  -9.1863     29.6837    184.2097   1.3677222685e+02   3.2920419526e+01    0.2684657    0.1640168 -40.33 0.0009935312    2.250    0.556
       108  -9.4302     24.3063    184.0087   1.3798857101e+02   3.3523534059e+01    0.1850888    0.1814888 -54.17 0.0007617362    1.335    0.251
       109  -8.8496     36.3638    182.8495   1.3505910609e+02   3.2523717157e+01    0.2012016   0.09775209 -60.33  0.000949898    1.831    0.454
       110  -8.8453    102.9978    176.0241   1.1745203742e+02   2.4654434930e+01    0.1776537    0.1650147 -82.98 0.0009568281    1.022    0.021
       111 -10.6005     65.1979    175.5322   1.2701534953e+02   3.0723527333e+01    0.3066143    0.2343954  48.76  0.000437343    1.336    0.251
       112 -10.8139     73.5424    174.1363   1.2467281660e+02   2.9877443959e+01     0.265648    0.2324931 -54.56 0.0004380159    1.193    0.162
       113 -10.8373     19.3091    174.3806   1.3814826635e+02   3.6316829439e+01     0.360314    0.2033558  87.36  0.001861887    1.728    0.421
       114 -11.4809    248.1509    172.6119   8.5067262234e+01  -2.0080124867e+00     0.434703    0.3307444  18.34  0.002488702    1.535    0.349
       115 -11.7266     59.5120    172.7233   1.2804365076e+02   3.2196383033e+01     0.381985    0.2813779 -39.32 0.0007290498    1.640    0.390
       116 -10.3613     12.4981    172.8373   1.3958504310e+02   3.7298519344e+01    0.3403057     0.152822 -62.27  0.001697664    1.844    0.458
       117 -11.1152      2.5390    171.5999   1.4176064053e+02   3.8408353224e+01    0.5429448    0.2285521 -89.92  0.002360769    2.435    0.589
       118 -11.2988     14.2561    167.0520   1.3857652165e+02   3.8529897856e+01    0.3409568    0.3000862   4.64  0.001806153    1.547    0.354
       119 -11.6063      7.4977    166.4859   1.4012725061e+02   3.9226167421e+01    0.3885495    0.3114516 -26.24  0.001836031    1.704    0.413
       120  -9.9289     27.7946    171.4967   1.3579913320e+02   3.6192918692e+01    0.3513457    0.1853413 -45.24  0.001073538    2.258    0.557
       121  -8.7077    124.8361    171.5600   1.1107400635e+02   2.1745638471e+01    0.2026152    0.1430257  53.73 0.0009103374    1.472    0.321
       122  -9.2119     51.7290    171.0502   1.2978290439e+02   3.3614734625e+01    0.1884922    0.1630314 -82.54 0.0005544261    1.002    0.002
       123  -9.8694    166.9294    170.1363   1.0065116233e+02   1.3686099220e+01    0.2200022    0.2174123 -33.02 0.0004010997    1.009    0.009
       124  -8.5303     95.9492    169.0279   1.1799642575e+02   2.7600861432e+01    0.1739292    0.1633996  75.01            0    1.045    0.043
       125 -11.7817     81.4068    166.0477   1.2127894825e+02   3.0712483488e+01    0.6324726    0.4957159  26.91  0.002043299    1.481    0.325
       126 -10.5742     82.3018    157.8692   1.1957020865e+02   3.2625995647e+01    0.4828365    0.2883881 -50.55  0.001878566    1.621    0.383
       127 -11.0194     67.7064    166.5022   1.2496388774e+02   3.2630916037e+01     0.414837    0.2667501  26.49  0.001415963    1.872    0.466
       128 -12.0234    245.1700    162.0072   8.3443125234e+01   4.0417242218e-01    0.6644362     0.248486 -45.69  0.002624651    2.437    0.590
       129 -11.0423    249.5049    161.4887   8.2623533028e+01  -2.2855427767e-01    0.6076128    0.2145874 -47.33  0.002307791    2.735    0.634
       130 -11.2292    246.3514    156.7659   8.2187192530e+01   1.1628929942e+00    0.7932596    0.4143023  65.42  0.002907999    4.199    0.762
       131 -10.5413     44.8060    165.0348   1.3070864780e+02   3.5943574962e+01     0.439449     0.241962 -30.49  0.001776381    3.181    0.686
       132 -11.3791    240.4199    150.7131   8.1927898757e+01   3.3194608397e+00     0.460696    0.3549703  -2.10  0.002458388    1.696    0.410
       133 -10.1283     31.3045    163.1739   1.3391418233e+02   3.7873390735e+01    0.2554502    0.2134245 -83.82  0.000256491    1.036    0.035
       134  -9.3175     37.7509    163.0166   1.3224726215e+02   3.7235554754e+01     0.270279    0.1286774  55.86  0.001152004    2.549    0.608
       135  -9.2147     24.1376    161.8767   1.3556328073e+02   3.8891681026e+01    0.1718649    0.1318446 -54.86 0.0003991931    1.298    0.230
       136 -11.3180     12.3852    154.2294   1.3762560189e+02   4.1764806888e+01    0.4013417    0.1692106 -80.94  0.001664474    2.323    0.570
       137 -11.4124     10.3606    157.5450   1.3850375291e+02   4.1131105125e+01    0.3770833    0.1781105  73.26  0.001652303    2.781    0.640
       138  -9.2617     43.1657    160.9717   1.3056009487e+02   3.7141292956e+01    0.1995535    0.1611816  84.45 0.0002999875    1.193    0.162
       139 -10.7782     22.5116    155.5156   1.3519473483e+02   4.0590751792e+01    0.2500967    0.1828327  54.24  0.001485749    1.481    0.325
       140 -10.2140     28.9770    156.0000   1.3358186695e+02   3.9865360718e+01    0.3457257    0.1106539  23.21  0.001258646    4.227    0.763
       141  -8.8954    228.3532    155.2646   8.4947294449e+01   4.6501250410e+00    0.2014246    0.1197314 -49.32 0.0004848646    1.616    0.381
       142 -10.2233     32.6009    153.4981   1.3229037995e+02   4.0121425836e+01    0.2883509    0.1832881 -86.60  0.001030821    1.583    0.368
       143 -13.2526    247.9983    100.6265   7.0425093090e+01   1.1035519897e+01     2.243193    0.9028493 -32.34  0.007981603    3.566    0.720
       144 -11.9058    247.9767    142.3432   7.8990507472e+01   3.5265153745e+00    0.6023636    0.5320532   9.10  0.003204877    1.364    0.267
       145 -12.9974    248.3543    133.9260   7.7209829891e+01   5.0004541671e+00     1.413895    0.6983324 -38.97  0.006456518    1.815    0.449
       146 -10.2510     95.3456    150.3857   1.1455240482e+02   3.2353433833e+01    0.2943628    0.2593516  83.32 0.0008989275    1.182    0.154
       147 -10.3220     83.1171    149.4685   1.1774715298e+02   3.4602867491e+01    0.2673156    0.2190101 -54.27 0.0004019707    1.159    0.137
       148 -11.1164     23.6268    149.2436   1.3409445401e+02   4.2017106246e+01    0.2940563    0.1650496  19.63  0.001496898    2.310    0.567
       149 -12.0931     68.2634    144.1715   1.2090304971e+02   3.8152572867e+01    0.7169179    0.4978493  86.15  0.002313383    1.800    0.444
       150 -10.1953     59.0175    147.2212   1.2407212934e+02   3.8644389966e+01    0.3231936    0.1876776 -33.47  0.001378438    2.339    0.572
       151 -12.3850      3.2386    144.1188   1.3881256293e+02   4.4851360850e+01    0.5564902    0.3856779 -86.25  0.003449147    1.271    0.213
       152 -11.5917      9.4346    144.4811   1.3724039943e+02   4.4326352449e+01    0.2565887    0.2142611 -73.37 0.0006329428    1.052    0.050
       153 -11.3456      9.7713    141.0361   1.3672977034e+02   4.5123149244e+01    0.2326919    0.1747379 -67.36 0.0003108741    1.072    0.067
       154  -9.4661     41.0129    147.5061   1.2913356092e+02   4.0720679050e+01    0.1817099    0.1367487  30.25 0.0005221445    1.540    0.351
       155  -9.7698    235.9062    145.8986   8.1680981991e+01   5.0435207183e+00    0.2098331    0.1774665 -19.15 0.0005313563    1.280    0.219
       156  -8.9779     98.4880    146.4469   1.1286910058e+02   3.2784233902e+01    0.1517626    0.1449547 -53.81 9.853541e-05    1.054    0.051
       157  -8.9591     52.6911    146.2966   1.2568705416e+02   3.9672747410e+01    0.1399502    0.1014486  74.85 0.0002436076    1.592    0.372
       158  -9.8341    133.2095    140.7594   1.0229511896e+02   2.7475857281e+01    0.4004017    0.2101166 -59.09  0.001276905    2.204    0.546
       159 -10.1813     38.4111    141.4516   1.2890525879e+02   4.2490817035e+01    0.2947248    0.2032368  64.29  0.000706312    1.699    0.411
       160 -11.6230     16.9432    140.0977   1.3467161020e+02   4.4798398491e+01    0.3674455    0.2297643  57.79  0.002007601    1.875    0.467
       161  -9.7837    108.0079    135.9875   1.0792548680e+02   3.3611167687e+01    0.4434351    0.2797309 -15.49  0.001395079    3.066    0.674
       162  -9.9917     59.8051    136.3163   1.2184641405e+02   4.1248802945e+01    0.3327012    0.2047848 -68.99 0.0002931895    1.618    0.382
       163  -9.7854     55.9175    135.6995   1.2286672202e+02   4.1897760869e+01    0.2354762    0.2043992  57.63 0.0008577934    1.264    0.209
       164 -10.4088     47.5526    135.7793   1.2532531832e+02   4.2882555670e+01    0.2684979    0.1975545 -32.66  0.001434899    1.539    0.350
       165 -12.3821     13.6676    127.5231   1.3383474944e+02   4.8048161980e+01    0.4992068    0.1924251 -52.53 0.0003040483    2.098    0.523
       166 -12.9377      9.9411    113.9004   1.3288191128e+02   5.1485674711e+01    0.6202971    0.3869017  75.87  0.003321189    2.138    0.532
       167 -12.7411      4.9443    121.7862   1.3553826881e+02   4.9982706469e+01    0.7859156    0.4247019  -4.18  0.004074765    2.709    0.631
       168 -10.5047     44.8820    130.4541   1.2515179023e+02   4.4484962537e+01    0.2926169    0.2074997  74.11  0.001044789    1.765    0.433
       169  -9.2046     48.1649    126.1724   1.2336378940e+02   4.5152199317e+01    0.1944583    0.1695296 -43.23 0.0003686843    1.117    0.105
       170  -8.7445    209.7117    125.6792   8.1856424315e+01   1.4167078058e+01    0.1426482    0.1171801  -6.95  0.000477612    1.600    0.375
       171  -8.9522     94.5501    133.1801   1.1107734171e+02   3.6725792187e+01    0.2134348     0.134642 -42.10 0.0006085762    1.624    0.384
       172 -10.0184    167.7858    113.0244   8.7208494798e+01   2.6053955564e+01    0.3391895    0.2628968 -83.23 0.0009205849    1.561    0.359
       173 -10.7381    231.6408    116.3738   7.6104110077e+01   1.1429025289e+01    0.2464354    0.2192204 -82.54 0.0006768687    1.152    0.132
       174 -12.3272      2.8805    129.9698   1.3721230564e+02   4.8204576938e+01    0.6160983    0.2159632 -70.64  0.002740272    2.268    0.559
       175 -11.1134    249.5945    150.9280   8.0481089301e+01   1.6748033653e+00     0.523147    0.2784612 -46.46  0.002503965    1.665    0.399
       176  -8.9455    203.4671    111.5049   7.9743375674e+01   1.8297358860e+01    0.1477744    0.1374627 -61.00 5.864241e-05    1.031    0.030
       177  -8.9242     34.9768    107.2345   1.2374001730e+02   5.1005793160e+01    0.1517624    0.1107794  21.80 0.0003697296    1.574    0.365
       178 -12.0824     14.2841    102.3853   1.2955875891e+02   5.3812750618e+01    0.3056195    0.2672888 -68.43 0.0009211369    1.153    0.133
       179  -8.6448     71.7616    100.0240   1.0998516582e+02   4.8129768127e+01    0.1764944    0.1119748 -50.39 0.0002404963    1.481    0.325
       180 -10.9960     20.9798     92.8823   1.2544829760e+02   5.5430067589e+01    0.3277866    0.1427859 -59.36  0.001316462    1.904    0.475
       181 -11.4678      1.9063     90.7371   1.3156170863e+02   5.7130750135e+01    0.5879471   0.07134639 -66.56  0.001388989    8.781    0.886
       182 -10.4073    249.7098    117.9219   7.3730589252e+01   7.6522268039e+00    0.4084109    0.2872073 -18.81  0.001751851    2.017    0.504
       183 -12.0471    248.2071    113.0392   7.2942386635e+01   8.8074351163e+00     0.707504    0.5535727  -6.92  0.003821317    1.931    0.482
       184 -10.1320      2.0000     60.9885   1.2526317402e+02   6.3207157767e+01      0.18959    0.0528734 -59.18 0.0007634393    2.961    0.662
       185 -11.9955    200.0539    246.3582   1.0782682107e+02  -7.1037831447e+00     0.494459    0.2656617  41.10  0.002515635    1.798    0.444
       186 -10.0996     20.2146     27.3704   1.0688085791e+02   6.7602776390e+01    0.1459902   0.09237361  29.08 0.0008308287    1.729    0.422
       187 -11.3014     59.9491    245.7444   1.3644916378e+02   1.5220009719e+01    0.4363774     0.292964  53.04  0.001981002    1.264    0.209
