#   1 NUMBER                 Running object number                                     
#   2 MAG_AUTO               Kron-like elliptical aperture magnitude                    [mag]
#   3 X_IMAGE                Object position along x                                    [pixel]
#   4 Y_IMAGE                Object position along y                                    [pixel]
#   5 X_WORLD                Barycenter position along world x axis                     [deg]
#   6 Y_WORLD                Barycenter position along world y axis                     [deg]
#   7 A_WORLD                Profile RMS along major axis (world units)                 [deg]
#   8 B_WORLD                Profile RMS along minor axis (world units)                 [deg]
#   9 THETA_WORLD            Position angle (CCW/world-x)                               [deg]
#  10 FWHM_WORLD             FWHM assuming a gaussian core                              [deg]
#  11 ELONGATION             A_IMAGE/B_IMAGE                                           
#  12 ELLIPTICITY            1 - B_IMAGE/A_IMAGE                                       
         1 -13.4622    232.6873     24.5587   5.2530545944e+00   2.5570090041e+01    0.8375627    0.6796167 -71.83  0.004138678    1.055    0.052
         2 -10.5767    249.8353     11.1556   1.3422145037e+00   2.3687347621e+01    0.1406825    0.1267308 -80.37 0.0005346296    1.334    0.250
         3 -10.4705     21.4898      3.5182   4.7052325496e+01   7.1627077835e+01    0.1995824   0.08542854 -25.84  0.001043527    2.415    0.586
         4 -10.8199     82.9870    245.7283   7.9355775569e+01   1.2171162651e+01    0.1798901     0.156898  76.81 0.0004242416    1.143    0.125
         5 -11.2145    103.0178    237.7253   7.4253276743e+01   1.0807757284e+01    0.4519004    0.2657261 -53.31  0.001057062    1.964    0.491
         6 -12.9009    148.0276    228.0703   6.3150248164e+01   5.5298025550e+00    0.6182565    0.3942445  34.27   0.00322045    1.396    0.284
         7 -14.5295    127.8150    229.8798   6.7839474679e+01   8.4681081468e+00     1.981075     1.783501  82.26   0.01231969    1.236    0.191
         8  -9.5538    101.4654    250.4938   7.6012206458e+01   8.5882516736e+00    0.2366753    0.1483732  34.83 0.0007469608    1.434    0.303
         9 -10.6486    101.4141    246.7735   7.5618819118e+01   9.2965369422e+00    0.5080181    0.2968132 -89.75  0.002460028    2.540    0.606
        10 -10.8391     50.4058    249.7918   8.6281001893e+01   1.5713781243e+01    0.1735156    0.1328758  69.41 0.0005199425    1.087    0.080
        11  99.0000     52.0470    245.1889   8.5607981391e+01   1.6416674312e+01    0.2938513    0.1840114  34.37   0.00145047    1.602    0.376
        12 -16.0373     66.7304    145.7802   7.0319700855e+01   3.7524074043e+01     10.50573     5.774796  79.99   0.03760077    3.265    0.694
        13 -10.2431    144.1662    211.8421   6.1494105242e+01   9.3404920969e+00    0.2089232     0.184865  65.18 0.0006676844    1.239    0.193
        14  -9.0882     38.5860    204.4252   8.5064755517e+01   2.6778641038e+01    0.1265587    0.1058132  77.07 7.491518e-05    1.013    0.013
        15 -11.3824     29.6487    243.0561   8.9838731793e+01   1.9506585709e+01    0.1806825    0.1432652  58.10 0.0003107339    1.123    0.109
        16 -10.4935     42.7935    201.7380   8.3860127517e+01   2.6907670763e+01    0.2512176    0.2006766  50.64  0.001388842    1.193    0.162
        17 -10.1437     43.7271    235.6038   8.6541949844e+01   1.9385509795e+01    0.1111381   0.09431519  87.40 0.0003535667    1.177    0.151
        18  -8.7880     50.7237    200.3042   8.1881175848e+01   2.6284071540e+01    0.1355834   0.08613487  67.93 0.0002890865    1.545    0.353
        19 -10.0157     37.0211    199.0926   8.4938154574e+01   2.8179679212e+01    0.3360802    0.1735906 -87.91  0.001626896    1.972    0.493
        20 -10.7074     39.9561    193.6400   8.3739632322e+01   2.9117530179e+01    0.4140853    0.2577213  50.48  0.001353691    1.494    0.331
        21  -9.7078    210.9206    198.7501   4.4985722873e+01   5.0786631668e-01    0.2007808     0.163381   4.31 0.0005403084    1.180    0.152
        22  -9.9619    192.9944    194.2436   4.7742057928e+01   4.3083205201e+00    0.2314417    0.1576326 -83.49 0.0008933169    3.565    0.720
        23 -10.7405     46.4870    173.5005   7.9937573194e+01   3.3196106719e+01    0.6128128    0.4062265  39.99  0.003282662    1.519    0.342
        24 -12.7617     46.6084    181.5020   8.0842824188e+01   3.1236764769e+01    0.4941964    0.3752251 -33.15  0.002094172    1.760    0.432
        25 -10.1027     51.5147    188.4744   8.0417539069e+01   2.8970151249e+01     0.231372    0.1794794  88.45 0.0002035232    1.186    0.157
        26 -10.7747     50.3722    185.2365   8.0331580548e+01   2.9885423503e+01     0.230131    0.2040138 -84.76 0.0006345274    1.078    0.072
        27 -10.4169     69.2519    194.7953   7.6828333254e+01   2.5140614812e+01    0.2931189    0.2258446 -74.41  0.001633581    1.265    0.209
        28 -15.0675      1.9451    196.0606   9.2489796008e+01   3.2289773126e+01     1.454805    0.0484122 -72.81  0.003934221    7.242    0.862
        29 -11.2083    172.7840    177.2912   4.8810119243e+01   1.1288402774e+01    0.7099621    0.3399542 -40.94  0.002842347    2.170    0.539
        30  -8.8529     63.0102    180.9962   7.6633698628e+01   2.9294372134e+01     0.158703    0.1407548  87.00 0.0003149388    1.028    0.027
        31 -10.3954     96.7776    175.3919   6.7050819016e+01   2.5612779068e+01    0.2567496    0.2364933 -79.54 0.0003723307    1.073    0.068
        32 -12.9926     56.5802    169.4370   7.6775182921e+01   3.2964885273e+01    0.9076881    0.6621833  79.75  0.004824428    1.407    0.289
        33 -11.6039     54.7360    227.7744   8.3610575232e+01   1.9662897580e+01    0.3490425    0.1790651 -68.36 0.0008098453    1.962    0.490
        34 -10.6935    104.9214    172.7305   6.4473904586e+01   2.4885795917e+01    0.2849233    0.2196693 -71.60 0.0006497383    1.370    0.270
        35  -9.5726     39.9832    166.6076   8.0805384713e+01   3.5622853207e+01    0.2219907     0.179735 -31.42  0.001276432    1.555    0.357
        36  -9.8671     32.6910    170.3238   8.3122684813e+01   3.5486384960e+01     0.449044    0.2398883  79.02  0.002064293    2.148    0.535
        37 -10.3970     35.8272    168.6417   8.2128213496e+01   3.5570364435e+01    0.4292548    0.2668833  77.91  0.002191034    1.688    0.407
        38 -11.3916    179.7760    169.3581   4.5682061585e+01   1.1594137552e+01    0.5692707    0.4265006 -50.33  0.002856781    1.390    0.281
        39  -8.9634     59.2585    230.2895   8.2875529146e+01   1.8547397851e+01    0.1069395     0.097138 -41.38 0.0003837642    1.489    0.328
        40  -9.7800    101.4801    166.7133   6.4317824776e+01   2.6926920015e+01    0.2704557    0.1483739 -63.61  0.001056666    1.957    0.489
        41 -11.8558     89.0391    164.4849   6.7269705145e+01   2.9529186774e+01    0.4749759    0.2878863  41.04  0.001130776    1.618    0.382
        42  -9.9157     47.2487    229.0339   8.5296285634e+01   2.0331607494e+01    0.1849701     0.127251  69.67  0.001043431    1.272    0.214
        43 -10.0282    174.0595    223.5750   5.6859262149e+01   2.1013242198e+00    0.3098305     0.183346   8.34  0.001327496    2.581    0.613
        44 -11.0853     85.6496    159.7967   6.7386546647e+01   3.1225192989e+01    0.3393779    0.2984094 -56.31 0.0003500383    1.144    0.126
        45 -10.3405    239.0031    161.7527   3.2744694518e+01   2.4051167076e+00    0.1610164    0.1124296  40.25    0.0008875    1.595    0.373
        46 -10.4653     89.6230    223.1492   7.5489636125e+01   1.5814085737e+01    0.3620224    0.2172885  85.86 0.0007774326    2.195    0.544
        47  -9.4469     71.8427    224.2357   7.9565681348e+01   1.8142674886e+01    0.1508849    0.1409305  31.10 0.0003294285    1.282    0.220
        48 -10.3693     82.9968    150.3742   6.6448089882e+01   3.3981549452e+01    0.2501328    0.2204379 -46.91 0.0003584462    1.173    0.147
        49 -11.1056     89.6829    152.2862   6.4910252869e+01   3.2439557398e+01    0.4890261    0.3037774  78.01  0.001810672    2.481    0.597
        50 -12.6528     87.5760    148.6829   6.4829333434e+01   3.3674232681e+01    0.9935387    0.4558163 -41.37  0.001244964    2.726    0.633
        51 -10.3297     60.1820    220.9461   8.1800511692e+01   2.0428601728e+01     0.264073    0.1556459 -74.44 0.0007632492    1.708    0.415
        52 -11.1612    133.7219    145.7820   5.1605797091e+01   2.5928071807e+01    0.9140533    0.2553535 -53.81  0.002441173    4.277    0.766
        53 -10.8574    108.9301    145.3054   5.8145550191e+01   3.0814117810e+01    0.3069272    0.2871234  66.50 0.0007080058    1.074    0.069
        54 -18.3264      8.7760    224.9711   9.2795862203e+01   2.5397618016e+01     9.137525     1.982504 -76.62   0.02119179    4.048    0.753
        55  -9.5353    128.0388    138.0545   5.1375665986e+01   2.8864511296e+01    0.2331837    0.2239878  88.73 0.0004277543    1.058    0.055
        56 -10.5211    111.8496    126.3935   5.3135990340e+01   3.4787330673e+01      0.38758    0.2483648  21.07 0.0009851375    2.091    0.522
        57 -11.8685    105.6172    130.6147   5.5888498557e+01   3.4963470024e+01    0.7275866    0.4517163 -27.81  0.002613089    2.291    0.563
        58  -9.9988    108.0612    127.0400   5.4368327720e+01   3.5357209648e+01    0.2252462    0.2048822  85.95 0.0003448023    1.181    0.153
        59 -11.0733     37.8000    134.3641   7.7063108372e+01   4.3842595841e+01    0.2526227    0.2331402  87.21 0.0008524694    1.086    0.079
        60 -11.2271     90.8872    132.0841   6.0518701872e+01   3.7217684935e+01    0.2812832    0.2582527 -37.00 0.0003563449    1.125    0.111
        61  -8.9977    150.6516    130.3062   4.3819099532e+01   2.5922826462e+01    0.1606198    0.1237609  84.50  0.000558012    1.702    0.412
        62 -10.9574    135.4689    125.9186   4.6593554548e+01   3.0122772761e+01    0.6856483    0.1525306 -52.02  0.001502785    6.197    0.839
        63 -10.2541     99.2783    121.3299   5.5602572326e+01   3.8335347675e+01    0.2848056    0.2287582 -11.18 0.0006738034    1.542    0.351
        64  -8.6775    198.6924    217.3311   5.0732733917e+01  -7.5127322770e-01    0.1208176    0.1064113  72.80 0.0007039952    1.664    0.399
        65  -9.4916    123.6659    116.7147   4.7490670338e+01   3.4656352682e+01    0.1554698    0.1241284   0.99 0.0003893404    1.622    0.384
        66  -9.9062    108.0502    116.0594   5.1745481430e+01   3.7925515156e+01    0.2260199    0.2233242 -70.45  0.000336213    1.016    0.016
        67 -10.4818    115.4787    108.9849   4.7818279055e+01   3.8059503325e+01    0.2350599    0.1509019 -47.91 0.0005893062    1.564    0.361
        68  -9.8914    165.6408    215.2011   5.7281707447e+01   5.0308133720e+00    0.1867214    0.1246533 -35.33  0.000647283    1.652    0.395
        69  -9.5813     60.0174     94.7223   6.1881274142e+01   5.0776561748e+01    0.1874265    0.1761312  13.62 0.0004487168    1.109    0.098
        70 -13.4945    111.5019    228.5632   7.1272103078e+01   1.1328871822e+01     1.789632    0.9609145  41.18  0.008204844    1.608    0.378
        71  -9.2027    102.3076     88.3136   4.6107175141e+01   4.5129399560e+01    0.1502755    0.1162031  -2.64 0.0002132221    1.625    0.385
        72 -11.2075     34.9237     87.7846   6.9359575397e+01   5.5231575438e+01    0.2821581    0.2131693  34.83 0.0006049684    1.495    0.331
        73  -9.9344     76.2580    244.5811   8.0638515795e+01   1.3338151093e+01    0.1541784    0.1309125 -73.44 0.0003704987    1.321    0.243
        74 -10.7065    120.2725    249.7419   7.2007804260e+01   5.9069715281e+00    0.2678714     0.175013 -41.32   0.00091475    1.967    0.492
        75  -9.5345    171.6753     75.3169   2.5313836705e+01   3.2045074943e+01    0.1523184    0.1097331 -77.91 0.0007044133    1.670    0.401
        76  -8.7119     74.6253     66.2795   4.8599217159e+01   5.4519646090e+01    0.1333679     0.109548  69.09 0.0007009851    1.702    0.412
        77 -11.6873    185.4575     63.2033   1.9784030603e+01   3.0784467030e+01    0.3589068    0.3189826  88.51 0.0007889329    1.035    0.034
        78 -13.3577    201.7773     51.1807   1.4445793164e+01   2.8809868863e+01     1.086478    0.8887204  33.27  0.004174387    1.668    0.400
        79 -12.4079    207.9120     46.6417   1.2600834083e+01   2.8063488805e+01    0.5083371    0.4349296 -37.77  0.001234236    1.335    0.251
        80  -8.9661     58.2801     58.6862   5.2234181342e+01   5.8470450850e+01    0.1182336    0.1070858  83.68 0.0002367914    1.570    0.363
        81  -9.5090     31.8424     50.1413   6.0457957656e+01   6.3294177460e+01    0.1689225    0.1571819 -17.08 0.0003923204    1.204    0.169
        82 -11.6764    113.5144    241.7500   7.2477406033e+01   8.4260032123e+00    0.3899378    0.2782285 -32.14  0.001628963    1.954    0.488
        83 -10.6031     17.3268     40.9456   6.4179100996e+01   6.6291585611e+01    0.1682543    0.1263942 -31.11 0.0004387235    1.085    0.078
        84 -10.7330     33.7125    245.9850   8.9247217004e+01   1.8461886792e+01     0.291886     0.176174 -44.31   0.00117941    2.810    0.644
        85 -10.1515     60.5922     21.2037   3.7424624202e+01   6.3941617985e+01    0.2242751    0.1530326  37.50 0.0007066222    1.325    0.245
        86 -11.3785     34.0457     15.3484   4.6236339146e+01   6.8608278477e+01    0.3982286    0.1314164  39.97  0.001754165    3.240    0.691
        87 -10.6495    241.7484    245.5014   4.7333338520e+01  -1.1004204101e+01    0.2002397    0.1377691 -25.95 0.0006385464    1.359    0.264
