#   1 NUMBER                 Running object number                                     
#   2 MAG_AUTO               Kron-like elliptical aperture magnitude                    [mag]
#   3 X_IMAGE                Object position along x                                    [pixel]
#   4 Y_IMAGE                Object position along y                                    [pixel]
#   5 X_WORLD                Barycenter position along world x axis                     [deg]
#   6 Y_WORLD                Barycenter position along world y axis                     [deg]
#   7 A_WORLD                Profile RMS along major axis (world units)                 [deg]
#   8 B_WORLD                Profile RMS along minor axis (world units)                 [deg]
#   9 THETA_WORLD            Position angle (CCW/world-x)                               [deg]
#  10 FWHM_WORLD             FWHM assuming a gaussian core                              [deg]
#  11 ELONGATION             A_IMAGE/B_IMAGE                                           
#  12 ELLIPTICITY            1 - B_IMAGE/A_IMAGE                                       
         1 -14.7981      3.0700    134.9507   1.4364069134e+02   4.6479309009e+01     7.013595    0.5458607 -70.93   0.01704215    8.606    0.884
         2 -12.4986      5.3163     51.2282   1.2879384254e+02   6.3890206318e+01    0.5160919    0.4213135  71.34  0.003559689    1.919    0.479
         3 -13.4278    213.9550      8.6387   6.1677609271e+01   3.0851469233e+01    0.9585351    0.7726036  63.98  0.003139066    1.266    0.210
         4 -13.4536    198.6611     27.4607   6.7988961809e+01   3.2385381419e+01     1.516233     1.295599  31.45  0.006982429    1.468    0.319
         5 -11.3926      3.0047      3.2487   1.1375843298e+02   7.1771401142e+01    0.3184954    0.2429755 -14.00  0.002653503    1.164    0.141
         6 -10.4426    198.5755    246.2232   1.1708776619e+02  -5.7621584205e+00    0.1602442    0.1155626 -20.61 0.0009545069    1.656    0.396
         7 -11.3162    248.8017    248.9132   1.0843146637e+02  -1.3981517605e+01    0.4457607    0.2601092  17.89  0.002625241    1.639    0.390
         8  -9.3233    185.6510    250.3045   1.2012160772e+02  -4.1765487847e+00    0.1225755   0.08978983  62.47 0.0007041264    1.699    0.411
         9 -11.4612    139.4848    245.9764   1.2822663392e+02   4.4166433843e+00     0.288966    0.2522022  79.23  0.001930072    1.208    0.172
        10 -12.5312    126.9677    250.0028   1.3107143036e+02   5.8432024630e+00    0.5879958     0.504576   9.01  0.003807002    1.696    0.411
        11 -11.2900    125.3271    245.6747   1.3085754782e+02   6.8627841146e+00    0.2828057    0.1778555  68.07  0.001520396    1.724    0.420
        12 -11.8015     99.3557    248.5664   1.3597903828e+02   1.0558056775e+01    0.4105883    0.2969966  38.77  0.002576805    1.502    0.334
        13 -11.1258     46.4775    249.1516   1.4520545283e+02   1.7968207047e+01     0.328182    0.1777165  68.06  0.001509698    1.514    0.340
        14 -10.6878     51.0373    247.6971   1.4434109039e+02   1.7651316592e+01     0.302774    0.1484901 -74.99  0.001784495    1.945    0.486
        15 -12.3248     35.5171    245.1476   1.4672194366e+02   2.0063806561e+01    0.6322068    0.4156049 -75.18  0.004467237    1.493    0.330
        16 -10.4807     28.8454    249.8546   1.4809702289e+02   1.9985439565e+01    0.2600901    0.1701175  61.44     0.001133    1.193    0.162
        17 -10.8664     29.5011    246.4997   1.4778213708e+02   2.0525075075e+01    0.2210336    0.1285856  59.49  0.001220525    1.329    0.248
        18 -12.0862     11.0577    232.3517   1.4987468900e+02   2.5215644766e+01    0.3419726    0.2007033  63.15  0.002405168    1.327    0.246
        19 -12.1710      5.6212    248.7092   1.5160084882e+02   2.2738939637e+01    0.9053808    0.4145083  50.10  0.006059567    1.785    0.440
        20 -12.5498     12.3140    242.1288   1.5023344589e+02   2.3244687388e+01     1.096019    0.3757406  67.55  0.005491456    2.808    0.644
        21 -11.7171     18.5722    242.2375   1.4925839388e+02   2.2551339368e+01    0.4660662    0.1913793  70.37  0.002246707    2.191    0.544
        22 -11.2615     22.1999    237.3483   1.4837900644e+02   2.3070594298e+01    0.2482406    0.2197735 -75.57   0.00199802    1.589    0.371
        23 -10.6621    146.2832    245.9950   1.2694164360e+02   3.2484660537e+00    0.1741654    0.1562778  58.09  0.001166394    1.104    0.094
        24 -10.6547    228.8888    248.8741   1.1195008134e+02  -1.1007780674e+01     0.198208     0.141702  14.24  0.001262044    1.275    0.216
        25  -9.6157    181.3201    244.3342   1.2004713139e+02  -2.5486321821e+00    0.1273882   0.09160791  13.05 0.0004045099    1.701    0.412
        26 -13.0416     46.7985    215.6308   1.4245259804e+02   2.4479423260e+01     1.056811    0.7021658 -87.70  0.005269338    1.269    0.212
        27 -12.9595     31.4819    233.5028   1.4658835950e+02   2.2751929579e+01    0.2936256    0.2527199 -80.75 0.0007591243    1.443    0.307
        28 -13.9987     36.3725    226.9620   1.4527110001e+02   2.3457120062e+01    0.9033738    0.5311906  62.24  0.002381329    1.389    0.280
        29 -10.3896    249.5053    235.9656   1.0610588468e+02  -1.2488030657e+01    0.1725179    0.1086797 -27.84  0.000833064    1.600    0.375
        30 -12.0823    124.2734    232.1396   1.2935952519e+02   9.4795545907e+00    0.6117214    0.1762237  49.79  0.002173614    3.292    0.696
        31 -12.2930    104.5185    230.4977   1.3299934240e+02   1.3094471130e+01    0.6133934    0.1900478  46.01  0.002455955    2.697    0.629
        32 -12.6193     88.8709    226.7469   1.3558633900e+02   1.6311620040e+01     0.920824    0.2507844  48.04  0.003522922    3.119    0.679
        33  -9.3007     54.8073    229.8940   1.4224486915e+02   2.0564786443e+01    0.2422411    0.1081128  61.24  0.001149336    2.086    0.521
        34  -9.9352    174.2279    223.0636   1.1809504148e+02   2.1645201022e+00    0.3114221    0.2056309  58.73  0.001586006    1.707    0.414
        35 -10.8840     57.0311    206.5726   1.3962186893e+02   2.5066282109e+01    0.6481284    0.2407389  61.24  0.002521502    3.435    0.709
        36 -12.1910     55.3554    210.7014   1.4036478547e+02   2.4411901279e+01     1.472247    0.3827652  57.05  0.004201549    6.518    0.847
        37  -8.8241    152.5182    213.0510   1.2087724567e+02   8.0109158964e+00    0.1772992    0.1381602 -55.30 0.0003139266    1.430    0.301
        38 -12.4018      9.8647    207.0926   1.4848298503e+02   3.0332216533e+01    0.6146299    0.4267602  30.93  0.003149194    2.006    0.501
        39 -11.6973     58.8427    199.5262   1.3851291855e+02   2.6344313462e+01    0.2920602    0.2165995 -78.65 0.0004414034    1.197    0.165
        40 -12.7567     24.1341    127.8041   1.3751069134e+02   4.6489555464e+01     2.252695    0.5654667  48.50  0.006611377    7.516    0.867
        41 -13.9354      9.9654    156.6727   1.4433049163e+02   4.1144330268e+01     4.453442     1.585698  81.14   0.01286741    7.229    0.862
        42 -10.9999    237.3508    249.0052   1.1046019163e+02  -1.2310916560e+01    0.2360725    0.1409774  17.78   0.00135712    1.655    0.396
        43 -13.1624     62.5103    175.9915   1.3490147247e+02   3.1125076556e+01    0.5177873    0.2753077 -46.87  0.001692261    2.343    0.573
        44  -8.8499     96.9606    173.9847   1.2671114759e+02   2.6408457660e+01    0.2353313    0.1569875  76.06  0.001115499    1.744    0.427
        45 -11.7468     83.1638    169.1866   1.2917023277e+02   2.9732984239e+01    0.6571505    0.4692148 -53.85    0.0035112    1.429    0.300
        46 -10.5199     90.0200    167.8235   1.2733193120e+02   2.8973295783e+01    0.3346087    0.2996539 -53.89  0.001953169    1.232    0.188
        47 -10.2314     10.6889    194.9234   1.4746684665e+02   3.2777521616e+01     0.244047    0.1499018  55.16 0.0009513012    1.523    0.344
        48 -10.2348     96.5255    152.9732   1.2313942353e+02   3.1391946236e+01    0.3879195    0.3097018 -29.27 0.0009062539    1.611    0.379
        49  -9.2465     99.7142    148.4567   1.2147431389e+02   3.1914721115e+01    0.1947388     0.183761  43.27 0.0004094481    1.164    0.141
        50 -12.0537     85.1226    151.8656   1.2578839560e+02   3.3503784982e+01     0.298821    0.2435878 -48.69 0.0005317867    1.288    0.224
        51  -8.7465    134.0000    147.9928   1.1283565780e+02   2.5541511196e+01    0.2539679   0.08653396 -49.71  0.000800274    2.927    0.658
        52 -12.2434     67.3783    143.4696   1.2881041814e+02   3.8083874634e+01    0.6579062    0.4352427  68.78  0.002200243    1.798    0.444
        53 -10.5813     95.8486    134.9303   1.1973084177e+02   3.5763920552e+01    0.2540678    0.2223132 -42.15 0.0003417684    1.198    0.165
        54  -9.9915    108.9356    137.4945   1.1685515240e+02   3.2850768442e+01    0.4570432    0.2974724 -21.12  0.001762636    2.656    0.624
        55  -9.2220     77.3512    130.2265   1.2370981515e+02   3.9801075946e+01    0.2703635    0.1663631  63.74   0.00120727    2.167    0.539
        56  -9.0777    106.2500    124.0564   1.1454500346e+02   3.6464264989e+01    0.1950235    0.1795581 -65.77 0.0002946828    1.047    0.045
        57 -11.9784     65.4244    190.9256   1.3615606655e+02   2.7347988924e+01    0.2715322    0.2321113 -72.21   0.00047037    1.216    0.178
        58  -9.4642    167.9691    113.1584   9.6391957085e+01   2.5670363453e+01    0.2497045    0.2086607 -85.34 0.0009149379    1.383    0.277
        59  -9.2397     41.5376     96.5411   1.2704112237e+02   5.1920545232e+01    0.2670229    0.1484071  56.91  0.001100865    2.878    0.652
        60 -10.6421    242.6166     92.3626   7.7441612178e+01   1.2122869863e+01    0.3294611     0.184644 -69.47  0.001283419    2.752    0.637
        61  -9.9336    158.3288     76.9278   8.8696601558e+01   3.5012155694e+01    0.2141556     0.202175 -38.59 0.0006424835    1.090    0.083
        62  -8.9446    194.6889    198.0672   1.0954730581e+02   2.7187416324e+00    0.2221597     0.112923 -62.42 0.0007027399    4.480    0.777
        63 -10.0720    176.9859    250.0000   1.2169921815e+02  -2.6617834473e+00     0.216597   0.05985899  42.14 0.0008054866    2.964    0.663
        64 -11.6702    150.3925    249.2468   1.2659614686e+02   2.0094693009e+00    0.5763469    0.1535905  39.49  0.002033924    3.509    0.715
        65 -10.9171     81.2462    248.9683   1.3925581166e+02   1.3232765207e+01     0.265425     0.157262  62.42  0.001593516    1.409    0.290
        66 -10.8253     76.0156    177.9175   1.3212435953e+02   2.8786548034e+01    0.2437402    0.2118942 -69.98  0.000343742    1.165    0.141
