#   1 NUMBER                 Running object number                                     
#   2 MAG_AUTO               Kron-like elliptical aperture magnitude                    [mag]
#   3 X_IMAGE                Object position along x                                    [pixel]
#   4 Y_IMAGE                Object position along y                                    [pixel]
#   5 X_WORLD                Barycenter position along world x axis                     [deg]
#   6 Y_WORLD                Barycenter position along world y axis                     [deg]
#   7 A_WORLD                Profile RMS along major axis (world units)                 [deg]
#   8 B_WORLD                Profile RMS along minor axis (world units)                 [deg]
#   9 THETA_WORLD            Position angle (CCW/world-x)                               [deg]
#  10 FWHM_WORLD             FWHM assuming a gaussian core                              [deg]
#  11 ELONGATION             A_IMAGE/B_IMAGE                                           
#  12 ELLIPTICITY            1 - B_IMAGE/A_IMAGE                                       
         1  -8.7845     45.9628     20.7351   9.7595723291e+01   6.5267425341e+01    0.3558489    0.1709558 -34.41  0.001965788    2.015    0.504
         2 -11.4778     80.4120     23.3880   8.6789591833e+01   5.9528889588e+01    0.5743481    0.2424001  35.49 0.0005689754    2.357    0.576
         3  -9.3696    133.6827     13.6383   7.0604138569e+01   4.9482511440e+01     0.443854    0.1901495  58.46 0.0003280778    1.927    0.481
         4  -9.3203     79.3273     12.8843   8.3071352199e+01   6.0833132096e+01    0.3545865    0.2147453  51.38  0.001420768    1.621    0.383
         5  -9.3531     74.4565     13.4770   8.4761655470e+01   6.1645722553e+01    0.4022035      0.22708  11.20  0.002027246    2.127    0.530
         6  -8.8331    105.4599     14.6038   7.6825306703e+01   5.5560998648e+01    0.4146919    0.1754029  27.86  0.001546717    3.773    0.735
         7  -9.3682     64.5735     13.9403   8.8101387139e+01   6.3274925210e+01    0.3368783    0.1664605  26.34  0.001098834    2.115    0.527
         8  -8.6330     96.8218     12.2677   7.8093600073e+01   5.7543935313e+01    0.3290509    0.1435974  31.72  0.001437154    2.671    0.626
         9  -9.2122     31.4802     11.1086   9.9378801345e+01   6.8256167949e+01    0.3730341    0.1956395   7.40 0.0003790802    2.214    0.548
        10  -9.3073     31.8301      6.4168   9.7155501522e+01   6.8750594927e+01     0.266176    0.1577592  16.48 0.0004723349    1.507    0.336
        11  -8.7591    124.9654     10.4699   7.1256271004e+01   5.1734157543e+01    0.2719879    0.1579412  40.56 0.0006616102    1.633    0.388
        12 -10.2099      7.1276      5.7100   1.0808847818e+02   7.1365948946e+01      0.59193    0.2446662   8.26  0.002938261    3.388    0.705
        13  -8.9809     70.8763      9.2559   8.4175089338e+01   6.2680538056e+01    0.2718799    0.1394691  28.49  0.001450467    1.900    0.474
        14  -8.5008    155.9440      7.8229   6.5232822496e+01   4.4867242574e+01    0.2293703    0.1736252 -16.54 0.0009961925    1.634    0.388
        15  -9.3375     46.4503      6.4321   9.1336129461e+01   6.6818408896e+01    0.2633654    0.1615536  20.65  0.001176626    1.423    0.297
        16  -8.8686     41.2546      5.8319   9.3065670928e+01   6.7602277997e+01    0.3316827    0.2006158   1.82  0.001481203    1.583    0.368
        17  -9.1735    119.1778      6.7669   7.1190731435e+01   5.3330602073e+01    0.2135855    0.1831581  40.65 0.0002460237    1.070    0.065
        18  -8.3271    100.8075      6.3347   7.4991306578e+01   5.7258743391e+01    0.2236921    0.1272327  24.88  0.001075306    1.929    0.482
        19  -9.3991     76.5062      5.7447   8.1082626184e+01   6.2003204635e+01    0.3722652     0.242936 -20.43  0.001415635    1.617    0.381
        20  -9.4594     92.7992      5.0861   7.6461671072e+01   5.8973245155e+01    0.4585447    0.1712132  45.41  0.002162557    2.153    0.536
        21  -9.7309     84.9935      5.3402   7.8566641385e+01   6.0464654391e+01    0.2620094     0.197201   4.43  0.001730185    1.321    0.243
        22  -8.6912    110.0335      2.0000   7.1449904729e+01   5.5683579846e+01     0.222233    0.1537672  63.72 0.0008494018    1.356    0.262
        23  -7.6665     65.4768      9.4982   8.5984882647e+01   6.3573588881e+01    0.2061638   0.08468484  37.61 0.0008143068    2.141    0.533
        24  -8.3605    134.2140      3.1237   6.7286868265e+01   5.0283258117e+01    0.1841782    0.1401274  43.48 0.0003079906    1.231    0.187
        25  -8.4143     56.7028      2.8265   8.6091150059e+01   6.5620749582e+01     0.257112    0.1657031  39.74  0.001558484    1.394    0.283
        26  -9.0899    130.0576      9.3949   6.9953503378e+01   5.0690212116e+01      0.31204    0.1894063 -21.64 0.0008125611    1.924    0.480
        27  -8.2732    143.1095      2.0610   6.5532327711e+01   4.8342240427e+01    0.1821814     0.154723  61.39 0.0003259316    1.027    0.027
        28  -8.5209    105.1000      1.7861   7.2420692207e+01   5.6737128875e+01    0.2493834    0.1266573  44.11  0.001333548    1.645    0.392
        29  -7.9490      2.8614      1.3622   1.0825715801e+02   7.2257425631e+01    0.1383373   0.07462426   6.35 0.0005122765    1.726    0.421
        30  -7.4492    109.1618    106.6112   1.0501084672e+02   3.9940391410e+01    0.2159684    0.1425271  28.07 0.0009428288    1.795    0.443
        31 -10.1028    205.8922    249.4900   1.1211666387e+02  -8.1230131420e+00    0.3407306    0.1920614  46.47  0.001796992    1.863    0.463
        32  -9.0927     14.8272    105.1478   1.3320384666e+02   5.2641768481e+01    0.4334922    0.1649043 -33.92  0.001720803    3.756    0.734
        33  -7.7032     94.0052    103.4372   1.0851899349e+02   4.3428700158e+01    0.2219764    0.1450605  36.08  0.001033708    1.630    0.387
        34  -7.7581    246.6707    102.2863   7.5189523562e+01   1.0246108660e+01    0.1407816   0.09845626 -70.40 0.0005553306    1.614    0.380
        35  -7.6071    129.5036     97.4609   9.7016004098e+01   3.7722970638e+01    0.1506536    0.1483724 -10.74 5.028179e-05    1.022    0.022
        36  -8.7258    242.4129     96.2302   7.4470517654e+01   1.2178487314e+01    0.2846395    0.1151358  69.77 0.0008910515    4.580    0.782
        37  -8.4550    249.4970     95.4706   7.3322529738e+01   1.0853848212e+01    0.1379598    0.1187305 -56.42 0.0001019317    1.008    0.008
        38  -9.7578     15.8700     94.8859   1.3102187563e+02   5.4839075693e+01    0.2735619    0.2521572 -27.16  0.001285082    1.218    0.179
        39  -7.8083     83.5605     93.5265   1.0899295177e+02   4.7338425957e+01    0.2479706    0.1372475  23.91  0.001030499    2.358    0.576
        40  -8.9148     43.6089     92.3457   1.2147368231e+02   5.2963690959e+01    0.3204005    0.1869996 -21.21  0.001231127    2.264    0.558
        41  -8.1234    110.3648     90.5230   1.0023240805e+02   4.3112154743e+01    0.3018225    0.2006683  13.85  0.001263552    2.223    0.550
        42  -8.2501     96.4627     90.3390   1.0419960175e+02   4.5787043325e+01    0.3957017     0.250741   6.67   0.00157432    2.683    0.627
        43  -7.9982     56.5571     90.7681   1.1684130292e+02   5.1811469224e+01    0.2755032    0.1104908 -49.18  0.001154687    2.130    0.530
        44  -8.9708     12.4033     93.7070   1.3190253699e+02   5.5331742320e+01     0.271094    0.1508272 -46.23 0.0008190848    1.482    0.325
        45  -7.8915     62.6096     88.1995   1.1419102472e+02   5.1575805041e+01    0.2013141    0.1083747 -40.96 0.0006308305    1.711    0.416
        46  -8.3011    241.6628     84.3287   7.1962035209e+01   1.4373531409e+01     0.147857   0.09493084 -68.99 -5.289767e-05    1.730    0.422
        47  -7.7134    126.6107     83.7820   9.3874487563e+01   4.1065401994e+01    0.3168359    0.1697122  22.20 0.0009590145    4.130    0.758
        48  -7.9571     66.0178     84.3582   1.1202744230e+02   5.1911193525e+01    0.1876205    0.1705648  -4.62 0.0006247481    1.108    0.098
        49 -10.1153     37.4191     81.0324   1.2078074843e+02   5.5998807530e+01    0.5946745    0.3171394 -11.60  0.002634944    2.988    0.665
        50  -8.0113     20.9976     84.7675   1.2727045426e+02   5.6643248949e+01    0.1388264    0.1012189  14.03 0.0008602937    1.623    0.384
        51  -9.7384      7.6295     78.2299   1.3042260183e+02   5.8913687952e+01    0.6666605    0.2178468 -33.99  0.002707736    3.697    0.730
        52  -8.7197     87.7896     79.0195   1.0352016223e+02   4.9586651455e+01    0.4291067    0.2629533  14.51  0.001695448    2.375    0.579
        53  -7.9080    184.1657     77.6770   7.9437068554e+01   2.8713563072e+01    0.2435772    0.1742041 -35.76 0.0006247805    1.463    0.317
        54  -8.9954     48.8335     77.3627   1.1586964687e+02   5.5530145156e+01    0.3722281    0.2073119  -8.72  0.001606347    2.925    0.658
        55  -9.4799     28.7524     68.9827   1.2071611570e+02   5.9242692963e+01     0.419652    0.2176275 -15.30  0.001797979    2.687    0.628
        56  -8.8393     23.4871     74.4465   1.2401265505e+02   5.8591083461e+01    0.3060891    0.1471583 -43.32  0.001619109    1.685    0.407
        57  -8.5219     23.9186     69.9109   1.2271717622e+02   5.9467204945e+01    0.2872926    0.2054163 -69.25  0.001534026    1.662    0.398
        58  -7.7864     74.8896     74.4241   1.0623162208e+02   5.2585060804e+01    0.1913802    0.1303955  32.71 0.0003767562    1.532    0.347
        59  -9.0015    235.5096     72.5235   7.0178114937e+01   1.7650353729e+01    0.2497027    0.2099383 -61.44 0.0007889073    1.040    0.038
        60  -8.2258     48.4773     71.1135   1.1422900500e+02   5.6811753563e+01    0.3541125    0.1361724  31.24  0.001541659    2.830    0.647
        61  -9.7691    240.1030     68.7984   6.8772307249e+01   1.7250449175e+01    0.3132649    0.2408396  18.91  0.001612083    2.235    0.553
        62  -8.0042    105.9792     67.2801   9.4475235281e+01   4.8371469460e+01    0.2015261    0.1789367  28.02 0.0005394167    1.092    0.084
        63  -8.5620     83.5360     64.1838   1.0023223400e+02   5.3062009548e+01    0.3718408    0.2310738   7.98  0.001655802    2.350    0.574
        64  -9.0758     32.3800     62.0711   1.1744985760e+02   6.0244583808e+01    0.3968168     0.146198 -50.66  0.001817045    2.300    0.565
        65  -9.4317     36.6546     59.3146   1.1503105141e+02   6.0338337255e+01    0.3544188    0.2097267  -6.57  0.001880594    2.084    0.520
        66  -9.1459     16.2910     63.9924   1.2399920789e+02   6.1210165982e+01    0.3149472    0.1221928 -32.45  0.001425476    2.779    0.640
        67  -7.4036    148.3493     63.2886   8.2639054409e+01   3.9730413844e+01    0.1499612    0.1100931  26.38   0.00045144    1.663    0.399
        68  -9.5030     63.1070     61.2825   1.0607857143e+02   5.6763274725e+01    0.5113678    0.2475173  25.03  0.001410745    2.469    0.595
        69  -8.5045     57.6918     62.4095   1.0833218074e+02   5.7303448547e+01    0.3671356    0.1143483  37.42  0.001418087    3.422    0.708
        70  -8.7558     97.9178     57.8702   9.3768208321e+01   5.1524100872e+01    0.6702961    0.3700846  -3.14  0.002195222    4.462    0.776
        71  -9.5560     26.0436     59.5147   1.1909881283e+02   6.1298142336e+01    0.3894049    0.1126204  24.98  0.001622812    3.855    0.741
        72  -7.6570    111.0374     58.4802   9.0260912026e+01   4.8814464234e+01    0.2041839    0.1097293  28.39 0.0008093191    2.482    0.597
        73 -10.1441     75.0563     50.2651   9.8320212304e+01   5.6795816829e+01      0.46446    0.3278091   1.45 0.0003444597    1.555    0.357
        74  -8.2978    118.3494     51.0270   8.5933171767e+01   4.8416692952e+01    0.2360223    0.1816971  47.43 0.0005952557    1.228    0.186
        75  -8.9373     45.2709     48.7776   1.0838653073e+02   6.1243108462e+01    0.2982626     0.194959  -6.72  0.001038824    1.634    0.388
        76  -7.6215    106.8350     48.6231   8.8173389403e+01   5.1184513873e+01    0.2709384    0.1479439  33.43  0.001213628    1.996    0.499
        77  -9.7366     12.3464     45.6843   1.2042376049e+02   6.4879773089e+01    0.5865243    0.2638434 -25.18  0.003042164    2.379    0.580
        78  -9.3209     57.0535     42.4913   1.0180625700e+02   6.0728658387e+01    0.7264859    0.3502899 -11.59  0.002446442    5.026    0.801
        79  -7.8759     91.5264     46.4810   9.1815758423e+01   5.4489522750e+01    0.2607698    0.1262117 -34.30 0.0008254017    2.094    0.522
        80 -10.6851     83.2013     40.0395   9.2086269263e+01   5.6925735546e+01    0.4379098    0.2764816  -6.71 0.0002184232    1.923    0.480
        81  -8.6981     87.5952     38.1494   9.0062578434e+01   5.6389614162e+01    0.2357717    0.1892364  13.63 0.0007594608    1.166    0.143
        82  -8.2977      1.9897     45.0433   1.2448807095e+02   6.5645549632e+01    0.1396863    0.1010937 -37.99  0.001013376    1.023    0.023
        83  -8.9699     35.4986     38.4375   1.0857357575e+02   6.4030594266e+01    0.5049303    0.1435484 -39.32  0.002113811    3.069    0.674
        84  -9.1269     38.5140     35.5015   1.0629960529e+02   6.4148071070e+01     0.261836     0.169968   7.23 0.0007936871    1.537    0.349
        85  -7.9990    113.2712     42.1539   8.4321490483e+01   5.0754525268e+01    0.2320921    0.1297775  21.09 0.0009421264    2.727    0.633
        86  -7.6523    124.0877     39.5124   8.0818318926e+01   4.8758100084e+01    0.2042804    0.1236031  52.76 0.0003876081    1.512    0.339
        87  -8.0000     92.3040     37.6465   8.8488804348e+01   5.5576284578e+01    0.2817254    0.1547923 -45.39 0.0008260282    2.301    0.565
        88  -9.5556     68.2398     37.4248   9.6010307232e+01   5.9806316635e+01    0.4749039    0.2417533  21.47  0.002159024    2.531    0.605
        89  -8.4518     73.5165     34.4786   9.3150451593e+01   5.9352886718e+01    0.2190457    0.1699996  -8.98 0.0007389551    1.202    0.168
        90  -8.0276    105.5783     36.8171   8.4516015423e+01   5.3060502924e+01    0.2817549    0.1466887  36.06  0.001297127    1.963    0.491
        91  -9.0398     56.0781     35.1014   9.9436301884e+01   6.1957882828e+01    0.2931348    0.1678996 -21.47  0.001062176    1.760    0.432
        92  -9.4152     22.7455     35.6114   1.1279902404e+02   6.5741817449e+01    0.4128341    0.2061923  21.72  0.002398893    2.101    0.524
        93  -8.9268     22.0292     32.2505   1.1190062608e+02   6.6335280904e+01    0.2601777    0.1597875  26.97  0.001239287    1.786    0.440
        94  -7.9477     12.5308     34.5249   1.1677160335e+02   6.6757813858e+01    0.2320422    0.1134457  40.25  0.000720256    3.375    0.704
        95  -9.4076      6.5974     33.6956   1.1906713977e+02   6.7311994435e+01    0.3121223    0.2264104 -16.52  0.001820698    1.168    0.144
        96  -8.4613      2.3886     31.7058   1.2026129945e+02   6.7906176220e+01    0.1788288    0.1606618  64.74 0.0008367611    1.948    0.487
        97  -8.6936      1.2918     28.3474   1.1963443888e+02   6.8517197224e+01    0.4162845   0.06713732 -41.46  0.001680142    3.828    0.739
        98  -9.4943     41.6654     27.0277   1.0180854627e+02   6.4996389220e+01    0.3432631    0.1934392 -40.73  0.001163207    1.876    0.467
        99 -10.2060    191.9679    248.7306   1.1465422715e+02  -5.7882049480e+00    0.4473868     0.261539 -30.24   0.00236689    2.057    0.514
       100  -8.3019    105.0403    250.3186   1.3179579949e+02   8.3095416088e+00    0.1756173    0.1368051  53.49 0.0004023227    1.081    0.075
       101  -8.8626     61.9178     26.6831   9.4107886372e+01   6.2225888662e+01    0.1978748    0.1429251  -8.62 0.0004803556    1.277    0.217
       102  -8.9045     25.5067     22.5370   1.0671306319e+02   6.7435451890e+01    0.4207281    0.1520697 -37.93  0.002144424    2.391    0.582
       103  -8.7623     28.8319     21.1965   1.0474943361e+02   6.7273234641e+01     0.232718    0.1449669   4.97 0.0006090496    1.528    0.346
       104  -8.9075    228.9011     24.1278   6.0419003441e+01   2.6083410264e+01    0.2892564     0.177701 -39.80  0.001035642    1.655    0.396
       105  -8.4881    144.8893     23.3243   7.1492330687e+01   4.5918138233e+01    0.2015224    0.1870574  18.54 0.0003860341    1.196    0.164
       106  -9.3078     69.6789     26.1778   9.1266674625e+01   6.1051155343e+01    0.2089899    0.1617138  26.31 0.0008546475    1.146    0.127
       107  -7.7977    129.0281     22.5165   7.4290903833e+01   4.9650755989e+01    0.2026208    0.1135834  56.49 0.0006237628    1.549    0.354
       108  -8.3692     92.5742     20.8180   8.2329805262e+01   5.7533363750e+01    0.2551205    0.1592909  29.43 0.0007652478    1.546    0.353
       109  -8.2756    140.2323     19.9966   7.1342654208e+01   4.7352372656e+01    0.2140692    0.1615244  58.77 0.0004930693    1.152    0.132
       110  -8.3077      9.8827     19.7396   1.1258635538e+02   6.9236508567e+01    0.2129861    0.1167213   4.63  0.001209037    1.846    0.458
       111  -7.3009    146.7223     19.2938   6.9977836018e+01   4.5914896984e+01    0.1251119   0.09538091 -74.81 0.0002883331    1.528    0.346
       112  -7.4069    111.6721     19.6302   7.7111086694e+01   5.3759186532e+01    0.1398233   0.08454344  27.69 0.0007032645    1.819    0.450
       113  -8.2498      5.1372     18.8653   1.1445357001e+02   6.9719611419e+01    0.1490191    0.1168687 -25.22 0.0003436155    1.192    0.161
       114  -8.2985    127.7791     16.8783   7.2750427138e+01   5.0505755043e+01    0.2137963    0.1508947  48.12 0.0004348194    1.234    0.190
       115  -8.7411    171.4758    247.5160   1.1845031206e+02  -2.2122917121e+00     0.128924    0.1101386  34.19 0.0004009111    1.010    0.010
       116  -7.9965    110.3099    246.0731   1.3028810414e+02   8.2628874856e+00    0.2320507    0.1072565 -52.88  0.001097665    2.512    0.602
       117  -9.5467    159.2995    245.8373   1.2059948269e+02   1.2144309088e-01    0.2559784    0.1601382  19.38  0.001245018    2.159    0.537
       118 -11.9759    248.3530    236.1743   1.0204774473e+02  -1.2580076080e+01    0.2451222    0.2078245  -8.80 0.0002624334    1.147    0.128
       119  -9.6880    187.8099    233.4813   1.1300630651e+02  -2.6595395520e+00    0.3388385    0.2317177 -61.49  0.001406408    2.091    0.522
       120  -8.6145     14.4654    234.6564   1.4694832595e+02   2.3593900397e+01    0.1909655    0.1495905 -89.06  0.001430819    1.222    0.181
       121  -8.2699     88.0907     13.1259   8.0691369209e+01   5.9174173442e+01    0.1947566    0.1361716  26.52 0.0008553178    1.299    0.230
       122 -10.1145    161.2845    214.6106   1.1526419312e+02   5.4727442977e+00    0.2456494    0.2360107 -58.58  0.000316258    1.131    0.116
       123  -7.4172     35.0312    213.0700   1.4157950318e+02   2.5820817477e+01    0.1451516    0.1124232  82.26 0.0003228101    1.007    0.007
       124  -8.3778     11.5040    206.4982   1.4554571633e+02   2.9769386324e+01     0.119488    0.0868111  83.49 0.0008104958    1.030    0.029
       125  -8.1699    163.0776    199.7326   1.1224370497e+02   8.1069624199e+00    0.2813523    0.2142774   3.92  0.001362427    1.762    0.433
       126  -8.3727    121.4453     14.8425   7.3375816699e+01   5.2110906721e+01    0.2571324     0.128768  34.56  0.001190969    2.233    0.552
       127  -8.4151    175.0908    152.0360   9.9774052600e+01   1.5824215678e+01    0.2242323    0.2198287 -28.67 -0.0009232552    1.033    0.032
       128 -10.2499    221.6413    146.5269   8.9100024166e+01   7.1372909886e+00    0.2836336    0.2681304  61.64 0.0005695686    1.162    0.140
       129  -9.1427     67.1495    144.8093   1.2535530678e+02   3.7848051675e+01    0.4829204    0.2931907  73.87  0.002084868    2.353    0.575
       130  -7.7219      5.3144    133.6796   1.3998580708e+02   4.6795478056e+01    0.1206896    0.0784807  76.47 0.0003743445    1.655    0.396
       131  -8.0406    226.5240    130.0347   8.4539028438e+01   9.3049026195e+00    0.3535344    0.1234381 -46.05  0.001154639    2.731    0.634
       132  -6.9943     41.4882    129.5298   1.2967366207e+02   4.4659925554e+01    0.1339242    0.1121632 -62.20  0.000481033    1.027    0.026
       133  -8.4827    240.1192    128.0333   8.1818728681e+01   6.9279277466e+00    0.2142957    0.1903836 -43.47 0.0005226083    1.011    0.011
       134  -8.1002    132.9909    124.4942   1.0323299164e+02   3.1101432198e+01    0.2408217    0.1554227  44.94  0.000792864    1.584    0.369
       135  -7.3201    153.6506    123.7023   9.7937542521e+01   2.6774636354e+01    0.1599942     0.127549   5.49 0.0007035316    1.684    0.406
       136  -7.3276     84.9981    121.5176   1.1560929548e+02   4.0806623551e+01    0.1963071    0.1308051   2.01 0.0008094722    2.484    0.597
       137  -7.1736    180.4964    120.4841   9.1106014866e+01   2.1351456614e+01    0.1546893    0.1509906 -50.75  0.000810185    1.037    0.036
       138  -7.7300    119.2728    119.1346   1.0548008205e+02   3.5146298788e+01    0.2503119    0.1681507  -6.38 0.0008048671    2.703    0.630
       139  -7.8546    142.2751    112.3238   9.7783328861e+01   3.1787362584e+01    0.3209845    0.1891793 -15.38 0.0009694993    3.924    0.745
       140  -9.1996      2.9972    109.2939   1.3734740073e+02   5.2475966014e+01    0.4282961    0.1937901 -28.42  0.002038692    3.110    0.678
       141  -8.3151    133.7589    107.0891   9.8542195889e+01   3.4779862338e+01    0.4167657    0.1768933 -43.49   0.00122094    2.330    0.571
       142  -7.7192    123.9981    107.4929   1.0119644706e+02   3.6768937187e+01    0.2138117    0.1358906  19.37 0.0008093715    2.449    0.592
