#   1 NUMBER                 Running object number                                     
#   2 MAG_AUTO               Kron-like elliptical aperture magnitude                    [mag]
#   3 X_IMAGE                Object position along x                                    [pixel]
#   4 Y_IMAGE                Object position along y                                    [pixel]
#   5 X_WORLD                Barycenter position along world x axis                     [deg]
#   6 Y_WORLD                Barycenter position along world y axis                     [deg]
#   7 A_WORLD                Profile RMS along major axis (world units)                 [deg]
#   8 B_WORLD                Profile RMS along minor axis (world units)                 [deg]
#   9 THETA_WORLD            Position angle (CCW/world-x)                               [deg]
#  10 FWHM_WORLD             FWHM assuming a gaussian core                              [deg]
#  11 ELONGATION             A_IMAGE/B_IMAGE                                           
#  12 ELLIPTICITY            1 - B_IMAGE/A_IMAGE                                       
         1 -14.2404    175.1255     54.8943   5.4491782186e+01   3.4210993652e+01     1.685217    0.9746295  28.49  0.004605487    2.675    0.626
         2 -14.4197    190.2501     41.3647   4.8163422199e+01   3.2315937558e+01     1.060233    0.9661509  26.63  0.003838606    1.268    0.211
         3 -14.5075    215.3663     10.1472   3.7126749802e+01   2.9894831605e+01    0.9136795    0.8379689 -66.94  0.003820872    1.125    0.111
         4 -12.0587    247.1436      2.2897   3.2920205889e+01   2.3604302550e+01     0.635305    0.1785456  78.72  0.002477868    3.724    0.731
         5 -11.1016     54.2853    221.6944   1.1860515229e+02   2.1762743341e+01    0.2634301    0.1302311  47.66 0.0005255649    1.691    0.409
         6 -12.8567    248.1689    244.6386   8.3944258072e+01  -1.1126328219e+01    0.6702427    0.3097697 -14.59  0.003371696    2.666    0.625
         7 -17.8836     38.2156    234.0911   1.2255623687e+02   2.1269448099e+01     9.014962     8.158583  63.28   0.07095347    1.338    0.252
         8 -12.0249     57.8881    219.4632   1.1770350822e+02   2.1756548708e+01     0.548404    0.2448045  57.20   0.00252429    2.101    0.524
         9 -12.9620     59.6283    193.5548   1.1483207180e+02   2.7002180177e+01    0.4100266    0.2781089 -49.68  0.001422692    1.792    0.442
        10 -10.7081     82.0024    194.6895   1.0996631556e+02   2.3678898039e+01    0.2466107    0.1974012  77.63  0.000990482    1.175    0.149
        11 -12.1896    151.6585    192.9364   9.3930187311e+01   1.2336983061e+01    0.4233799    0.2497367 -66.76   0.00170533    2.647    0.622
        12 -12.5961    148.8077    187.2691   9.3554641620e+01   1.3985710252e+01    0.3524542    0.3084942  78.40  0.001859939    1.336    0.251
        13 -19.0342     15.2463     99.7909   1.1450311839e+02   5.3660675748e+01     14.93038    0.9582532 -68.46   0.02710596   13.103    0.924
        14 -10.2722     43.7013    210.2692   1.1976086185e+02   2.5369328885e+01    0.3510063    0.1727615  72.19  0.001427819    2.130    0.531
        15 -12.1306     94.3929    187.0643   1.0609677397e+02   2.3480796732e+01    0.4185973    0.2938393  43.42  0.001162191    1.347    0.257
        16 -13.0904     98.7995    181.3907   1.0421599541e+02   2.4045368566e+01    0.5264219    0.3899894 -39.77  0.002235041    1.641    0.391
        17 -10.4906    242.3229    184.6902   7.4078471255e+01  -2.4041269694e+00    0.1148374    0.1062587 -62.26 0.0003945475    1.650    0.394
        18  -8.5803     43.5272    205.4292   1.1939337667e+02   2.6403857834e+01    0.2473074    0.2009494 -30.37 0.0008951369    1.950    0.487
        19 -12.2197    143.4185    178.5210   9.3176092695e+01   1.6787636237e+01    0.3393139    0.1822107 -40.97  0.001195883    2.077    0.519
        20 -12.3244     65.9539    204.6662   1.1463062893e+02   2.3768060301e+01    0.3488583    0.1755803 -62.30  0.001036487    1.995    0.499
        21 -11.5228    187.1631    175.8058   8.2923154578e+01   8.9086348141e+00    0.3501903     0.293207 -40.63   0.00100799    1.269    0.212
        22 -11.5045    148.9953    176.4793   9.1499663060e+01   1.6153701192e+01    0.2354446    0.2024627 -64.78 0.0003345176    1.310    0.236
        23 -10.1385     70.4326    199.7202   1.1313160995e+02   2.4222716870e+01    0.1707304    0.1470895 -78.83 0.0005674319    1.175    0.149
        24 -11.3287     93.4115    205.6919   1.0881808112e+02   1.9625728597e+01    0.2790942    0.2160469  23.62 0.0007755146    1.573    0.364
        25 -11.0358     84.1139    173.6702   1.0659567092e+02   2.8106514588e+01    0.2279769     0.175918 -82.01  0.000316093    1.288    0.224
        26 -12.2264    138.7925    170.3239   9.2699491498e+01   1.9408151791e+01    0.3582691     0.319089  66.66  0.001541531    1.190    0.159
        27 -11.0626     43.8114    171.7297   1.1607854493e+02   3.3870039294e+01      0.52255    0.1249514  37.87  0.001960613    3.566    0.720
        28  -9.8566    193.5695    170.7742   8.0538746217e+01   8.6028994178e+00    0.1931296     0.137366 -48.49 0.0006360763    1.585    0.369
        29 -11.1994    240.4767    169.4814   7.1299336785e+01   2.3456093022e-01    0.1360138    0.1150297  -8.70 6.895264e-06    1.003    0.003
        30 -10.6406    185.1786    168.9409   8.1915367361e+01   1.0583376517e+01    0.2158861      0.20601 -74.66 0.0006757065    1.266    0.210
        31 -10.3878     29.2683    171.4983   1.1944835684e+02   3.5461782208e+01    0.2602515    0.1418338 -52.95  0.001065873    2.010    0.502
        32 -11.8449     90.7520    156.9794   1.0222325703e+02   3.1011208758e+01    0.2664579    0.2458717 -64.10 0.0003449979    1.086    0.079
        33 -12.0108    133.8485    145.7141   8.8805187328e+01   2.5839436798e+01      1.26349    0.3227961 -54.59  0.002846834    6.222    0.839
        34 -10.7179    187.4791    151.5051   7.7606604586e+01   1.3476796223e+01    0.1505826    0.1420994  -1.46  0.000293184    1.006    0.005
        35 -11.8548     96.4965    202.0085   1.0766808178e+02   1.9922003872e+01    0.2740177    0.2309459 -60.47  0.001170074    1.297    0.229
        36 -10.6051    174.8392    149.1297   7.9814258744e+01   1.6589268400e+01    0.2301418    0.2148271 -80.02 0.0006183867    1.249    0.199
        37 -10.8595    108.9180    147.1411   9.5576442827e+01   3.0267175305e+01    0.2253384    0.1948651  76.02            0    1.237    0.192
        38 -11.3606     56.0871    201.1342   1.1637674063e+02   2.5800665376e+01    0.3266526    0.2159522 -39.79  0.001750487    2.326    0.570
        39 -12.0690    108.0097    137.4450   9.3775190843e+01   3.2733596750e+01    0.5325178    0.3582724 -46.16  0.002443557    1.482    0.325
        40 -11.8778    105.6327    130.9382   9.2986645499e+01   3.4716360562e+01     0.467029    0.4082937   4.96   0.00240904    1.334    0.250
        41 -12.3801     96.1380    136.5631   9.6856469191e+01   3.5038454477e+01     0.291954    0.2683451 -62.44 0.0004487206    1.042    0.041
        42 -12.7104     96.4190    150.6674   9.9585103939e+01   3.1595886142e+01    0.6073464     0.448661 -27.81  0.001782091    1.762    0.432
        43 -11.2336    102.6432    124.2213   9.2282868589e+01   3.6859063520e+01    0.3061529    0.2463857 -23.10 0.0008639031    1.451    0.311
        44 -10.6467     56.9036    209.9769   1.1704879023e+02   2.3824595805e+01    0.3823168    0.1787791 -57.78  0.001920412    2.315    0.568
        45 -11.5607    115.1381    128.5251   8.9799434272e+01   3.3503679800e+01    0.3252493    0.2686431  -5.62 0.0008282976    1.491    0.329
        46 -10.1178    110.2818    117.9878   8.8594253379e+01   3.6903713303e+01    0.2104974    0.1911658 -49.96 0.0002972156    1.069    0.065
        47 -10.8266    231.2505    113.7116   6.0412543991e+01   1.1258284810e+01     0.258124    0.2310193 -13.39 0.0007548328    1.115    0.103
        48 -10.5320    167.8726    112.7506   7.2409674869e+01   2.5583750750e+01    0.3135646    0.2085028 -66.20  0.001235794    2.150    0.535
        49 -12.1348    118.5726    110.6391   8.4353126833e+01   3.6951891777e+01    0.6153424    0.3925281  68.04  0.002351081    2.454    0.593
        50 -10.5331    205.5259    110.2295   6.4022417605e+01   1.7420169039e+01    0.2677477     0.214369  49.80 0.0006697827    1.319    0.242
        51 -11.3115     75.5866    247.5932   1.1672568098e+02   1.4109341551e+01    0.3319287     0.107344 -59.69  0.001542903    3.431    0.709
        52 -11.0769     71.8584    243.7544   1.1709431990e+02   1.5294182959e+01    0.2374017    0.1401241 -86.76 0.0008595676    1.853    0.460
        53 -11.8775    193.1535    195.2375   8.5511904061e+01   4.3343904825e+00    0.9293903    0.4656193 -60.75  0.002646859    6.578    0.848
        54 -13.4670    195.1870     35.5599   4.5878141766e+01   3.1842336004e+01    0.5068964    0.4943136 -52.96  0.001152605    1.117    0.105
        55 -12.0795    198.0319     23.5188   4.2293240652e+01   3.2599200165e+01    0.2421601    0.1974327  -0.16 0.0008213044    1.590    0.371
        56  -9.7235    167.5832    229.4887   9.6551902320e+01   3.0639529119e+00    0.1284253    0.1087303  29.71 5.645534e-05    1.014    0.014
        57 -10.2583    189.5228     15.0132   4.1016667259e+01   3.5641550177e+01    0.1918242    0.1307815 -31.18 0.0006276587    1.564    0.361
