#   1 NUMBER                 Running object number                                     
#   2 MAG_AUTO               Kron-like elliptical aperture magnitude                    [mag]
#   3 X_IMAGE                Object position along x                                    [pixel]
#   4 Y_IMAGE                Object position along y                                    [pixel]
#   5 X_WORLD                Barycenter position along world x axis                     [deg]
#   6 Y_WORLD                Barycenter position along world y axis                     [deg]
#   7 A_WORLD                Profile RMS along major axis (world units)                 [deg]
#   8 B_WORLD                Profile RMS along minor axis (world units)                 [deg]
#   9 THETA_WORLD            Position angle (CCW/world-x)                               [deg]
#  10 FWHM_WORLD             FWHM assuming a gaussian core                              [deg]
#  11 ELONGATION             A_IMAGE/B_IMAGE                                           
#  12 ELLIPTICITY            1 - B_IMAGE/A_IMAGE                                       
         1 -18.8167    229.5423     94.6771   4.6543693383e+01   1.6479564948e+01     5.999252     4.842985 -46.18   0.03011975    1.073    0.068
         2  -8.7654    142.6047     16.3427   3.9559531787e+01   4.6860085633e+01    0.2641248    0.1326957 -44.34   0.00128016    2.186    0.542
         3 -11.1481    119.1239     10.0320   4.1552142160e+01   5.2907285603e+01    0.6200021    0.3634548  48.69  0.002825975    1.510    0.338
         4  -9.3220    208.4547      6.8987   2.9822620189e+01   3.2877259114e+01    0.2033114    0.1396186  71.96 0.0005567095    1.374    0.272
         5 -13.4568     69.1541    122.2889   9.1377295034e+01   4.2971151840e+01     1.746569     1.510828  34.81  0.005746996    1.232    0.188
         6 -11.7478    234.9263    245.0898   7.5141402322e+01  -9.5313981620e+00    0.5379162    0.2845508  31.36   0.00312757    1.877    0.467
         7 -10.1726    249.0171    242.5008   7.2244635128e+01  -1.0773836453e+01    0.3440404    0.1882239 -41.25  0.002013255    2.064    0.516
         8 -10.8783    247.3642    249.3889   7.3657552795e+01  -1.1504834765e+01    0.5541092    0.2949819  20.15  0.003372459    1.722    0.419
         9  -9.3587    174.9168    234.0002   8.4995468088e+01   1.3386302897e-01    0.2166507     0.197389 -15.36 0.0003870088    1.171    0.146
        10  -9.1856    176.4596    229.4382   8.3929085391e+01   6.9886290319e-01    0.2524051    0.1943961  -1.85 0.0001237166    1.262    0.208
        11  -8.7961    177.2111    224.5847   8.2962520619e+01   1.4440835578e+00    0.2262695    0.1732831 -36.44 0.0002801727    1.345    0.256
        12 -10.1931    144.1523    218.1774   8.9153052733e+01   7.8122055335e+00    0.2434848    0.2176198 -39.95 0.0003842783    1.195    0.163
        13  -8.1923     96.1789    212.9387   9.9607526993e+01   1.6429328640e+01    0.1792524    0.1700865 -85.11 0.0004256255    1.090    0.083
        14  -9.3632    181.5229    211.6022   7.9796105587e+01   3.1414247543e+00    0.3875995     0.224014  49.82  0.001744312    2.330    0.571
        15  -8.7903    166.9966    204.1113   8.1594742786e+01   6.9094182495e+00     0.203022    0.1834524   3.82 0.0002656889    1.005    0.005
        16 -10.2421    192.4467    194.0977   7.4254103962e+01   4.6794923443e+00     1.083288    0.5330771 -60.86  0.003285956    5.300    0.811
        17  -9.2145     28.2088    198.5670   1.1427378787e+02   2.8481485620e+01    0.2204319    0.1757221 -63.86  0.000535758    1.290    0.225
        18 -11.4664    212.2427    245.5071   7.9398259804e+01  -6.8286989169e+00    0.6440606    0.3359227 -20.61  0.003310155    2.103    0.525
        19 -12.1733     56.8871    123.9212   9.5774540518e+01   4.4227780379e+01    0.6437456    0.5974562 -78.93 0.0007201264    1.122    0.109
        20 -12.5293     32.2146    125.0174   1.0415979092e+02   4.6664873490e+01    0.8184575    0.5399041 -27.12  0.003208446    1.764    0.433
        21 -12.1906      8.8008    128.7854   1.1223284586e+02   4.7541311286e+01     1.061452    0.5106427  75.45  0.004347732    2.950    0.661
        22  -8.7549    118.0714    147.8893   8.2397517063e+01   2.8317679431e+01    0.2300791    0.2197166 -51.13 0.0004448676    1.037    0.035
        23  -9.1740     98.5188    117.0375   8.0752871811e+01   3.9425783862e+01    0.2503706       0.2065  34.47 0.0008982444    1.248    0.199
        24 -11.0489     27.3675    115.5748   1.0416840165e+02   4.9490997252e+01    0.3846497    0.2631544  32.09  0.002059869    1.650    0.394
        25 -13.3457     35.1762    130.0599   1.0403513868e+02   4.5091611435e+01     1.150833    0.9788235 -29.54  0.005086444    1.258    0.205
        26 -10.2239     85.9912     97.4697   7.9512241299e+01   4.6217725617e+01    0.2613978      0.20743 -43.71 0.0009068313    1.215    0.177
        27 -11.2710    186.7067    169.9550   7.0610226367e+01   1.0390867232e+01    0.4934692    0.3526791  61.45  0.001733313    2.002    0.501
        28 -11.2726    130.9809     68.9612   5.7855187978e+01   4.2584450527e+01    0.6961779    0.5590621  -7.20  0.003549488    1.502    0.334
        29 -10.0818    134.3614     83.8297   6.1432521314e+01   3.9147917691e+01    0.3173613    0.2695123 -10.72  0.001619913    1.342    0.255
        30 -10.3488    134.7605     77.7433   5.9558627726e+01   4.0181278494e+01    0.5561534    0.2583622 -29.79  0.001159759    2.736    0.635
        31 -11.4134    140.7892     75.3800   5.7442413670e+01   3.9222782490e+01    0.6076987    0.3267619 -49.98  0.002401727    2.070    0.517
        32 -10.3208    136.0129     72.5495   5.7726420514e+01   4.0815232448e+01    0.3516599    0.3038178  -8.47   0.00186567    1.317    0.241
        33  -8.5818    111.4349    168.4756   8.8451411435e+01   2.4480927867e+01    0.2781903    0.2079774  70.37  0.001262401    1.693    0.409
        34 -10.4848    177.0000    169.9550   7.2694156504e+01   1.2145591770e+01    0.2876677    0.2059487 -40.09  0.001257563    1.331    0.249
        35  -8.5190    107.7801     71.4258   6.4782042134e+01   4.7282024763e+01    0.2271754    0.1786044 -28.08 0.0006575473    1.319    0.242
        36  -9.7135    179.3012    175.7067   7.3384712170e+01   1.0543659030e+01    0.6975557    0.4720095  89.37  0.002499524    3.814    0.738
        37 -10.2798    135.3063     59.5332   5.3985165156e+01   4.3125168489e+01    0.2885003    0.2692118 -89.49  0.001028546    1.118    0.106
        38  -7.8427     94.5167    189.4099   9.6569385523e+01   2.2160124600e+01    0.1418697    0.1385267  47.09 0.0001069508    1.042    0.040
        39 -11.2779    137.3251     51.0894   5.0979805222e+01   4.3921016549e+01    0.5811611    0.3644517  -3.45  0.002437274    2.698    0.629
        40 -10.8690    139.3515     44.1628   4.8463056916e+01   4.4408674980e+01    0.4130673    0.2662129 -23.07  0.002033713    1.844    0.458
        41  -8.9014    132.1452     46.5697   5.0695190151e+01   4.5770711802e+01      0.21504    0.1659777 -25.08 0.0005622964    1.442    0.306
        42 -10.9050    134.2224     39.9896   4.8217078762e+01   4.6163252860e+01    0.4987697    0.3185089 -33.70  0.002539059    1.687    0.407
        43  -9.6606    119.0156     41.3979   5.1989247042e+01   4.9505665698e+01    0.3091584    0.2071637 -22.44  0.001001792    1.710    0.415
        44  -8.7072    161.3755    176.3392   7.7533266776e+01   1.3641451237e+01    0.2958967    0.2205328  85.15  0.000854017    2.241    0.554
        45 -10.1695    148.4371     39.0767   4.5242866139e+01   4.2927511241e+01    0.2856381    0.1769878  85.43   0.00132988    1.993    0.498
        46 -10.6575    130.4586     33.5856   4.6975712063e+01   4.7841538524e+01    0.5212834    0.3241692  19.12  0.002377457    2.430    0.588
        47  -8.6840    155.3123    178.9845   7.9481139032e+01   1.4166369095e+01    0.2578138    0.2086152  67.25 0.0007760148    1.607    0.378
        48  -9.4159    137.3211    156.4895   7.9197134622e+01   2.2616604758e+01    0.2723263    0.1988778 -73.54  0.001184047    1.810    0.447
        49  -8.7305    123.2443     31.8776   4.7917062876e+01   4.9723412911e+01     0.216088    0.1456308  18.47 0.0008775101    1.962    0.490
        50  -8.9098     30.9312    183.0234   1.1214262884e+02   3.1980672948e+01    0.1931323    0.1678135  84.88 0.0002880882    1.017    0.017
        51 -10.1381    164.9192    149.9310   7.1047767965e+01   1.8710126700e+01    0.3492518    0.2939098 -32.97 0.0006676805    1.150    0.130
        52  -8.7090    136.5345     20.9555   4.1927942199e+01   4.7822352004e+01    0.1949258    0.1574225  62.30 0.0004243087    1.087    0.080
        53 -11.2773    143.8245    145.5068   7.5095831754e+01   2.3890712686e+01    0.8065019    0.4451598 -65.50  0.002763724    2.908    0.656
        54 -10.4785    150.2652    148.4878   7.4185478017e+01   2.1932190602e+01    0.3811171    0.2087024 -54.08  0.001134204    1.980    0.495
        55 -10.4372    187.2152    239.7036   8.3378945425e+01  -2.5849276304e+00    0.3164167    0.2537591 -63.23  0.001138282    1.960    0.490
        56  -9.9407    219.7281    235.5226   7.6335547582e+01  -6.3000663786e+00    0.3162334    0.1712288  -9.72  0.001545761    2.273    0.560
        57  -8.0612    143.3118     10.3302   3.7697822101e+01   4.7260980015e+01     0.129546   0.08488777  41.22  0.000297749    1.671    0.402
        58 -11.7222     89.7436    121.1736   8.4502138060e+01   3.9985174097e+01     1.172112     0.716229  61.52  0.004521169    2.474    0.596
        59 -10.3842    207.5484    234.1894   7.8435088677e+01  -4.4987122947e+00    0.2195182    0.1832984   9.52 0.0003358577    1.124    0.110
        60 -12.5405     67.3451    143.3088   9.6261987614e+01   3.7855904181e+01     1.515822     1.287518 -80.93  0.007885677    1.211    0.175
