#   1 NUMBER                 Running object number                                     
#   2 MAG_AUTO               Kron-like elliptical aperture magnitude                    [mag]
#   3 X_IMAGE                Object position along x                                    [pixel]
#   4 Y_IMAGE                Object position along y                                    [pixel]
#   5 X_WORLD                Barycenter position along world x axis                     [deg]
#   6 Y_WORLD                Barycenter position along world y axis                     [deg]
#   7 A_WORLD                Profile RMS along major axis (world units)                 [deg]
#   8 B_WORLD                Profile RMS along minor axis (world units)                 [deg]
#   9 THETA_WORLD            Position angle (CCW/world-x)                               [deg]
#  10 FWHM_WORLD             FWHM assuming a gaussian core                              [deg]
#  11 ELONGATION             A_IMAGE/B_IMAGE                                           
#  12 ELLIPTICITY            1 - B_IMAGE/A_IMAGE                                       
         1 -10.6364     93.8866     75.3934   7.3778143936e+01   4.9581292175e+01     3.676293     1.395713 -56.21   0.00817419    7.723    0.871
         2 -11.1749     60.3294     46.4223   7.5675508867e+01   6.0855631479e+01     1.656903    0.7722588 -27.60  0.006921874    2.481    0.597
         3 -11.5712     61.3106     37.0182   7.1486757731e+01   6.2206363134e+01    0.6958311    0.5223503 -13.36  0.002033726    1.249    0.199
         4 -12.3370    125.0072     27.7068   4.8686796244e+01   5.0076406993e+01    0.7446037    0.5942481  47.06  0.001793291    1.134    0.118
         5 -11.3989    154.8795     23.3901   4.1869370137e+01   4.3292146991e+01     1.293219     0.697799  31.11  0.005472687    2.791    0.642
         6 -11.6854    142.5435     27.3109   4.5123822567e+01   4.5879188852e+01     2.022905    0.9052782  29.26  0.006227694    5.044    0.802
         7 -12.1237    130.8353     14.7651   4.3201277265e+01   5.0014792662e+01     1.804767    0.6033722  65.66   0.00688049    2.710    0.631
         8 -11.4408    164.9873     17.8808   3.8830321017e+01   4.1408551404e+01    0.4889178     0.270082  43.03  0.001608041    2.101    0.524
         9 -10.4911     46.8897     19.2320   6.9685622019e+01   6.7007339330e+01    0.3130276    0.2168446  -7.95  0.001480102    1.331    0.249
        10 -10.3711      5.5183     33.3768   9.6902837377e+01   6.9254943558e+01     1.721483    0.1830524 -52.76  0.005767052    4.739    0.789
        11 -11.9603     35.9788     17.4492   7.3921996329e+01   6.8825112358e+01    0.6547952    0.4759436 -32.98  0.003127027    1.499    0.333
        12 -12.0689     48.4148     12.9028   6.5961955895e+01   6.7538427476e+01    0.5902562    0.2773246  41.99  0.002162755    1.984    0.496
        13 -11.7996     27.2333     28.1165   8.3250897975e+01   6.8315815929e+01     0.557055    0.4071019   0.04   0.00234197    1.180    0.152
        14 -11.9907     20.0897     21.7893   8.4234633494e+01   7.0072038252e+01    0.6580023    0.2393386 -39.64  0.002477945    2.372    0.578
        15 -12.5366     17.1937     12.5255   8.1458030353e+01   7.1756862070e+01    0.7583562    0.4878547 -13.77  0.003634923    1.289    0.224
        16 -12.1321     23.0890     11.3018   7.7537399942e+01   7.1279857151e+01    0.4971578    0.3090418  -3.13  0.002181774    1.466    0.318
        17 -11.6241    136.7229     22.6770   4.4707691456e+01   4.7801664418e+01     1.190823    0.3773172  51.47  0.004484068    2.684    0.627
        18 -10.7915    198.7205     29.0598   3.7578862975e+01   3.2113996249e+01    0.5568594    0.3704782 -33.47  0.002809299    1.598    0.374
        19 -11.1730    106.0254     20.2823   5.0347447928e+01   5.5310010326e+01    0.5139574    0.4169028 -43.20  0.002094241    1.464    0.317
        20 -10.9660    178.7481     21.2355   3.7963244191e+01   3.7730029968e+01    0.5614207    0.2742418  47.65  0.001849756    2.326    0.570
        21 -10.8621     86.8285      7.5564   5.0226915348e+01   6.0750716211e+01    0.5641309    0.3229736  58.45  0.002387319    1.614    0.380
        22 -11.0120     90.6841     20.8681   5.4623271991e+01   5.8642362849e+01     0.564145    0.3393247 -28.84   0.00246475    1.808    0.447
        23 -11.3599     85.9153     14.2474   5.3274858367e+01   6.0333934247e+01    0.4961755    0.2872569 -11.78  0.001893695    1.981    0.495
        24 -11.8737     68.2572     18.0188   6.0582445973e+01   6.3479122940e+01    0.5018623    0.3834064  30.72  0.001948442    1.110    0.099
        25 -11.5043    245.9369     17.7588   3.0846648059e+01   2.3238444732e+01     0.457719    0.3141083 -50.84  0.002527832    1.233    0.189
        26 -12.0531    233.9753      6.7964   2.9511759496e+01   2.6881263130e+01    0.7493598    0.4518376  85.15  0.004647135    1.485    0.327
        27 -11.7924    238.0857     15.9191   3.1051131032e+01   2.5033709682e+01    0.4383872    0.3304201  68.84  0.002168107    1.443    0.307
        28 -11.4447    227.4111     15.4447   3.1770945157e+01   2.7311536279e+01    0.4933363    0.2960746  87.24  0.001265968    1.538    0.350
        29 -11.0571    218.8528      3.1151   2.9829030253e+01   3.0454075181e+01    0.3220554    0.2477757 -42.42   0.00105458    1.361    0.265
        30 -11.0398    223.8090      2.0114   2.9243290267e+01   2.9505190853e+01     0.468628    0.1951708  78.97  0.002318903    2.187    0.543
        31 -11.4632    243.9261     11.0482   2.9674985243e+01   2.4398378030e+01    0.3355742    0.2778248 -28.66  0.002209786    1.564    0.361
        32 -11.3370    247.6365      5.8185   2.8431033212e+01   2.4233230814e+01    0.3320205    0.3041577  41.73  0.001688716    1.663    0.399
        33 -10.1365     10.9120     29.9357   9.2694276672e+01   6.9511021810e+01    0.8296694    0.2714608 -57.05  0.003206769    4.088    0.755
        34 -11.0065    243.7258      2.4820   2.8036316614e+01   2.5360727567e+01    0.4639475    0.1984845  58.87  0.002424813    2.738    0.635
        35 -10.5206    211.2860     17.8875   3.3679409751e+01   3.0548067303e+01    0.3300366    0.1863042 -35.45  0.001802696    1.793    0.442
        36  -9.4704    198.5872     17.3473   3.4776319828e+01   3.3486653680e+01    0.3293867    0.1976374  27.32  0.001490828    3.213    0.689
        37  -9.5144    191.3495     16.8965   3.5417055416e+01   3.5214695228e+01    0.2711385    0.2154607   3.44  0.001116517    1.817    0.450
        38 -11.5722    192.6082      7.9091   3.3109736109e+01   3.5847030184e+01    0.6290553     0.466583  12.61  0.003147425    2.101    0.524
        39 -12.1592    104.5692     12.6149   4.7804800852e+01   5.6384198029e+01    0.4751773    0.4415721 -11.35  0.001761269    1.217    0.179
        40 -12.4328    120.6396     57.6649   5.9906746005e+01   4.7016877638e+01     2.294369     1.428146 -74.22  0.008193359    3.502    0.714
        41  -9.7047      4.5683     12.6899   8.9050487867e+01   7.2862784896e+01     0.284525    0.1616675  24.83  0.001788719    1.899    0.474
        42  -9.0050      5.3171      9.3161   8.6970315108e+01   7.3319841410e+01    0.1925385    0.1029844 -32.64 0.0006857263    1.498    0.332
        43 -11.3367    211.8209      9.5836   3.1778530335e+01   3.1326436753e+01    0.4887007    0.3281696   2.29  0.002392476    2.762    0.638
        44 -10.3101     65.4713     10.3097   5.8051654656e+01   6.4816403728e+01    0.2692533    0.2096144  47.76 0.0008535271    1.329    0.248
        45  -9.6805     62.6056      6.8801   5.7455342065e+01   6.5685070468e+01    0.2912837     0.165877  13.58  0.001524411    1.939    0.484
        46  -9.6814    168.8380      9.7228   3.6109530903e+01   4.1284924970e+01    0.3220024     0.148614  53.43  0.001509209    2.077    0.518
        47  -9.4040    163.0517     10.1262   3.6929837933e+01   4.2640625634e+01    0.2004126     0.155505  53.68 0.0008639884    1.284    0.221
        48  -9.5819      1.0000      8.1955   8.9153161249e+01   7.3819949361e+01    0.2188442    0.0524948 -47.54 0.0009066949    3.712    0.731
        49  -8.7643     78.2282      7.4433   5.2616991820e+01   6.2564578888e+01    0.3108437    0.2115688  72.79  0.001402344    2.008    0.502
        50 -10.2661     76.5186      3.4861   5.1378353725e+01   6.3249888799e+01    0.2683668    0.2038362  35.23 0.0009159375    1.070    0.065
        51 -10.4806     73.2466      3.0012   5.2140371934e+01   6.3954546603e+01    0.6014307    0.2646163  32.25  0.002796369    2.277    0.561
        52  -9.9932    169.4031      2.5356   3.4128905029e+01   4.1803310759e+01    0.2468883    0.1660103 -65.66 0.0004968324    1.506    0.336
        53 -10.9354    183.9853      4.6445   3.3152460531e+01   3.8167259752e+01    0.4163963    0.3599041 -36.24  0.002028669    1.338    0.253
        54 -11.0978    177.0926      5.8891   3.4172409508e+01   3.9674657572e+01    0.4603882    0.1960581  79.89 0.0007636836    2.282    0.562
        55 -10.1580    158.1300      3.6598   3.5741172711e+01   4.4406108323e+01    0.4444825    0.2911907   1.69  0.002392082    2.206    0.547
        56  -9.2505    153.5487      7.1269   3.7314049165e+01   4.5210795480e+01    0.2158036    0.1516187  55.85 0.0007532747    1.308    0.235
        57 -10.5341     41.6632      4.3327   6.4581521340e+01   6.9552863305e+01    0.4089632    0.2127667   7.40  0.002020736    2.371    0.578
        58 -11.8892    134.3655      2.7190   3.8717745454e+01   5.0204034979e+01    0.4631668    0.2641142  78.40 0.0007439611    1.705    0.413
        59  -9.2502    121.9670      5.1583   4.1571166502e+01   5.2967473520e+01    0.1865212    0.1558273  84.15  0.000400309    1.236    0.191
        60  -9.9938    142.9828      3.4822   3.7686607521e+01   4.8071311002e+01    0.3322835    0.1967086  85.09  0.001708511    1.727    0.421
        61 -10.6818    112.7211      2.4748   4.2342381391e+01   5.5345768094e+01    0.9037271    0.2616553  70.19  0.002964347    4.115    0.757
        62 -10.5888    105.1074      1.7534   4.3593767526e+01   5.7155132851e+01    0.4758963    0.1671193  66.32  0.001919294    2.687    0.628
        63  -7.8566     53.5857      3.4135   5.9117940503e+01   6.7648121195e+01    0.3046161    0.1310821 -39.47  0.001369566    3.399    0.706
        64 -11.3190      2.5364      2.0654   8.5030138576e+01   7.4596785850e+01    0.3256978    0.1695707   4.48  0.001674388    1.827    0.453
        65  -9.9275     12.7680      1.8022   7.8423060521e+01   7.3670563134e+01    0.3248162    0.1381344  26.64  0.001663867    2.185    0.542
        66 -10.3536    207.5049      2.5024   3.0564409465e+01   3.2999098324e+01    0.2398467    0.1888653  86.91 0.0007079547    1.104    0.094
        67 -10.6283    203.7909      1.6244   3.0666937611e+01   3.3912519375e+01    0.3103441     0.180099  72.12 0.0009481426    1.525    0.344
        68  -8.7184     64.0000      1.9514   5.4621721203e+01   6.5858838196e+01    0.1699524   0.06635597 -21.23 0.0004311817    2.757    0.637
        69  -9.2142    151.7679      1.3517   3.5879273869e+01   4.6128515598e+01    0.2474979    0.1068608  74.96 0.0007694933    2.099    0.523
        70  -9.3009    122.7735      1.3440   4.0135192354e+01   5.3071385270e+01    0.2464327    0.1074536  69.93 0.0009038851    2.081    0.519
        71 -10.2297     82.2438      1.3073   4.8815523980e+01   6.2229303192e+01    0.1993437    0.0950676  55.19 0.0003674894    1.744    0.427
        72 -10.5781    189.1825     41.0678   4.1762828294e+01   3.2842889883e+01    0.5198684    0.2040763 -28.53  0.002010736    2.977    0.664
        73 -10.1228    142.8502    249.8643   9.7566599766e+01   2.3034769079e+00    0.1961518    0.1584518  16.95  0.001228831    1.199    0.166
        74  -8.8490    233.6967    143.3050   5.9224467962e+01   6.3535009608e+00    0.1317546    0.1042453 -62.77 0.0004641728    1.598    0.374
        75  -8.7492     93.8223    146.6651   9.2586382188e+01   3.2927983538e+01    0.2124818       0.1358  45.35 0.0003757911    1.631    0.387
        76  -9.8125    132.8897    140.5890   8.0312697162e+01   2.7104330882e+01    0.3255262     0.274966 -55.24 0.0009988553    1.214    0.176
        77 -11.8549     23.1828    135.3869   1.1181130277e+02   4.4733123057e+01    0.8884085    0.4841577  35.20  0.004451978    2.016    0.504
        78 -11.8412     29.9703    132.9335   1.0941425964e+02   4.4773256761e+01    0.4919122    0.3228319 -89.77 0.0003832476    1.612    0.380
        79 -10.4748    216.9430    138.2433   6.1017573875e+01   1.0342559854e+01    0.3698468    0.2506003 -48.06   0.00119037    1.465    0.318
        80 -10.0858     70.1350    139.1731   9.8135530664e+01   3.8519986159e+01    0.2299352    0.1904931 -38.21 0.0004761008    1.253    0.202
        81  -9.8502     71.6809    150.6638   9.9798662503e+01   3.5351239130e+01    0.3875564    0.2411488 -33.68  0.001666416    2.043    0.511
        82 -10.2594     39.8421    138.1852   1.0719632954e+02   4.2479805981e+01    0.3034441    0.2197177  43.79  0.001080316    1.504    0.335
        83  -9.9092     80.3079    137.0882   9.4622867373e+01   3.7543621740e+01    0.4690937    0.2774951 -27.13  0.001800488    2.492    0.599
        84 -10.3128     46.9568    135.3241   1.0455970764e+02   4.2450781621e+01    0.4812294    0.2691975 -76.69  0.001927799    1.907    0.476
        85  -9.8151    245.0383    134.7003   5.5565170797e+01   5.8784458430e+00    0.1798058    0.1636553 -24.35 0.0004071278    1.095    0.086
        86 -10.4081     93.0952    129.8746   8.9151366501e+01   3.7269721722e+01    0.3929116    0.2306315 -65.88  0.001555235    2.018    0.504
        87 -10.2231     74.1625    132.5304   9.5568001896e+01   3.9636041923e+01    0.3362755    0.2184869 -28.57  0.001448174    1.948    0.487
        88  -9.9942     61.2186    132.3240   9.9573530849e+01   4.1493197570e+01    0.4390671    0.3222319 -16.66  0.002129219    1.730    0.422
        89  -9.0743     38.4472    133.3146   1.0686183757e+02   4.3869532506e+01    0.2352756    0.1541249  53.97  0.001017988    1.751    0.429
        90 -10.1472    103.7321    130.9523   8.6213260455e+01   3.5105658196e+01    0.2612821    0.2245952  41.67 0.0002500739    1.198    0.165
        91 -10.8704      9.8987    128.0052   1.1486359526e+02   4.7563652280e+01    0.5039002     0.233723 -59.67  0.001959122    1.715    0.417
        92 -10.2704     81.0308    124.7858   9.1727057504e+01   4.0542531857e+01    0.4883729    0.3910209  23.82  0.002442639    1.355    0.262
        93  -9.6370    240.9880    128.1808   5.4791220019e+01   7.7071716107e+00    0.2228175    0.1552639  11.39 0.0009120894    2.082    0.520
        94  -8.9699    223.6481    126.7433   5.7260679356e+01   1.1171493521e+01    0.2042269    0.1167133 -45.83  0.000401333    1.630    0.387
        95  -9.3190     40.8266    126.4167   1.0496970901e+02   4.5390587992e+01    0.2330942    0.1459714 -59.03 0.0003630438    1.376    0.273
        96 -10.4084     22.7501    127.0781   1.1079862685e+02   4.6870111365e+01    0.2023311    0.1843952 -41.10 0.0003199609    1.183    0.155
        97  -9.8557      2.1711    125.9040   1.1693831541e+02   4.8549658676e+01     0.281598    0.1776821  79.22 0.0009937083    1.647    0.393
        98  -8.8891     59.8326    123.6399   9.8292185025e+01   4.3891159645e+01     0.201297    0.1725141  78.83 0.0005408801    1.316    0.240
        99  -9.7432     58.1043    118.1831   9.7722147172e+01   4.5494475046e+01    0.3293465    0.1758116 -51.85  0.001301374    1.662    0.398
       100  -9.4879     53.4383    125.2793   1.0069483222e+02   4.4272760793e+01    0.3216018    0.1907955 -60.43  0.001489088    1.511    0.338
       101  -9.3033     56.4843    122.0606   9.9063752111e+01   4.4718234415e+01    0.2382841    0.1888406 -31.84 0.0007947562    1.326    0.246
       102  -9.8599     49.4368    123.3649   1.0162791475e+02   4.5231280688e+01    0.2974294    0.2297959 -32.61 0.0008942601    1.373    0.272
       103 -11.2417     44.5686    118.9627   1.0239169185e+02   4.6891065521e+01    0.6481686       0.3843  87.09  0.002699808    2.506    0.601
       104 -12.2853    103.8457    122.4387   8.4113578138e+01   3.7162648391e+01    0.4631811    0.4056243   6.35 0.0006538861    1.249    0.200
       105  -9.7806     18.9856    122.6747   1.1135265772e+02   4.8268323812e+01    0.2181737    0.1607901 -72.46 0.0005206689    1.164    0.141
       106  -8.6804    143.4886    122.4244   7.3046091862e+01   2.9047886806e+01    0.1580175    0.1544738  -7.26 0.0002051909    1.015    0.015
       107  -9.2556     71.3499    120.8814   9.3948968776e+01   4.3000059894e+01     0.215762    0.1787625 -49.44 0.0006730946    1.119    0.106
       108 -11.7076     49.4820     99.6561   9.6560883259e+01   5.1131279410e+01     1.725849    0.4661644 -49.21  0.005773067    3.030    0.670
       109 -11.0481     17.0277    100.9869   1.0858893280e+02   5.3782908042e+01    0.3143997    0.2443312 -40.99  0.000354025    1.199    0.166
       110 -11.5851      9.7144     97.3818   1.1059089762e+02   5.5113280229e+01    0.5416922    0.4906116  -9.56 0.0008785666    1.277    0.217
       111 -11.8778      7.0760     88.8430   1.1010240219e+02   5.7296136874e+01    0.6166658    0.4856496  25.20  0.003942106    1.543    0.352
       112 -11.3816     18.7196    106.0490   1.0886146955e+02   5.2426160523e+01    0.2513917    0.2274736 -49.34 0.0001914623    1.104    0.094
       113 -11.4471     27.1063     86.1252   1.0184596702e+02   5.6589843355e+01    0.6112286    0.5278319   4.81  0.001064533    1.280    0.219
       114 -13.1424     25.7149    111.5617   1.0739666773e+02   5.0530780411e+01      1.55129     1.227859 -36.45  0.009168746    1.264    0.209
       115 -11.9484     34.7931     93.9635   1.0067149980e+02   5.4052668492e+01    0.7525851    0.4913663 -33.45  0.003345521    1.505    0.336
       116 -12.1599     42.4830     85.5169   9.5685880299e+01   5.5264736633e+01     1.063621    0.4571223  21.50  0.003353203    2.690    0.628
       117 -11.6905     22.4169     94.9249   1.0550223807e+02   5.4867558703e+01    0.5003018    0.3378098  -2.14 0.0007997665    1.746    0.427
       118 -11.4907     18.2846     90.3789   1.0615354553e+02   5.6252452117e+01    0.4819784     0.264777 -60.03 0.0007498967    1.483    0.326
       119  -9.0369    221.4711    120.5068   5.6211699045e+01   1.2724040719e+01    0.1438359    0.1266354 -44.38  0.000136853    1.059    0.056
       120  -9.5030    113.5211    116.0891   7.9612776112e+01   3.6798092148e+01    0.2870142    0.2311955 -41.35  0.001365143    1.216    0.178
       121 -10.1820      6.9586    114.4926   1.1406876716e+02   5.1094388625e+01    0.2911927    0.2001909 -63.20 0.0009435696    1.163    0.140
       122 -12.6541      2.1861    111.3350   1.1519902353e+02   5.2127778424e+01    0.4134774    0.2387809 -69.88 0.0005039343    1.376    0.273
       123 -11.1861      4.1755    104.8538   1.1366689105e+02   5.3605155492e+01    0.4226916    0.3119564  35.16  0.002191873    1.640    0.390
       124  -9.4376     78.9961    114.1841   8.9878584757e+01   4.3498535821e+01     0.282941    0.2100367 -49.86  0.001368348    1.262    0.208
       125  -9.6674     66.9999    114.4817   9.3927606950e+01   4.5225701398e+01    0.3286716     0.242746  69.36  0.001546205    1.809    0.447
       126  -9.7247     65.6879    110.6862   9.3482616235e+01   4.6350302495e+01    0.4707503    0.2237337  28.89  0.001881818    2.309    0.567
       127 -10.5622    170.4066    110.6412   6.3575263011e+01   2.5549078229e+01    0.4700671     0.333551 -36.78  0.001464934    1.388    0.280
       128  -9.3874    126.9252    113.5049   7.5105923717e+01   3.4621175938e+01    0.2395764    0.1579068  41.29 0.0006889541    1.540    0.351
       129 -10.6023    107.8057    112.1173   8.0255628684e+01   3.8859220436e+01    0.6726096    0.5166842  51.27  0.003147841    1.419    0.295
       130 -10.7270    101.5364    109.4775   8.1459935595e+01   4.0687412408e+01       0.6491    0.3971778  22.69  0.002314023    2.070    0.517
       131  -9.6174    103.2320    106.0136   7.9992929668e+01   4.1166338530e+01    0.3460624    0.2871692  23.41 0.0006921466    1.268    0.211
       132  -9.8562     94.4202    112.4847   8.4480262958e+01   4.1293719683e+01    0.3245391    0.2911236 -72.38  0.001193209    1.230    0.187
       133  -9.8777     48.9355    112.5422   9.9629693086e+01   4.8021589699e+01    0.2705806    0.2371515  73.73 0.0009557326    1.316    0.240
       134 -10.1006    132.4511    111.7573   7.3125798925e+01   3.3823850480e+01    0.3184876    0.1538364 -48.94   0.00114543    2.132    0.531
       135 -10.2022    120.9062    108.9840   7.5567120645e+01   3.6913397956e+01    0.4160965    0.3190548  11.12  0.001356808    1.613    0.380
       136 -11.5025     79.5566    108.3715   8.8237372395e+01   4.4823934664e+01    0.7146962    0.3829965  30.05  0.001445977    2.034    0.508
       137  -9.0186     59.0372    109.5464   9.5494173656e+01   4.7530887913e+01    0.2018932    0.1444154  28.47 0.0005051937    1.517    0.341
       138 -10.5550    175.4618    107.5617   6.1690525535e+01   2.5018300373e+01    0.3397052    0.2535669 -10.89 0.0008812026    1.738    0.425
       139  -9.7472    157.4374    106.1649   6.5321382860e+01   2.9416999327e+01     0.329603    0.2438756  18.04 0.0008837475    1.757    0.431
       140 -10.6938    143.3383    106.0017   6.8707594095e+01   3.2659093631e+01    0.3407832    0.3031861  81.08  0.001571894    1.287    0.223
       141 -11.5485    145.4528    100.1122   6.6544250049e+01   3.3407833833e+01     0.449488    0.3628051 -34.22 0.0003858189    1.251    0.200
       142  -9.6288     57.2232    102.4881   9.4460423109e+01   4.9494309364e+01    0.2808722    0.1889689 -54.30 0.0009390996    1.354    0.261
       143  -9.8526    120.7093    101.4139   7.3506524024e+01   3.8633162550e+01    0.2827911    0.1952645 -22.37   0.00118837    1.774    0.436
       144  -8.7717    208.7914    100.9799   5.3758358386e+01   1.8858562140e+01     0.179601    0.1521773 -42.71 0.0003738108    1.082    0.075
       145  -9.7468    209.6664     97.7024   5.2824991049e+01   1.9253562321e+01    0.2242599    0.2077399 -14.63  0.001156883    1.189    0.159
       146 -10.5835     82.5108     93.4871   8.3189069373e+01   4.7817719810e+01    0.4643838    0.2699668  40.22  0.001248176    1.805    0.446
       147 -10.9852     77.9638     93.0120   8.4619463775e+01   4.8687954750e+01    0.6030801    0.5256733 -60.28  0.003219343    1.254    0.202
       148 -11.7156     76.8678     81.1358   8.1464185794e+01   5.1490931576e+01    0.8708051    0.7001005 -86.15  0.003870816    1.868    0.465
       149 -10.9267     72.8690     78.4959   8.2083651869e+01   5.2712083162e+01     0.667966    0.3902922 -33.96  0.002982374    1.737    0.424
       150 -10.0248     57.5279     97.4932   9.3111390196e+01   5.0656004042e+01    0.3419737    0.1827394 -44.15  0.001215489    1.714    0.416
       151  -9.9077     77.5457     96.5626   8.5765665809e+01   4.7941895384e+01    0.3725002     0.265746  55.09  0.001260596    1.780    0.438
       152 -10.4075     42.9647     94.7204   9.7786606792e+01   5.3048633884e+01    0.3645066    0.3205312 -34.72  0.001535791    1.052    0.049
       153 -11.6657     88.6478    103.9006   8.4052103693e+01   4.4354589268e+01    0.5885071     0.444803  36.17  0.001105141    1.372    0.271
       154 -11.4264     67.8756     95.7142   8.8925171066e+01   4.9638159909e+01      1.13034    0.4866062  38.74  0.004376963    2.484    0.597
       155 -10.2262    117.0738     94.1524   7.2447372826e+01   4.0971906659e+01    0.4770662    0.3422636  -2.81  0.001819948    1.940    0.484
       156 -11.1811    124.9467     93.6586   7.0070064193e+01   3.9366736058e+01    0.6395579    0.3938342  43.45  0.001425992    1.626    0.385
       157 -11.1617    120.7305     87.2427   6.9334515966e+01   4.1611360233e+01    0.6300965    0.4049076 -47.47  0.002744297    1.620    0.383
       158 -10.7247    152.3475     92.2592   6.2674398881e+01   3.3382736042e+01    0.4288288    0.3532912  74.15  0.001714092    1.387    0.279
       159  -9.6444    104.5187     93.6775   7.6070352542e+01   4.3675245246e+01    0.3719951    0.2664444  77.84   0.00147653    2.306    0.566
       160 -10.3806     99.1567     91.1651   7.7005985273e+01   4.5280269018e+01    0.3671325    0.2528233  37.04  0.001478484    1.473    0.321
       161  -8.6800    137.6062     93.7014   6.6701921222e+01   3.6512684252e+01    0.1662107    0.1227164  12.73 0.0007007482    1.801    0.445
       162 -11.1358     90.1009     89.2619   7.9383753074e+01   4.7409746466e+01    0.7195486    0.3796855 -31.98  0.002772068    2.231    0.552
       163 -10.6182    183.4587     85.4971   5.4326610419e+01   2.7316767455e+01    0.7635008    0.2773441 -45.17  0.002617309    2.737    0.635
       164 -10.1626     66.6717     88.6931   8.7408146092e+01   5.1433633883e+01    0.3222142     0.222727 -12.60 0.0008474445    1.752    0.429
       165 -10.4140     67.3062     82.1246   8.5248625828e+01   5.2803285213e+01    0.4455241    0.3169052 -40.49  0.002134099    1.300    0.231
       166  -9.1847    111.4872     87.5143   7.2098308475e+01   4.3547360513e+01    0.3070851    0.2331107 -53.70  0.001444884    1.448    0.309
       167 -10.9051    113.8270     83.7320   7.0243801626e+01   4.3819527031e+01    0.5142394    0.4034178 -59.07  0.002464071    1.493    0.330
       168 -11.6408    109.1594     80.8024   7.0713689783e+01   4.5399506647e+01     1.166755    0.6755764  -7.80  0.003598125    4.049    0.753
       169 -10.2567    165.6242     83.6499   5.7327657931e+01   3.1860681903e+01    0.3853812    0.2970769 -47.16  0.001394614    1.293    0.226
       170 -10.8178     60.6930     83.5461   8.8143411502e+01   5.3453014259e+01    0.3255518    0.2394484 -54.43 0.0003131445    1.376    0.273
       171 -10.0171     47.1655     74.5989   9.0796292185e+01   5.7184478815e+01    0.4379513    0.2285259 -51.29  0.001132432    1.750    0.429
       172 -11.6745     53.0330     75.4407   8.8700525560e+01   5.6269014641e+01    0.6939418    0.3896327 -54.56  0.003219526    1.798    0.444
       173 -10.7971     58.1290     77.6174   8.7363210108e+01   5.5114784878e+01    0.3585318    0.2566953 -50.82 0.0008137015    1.372    0.271
       174  -9.7937    127.3560     82.9553   6.6204807044e+01   4.0981475863e+01    0.2992985    0.2478206  84.07 0.0007812499    1.527    0.345
       175 -10.6381    126.8158     77.0029   6.4514444267e+01   4.2237547080e+01     0.320763    0.2731012 -12.88 -0.000430966    1.273    0.214
       176 -11.7742    122.9548     69.0135   6.3015749198e+01   4.4571775981e+01    0.5369468    0.5058534  12.50   0.00158646    1.052    0.049
       177  -9.4133    160.6291     93.9093   6.1247541223e+01   3.1120591857e+01     0.316773    0.2103326  71.65  0.001311494    1.984    0.496
       178 -10.8309    103.8006     76.0406   7.0826722459e+01   4.7457783113e+01    0.6044825    0.4086495 -46.37  0.002798245    1.555    0.357
       179 -10.1461    232.9153     77.8008   4.4817883747e+01   1.7687919285e+01    0.3302607    0.1858149 -35.97  0.001353847    1.655    0.396
       180  -9.8958     14.0860     67.5123   1.0279794235e+02   6.1776306469e+01    0.4453381    0.2326506   8.66  0.002302598    2.188    0.543
       181  99.0000     15.5340     61.3578   1.0056819167e+02   6.3016008243e+01    0.4136869    0.2827173  66.45  0.001452054    2.581    0.613
       182 -11.8260      1.9581     71.4172   1.0883975009e+02   6.1563449352e+01    0.8417384    0.2135419 -67.64  0.003081885    3.497    0.714
       183 -12.7408      4.3055     61.7425   1.0571007891e+02   6.3589937704e+01     0.438309    0.3333232 -30.58  0.002898991    1.165    0.141
       184  -9.6558    175.0322    246.9703   9.0507891999e+01  -2.0528456914e+00    0.2088262    0.1668246  18.36  0.001326164    1.032    0.031
       185 -11.6041     85.5735     73.2783   7.5880794806e+01   5.1579219386e+01    0.7026224    0.5609128  50.53  0.002565632    1.441    0.306
       186 -11.4592     76.6120     64.8969   7.6216750056e+01   5.4820522422e+01    0.8039733    0.5436996 -70.93  0.001568257    2.901    0.655
       187 -11.2873     76.6167     58.9558   7.4114514138e+01   5.5922842605e+01    0.4816946    0.4030837  21.44  0.001333725    1.136    0.119
       188 -11.7918     73.1179     48.9823   7.1698076855e+01   5.8275669760e+01    0.8964504    0.7519897 -56.01  0.004724618    1.599    0.375
       189 -12.1768    186.3488     70.5634   4.9885407921e+01   2.9174946030e+01     0.930411    0.5749728 -40.86  0.003024178    1.561    0.360
       190  -9.7738    184.3907     61.7499   4.7883241961e+01   3.1033799939e+01    0.3177498    0.2107213 -42.71  0.001314252    1.468    0.319
       191  -9.4517     63.4160     76.1658   8.4883410011e+01   5.4672396809e+01    0.3830808    0.2565196 -79.84   0.00154586    3.039    0.671
       192  -9.2329     66.4463     74.4960   8.3204414190e+01   5.4569006929e+01    0.2614619    0.2073587  -1.54 0.0007920694    1.296    0.228
       193 -11.0936    142.5793     84.4911   6.2765473242e+01   3.7170261653e+01    0.6309646    0.3200556  41.99 0.0009769924    2.069    0.517
       194 -11.1816     40.8976     71.3830   9.2412191346e+01   5.8602627978e+01     0.527022    0.2811961 -51.94    0.0020673    1.694    0.410
       195 -11.5112     34.3548     72.0675   9.5339658642e+01   5.9133497825e+01    0.7115874    0.2634618  26.65  0.002956023    2.861    0.651
       196 -11.5527     13.9158     74.8136   1.0459345486e+02   6.0156053196e+01    0.5670711    0.2831284 -63.49  0.002098162    1.765    0.434
       197 -10.0275    153.2469     72.7121   5.6834957978e+01   3.6766142150e+01    0.5290833     0.186835  44.53  0.001624777    3.127    0.680
       198  -8.9717     19.4318     71.8335   1.0157538948e+02   6.0454083610e+01     0.183786   0.09100904 -46.87 0.0006110212    1.601    0.375
       199  -9.5206    162.2061     71.0496   5.4476841392e+01   3.4884842554e+01    0.2728389    0.2223082  84.15  0.001377714    1.356    0.263
       200  -9.8335    172.0293     68.4898   5.1856612474e+01   3.2934509317e+01    0.3169326    0.2209019 -15.32  0.001338372    1.896    0.473
       201 -10.1741    171.2796     64.3616   5.0848996889e+01   3.3779883674e+01    0.4682985    0.3519984 -82.68  0.001763468    1.550    0.355
       202  -9.5126     22.1864     65.9177   9.8850089152e+01   6.1547596864e+01    0.4439673    0.2123881 -66.64  0.001974281    2.473    0.596
       203 -11.3675    219.7144     66.6589   4.3973805113e+01   2.2200522254e+01    0.5296762    0.3281402  63.93    0.0023602    1.697    0.411
       204  -9.4644     64.7334     61.3033   7.9439526194e+01   5.7479143493e+01    0.3109544    0.2618507 -22.29 0.0008550359    1.080    0.074
       205 -10.3895     59.4963     63.9774   8.2434005469e+01   5.7754655385e+01    0.4179894    0.2546334 -27.10  0.001445038    1.699    0.411
       206  -9.5960     57.3321     61.3105   8.2386847811e+01   5.8593302653e+01    0.2693933    0.1926366 -10.32 0.0007223954    1.459    0.315
       207  -9.7118    192.3982     65.7522   4.7650205667e+01   2.8518706111e+01    0.2706376    0.2026372 -74.10 0.0007456161    1.447    0.309
       208 -11.3294     21.0331     46.6546   9.3521193651e+01   6.5603806208e+01    0.3634735    0.2690179 -44.70  0.001500507    1.242    0.195
       209 -12.2504     26.5304     56.4853   9.4134730095e+01   6.3168483813e+01     1.221754    0.7721412  -4.25   0.00673099    1.683    0.406
       210 -10.4182     22.5830     36.9186   8.9232085354e+01   6.7285097901e+01    0.3843851    0.2100359  36.24  0.001622951    2.311    0.567
       211 -11.6009     26.8391     46.2114   9.0556292595e+01   6.5166212865e+01    0.7215275    0.3300005 -42.58  0.003577063    1.823    0.451
       212 -11.0238    127.5603    242.1178   9.9770718096e+01   5.9831783551e+00     0.326394    0.3090185 -16.05  0.001611854    1.210    0.174
       213  -9.1020    163.5028    243.5221   9.2367983131e+01   2.2943853613e-01    0.1300827    0.1085056  24.20 0.0008101275    1.027    0.026
       214 -11.4851     53.1403     49.7573   7.9939597863e+01   6.1359091383e+01     0.545278    0.4350569  48.37   0.00312143    1.685    0.407
       215 -13.1670     42.6108     45.5450   8.2939635209e+01   6.3535459698e+01    0.8133016    0.5756798  45.13 0.0006676347    1.932    0.482
       216 -12.2543     58.2942     29.8134   6.9641141059e+01   6.3759633061e+01    0.4640953    0.2639639  27.78 0.0007272137    1.688    0.407
       217 -11.6205     48.8515     30.5421   7.3971895416e+01   6.5140639888e+01    0.8803144    0.3209001  39.20  0.003751619    2.729    0.634
       218 -11.1780     40.9736     57.2315   8.7890854953e+01   6.1528760510e+01    0.4186195    0.2303165  34.65  0.001993314    2.015    0.504
       219 -11.9003     51.6196     61.4626   8.4784021762e+01   5.9357727043e+01    0.4641586    0.4012327 -77.83  0.002663762    1.694    0.410
       220 -11.8863     44.7723     60.1671   8.7235879490e+01   6.0491818462e+01    0.7753331     0.408714 -25.92  0.003481231    2.149    0.535
       221  -9.6628    201.3353     64.5787   4.6001486819e+01   2.6627287279e+01     0.352262    0.2268334  65.05   0.00116588    1.583    0.368
       222  -9.4761    197.7211     62.3350   4.5970054640e+01   2.7805608628e+01    0.2433904    0.1701729  70.99 0.0007588593    1.460    0.315
       223  -9.4708     84.3056     61.6461   7.2341230336e+01   5.4027504743e+01    0.3972695    0.2544849 -35.61  0.001910626    1.547    0.354
       224 -11.4446     91.6868     63.0931   7.0350011451e+01   5.2340662337e+01    0.8640622    0.4121616  48.87  0.003378145    2.264    0.558
       225 -10.6301     92.0886     57.6467   6.8293911162e+01   5.3217127492e+01    0.3343908    0.3111122  34.53  0.001053652    1.132    0.117
       226 -10.8039     87.9470     56.4740   6.9245690986e+01   5.4239510692e+01    0.4867319    0.2528632 -33.59  0.001322634    1.976    0.494
       227 -10.5133    158.0278     62.4330   5.2826284445e+01   3.7308210130e+01    0.6517771    0.3141598  53.05  0.002648929    1.976    0.494
       228  -9.2561    104.4745     53.4860   6.2962267606e+01   5.1309751199e+01    0.2498686    0.1388687 -21.22  0.001027034    2.253    0.556
       229  -9.7116    105.8916     63.7683   6.6111590281e+01   4.9285276617e+01    0.3378574    0.3079548 -34.24  0.001867181    1.150    0.130
       230 -10.9701    105.8320     58.3961   6.4283091034e+01   5.0215767949e+01    0.5075172    0.2981398  52.94  0.001226853    1.767    0.434
       231 -11.4535    234.4402     61.0395   4.0920932475e+01   1.9921752379e+01    0.4839931    0.3634627  66.05  0.001815471    1.437    0.304
       232 -10.1474    244.8714     51.1851   3.7715051416e+01   1.9206357216e+01    0.1966327     0.162343 -61.09 0.0006919349    1.020    0.019
       233 -10.1223    238.0913     55.8501   3.9393585617e+01   1.9920438765e+01     0.214485    0.1630371 -41.78 0.0003006557    1.236    0.191
       234 -10.5276    240.2619     50.5578   3.8038640885e+01   2.0220803860e+01     0.290996    0.2445413 -66.10 0.0008156801    1.033    0.032
       235  -9.7585     67.9842    240.4975   1.1220248268e+02   1.4887887978e+01    0.1877101    0.1074432  37.07 0.0007521919    1.569    0.363
       236  -8.5578    221.6621    239.3202   8.0099610615e+01  -7.5241168024e+00    0.1061471   0.09703122  42.74 0.0007049922    1.710    0.415
       237 -11.0774    148.6871    237.6917   9.4638100967e+01   3.5063212776e+00    0.4919514    0.2518414  31.49   0.00198026    1.745    0.427
       238 -10.7928    198.6140    233.0786   8.3523845186e+01  -3.3678132995e+00    0.3722992     0.321016  14.46  0.002433866    1.145    0.127
       239 -11.7368    156.7297     42.4056   4.7176965408e+01   4.0546716348e+01    0.9637817    0.4187081  68.77   0.00367374    2.544    0.607
       240 -12.5953    152.9853     35.8043   4.5873456021e+01   4.2315274857e+01    0.3468601    0.2965455  52.31 0.0004263674    1.135    0.119
       241 -10.2974    247.5158    232.0107   7.4144372204e+01  -9.8345307596e+00    0.2517208    0.2199479 -27.97  0.001523765    1.575    0.365
       242 -10.5066    161.9396     23.3023   4.0782477401e+01   4.1575643705e+01    0.2267474    0.2043709 -52.44 0.0002771103    1.180    0.153
       243 -12.8287    116.5468     42.0415   5.5618998067e+01   5.0284133839e+01    0.9817231     0.712679 -84.10  0.004664867    2.072    0.517
       244 -12.3982    159.7959     29.9250   4.3008321098e+01   4.1351918837e+01    0.4274561    0.4208198   1.19 0.0007845746    1.168    0.144
       245 -11.0117    164.0386     27.6588   4.1710155246e+01   4.0575777736e+01    0.2785248    0.2549271 -44.37 0.0004915719    1.188    0.158
       246  -9.7531    149.0095     60.8962   5.4226892816e+01   3.9747659261e+01    0.5556869    0.2103786  60.11  0.001897977    2.822    0.646
       247 -10.2694    135.6716     50.8958   5.4027244169e+01   4.4503979809e+01    0.3010046    0.2700709  17.91  0.001676948    1.191    0.161
       248 -10.6332    136.0620     57.1871   5.5947941570e+01   4.3459113879e+01    0.6895226    0.4275866  -2.37  0.002695818    2.747    0.636
       249 -11.3962    145.5608     47.1533   5.0736707943e+01   4.2638834092e+01     1.117882    0.4645736 -25.23  0.004047033    3.092    0.677
       250  -8.6570    219.6584     56.7364   4.1679992101e+01   2.3690709571e+01    0.1226565    0.1022108  34.77 0.0004156216    1.596    0.373
       251 -10.3447     66.7778     54.5369   7.6200761519e+01   5.8402790755e+01    0.3992195    0.2353197 -49.54  0.001837929    2.001    0.500
       252  -9.2960    187.8923     55.1324   4.5592985523e+01   3.1193256128e+01    0.2598534    0.1818384  60.88  0.001338704    1.404    0.288
       253 -10.9521     10.0147     62.5249   1.0334979055e+02   6.3113910711e+01    0.3908624    0.2178106 -45.53 0.0008065672    1.390    0.280
       254  -9.5074    201.8293     53.1361   4.3096305824e+01   2.8216673918e+01    0.5073137    0.2703885  56.30   0.00238225    1.906    0.475
       255 -10.8457    199.6342     44.8172   4.1330854074e+01   2.9885992355e+01    0.7012942     0.263735  69.31  0.002711617    2.824    0.646
       256  -9.8992    171.5008     47.5093   4.6118980834e+01   3.6233911246e+01    0.3148831    0.2500666 -15.57  0.001271053    1.533    0.348
       257  -9.3292    228.2838     49.3580   3.9023130158e+01   2.2877358114e+01    0.1175676    0.1020652  13.16 0.0005154102    1.672    0.402
       258 -10.0118    201.7856     48.5991   4.1984778027e+01   2.8868125923e+01    0.2615752    0.2375846 -51.96 0.0009562264    1.126    0.112
       259  -9.4300     91.1788     48.4197   6.5219004753e+01   5.4910029477e+01    0.2703461    0.1813673 -49.80  0.001300819    1.886    0.470
       260 -10.7439     12.8359     47.8761   9.7927826674e+01   6.5987983923e+01    0.3980314    0.1780243 -30.90  0.001948156    2.081    0.520
       261  -9.7937      1.9745     48.5140   1.0343628265e+02   6.6490537403e+01    0.2455226    0.1899702 -68.55  0.001622795    1.468    0.319
       262 -10.7883    134.9879     45.7110   5.2508345769e+01   4.5409405562e+01    0.4493538    0.2480529  63.15 0.0006913239    1.840    0.456
       263 -10.7848    139.9594     43.7834   5.0828752261e+01   4.4469235553e+01    0.3693412    0.3372424 -59.23  0.001161765    1.177    0.150
       264 -12.5782    119.2768     37.8364   5.3478724640e+01   5.0207170219e+01    0.8364571    0.6105651 -74.99  0.003109663    1.958    0.489
       265 -10.3918    175.1611     49.1610   4.5981803885e+01   3.5112534359e+01    0.3493273       0.2782  78.60  0.001103104    1.224    0.183
       266  -9.6844    176.5777     43.7158   4.4273911615e+01   3.5517699595e+01    0.2765677    0.2123835 -86.13    0.0013933    1.336    0.251
       267 -10.5964     94.2369     41.1375   6.1515261703e+01   5.5359970049e+01    0.7227846    0.2900499  49.88  0.002866248    2.356    0.576
       268 -10.2596    242.5018    231.7634   7.4987850125e+01  -9.1785562825e+00    0.2827039    0.2320747 -46.91  0.001847488    1.955    0.489
       269  -9.5100     23.9350    231.9524   1.2043551243e+02   2.1865102775e+01    0.1988052    0.1024104  60.98 0.0009426952    1.662    0.398
       270  -9.3203     15.3554    233.6124   1.2218908440e+02   2.2403383288e+01    0.2115589    0.1202498 -78.93  0.001302381    1.614    0.381
       271  -9.8658    233.8481    223.1644   7.5039210403e+01  -6.8424949220e+00     0.181011    0.1224865  -2.60 0.0007613052    1.333    0.250
       272 -10.4574    164.7002    212.3342   8.7105895563e+01   5.5509790811e+00    0.2946029    0.2272876  47.77 0.0006791147    1.421    0.296
       273  -9.3544    154.4595    210.9611   8.9152622369e+01   7.5396875322e+00    0.2654712    0.2083708 -53.45 0.0007185148    1.465    0.317
       274  -9.7515    153.2734    207.6379   8.8850489326e+01   8.3955199205e+00    0.2416123     0.206885  38.33 0.0007366014    1.137    0.121
       275  -9.5025     61.2350    206.5129   1.1031988932e+02   2.3052643721e+01    0.2232395    0.1727326 -78.24 0.0007041417    1.251    0.200
       276  -9.4327     85.7711     30.9459   6.0177823019e+01   5.8490491282e+01    0.2282841    0.1943559 -10.66 0.0009584348    1.189    0.159
       277 -10.4935     82.5083     32.6011   6.1903680269e+01   5.8936697661e+01    0.4669299    0.3397377 -69.87  0.002234918    2.611    0.617
       278 -10.5085     81.7530     40.1911   6.5192227764e+01   5.8032972351e+01    0.6441512    0.3552015  53.36  0.002935348    2.078    0.519
       279 -10.5540     78.2732     34.4564   6.4088801541e+01   5.9520569917e+01    0.4349628    0.2914062  46.91  0.001938644    1.484    0.326
       280  -9.7007     17.4503     41.7051   9.3591680923e+01   6.6847418130e+01    0.2561983    0.1562412 -28.52  0.001243434    1.383    0.277
       281  -9.1992     67.5965     41.4393   7.0824580524e+01   6.0459466791e+01    0.1353729    0.1151591   3.38 1.890183e-05    1.017    0.017
       282  -9.4461    231.3859     38.7360   3.6382384731e+01   2.3648023194e+01    0.2467914      0.14318 -38.08  0.001342685    1.624    0.384
       283  -8.8642    217.4915     39.4774   3.7962683446e+01   2.6549535090e+01     0.130032    0.1106246 -71.47 0.0008101987    1.001    0.001
       284 -11.5876    176.8106     37.4159   4.2532558863e+01   3.6285168506e+01    0.5458095    0.3922031 -24.73  0.002718463    1.617    0.382
       285  -8.8826    184.1610     38.3731   4.1748684179e+01   3.4391721350e+01    0.1871301    0.1196576  81.65 0.0009260311    1.603    0.376
       286  -9.7777    123.9866    205.9713   9.5376313831e+01   1.3714750028e+01    0.2008342    0.1866071  26.30   0.00116345    1.057    0.054
       287  -9.2652    206.7964     37.1613   3.8607724435e+01   2.9249244287e+01    0.1996524    0.1565627 -69.82 0.0007106559    1.156    0.135
       288  -9.1711     94.0528     35.9481   5.9586885257e+01   5.6111816453e+01    0.1967525     0.168459 -80.90 0.0006632431    1.650    0.394
       289 -10.1740    238.2137    204.4967   7.0829299491e+01  -4.6409721416e+00    0.2476566    0.1573907 -30.59  0.001407233    1.391    0.281
       290 -10.4163     16.8703    203.7248   1.2002657722e+02   2.8674981278e+01    0.3767982    0.1525691 -78.65  0.001798484    2.197    0.545
       291 -12.2281    106.7730     31.8834   5.4479808773e+01   5.3835483885e+01    0.7304999    0.3822615  22.48  0.002474291    2.972    0.664
       292 -12.2174    114.6918     24.9420   5.0005171564e+01   5.2817926549e+01    0.7289563    0.2723449  55.16  0.002028981    2.249    0.555
       293 -10.7262    239.8687     32.5264   3.4297163013e+01   2.2682592470e+01    0.3664751    0.3308643 -56.22  0.002058182    1.224    0.183
       294  -9.6577    240.5842     26.2278   3.2945528535e+01   2.3314034530e+01     0.225935    0.1454127 -45.45 0.0006348612    1.363    0.267
       295  -9.4657    215.9410     33.0839   3.6669047511e+01   2.7711558263e+01    0.3250524    0.2084275  16.87  0.001409955    3.602    0.722
       296 -10.6991    175.1754     30.8848   4.1000707786e+01   3.7487156103e+01    0.6531219    0.2500314  46.95  0.002043937    3.135    0.681
       297 -11.2074    156.5127     52.9899   5.0346906515e+01   3.9120410073e+01    0.9770575    0.5668951 -42.34  0.004447654    1.773    0.436
       298 -10.9120     13.9528     23.5778   8.8417920756e+01   7.0355681660e+01    0.2843479     0.227708 -39.74 0.0002664113    1.392    0.281
       299  -9.1822    221.7168     29.9131   3.5385570712e+01   2.6837049302e+01    0.1790495    0.1387123 -52.45 0.0009276468    1.172    0.147
       300 -10.5862    189.2607     27.4518   3.8282494347e+01   3.4520685046e+01     0.336494    0.2881503  27.67  0.001674841    1.524    0.344
       301 -11.3704    183.2574     25.4628   3.8506223026e+01   3.6177840993e+01    0.5336345    0.3060932  54.22  0.002698958    1.749    0.428
       302  -8.9879     99.5353     30.4733   5.5898993912e+01   5.5621856646e+01    0.1365562    0.1214709  34.20  9.60603e-05    1.025    0.024
       303 -10.1719    230.2351     27.2668   3.4032003410e+01   2.5334294762e+01    0.3324841    0.1744264 -36.62  0.001530994    1.828    0.453
       304 -10.1012    250.3157     26.8941   3.2317162180e+01   2.1288529251e+01    0.2369114    0.1458225 -32.66 0.0008918123    1.748    0.428
       305  -9.5124     97.4611     26.5861   5.4978188065e+01   5.6537653147e+01    0.2312203    0.2007911  49.35 0.0007481209    1.133    0.117
       306 -10.1680    214.5287     24.3962   3.4842423182e+01   2.9080416703e+01    0.2911709    0.2676243 -85.16  0.001257383    1.170    0.145
       307  -9.3156    216.3019     20.3549   3.3773581315e+01   2.9157535153e+01    0.1850987    0.1440791  89.05  0.001179499    1.139    0.122
       308 -11.4436      6.2364    197.5052   1.2189465234e+02   3.1038614895e+01     1.120361    0.0957293 -68.50  0.003513054    5.355    0.813
       309  -9.5688    169.1878     23.7911   3.9894458061e+01   3.9756653871e+01    0.2820824    0.1591582  58.63  0.001402078    1.612    0.380
       310  -9.3572     80.7529     19.3749   5.6985951928e+01   6.0878480434e+01    0.3115092    0.1355161  48.67   0.00134671    1.986    0.497
       311 -12.1093      4.8057    184.3021   1.2133958106e+02   3.4192914329e+01    0.6368841     0.470844  80.64  0.003385978    1.106    0.096
       312 -10.6371    245.7664    200.9808   6.8831133203e+01  -5.1504073624e+00     0.212832    0.1659229  13.53 0.0007377086    1.230    0.187
       313  -8.9421    195.5519    199.7774   7.8183276936e+01   2.7031796631e+00    0.1830181     0.131071 -49.02 0.0006574124    1.649    0.394
       314  -9.6538     60.3614     23.2462   6.5899973486e+01   6.4286174900e+01    0.3418795    0.1929602  15.39  0.001646892    2.105    0.525
       315  -9.1426     60.4052     19.5103   6.4186345050e+01   6.4738249400e+01    0.2008314    0.1654238 -16.12 0.0001125003    1.251    0.201
       316  -9.1980    223.2426     22.0551   3.3527449710e+01   2.7447995080e+01    0.2181339    0.1324714 -84.80 0.0007393906    1.584    0.369
       317 -10.5321    234.2286    196.9043   7.0105532891e+01  -2.8754241360e+00    0.3950919    0.2758852   7.43  0.001687548    1.420    0.296
       318  -9.3643     74.5317     19.5378   5.9080137403e+01   6.2103809737e+01    0.2277841    0.1598024  25.58  0.000793912    1.287    0.223
       319  -9.3889     82.7006    196.2469   1.0393060741e+02   2.2460115086e+01    0.3417017    0.2091759  17.80  0.001519188    2.218    0.549
       320  -9.8821    169.9290    191.3546   8.2094917173e+01   8.7291616220e+00    0.3765644    0.2109328  22.64  0.001403582    2.141    0.533
       321 -10.1666    239.5877    184.9697   6.6823091606e+01  -1.7380645137e+00    0.3589799    0.2157644  -6.03  0.001157898    2.064    0.515
       322  -9.7163    214.5907    184.2040   7.1290645919e+01   2.3285517348e+00    0.2062077    0.1178038 -28.64 0.0009617709    1.708    0.415
       323  -9.1660     16.4351    191.4952   1.1923308028e+02   3.1519204527e+01    0.1243809    0.1012359  86.44 6.278315e-05    1.031    0.030
       324 -10.1531    250.3276    178.1644   6.3643629934e+01  -2.2212039735e+00    0.4454015    0.1267966 -33.27  0.001558261    3.475    0.712
       325  -9.5625    230.4062    175.6004   6.6581174349e+01   1.2518323741e+00    0.2310147    0.1587611  30.07  0.000571831    1.538    0.350
       326 -10.3317     52.1562    173.6453   1.0869944865e+02   3.2076829081e+01    0.5327973     0.272697  87.73  0.002127118    2.616    0.618
       327  -9.8994     27.7384    175.9097   1.1520057998e+02   3.4176140770e+01    0.2436257    0.1749254  50.11 0.0009747566    1.380    0.276
       328  -9.9391    247.5617    173.9260   6.3262585797e+01  -1.1276771155e+00    0.4278996    0.1686112  27.98  0.001575539    3.992    0.749
       329  -9.9143     39.2009    173.4055   1.1203545874e+02   3.3617713863e+01    0.3784568    0.2030152  44.18  0.001843243    1.850    0.459
       330 -10.3915     35.4115    169.7374   1.1260040835e+02   3.4928851820e+01    0.3412124    0.2545961 -69.57  0.001800868    1.203    0.169
       331 -10.3208    186.4025     15.1780   3.5523411216e+01   3.6557609168e+01    0.2587472    0.1902606  80.50 0.0003090558    1.195    0.163
       332  -8.7895    170.6194    171.8501   7.8001719781e+01   1.2597739827e+01    0.2057427    0.1416386 -52.84 0.0009365359    1.615    0.381
       333 -10.4376     22.3965    155.2096   1.1443213229e+02   3.9797625201e+01    0.3337697    0.2242476  27.89 0.0009602767    1.710    0.415
       334  -9.1212    205.0780     17.4912   3.4171620797e+01   3.1987949646e+01    0.1872543    0.1103099  76.19 0.0007037459    1.545    0.353
       335  -9.0362    174.3150     15.9813   3.7121177187e+01   3.9351136706e+01    0.1710803    0.1525316 -87.70 0.0004645861    1.047    0.045
       336 -12.1998     22.8309    149.0008   1.1360883856e+02   4.1320638697e+01    0.6664805    0.3049589 -43.00   0.00281652    2.579    0.612
       337  -9.3480     75.7614     13.9046   5.6214319607e+01   6.2457033413e+01    0.2183425    0.1399388  40.98 0.0006219453    1.317    0.241
       338 -10.7793     15.8817    147.9200   1.1541579180e+02   4.2157421576e+01    0.3647276     0.281593  86.36  0.001115467    1.184    0.155
       339  -8.8765     94.3937     12.7301   5.0340939870e+01   5.8650396752e+01     0.170107    0.1192576  -0.01 0.0009510788    1.593    0.372
       340 -11.6147     12.8870    138.1537   1.1517424775e+02   4.4824663055e+01    0.8311908    0.4584012 -71.96  0.004316708    1.485    0.327
       341 -11.6741      9.5685    167.0491   1.1889937819e+02   3.7926919519e+01    0.5794002    0.4071753  87.20  0.003081461    1.213    0.175
       342 -11.5789     13.5859    159.4480   1.1720040648e+02   3.9472105025e+01    0.6709715    0.4065822 -87.08  0.003279455    1.460    0.315
       343 -11.4604      3.4838    149.0120   1.1888095133e+02   4.2772304415e+01    0.7998999    0.3044996 -81.64  0.003455624    2.353    0.575
       344 -11.3683      3.0811    141.6373   1.1830084428e+02   4.4613077199e+01    0.8269355    0.3899978  65.13   0.00380036    2.521    0.603
       345  -9.2340    198.1530    167.9010   7.1190688854e+01   8.2203894299e+00    0.2131564    0.1986205 -43.51 0.0008480692    1.203    0.169
       346  -9.0099    187.6064    168.2027   7.3468683340e+01   1.0123204682e+01    0.3197613    0.1274664 -36.21  0.001117311    2.653    0.623
       347  -9.4623    188.8055    163.9867   7.2302788074e+01   1.0739492413e+01    0.2509983    0.1625406 -15.64  0.001067341    1.982    0.495
       348  -9.0197    152.3898    166.7249   8.1205007105e+01   1.7215906552e+01     0.206863    0.1425172 -36.20 0.0003667839    1.501    0.334
       349  -9.4476    156.3159    166.0759   8.0120187662e+01   1.6595552035e+01    0.2159203    0.1900642 -41.61 0.0004303537    1.142    0.124
       350 -10.3433     18.9983    164.9335   1.1633265592e+02   3.7672831236e+01    0.3208179    0.2736847 -19.15  0.001890976    1.538    0.350
       351  -9.8644    208.6472    161.8993   6.7797566667e+01   7.4465217221e+00    0.4773224    0.1286779 -43.10  0.001481081    3.535    0.717
       352  -9.7713    204.9587    162.9806   6.8757966718e+01   7.9151996991e+00    0.2364259     0.205165  20.75 0.0005924692    1.170    0.146
       353  -9.8260     39.2834    162.2483   1.1068817531e+02   3.6400529396e+01    0.4955357    0.2415815  79.94  0.001901419    2.948    0.661
       354 -10.6713     28.0027    162.4572   1.1373118168e+02   3.7476959870e+01      0.45438    0.2151574 -64.13  0.002138329    1.797    0.443
       355  -9.8238    246.4314    159.2550   6.0476976078e+01   1.4763984291e+00    0.2700921    0.1108069 -34.47  0.001146508    2.142    0.533
       356  -9.1481     79.0061    160.0403   9.9347093165e+01   3.1889697738e+01    0.2405622    0.1732166  73.88  0.001003306    1.648    0.393
       357  -9.4345    224.1948    157.5024   6.3928404283e+01   5.4827875316e+00    0.3432018    0.1752218 -52.47   0.00138593    2.558    0.609
       358  -9.3692    215.6258    157.7012   6.5552004101e+01   6.9674443970e+00    0.2340227    0.1620778  -6.97  0.001115749    1.754    0.430
       359 -10.3377    104.8534    154.1648   9.0986258479e+01   2.9148460961e+01    0.4064592     0.330926 -32.78  0.001989663    1.337    0.252
       360  -9.9313     33.0344    154.4978   1.1143407479e+02   3.8997661181e+01     0.271215     0.229114 -11.54  0.001375236    1.503    0.335
       361 -10.5649     31.0010    151.7584   1.1165870696e+02   3.9887768963e+01    0.2842192    0.2205133 -48.55  0.001287349    1.336    0.252
       362  -9.0503     74.6288    154.2474   9.9579580090e+01   3.4009913090e+01    0.2164213    0.1258127 -52.08  0.000741541    1.647    0.393
       363 -11.0834     63.3114    150.6399   1.0223120995e+02   3.6508020108e+01    0.5239262    0.3400311   0.36   0.00201341    2.366    0.577
       364 -10.2615     41.2897    149.1455   1.0838770118e+02   3.9519715566e+01    0.2264351    0.2200423   4.24 0.0003484524    1.205    0.170
       365 -11.3525     46.4674    146.3522   1.0647170180e+02   3.9671015823e+01    0.7515602    0.3565773 -60.90  0.002550635    1.824    0.452
       366  -9.4447    234.5207    150.2018   6.0562990224e+01   4.9944144017e+00    0.2633299    0.1705036   1.76  0.001209485    2.246    0.555
       367 -10.8255    249.1151    142.1090   5.6499313179e+01   3.9333346573e+00    0.4607506    0.2361315 -31.14  0.002177072    1.790    0.441
       368  -9.9234    239.6657    146.6113   5.8944480002e+01   4.7433714984e+00    0.2426941     0.185507 -28.99 0.0006180438    1.127    0.113
       369  -9.2774    107.6968    145.9395   8.8458530046e+01   3.0677538731e+01    0.2200459     0.194301 -56.31 0.0003368296    1.119    0.106
       370 -10.9360     33.3448    144.4030   1.1002837680e+02   4.1535018216e+01    0.4473247    0.3029383  45.88  0.001949701    1.592    0.372
