#   1 NUMBER                 Running object number                                     
#   2 MAG_AUTO               Kron-like elliptical aperture magnitude                    [mag]
#   3 X_IMAGE                Object position along x                                    [pixel]
#   4 Y_IMAGE                Object position along y                                    [pixel]
#   5 X_WORLD                Barycenter position along world x axis                     [deg]
#   6 Y_WORLD                Barycenter position along world y axis                     [deg]
#   7 A_WORLD                Profile RMS along major axis (world units)                 [deg]
#   8 B_WORLD                Profile RMS along minor axis (world units)                 [deg]
#   9 THETA_WORLD            Position angle (CCW/world-x)                               [deg]
#  10 FWHM_WORLD             FWHM assuming a gaussian core                              [deg]
#  11 ELONGATION             A_IMAGE/B_IMAGE                                           
#  12 ELLIPTICITY            1 - B_IMAGE/A_IMAGE                                       
         1 -12.1451     79.4946     21.6565   5.1340222262e+01   6.0161736401e+01    0.3462937    0.2506378  52.42  0.001251436    1.279    0.218
         2  -9.9052    126.7788     10.9944   3.7018555520e+01   5.0822836575e+01     0.142555    0.1037716 -25.61 0.0003337493    1.639    0.390
         3 -11.0089     93.2801      8.0394   4.2563179216e+01   5.8542011416e+01     0.169742    0.1506135  42.38  0.000936484    1.091    0.083
         4 -10.0792     24.5279      4.5787   6.5432105250e+01   7.1499857910e+01    0.2844238    0.1375915  19.66  0.001176883    2.141    0.533
         5  -9.4392      6.1843      3.1816   7.5268781678e+01   7.3881350987e+01    0.1395354    0.1111096   8.85  0.001045974    1.280    0.219
         6  -9.7862    112.8771    246.8738   9.6087820642e+01   6.3432012977e+00    0.2040526    0.1769736  42.51 0.0004466089    1.113    0.102
         7 -10.6316    169.6118    248.5868   8.3800889532e+01  -1.8579218916e+00    0.3124932    0.2205799  -4.15  0.001790855    1.413    0.292
         8 -10.7461    163.0442    249.6479   8.5361753901e+01  -1.1560224623e+00    0.3380075    0.2368896  46.66  0.001667828    1.761    0.432
         9 -11.6041    157.5396    246.7577   8.6117707056e+01   1.0463239526e-01    0.5262761    0.3015549 -20.34  0.002480322    2.259    0.557
        10  -9.7428    135.1954    250.4783   9.1560872404e+01   2.5325353488e+00    0.3376642    0.1069087  34.52 0.0009317086    2.670    0.626
        11 -14.3851     95.5960    236.3468   9.8745726060e+01   1.0913934239e+01     2.534932     1.824984   3.65   0.01326551    1.748    0.428
        12 -16.7523     97.4287    187.3740   9.1240613522e+01   2.2009237305e+01     8.265024     5.741177 -43.69   0.03894335    1.494    0.331
        13 -10.6753    197.0124    227.6140   7.4682196644e+01  -1.9152598940e+00    0.2272674    0.1801817 -48.36 0.0006775099    1.568    0.362
        14  -9.6497    150.0008    228.0058   8.4894443988e+01   4.7036320774e+00    0.2078232    0.1642953  56.34 0.0008638166    1.635    0.388
        15  -9.0897    132.6813    228.2869   8.8932517453e+01   7.2259417632e+00    0.1358153    0.1040489  57.07 0.0001988654    1.593    0.372
        16 -10.5673    186.3928    225.9645   7.6587056998e+01  -1.7300661535e-01    0.3414036    0.1952482 -40.08  0.001576369    1.696    0.410
        17 -10.4723    170.5415    225.4231   7.9885860014e+01   2.1827536320e+00    0.3434425    0.2036045  36.24  0.001052968    1.677    0.404
        18 -11.4032    107.8105    222.8213   9.4048831900e+01   1.2090890802e+01    0.4530208    0.2575509 -58.27  0.001461513    1.899    0.473
        19 -11.4511    242.9898    223.5672   6.5341485664e+01  -6.9288098829e+00    0.2511275    0.1814744   9.25  0.001540217    1.319    0.242
        20 -13.2466     15.3780    198.3787   1.1411715567e+02   2.9331290993e+01     1.742851    0.5785866 -70.93  0.007140608    2.565    0.610
        21  -9.9243     73.8222    213.0703   1.0112684411e+02   1.9152805341e+01    0.2161191    0.1727173  48.63 0.0002721386    1.188    0.158
        22 -11.0572     71.2453    219.3164   1.0251591568e+02   1.8027221155e+01    0.6182263    0.2934769  60.13  0.002378265    2.880    0.653
        23 -10.6178     75.5486    223.2229   1.0192888143e+02   1.6554942965e+01    0.2406404    0.1925455 -42.76  0.000419584    1.424    0.298
        24 -10.0660     78.2943    221.3216   1.0103583979e+02   1.6621649895e+01    0.2937503    0.1969944 -44.09 0.0008202391    1.709    0.415
        25 -10.8029    230.5824    222.2064   6.7298818050e+01  -5.2772245945e+00    0.3678707    0.1363848 -46.11  0.001559511    2.960    0.662
        26 -11.0052    233.3392    209.0880   6.4485725934e+01  -3.4738295792e+00    0.3252861    0.1984409 -24.91 0.0009813829    1.424    0.298
        27 -11.7231    234.0079    214.6326   6.5354952192e+01  -4.4661763958e+00     0.458649    0.2354769  30.54  0.002153635    2.094    0.522
        28 -10.6181    122.5740    223.0168   9.0522939471e+01   9.8461021011e+00    0.2686739    0.2491145  31.03  0.000771512    1.055    0.052
        29  -9.8033    122.7183    218.6635   8.9823869327e+01   1.0763575782e+01    0.2268198    0.1972454 -10.93 0.0005865525    1.201    0.167
        30 -13.9873      8.0194    208.7485   1.1660143962e+02   2.7480552928e+01    0.7746356    0.5091242 -42.68  0.003438368    1.953    0.488
        31 -13.8071      4.8145    194.9819   1.1640269445e+02   3.1049398448e+01     1.286647     0.371481 -68.76   0.00498176    2.767    0.639
        32 -10.3538     87.4092    221.6012   9.8848355366e+01   1.5302295112e+01    0.2656424    0.1894089  74.83 0.0007436661    1.692    0.409
        33  -9.0126    250.6891    221.2957   6.3642024020e+01  -7.4326004974e+00    0.1000982   0.09015872 -37.68 0.0002669783    1.595    0.373
        34 -10.5753    197.8597    218.6062   7.2941233922e+01  -4.4495938126e-01    0.4462615    0.2258305 -24.71  0.001970758    2.277    0.561
        35  -9.7297     82.3653    220.7051   9.9966730577e+01   1.6207369704e+01    0.2197249    0.1656048   2.35  0.000877374    1.672    0.402
        36 -15.4303     37.8453    233.6118   1.1172135749e+02   1.8807547209e+01     2.258215     1.661575  87.29   0.01375237    1.294    0.227
        37  -9.7420    140.3449    217.3697   8.5405759783e+01   8.3313457204e+00    0.3575779    0.2296594  68.40  0.001432428    3.003    0.667
        38 -10.0064    221.8855    216.7494   6.7935944029e+01  -3.3114356409e+00     0.397989    0.1956903  10.81  0.001679737    3.045    0.672
        39 -15.1301     31.9568    209.3224   1.1103681563e+02   2.5069417965e+01     1.914902     1.435006 -85.32   0.01120389    1.232    0.188
        40 -13.6777     30.8018    248.4254   1.1431979295e+02   1.6379368081e+01    0.5437102    0.3120795  22.97  0.001306862    2.002    0.501
        41 -13.5603     45.8059    195.0008   1.0613214043e+02   2.7088773933e+01     1.288592     1.213996 -77.79  0.004239005    1.082    0.076
        42 -13.4424     26.5967    232.7957   1.1413014205e+02   2.0191498138e+01    0.7653255    0.3082498 -69.75   0.00313187    2.347    0.574
        43 -10.6269    166.3699    213.2209   7.8705142403e+01   5.1698469181e+00    0.4016901     0.223494 -52.11  0.001433693    2.023    0.506
        44 -15.5980      6.9762    226.9161   1.1796168323e+02   2.3396791921e+01     1.154461     0.966272 -34.15  0.005787393    1.644    0.392
        45  -9.8120    185.2668    213.6276   7.4663474325e+01   2.2602807120e+00    0.3140624    0.1948962   1.02  0.001469949    1.988    0.497
        46  -9.9928    176.9954    214.0397   7.6509098682e+01   3.4040365865e+00    0.2116886    0.1771802  -2.69 0.0003435002    1.075    0.070
        47 -10.3196    104.2364    213.5031   9.3579443421e+01   1.4715050719e+01    0.2333012    0.2194369  86.05 0.0002503416    1.141    0.124
        48  -9.9681    216.2841    212.7654   6.8278105578e+01  -1.9097969601e+00     0.188453    0.1493966 -42.65 0.0006875522    1.416    0.294
        49  -9.6860    200.6198    212.2604   7.1249290218e+01   3.1168053877e-01    0.3072588    0.1728909   8.92 0.0008065344    2.310    0.567
        50 -11.3442    128.9607    207.6924   8.6539029653e+01   1.2209309978e+01    0.7059587    0.3962902 -34.02  0.002080038    2.128    0.530
        51  -9.3178    207.5662    210.2503   6.9505901238e+01  -2.9314695794e-01    0.1960346    0.1073345 -30.95 0.0009550815    1.696    0.410
        52 -15.5060     15.8665    244.4403   1.1713583305e+02   1.8751023607e+01     1.003766    0.7533582  89.82  0.003830792    1.224    0.183
        53  -8.7906    169.6575    207.6552   7.6976958971e+01   5.7768772679e+00    0.1531766     0.101859 -10.62 0.0007046663    1.788    0.441
        54 -14.7662      4.1902    247.1844   1.1960740449e+02   1.9287464371e+01    0.8494934    0.4637724  72.92  0.005036213    1.611    0.379
        55 -11.2898     62.3355    204.8258   1.0301821197e+02   2.2646806962e+01      0.30246     0.263846  73.77 0.0007657838    1.106    0.096
        56 -10.9980    241.4385    203.9795   6.2160270661e+01  -3.6292940986e+00    0.3934191    0.2376852 -10.74   0.00214358    1.812    0.448
        57 -11.6259    235.0018    203.1293   6.3118005133e+01  -2.6893155905e+00    0.3496543    0.2152499 -24.99  0.001300129    1.418    0.295
        58  -8.8333    209.6772    204.7040   6.8079039819e+01   4.0745028194e-01    0.1378797   0.09083994 -10.14 0.0004408065    1.620    0.383
        59  -9.7660    190.8356    203.8248   7.1706414030e+01   3.2967705641e+00    0.2127398    0.1645904 -11.70 0.0004120921    1.222    0.181
        60  -9.6222    182.9294    203.9073   7.3390646864e+01   4.4755067584e+00    0.2063256    0.1637099 -15.21  0.000394427    1.178    0.151
        61 -14.3733      9.3608    237.8136   1.1808503134e+02   2.0788040827e+01    0.8034008    0.3375323 -57.12  0.003909428    2.721    0.633
        62  -9.7138    161.5052    201.1140   7.7625193934e+01   8.4066019599e+00    0.2669359    0.2056081  26.39 0.0007125787    1.268    0.212
        63 -11.0419    157.1571    199.0054   7.8240859939e+01   9.5557782156e+00    0.2811553    0.2234138   8.21 0.0003812482    1.280    0.219
        64  -9.7390    184.0212    198.0179   7.2055040924e+01   5.4650326763e+00    0.2046353    0.1798706 -13.37 -0.003769674    1.009    0.009
        65 -10.2564    149.4730    197.1963   7.9717150188e+01   1.1205443376e+01    0.2741725    0.2403813 -55.21 0.0007021876    1.264    0.209
        66 -11.3110    212.6088    194.6492   6.5637065637e+01   1.8170565903e+00    0.5038333    0.4816687 -65.01  0.002179736    1.449    0.310
        67 -10.1703    230.7578    195.8516   6.2530317798e+01  -9.0261816530e-01     0.223518    0.1758878 -18.89 0.0006445081    1.054    0.051
        68  -9.7917    190.3122    195.1435   7.0181323600e+01   5.0537574058e+00    0.3875454    0.1515219 -38.87  0.001496537    2.439    0.590
        69  -9.6520    203.8164    194.9176   6.7395232449e+01   3.0505511179e+00    0.2845836    0.1794948  12.72  0.001125487    1.870    0.465
        70 -11.8604    143.0245    191.9815   8.0304540259e+01   1.3434253449e+01    0.4789373    0.2964252  11.31  0.001973354    2.160    0.537
        71 -10.9519    242.3588    190.3869   5.9531350616e+01  -1.4820557001e+00    0.3772436    0.2050077 -27.43  0.001154303    1.689    0.408
        72 -12.3114    146.7984    185.8007   7.8208578322e+01   1.4185428476e+01    0.5034845    0.3731942 -16.46  0.002394012    1.541    0.351
        73  -9.4548    234.2098    190.4192   6.0918437506e+01  -4.2260220305e-01    0.1524599    0.1225258  39.36 0.0007118604    1.597    0.374
        74 -10.9886     30.5711    186.2467   1.0917285304e+02   3.0935203867e+01    0.3422858    0.3187437  27.83    0.0016899    1.219    0.179
        75 -10.4606     29.6579    181.1238   1.0887693476e+02   3.2335444518e+01    0.3008639    0.1897574  63.84  0.001368241    1.678    0.404
        76 -10.9271    247.3581    190.4098   5.8713406274e+01  -2.1190585717e+00    0.2264853    0.2179414   1.51  0.000502017    1.399    0.285
        77 -10.6620    115.3304    242.9738   9.5027189931e+01   6.7716777961e+00    0.5072106    0.3366986   6.17  0.002539765    1.873    0.466
        78 -10.4784    214.9117    182.4394   6.2862375098e+01   3.7326032989e+00    0.2973407    0.1658405 -39.65   0.00127672    1.558    0.358
        79 -10.8262    157.9890    183.4711   7.5074566506e+01   1.2781225070e+01    0.3172579    0.2244479 -43.62  0.001398749    1.370    0.270
        80 -11.4389     40.5291    172.9032   1.0492247203e+02   3.3355716243e+01     0.631445    0.2610465  48.34  0.002402573    2.721    0.633
        81 -10.3702     40.4174    182.7214   1.0615132560e+02   3.0817144663e+01    0.4405822    0.2545936  87.26  0.001530217    1.976    0.494
        82 -11.3780     45.0363    179.9927   1.0455653958e+02   3.1013290273e+01    0.3625637    0.2356084 -54.60  0.001625499    1.492    0.330
        83  -9.7633     42.0091    178.0218   1.0514876598e+02   3.1860553172e+01    0.2496132     0.223011 -77.63 0.0006910719    1.031    0.030
        84 -10.0319     35.5701    181.5303   1.0732774991e+02   3.1636806965e+01    0.2345483    0.1793025  56.52 7.498866e-05    1.312    0.238
        85 -10.2335     36.5135    178.5311   1.0672595858e+02   3.2313981944e+01    0.2890489    0.2155693  54.44  0.001019034    1.362    0.266
        86  -9.8179    203.4754    183.5534   6.5268498229e+01   5.2617970233e+00    0.2637233    0.1346396  35.42  0.001191823    2.124    0.529
        87 -10.8617    191.0484    183.0421   6.7674345626e+01   7.3297576730e+00    0.2327004    0.2001626  24.90 0.0003129061    1.223    0.183
        88 -12.7853     38.2112    162.7953   1.0427170036e+02   3.6258002293e+01     1.980806    0.5684384 -50.35   0.00651454    3.316    0.698
        89 -10.3974      2.3866    153.1744   1.1359726851e+02   4.1745942751e+01    0.5021158    0.2766039  24.87  0.001031799    2.058    0.514
        90 -12.1225     36.7390    152.9748   1.0334989151e+02   3.9006773774e+01    0.5219553    0.3520223  71.70  0.002287509    1.742    0.426
        91  -9.0015      7.6853    170.9998   1.1377605963e+02   3.6816830129e+01    0.1986618    0.1524238  52.65 0.0008918199    1.340    0.254
        92 -12.0188     11.3461    139.1279   1.0938478787e+02   4.4794136131e+01    0.9766389    0.4799255 -23.36  0.004110191    2.830    0.647
        93 -11.3011     20.4209    160.5077   1.0917784919e+02   3.8525557619e+01     0.485462    0.2617316  43.27  0.001808892    1.968    0.492
        94 -12.8667     24.7683    154.9342   1.0723622412e+02   3.9615101986e+01    0.8659624    0.6470361  -7.50  0.003461343    1.658    0.397
        95 -12.0911     10.2268    159.9227   1.1202976599e+02   3.9475302231e+01    0.5229158    0.3991792  73.02 0.0005966027    1.306    0.234
        96 -12.0057     24.0723    165.4452   1.0869293239e+02   3.6921028992e+01     1.219138    0.5946239  -7.29  0.004324501    3.879    0.742
        97 -11.2233     10.5905    166.3805   1.1256272762e+02   3.7783014898e+01    0.5352876      0.38548  34.50  0.003058574    1.518    0.341
        98 -11.1858      4.2482    165.9095   1.1424987681e+02   3.8361025450e+01    0.3556167    0.2150844  -2.45  0.001489962    2.288    0.563
        99 -11.3059      4.8759    147.7827   1.1233484840e+02   4.2977333003e+01    0.4307973    0.3607971  20.81  0.001567063    1.411    0.291
       100 -12.3018     12.1544    145.9034   1.0994518931e+02   4.2976420847e+01    0.7910088    0.5079397 -68.80  0.002726527    1.314    0.239
       101 -12.0546     19.1146    173.0582   1.1088886984e+02   3.5377805621e+01     1.039797    0.6892375  16.46  0.003748607    1.803    0.445
       102 -13.5401     54.0203    210.8064   1.0579338894e+02   2.2225715027e+01     1.464838     1.018864  64.45  0.005951292    1.460    0.315
       103  -9.3530     24.6086    181.5763   1.1027141717e+02   3.2700416363e+01    0.2419079    0.1386271  12.86  0.001135404    2.239    0.553
       104  -9.2037     18.4287    181.0043   1.1184653379e+02   3.3402112328e+01    0.1965515    0.1166295 -76.71 0.0007438929    1.493    0.330
       105  99.0000      2.0946    180.1190   1.1597923093e+02   3.4923359303e+01    0.3932036    0.1402517 -80.28  0.001297521    2.514    0.602
       106  -8.8687    181.2832    180.2561   6.9181213555e+01   9.5026570586e+00    0.1407424    0.1052397  -8.98 0.0001856244    1.475    0.322
       107  -9.8423    211.8197    178.4000   6.2651841962e+01   4.9569004615e+00    0.3536164    0.1600191 -29.52  0.001388913    2.575    0.612
       108 -12.7381    147.5103    178.2011   7.6538982579e+01   1.5784026909e+01    0.7527709    0.3220992  41.29  0.002763559    2.411    0.585
       109 -12.2320    238.8428    173.4392   5.6938836668e+01   1.9030585522e+00    0.7002012    0.3916839  -5.20  0.002854714    3.493    0.714
       110 -10.9651     52.8185    176.3960   1.0191353003e+02   3.1045310166e+01    0.5097662    0.1673765  40.85  0.001775795    2.988    0.665
       111  -9.8215    133.7728    246.0904   9.1272508401e+01   3.5535274946e+00     0.303611    0.1766838  -8.74  0.001273481    2.858    0.650
       112  -9.2626      2.5172    174.4659   1.1542882373e+02   3.6311351174e+01    0.2556661    0.1347216  11.79  0.001241266    2.464    0.594
       113  -9.9511    165.9833    172.2409   7.0945638201e+01   1.3844314487e+01    0.2034139    0.1918692  -3.40 0.0003456301    1.049    0.047
       114 -11.4540    155.1788    174.0186   7.3838167925e+01   1.5371796349e+01    0.4224049    0.1881891 -46.05  0.001589903    2.156    0.536
       115 -10.3003    206.5182    176.3950   6.3263432267e+01   6.1628375110e+00    0.2766442    0.2145593  -1.07 0.0009294918    1.380    0.275
       116 -12.3299    145.3695    167.9972   7.4979429161e+01   1.8509586187e+01    0.5937901    0.2528914 -54.03  0.002058226    2.581    0.612
       117  -9.9691    219.8730    245.4298   7.3201274520e+01  -7.6461474060e+00    0.2581323    0.1673367 -42.54  0.001547019    1.747    0.428
       118 -11.6964     63.9301    149.9522   9.4420848244e+01   3.6617384691e+01    0.5764221    0.2293031  39.14   0.00208217    2.580    0.612
       119 -12.2713     45.8091    166.6193   1.0257034138e+02   3.4427556978e+01    0.6270248    0.3978238  67.16  0.002857793    1.882    0.469
       120 -13.5585     54.7116    151.2966   9.7529046654e+01   3.7443737685e+01    0.9173457    0.6494453  80.66  0.004280562    1.726    0.420
       121 -11.6996     51.4573    143.1383   9.7153777682e+01   3.9998550713e+01    0.4466881    0.2840775 -28.91  0.001548236    1.889    0.471
       122 -12.9537     48.7778    159.5092   1.0065804542e+02   3.5970511373e+01    0.9261841    0.4528931  31.32  0.003897912    2.104    0.525
       123 -11.2485     61.1358    155.8801   9.6324730060e+01   3.5417232737e+01    0.3525471    0.2050742 -51.75 0.0009711501    1.610    0.379
       124 -11.6400     57.7817    167.4800   9.9197360408e+01   3.2777193253e+01    0.3482843    0.2755502 -87.30  0.001785081    1.315    0.240
       125 -12.2435     56.6586    161.5721   9.8612667519e+01   3.4478591951e+01    0.7991991    0.2521297 -44.43   0.00235486    3.941    0.746
       126 -10.9220    170.4393    168.9857   6.9258329930e+01   1.3758381251e+01    0.2776203    0.2187385  20.79 0.0005736766    1.348    0.258
       127 -11.5579    234.7828    166.3895   5.6252004289e+01   3.7265688083e+00    0.3309127    0.2678687  79.05 0.0007565431    2.040    0.510
       128 -12.7895    151.9847    165.1554   7.2758664652e+01   1.7952194257e+01    0.7417198    0.3322442 -44.32  0.002763208    2.149    0.535
       129  -9.2256    201.4526    166.1941   6.2183224017e+01   8.9708693279e+00    0.1816279    0.1259315 -48.66  0.000912995    1.423    0.297
       130  -9.5398    215.5464    165.5095   5.9399954590e+01   6.8130009885e+00    0.1387199    0.1173257 -30.21 1.836469e-05    1.006    0.006
       131  -9.6121    201.1482    244.3687   7.6647065377e+01  -5.2423629518e+00    0.3338127   0.08764866 -47.33  0.001130331    4.784    0.791
       132  -9.4515    211.8423    168.9133   6.0762298669e+01   6.7541637248e+00    0.1789415    0.1544815 -54.60 0.0004254382    1.325    0.245
       133 -10.7087    226.6554    161.9500   5.6741130754e+01   5.7434315203e+00    0.3138491    0.1954145  34.74 0.0005904398    1.884    0.469
       134 -10.8376    207.0461    158.4157   5.9517118395e+01   9.5599874222e+00    0.2780749    0.1816653 -39.12  0.000201674    1.342    0.255
       135 -10.7267    152.8981    243.2283   8.6604692854e+01   1.3891245453e+00    0.3923609    0.2698948   2.87  0.001632059    1.560    0.359
       136  -9.9332    248.3036    161.6552   5.3207944598e+01   2.6321168988e+00    0.1222232   0.09052116 -59.70  0.000704038    1.687    0.407
       137 -12.0305    138.0261    156.3981   7.4355162097e+01   2.2578759347e+01    0.4322763    0.2204114 -46.01  0.000947157    1.895    0.472
       138 -11.1726    247.2989    155.8407   5.2254043393e+01   3.7756033457e+00    0.3678841    0.2745764 -89.43  0.001079217    2.466    0.595
       139 -11.4600    173.1404    154.9198   6.5653082887e+01   1.6297458502e+01    0.3763232    0.2788266 -39.25  0.001852235    1.259    0.206
       140 -10.0120    226.8254    149.7837   5.4283194874e+01   7.9484880689e+00    0.2273621    0.1662705 -42.28 0.0003193382    1.165    0.142
       141  -9.4840    220.9569    157.0000   5.6728331340e+01   7.5508995111e+00    0.1973148   0.07870974  42.24 0.0007994751    2.922    0.658
       142  -9.9199    174.4480    243.0314   8.1914378300e+01  -1.5513130939e+00    0.4250393    0.1508538  23.64   0.00154152    3.373    0.704
       143 -12.5758     10.4368    177.0912   1.1358589680e+02   3.5057763877e+01    0.5873093    0.2717077 -77.23 0.0007295822    1.896    0.472
       144 -10.2191    237.3012    152.6734   5.3174307522e+01   5.7983762700e+00    0.2231229    0.1709896  70.55  0.001267683    2.005    0.501
       145 -10.7588    226.9418    154.5165   5.5213425911e+01   7.0619356428e+00    0.4510702    0.2768922 -14.72   0.00163679    2.345    0.574
       146  -9.6351    128.4722    243.4974   9.2106925515e+01   4.8021181038e+00    0.1339124    0.1178152  20.35 0.0002838012    1.006    0.006
       147  -9.5476    144.8056    239.8782   8.7902474509e+01   3.1626231157e+00    0.2068978    0.1642118   5.36 0.0006230896    1.216    0.178
       148 -12.8330     27.6559    144.6701   1.0498821751e+02   4.2064338885e+01    0.9744862    0.4231607  27.66  0.004104584    2.435    0.589
       149 -12.2355     26.5585    138.1452   1.0439838287e+02   4.3877024425e+01    0.5302631    0.2683742  27.99  0.002168152    2.131    0.531
       150 -11.5788     40.8100    149.3691   1.0155547022e+02   3.9542195698e+01    0.2851748    0.2321296  48.11  0.001168181    1.326    0.246
       151 -11.4170     43.9909    151.2869   1.0086113205e+02   3.8691184873e+01    0.3500164    0.2539026 -45.30 0.0008111519    1.355    0.262
       152 -10.7519     47.5245    150.5578   9.9646693449e+01   3.8489888121e+01    0.2236015    0.1872941  33.02  0.000522078    1.282    0.220
       153  -9.8176    211.5110    150.6937   5.7100876007e+01   1.0299179562e+01    0.3207732    0.1628528  44.73  0.001442943    2.277    0.561
       154 -10.3382    217.1572    238.5169   7.2573988147e+01  -6.2634521837e+00    0.2077487    0.1516642 -27.81 0.0005945515    1.241    0.194
       155 -11.9358    119.5517    147.0784   7.7221642709e+01   2.8284033583e+01    0.3016411    0.2659157  -1.07 0.0007067554    1.221    0.181
       156 -10.8638    160.9487    238.9672   8.4184284941e+01   1.0370168901e+00    0.2071402    0.1792135  10.77  0.000837502    1.040    0.039
       157 -10.3734     44.8074    147.4230   9.9994388186e+01   3.9626457483e+01    0.1965612     0.186511 -37.01  0.000221663    1.094    0.086
       158  -9.3256    208.9656    144.4650   5.6253954381e+01   1.1934361188e+01    0.1886515    0.1407121  45.43 0.0005329589    1.542    0.352
       159  -9.7080    234.2558    149.3843   5.3005701041e+01   6.8519965519e+00    0.1477561    0.1282254  59.50 0.0002174157    1.491    0.329
       160 -11.2036    134.1671    142.9962   7.2344387814e+01   2.6477452427e+01    0.2466459     0.219237 -84.97  0.001132439    1.318    0.241
       161  -9.6305    246.3160    142.6471   4.9864463481e+01   6.2024155546e+00    0.1277356   0.08956373 -62.49 0.0007046409    1.738    0.425
       162 -10.4798    231.3563    237.8207   6.9822358620e+01  -7.7997837970e+00    0.2383811    0.1935147   3.80 0.0007901922    1.205    0.170
       163 -11.7402    227.4357    235.0750   7.0077197752e+01  -6.9338112357e+00    0.6573855    0.2548121 -44.14  0.001068659    2.668    0.625
       164 -11.0036     20.5495    140.6391   1.0667633976e+02   4.3721534947e+01    0.3639385    0.2057034  -7.86  0.001623087    2.440    0.590
       165 -11.4715     41.2450    139.8855   9.9900377491e+01   4.2006636579e+01    0.2677462    0.2296263  57.82 0.0008052752    1.286    0.223
       166 -11.3933    142.3095    138.4995   6.9199059000e+01   2.5920326785e+01    0.3211418    0.2541682 -19.73 0.0008343796    1.430    0.301
       167 -11.3046    245.2864    235.6721   6.6998049747e+01  -8.9997363965e+00    0.2797259    0.1670045  -7.22  0.001680092    1.581    0.367
       168 -11.7155     47.8407    137.7013   9.7365543709e+01   4.1856032021e+01    0.3143009    0.2707366 -18.96  0.001346944    1.248    0.199
       169 -10.6148      3.8977    136.3213   1.1138471655e+02   4.5991492026e+01    0.6055632    0.2109634 -39.70  0.002268135    3.278    0.695
       170 -10.2435      5.0279    130.2604   1.1030987200e+02   4.7482742687e+01    0.2663771    0.2195475  75.39  0.001060803    1.300    0.231
       171  -9.8003      6.5146    127.4332   1.0947040943e+02   4.8120376924e+01    0.2289519    0.1611328 -62.47 0.0007159711    1.174    0.148
       172 -11.2067     58.1160    137.0654   9.3871248469e+01   4.0775081847e+01    0.3684529    0.1852383  36.17  0.001503609    2.070    0.517
       173 -10.2065    197.6595    135.3141   5.6353636227e+01   1.5757508894e+01    0.1431943    0.1107377 -76.37 0.0007047293    1.702    0.412
       174 -12.7715    132.4907    133.2769   7.0493149221e+01   2.9079808089e+01    0.5610295    0.4064447  55.42  0.001951732    1.584    0.369
       175 -12.1643     66.5638    134.7964   9.0648041111e+01   4.0234683724e+01     0.444044    0.3644227 -83.76  0.002223444    1.383    0.277
       176  -9.2891    233.0238    134.0496   5.0135078578e+01   9.7952491683e+00    0.1664764    0.1296865 -41.30 0.0009909053    1.062    0.059
       177 -12.5439     98.3704    129.2088   7.9254989585e+01   3.6562392940e+01    0.5837185    0.4254404   5.91  0.001315276    1.741    0.426
       178 -10.1320    168.3086    231.0919   8.1315383955e+01   1.4442046616e+00    0.2804579    0.1891135 -16.82   0.00146225    1.590    0.371
       179  -9.7518    170.2293    236.0118   8.1698187190e+01   2.7173426106e-01    0.1723001    0.1595239  25.48  0.001081968    1.262    0.207
       180 -12.6717    156.7670    129.5740   6.3569169493e+01   2.4994631372e+01    0.6152957    0.4432072  18.71  0.002753152    1.798    0.444
       181 -10.4569    166.9917    235.2980   8.2284634556e+01   8.5637547435e-01    0.2444114    0.1670864  14.34 0.0004875881    1.398    0.285
       182 -11.1411     72.1263    130.1007   8.7822884099e+01   4.0645450924e+01    0.2862173    0.2128356 -63.35  0.001356333    1.369    0.270
       183  -9.7626    243.1360    130.0310   4.7861357389e+01   8.8754372744e+00    0.2799766    0.1599423  62.33  0.001399623    2.600    0.615
       184 -10.4871    165.0053    130.0408   6.1807631727e+01   2.3218275516e+01    0.1765079     0.174393  -8.39 0.0009714447    1.054    0.051
       185 -12.5448    127.3514    127.6837   7.0505778527e+01   3.1402428795e+01    0.5852449    0.4402767   8.42   0.00252221    1.705    0.414
       186 -12.3593     30.4393    128.4155   1.0158148626e+02   4.6078117541e+01    0.5387238    0.3680387  -2.11  0.002690857    1.757    0.431
       187 -11.9122     24.9134    126.7632   1.0319414845e+02   4.6987647095e+01    0.4652895    0.2514271 -66.49  0.001908333    1.633    0.388
       188 -10.4836     20.7147    127.9215   1.0480015159e+02   4.7024486353e+01    0.3342136    0.1747548 -41.84  0.001156232    1.867    0.464
       189 -11.4869     18.9721    121.5566   1.0441038838e+02   4.8798677102e+01    0.6195971    0.2248464 -64.96  0.001976915    2.272    0.560
       190 -11.0107    124.1507    233.9436   9.1755569821e+01   7.3270808406e+00    0.5646127     0.333096 -76.91  0.002347569    2.997    0.666
       191 -11.2511     40.6132    135.1135   9.9298824049e+01   4.3330115526e+01    0.2344848     0.197787  44.49 0.0006895711    1.308    0.236
       192 -10.0601     11.4329    125.9043   1.0763129556e+02   4.8206926617e+01    0.3112382    0.1994218 -41.13  0.001634325    1.500    0.333
       193 -11.1563     93.4056    122.3640   7.9136530153e+01   3.9121235941e+01     0.394793    0.2583881 -47.03 0.0008017777    1.472    0.321
       194 -10.3800    249.1054    122.3771   4.5559005709e+01   9.2415290328e+00     0.298362    0.2001794  35.20  0.001721196    2.062    0.515
       195 -12.0450    147.9076    127.2231   6.5108856209e+01   2.7324100504e+01      0.47725    0.2793782 -49.88  0.001822647    1.703    0.413
       196  -9.6663    228.8813    121.7047   4.8248683092e+01   1.2687515679e+01    0.1708657    0.1595141 -66.84 0.0006923593    1.157    0.136
       197  -9.4883    221.8168    122.1675   4.9414374228e+01   1.3838968731e+01    0.1781612    0.1471894 -24.03 0.0003993004    1.303    0.232
       198 -10.5267    207.9888    121.9917   5.1610609835e+01   1.6387755458e+01    0.1658829    0.1510388 -47.33 0.0003198823    1.037    0.036
       199  -8.9723      3.5259    121.9763   1.0976066372e+02   4.9682834337e+01    0.2006471    0.0682028 -50.76 0.0008068932    2.349    0.574
       200 -11.1996    157.9134    121.0380   6.1241562771e+01   2.6585916296e+01    0.2307267    0.2194166 -47.12 0.0004002091    1.016    0.016
       201 -10.9474    129.7908    120.1183   6.7957183769e+01   3.2634584627e+01    0.2723958    0.2496128  24.15            0    1.125    0.111
       202 -11.2178    112.8261    235.3725   9.4594050538e+01   8.6761404381e+00     0.331694    0.2050134  39.34  0.001671949    1.480    0.324
       203  -9.5489     61.8123    121.2203   8.9336930934e+01   4.4378916414e+01    0.2093473    0.1670027 -23.64 0.0005983061    1.312    0.238
       204 -10.9428    176.8438    234.0293   7.9957597335e+01  -2.9295051781e-01    0.4638747    0.2519208  21.45   0.00195934    1.826    0.452
       205  -9.4838    179.2883    118.3574   5.6044246907e+01   2.2713931293e+01     0.148149    0.1149351  -9.76 0.0007025003    1.681    0.405
       206  -9.4046    173.5577    118.5295   5.7244672795e+01   2.3855319827e+01    0.1485954    0.1380407 -52.80  5.17698e-05    1.033    0.032
       207 -10.2165    164.6283    118.2210   5.9060730286e+01   2.5771976139e+01    0.2126359    0.1368245 -34.71  0.000417962    1.609    0.379
       208 -11.3388    149.1810    117.0063   6.2277023338e+01   2.9272499375e+01    0.3534884    0.1986355 -38.12  0.001177251    1.817    0.450
       209 -10.1868     53.8777    118.1493   9.1429370632e+01   4.6196614739e+01    0.2191694    0.1997703  83.37 0.0006612232    1.263    0.208
       210 -10.2892    139.9570    117.2943   6.4606510349e+01   3.1150400016e+01    0.2164608    0.2034477  32.57  0.000581253    1.092    0.084
       211 -10.9706     39.0587    112.7193   9.5603876105e+01   4.9269321805e+01    0.3092712    0.1497958 -46.09 0.0009123617    1.851    0.460
       212  -9.3581      6.2245    117.1443   1.0818282961e+02   5.0758203282e+01    0.1722755    0.1462565  77.03 0.0005391079    1.314    0.239
       213 -10.8737    194.7111    114.0127   5.2137205679e+01   2.0448617989e+01     0.259026    0.1987747 -89.48  0.001101693    1.665    0.399
       214 -10.7446    136.7225    233.7497   8.8821116142e+01   5.5251424776e+00    0.3619527    0.1763607 -44.52  0.001615572    2.179    0.541
       215 -11.5016     28.3987    113.5879   9.9673540014e+01   5.0069908286e+01    0.3169718    0.2644438  -2.89 0.0009752132    1.297    0.229
       216 -10.0724    217.5241    112.5594   4.8049324882e+01   1.6341560643e+01     0.257789    0.1057884 -49.92  0.001035785    2.344    0.573
       217 -10.5279    210.9165    113.5024   4.9286755916e+01   1.7404145219e+01    0.1895076    0.1374988  53.23 0.0006192107    1.564    0.360
       218 -10.2716    113.4498    113.1897   7.0710485671e+01   3.7507667400e+01    0.2929251    0.2254836  37.35 0.0008722604    1.317    0.241
       219 -11.2412     33.5406    111.2907   9.7340412678e+01   5.0178874029e+01    0.4351138    0.1732454 -48.29 0.0009629533    2.147    0.534
       220 -11.4600    236.3526    231.2555   6.7819501952e+01  -7.3632651683e+00    0.3620758    0.1854894  28.02  0.001594593    2.008    0.502
       221 -10.3357    206.9501    231.6886   7.3395388694e+01  -3.9042566872e+00     0.222887    0.1944984 -29.41 0.0006471799    1.322    0.244
       222  -9.5361      7.5108    110.9879   1.0682240060e+02   5.2234726651e+01    0.2010448    0.1137585 -67.37 0.0003866111    1.503    0.335
       223 -11.0154    163.6638    109.9069   5.7230495135e+01   2.7665444992e+01    0.2547023    0.2128038  33.03 0.0008012878    1.327    0.246
       224 -11.3851     39.2952    122.6393   9.7488665535e+01   4.6716338513e+01    0.3565409    0.1602985 -62.03  0.001440708    1.998    0.500
       225 -10.2763     52.3092    109.5783   9.0060570267e+01   4.8536932915e+01    0.2775617    0.1352018  31.82  0.001143544    2.134    0.531
       226  -9.4163    104.8615    108.1017   7.1902116607e+01   4.0348182743e+01    0.2058567    0.1773486  -0.28  0.001022249    1.260    0.207
       227 -11.2247    208.7941    226.9081   7.2215612967e+01  -3.3422588904e+00    0.2294887    0.1833343 -14.72 0.0003142622    1.045    0.043
       228 -10.4426     10.3442    104.4644   1.0472955991e+02   5.3691483262e+01    0.2609672    0.2404778   1.86   0.00075318    1.234    0.190
       229 -11.1313    187.7453    105.7413   5.1481548544e+01   2.3414516616e+01    0.2517231     0.188555 -34.77 0.0007545336    1.343    0.255
       230 -11.0758    111.9806    105.1849   6.8994770129e+01   3.9587793812e+01    0.3792121    0.2917301   7.02  0.001184556    1.611    0.379
       231 -11.4643    140.2552    105.0798   6.1373671059e+01   3.3678804833e+01    0.3041856    0.2302266  54.93  0.001455149    1.392    0.281
       232 -11.1247    132.9366    104.4794   6.3055328307e+01   3.5373602025e+01     0.313476    0.2163977 -61.10  0.001378306    1.722    0.419
       233 -10.9575    187.9656    234.8149   7.7751407659e+01  -1.9493858225e+00    0.3521425    0.2362916  49.88  0.001813041    2.248    0.555
       234  -9.8617    168.3136    103.3253   5.4629304957e+01   2.7966037925e+01    0.1462505    0.1177963   1.87 0.0004061265    1.664    0.399
       235 -10.2037     17.4494    102.6656   1.0171456718e+02   5.3667452437e+01     0.367473    0.1893903  28.45  0.001743441    2.150    0.535
       236 -10.7053    120.5080    100.6356   6.5325871626e+01   3.8812084343e+01    0.2800027    0.2534708  55.25 0.0007186487    1.156    0.135
       237 -10.4344     65.0800    100.4197   8.3116260816e+01   4.9001609045e+01    0.3354164    0.1978169 -56.32  0.001469958    1.740    0.425
       238  -9.9470    186.2995     98.3443   5.0003312098e+01   2.5080598695e+01    0.1385704    0.1129479  -1.73 0.0004792911    1.676    0.403
       239 -13.7002     72.4586    200.5890   9.9867993061e+01   2.2359529422e+01     2.167178     1.218146  72.06  0.008389121    2.623    0.619
       240 -12.9727    174.0489     92.0365   5.0715101260e+01   2.8839903758e+01    0.6211962    0.4676656 -25.15  0.002248855    1.560    0.359
       241  -9.8606    110.0021     97.3147   6.7391319619e+01   4.1683287314e+01    0.2108128    0.1952505  33.08  0.000390328    1.073    0.068
       242 -10.9200     91.7637     96.3110   7.2749848998e+01   4.5459224923e+01    0.2659121    0.2365573 -16.45 0.0002256431    1.118    0.105
       243 -10.9794    191.9527    229.1838   7.5983087723e+01  -1.5073857062e+00    0.3473492    0.1841021 -46.00  0.001701788    2.003    0.501
       244 -10.1103    195.3261     96.6581   4.8065904672e+01   2.3512811851e+01    0.1469274    0.1013484 -71.25 0.0007051159    1.736    0.424
       245  -9.2702    236.1649     95.0381   4.1835722867e+01   1.5958965371e+01    0.1605081    0.1428164  13.78 0.0009175529    1.577    0.366
       246 -10.4664    148.8114     95.1785   5.6736190578e+01   3.3791272205e+01    0.2007068    0.1777516   6.80 0.0004260137    1.317    0.241
       247 -10.1504    112.8354     93.6619   6.5532032460e+01   4.1862475207e+01    0.4212316     0.176398  50.43  0.001458259    2.669    0.625
       248 -10.9387    183.8893     90.8049   4.8635338512e+01   2.6943621769e+01     0.203666    0.1943174   1.75 0.0004919629    1.237    0.192
       249 -10.8892    164.2370     91.0447   5.2370602591e+01   3.1165817672e+01    0.2917665    0.1629349 -32.75 0.0007056288    2.007    0.502
       250 -11.1907    139.8408     90.3385   5.7517854443e+01   3.6701563023e+01     0.396802    0.2623397  81.13  0.001366292    2.424    0.587
       251 -11.2657     92.0142     90.8295   7.1084451650e+01   4.6588336634e+01    0.3596967    0.2572715  47.61  0.001710432    1.495    0.331
       252 -11.5791    152.4357     88.7882   5.4242589616e+01   3.4195607960e+01    0.3282031    0.2596398  17.98  0.001341017    1.638    0.390
       253 -11.9777    152.4543     85.4926   5.3364207083e+01   3.4794616850e+01    0.3304096    0.2771823 -60.29  0.001154788    1.225    0.184
       254 -10.4309     57.6279     88.5153   8.2651547741e+01   5.2799306539e+01    0.3042671    0.1868845 -11.55  0.001291532    2.190    0.543
       255 -10.2950    107.6367     87.0833   6.5136573016e+01   4.4268278573e+01    0.2691444    0.2051658  54.12 0.0006329211    1.412    0.292
       256  -9.9934     18.7634     85.5360   9.7657903844e+01   5.7677030965e+01    0.3030409    0.1222868  21.14  0.001302351    2.621    0.618
       257 -10.4159    143.7185    230.1229   8.6662604517e+01   5.2153675928e+00    0.2705491    0.1682316   2.14 0.0008161363    2.128    0.530
       258  -9.0102     78.4866     84.5427   7.3787435340e+01   5.0364884051e+01     0.147939    0.1353013  -4.42 0.0001611005    1.021    0.020
       259 -10.3315    120.1926     81.3035   5.9908703791e+01   4.2723907288e+01    0.2651043    0.2040914 -24.52  0.001309941    1.445    0.308
       260 -11.6713     44.8399     79.3331   8.5121040665e+01   5.6505227421e+01    0.3331544    0.2593709  17.45  0.001855611    1.291    0.226
       261 -11.9763    154.8232     77.3629   5.0705369084e+01   3.5695399402e+01    0.3591779    0.2556628  44.99  0.001074379    1.468    0.319
       262 -10.1607     11.1599     77.7439   9.9140341927e+01   5.9990193936e+01     0.247804    0.1823447  37.65 0.0009693479    1.696    0.410
       263 -11.1800    147.5041     71.5011   5.0625432659e+01   3.8342514018e+01    0.2802223    0.1821545 -35.73  0.001000677    1.620    0.383
       264  -9.9988     36.3308     75.2943   8.7536636267e+01   5.8365562935e+01    0.1444729   0.09111653 -22.02 0.0002832127    1.634    0.388
       265 -11.8629    151.3202     72.2975   5.0055657319e+01   3.7343201554e+01    0.4854739    0.2425382 -24.61  0.001786896    3.101    0.678
       266 -10.6823     55.9807     73.9697   7.8970662965e+01   5.6146973860e+01    0.1992828    0.1758309  76.08 0.0004168357    1.622    0.384
       267  -9.9927    128.8176     73.1736   5.5323172407e+01   4.2282604532e+01    0.1987984    0.1707271  10.52 0.0005142051    1.346    0.257
       268 -10.0865     33.9467     70.9810   8.7316413185e+01   5.9542871973e+01    0.2005526    0.1768198 -16.87 0.0003966579    1.065    0.061
       269  -9.6625    179.0042     67.9927   4.3929230698e+01   3.1814748567e+01    0.2020727    0.1853165 -78.32  0.000379946    1.014    0.014
       270 -10.6262     24.8004     67.4370   9.0373277364e+01   6.1196194486e+01    0.1786005    0.1142609  -2.35 0.0008272307    1.618    0.382
       271 -10.3286    124.9535     65.4753   5.3986769036e+01   4.4440937196e+01    0.2185594    0.1350049  53.13 0.0007583309    1.548    0.354
       272 -10.5826    118.5057    229.4567   9.2436617919e+01   9.0850990750e+00    0.2578539    0.2015722 -74.68 0.0008306451    1.589    0.371
       273  -9.7465    103.9239     59.7024   5.7718993024e+01   4.9984743611e+01    0.1938878    0.1731755  42.91 0.0003884184    1.062    0.058
       274  -9.4120      1.8237     59.1603   9.8965657134e+01   6.4581987601e+01    0.1734447    0.1089138 -32.28 0.0004492465    1.308    0.235
       275  -9.9288    200.5017     55.4889   3.7941072888e+01   2.9037212325e+01    0.1280121    0.1105899 -73.22 1.799893e-05    1.012    0.012
       276 -10.8228    150.6963     55.0909   4.5480199498e+01   4.0164282831e+01    0.2209646    0.1639252 -58.82 0.0006872548    1.440    0.305
       277  -9.6046     30.4913     55.4924   8.4010129834e+01   6.3033033450e+01    0.1333931    0.1074431 -16.26 0.0008103335    1.035    0.034
       278  -8.9370    125.3172     54.2743   5.0513881443e+01   4.6096463866e+01    0.1390528    0.1025259  28.88 0.0002800496    1.566    0.361
       279 -10.4247    156.4630     52.4918   4.3735031857e+01   3.9213343413e+01    0.1347309    0.1233313  84.59 0.0001020714    1.005    0.005
       280 -10.1329    119.0103     56.7208   5.2771840379e+01   4.7150686286e+01    0.1967801    0.1701929  52.56 0.0003685353    1.084    0.077
       281  -9.4725    224.3718     50.1518   3.4114933031e+01   2.4938731143e+01    0.1801647   0.08752711 -50.00 0.0007423706    1.757    0.431
       282 -10.1366    111.0045     49.0237   5.2337162334e+01   5.0061469059e+01    0.2065303    0.1762672  27.38 0.0004114608    1.190    0.160
       283 -11.7609    110.8275     43.9173   5.0719385475e+01   5.0806294497e+01    0.3864079    0.2787566 -24.55 0.0007481716    1.566    0.361
       284  -9.9178     88.4585     48.0689   5.8381391611e+01   5.4993789245e+01    0.1981389     0.133515 -33.80  0.001027288    1.589    0.371
       285  -9.4804    122.9805     46.0481   4.8520783099e+01   4.7789417789e+01    0.1586276    0.1518236  54.34 0.0003404493    1.049    0.046
       286 -10.2459    100.9331     43.0953   5.3018834310e+01   5.3081614198e+01    0.1963484    0.1785754  82.30  0.000422189    1.285    0.222
       287 -10.4730     36.5024     43.4799   7.6861177368e+01   6.4489311067e+01    0.1300054    0.1062092  -4.58 6.380197e-06    1.001    0.001
       288  -9.0534      8.4950     43.4864   9.0986669800e+01   6.7296470912e+01    0.1234749   0.09698188 -22.88 0.0008104196    1.022    0.021
       289 -10.2408    206.1106     42.0007   3.4329563806e+01   2.9702261458e+01    0.1861554    0.1547942 -71.64 0.0004339945    1.018    0.018
       290  -9.1491     44.4785     42.0038   7.2639170271e+01   6.3649745100e+01    0.1832742   0.09689321 -18.45  0.000808614    2.436    0.589
       291  -9.8474     21.1791     42.3873   8.3977969324e+01   6.6415431493e+01    0.1680904    0.1037196  30.22 0.0009455777    1.752    0.429
       292  -9.2973    187.7389     40.3531   3.6087197822e+01   3.3824305815e+01    0.1318012   0.08250282 -65.13 0.0003504023    1.615    0.381
       293 -10.3768    106.8754     49.1385   5.3448449839e+01   5.0951706534e+01    0.1962286    0.1828633  74.60 0.0003547428    1.180    0.153
       294 -10.2587     60.8458     36.5433   6.3652806748e+01   6.1867400905e+01    0.3037924    0.1167841  50.01   0.00115479    3.256    0.693
       295 -10.3194    192.0508     34.5055   3.4238943721e+01   3.3624895992e+01      0.17802    0.1494886 -66.57 0.0003617423    1.088    0.081
       296  -9.3399     97.3097     35.6783   5.1439465384e+01   5.4822921614e+01    0.1267901    0.1038483 -81.68 0.0005965029    1.647    0.393
       297  -9.6783    108.7169     33.3276   4.7737979922e+01   5.2614123792e+01    0.1265185    0.1007645 -75.70 0.0002222342    1.604    0.377
       298 -11.3101    199.2078     28.7951   3.2204777341e+01   3.2788858452e+01    0.2117476     0.170367 -77.46 0.0002465205    1.032    0.031
       299 -10.2937     62.8083     26.2048   5.8720355676e+01   6.2870383545e+01    0.1911644    0.1449268 -86.47 0.0009554179    2.866    0.651
       300 -10.3701     45.9454     24.6086   6.4783706099e+01   6.5947854743e+01    0.2031166    0.1503299  -6.46 0.0004916063    1.273    0.214
       301 -10.9495    100.6577     23.5162   4.6327687452e+01   5.5488371627e+01    0.2002034     0.121991 -25.99 0.0009480504    1.883    0.469
       302  -9.3704     67.5096     24.4934   5.6339892888e+01   6.2200183440e+01    0.1272167    0.1076438  28.18 0.0008102222    1.042    0.040
       303  -9.4899     46.6487     29.3040   6.6500222604e+01   6.5213845929e+01    0.1118496    0.1007283  60.45 0.0007040716    1.704    0.413
       304  -9.0692    206.4726    249.4556   7.6419246472e+01  -6.6902889040e+00    0.1243296   0.09735046  -2.56 7.349653e-05    1.015    0.015
       305  -8.9694    114.7047     20.7192   4.2269157253e+01   5.2648193289e+01    0.1280952     0.085385  38.12  0.000178199    1.536    0.349
       306 -10.9521     28.7214     19.4374   7.0552570291e+01   6.9131479680e+01    0.2086792    0.1709733  -3.02 0.0003405891    1.135    0.119
       307 -10.3750     14.7057     18.4620   7.7671809660e+01   7.0932537673e+01    0.2276427    0.1658282  -1.03  0.001444644    1.069    0.065
       308  -9.9228    109.8200     18.5994   4.2586326629e+01   5.3954511433e+01    0.1725833    0.1103549  70.73 0.0002481423    1.553    0.356
       309 -10.9311     88.8133     17.8739   4.7281576499e+01   5.8612422777e+01     0.200928    0.1492226  31.90  0.001075895    1.270    0.212
       310  -9.2051     66.6390     18.6952   5.4252145864e+01   6.3008692855e+01    0.1354213   0.07991096  25.54 0.0007038678    1.730    0.422
       311  -9.1972     41.8008     18.5950   6.3923326885e+01   6.7349794968e+01    0.1605839    0.1039027  43.56 0.0009360366    1.638    0.389
       312  -9.2745     35.4896     21.4565   6.8141973807e+01   6.7933472962e+01    0.1221608   0.09775125   9.29 0.0001363883    1.045    0.043
       313 -10.6735     51.0032     15.5832   5.8668493478e+01   6.6183637154e+01    0.2111548    0.1630394 -35.11   0.00135852    1.625    0.385
       314  -9.2510     15.3808     14.2583   7.5314279358e+01   7.1449705988e+01    0.1396955   0.09961075 -33.46   0.00069163    1.504    0.335
       315  -9.1405     39.0121     13.4846   6.2804750749e+01   6.8382816479e+01     0.144092    0.1021057  58.22 0.0007746354    2.355    0.575
       316  -9.9566     75.7392    229.4765   1.0260449861e+02   1.5116303935e+01    0.2327139    0.1759896 -74.68 0.0005537068    1.407    0.289
       317  -9.4584    124.5588    249.0833   9.3743217967e+01   4.2803755473e+00    0.2745006    0.1770685  69.85  0.001267376    2.673    0.626
       318 -10.2442    120.4679    246.1364   9.4275015082e+01   5.4225701334e+00    0.3526838    0.2894668 -48.89  0.002128855    1.363    0.267
