#   1 NUMBER                 Running object number                                     
#   2 MAG_AUTO               Kron-like elliptical aperture magnitude                    [mag]
#   3 X_IMAGE                Object position along x                                    [pixel]
#   4 Y_IMAGE                Object position along y                                    [pixel]
#   5 X_WORLD                Barycenter position along world x axis                     [deg]
#   6 Y_WORLD                Barycenter position along world y axis                     [deg]
#   7 A_WORLD                Profile RMS along major axis (world units)                 [deg]
#   8 B_WORLD                Profile RMS along minor axis (world units)                 [deg]
#   9 THETA_WORLD            Position angle (CCW/world-x)                               [deg]
#  10 FWHM_WORLD             FWHM assuming a gaussian core                              [deg]
#  11 ELONGATION             A_IMAGE/B_IMAGE                                           
#  12 ELLIPTICITY            1 - B_IMAGE/A_IMAGE                                       
         1 -12.0747     76.8005     24.2956   9.6611308365e+01   6.0604743657e+01     0.501314    0.3852003 -37.62  0.001592386    1.407    0.289
         2 -11.3277     14.3140     21.1688   1.2026631337e+02   6.9147637056e+01    0.3527685     0.297413  72.78   0.00186114    2.135    0.532
         3 -11.0004     27.2305     15.4707   1.1193147875e+02   6.8906485173e+01    0.3134702    0.1969197 -25.27   0.00128152    1.320    0.242
         4 -11.0932     41.8133     18.7767   1.0711237618e+02   6.6718173490e+01    0.4114506    0.3100031  23.02  0.002727122    1.406    0.289
         5 -11.4891    190.3064     15.6851   6.9386413742e+01   3.5089324847e+01    0.4423269     0.185481 -22.98 0.0009544063    2.523    0.604
         6 -10.7309     43.2224      5.6873   1.0022697318e+02   6.8360664872e+01    0.5278955    0.2520036  29.19  0.002764937    2.230    0.551
         7  -9.5483     28.9438      1.4740   1.0427445117e+02   7.0736245290e+01    0.1539386    0.1409199   9.22 0.0004599061    1.481    0.325
         8 -10.2485     39.1736     10.2204   1.0419478745e+02   6.8296569732e+01    0.2004349    0.1928976 -14.39 0.0008733836    1.514    0.339
         9 -11.0670     22.4637      9.4269   1.1132660484e+02   7.0323485474e+01    0.3191177    0.2210613  -0.66  0.002044319    1.391    0.281
        10 -11.8422     35.0188     13.3784   1.0750468707e+02   6.8356879785e+01     0.452716    0.2794152 -44.12  0.002047566    1.742    0.426
        11 -12.0030     29.9934      7.3121   1.0679710240e+02   6.9819306920e+01    0.3736494    0.2687266  -3.93  0.002216923    1.226    0.184
        12 -10.2859    144.1577     14.3639   7.5882365356e+01   4.7022604381e+01    0.2225979    0.1857003   8.09 0.0005234919    1.246    0.197
        13 -11.3867    212.7070     11.9568   6.5788731380e+01   2.9794381176e+01    0.3014705    0.2516387  69.24 0.0008904509    1.164    0.141
        14  -9.8803     68.4074     12.5667   9.4139093359e+01   6.3597777743e+01    0.2319872    0.1642057 -50.93  0.001266298    2.128    0.530
        15 -10.8673     52.3399     13.2914   1.0033019243e+02   6.6066982611e+01    0.4365321    0.1856498  27.49  0.001902518    3.011    0.668
        16 -10.6102     55.5230      7.5225   9.6307937155e+01   6.6323026643e+01    0.3906944    0.1773819 -37.46  0.001862338    2.291    0.563
        17 -11.5247     55.4917      4.0494   9.4577559314e+01   6.6737511614e+01     0.547059     0.484481  85.72  0.003563122    2.034    0.508
        18 -10.3852    223.7421     11.7623   6.4648957346e+01   2.7096808244e+01    0.2348769    0.1653845 -23.17  0.001268689    1.505    0.336
        19 -10.5276    184.4935     11.9593   6.9006176143e+01   3.6959127699e+01     0.198735    0.1376407 -24.03 0.0004637833    1.523    0.343
        20 -10.6432    119.0149     11.9730   7.9949306530e+01   5.3326285690e+01    0.2038438    0.1804755  28.96  0.001211107    1.011    0.011
        21  -9.8691     87.0132     12.2948   8.8156839373e+01   6.0192164344e+01    0.2171781     0.159218  15.25 0.0009745788    1.286    0.222
        22  -9.5703     88.5066      7.4602   8.5561477918e+01   6.0409405026e+01    0.3068513    0.1229918 -12.51  0.001088548    3.184    0.686
        23 -12.1113    151.5540      6.3188   7.1818305842e+01   4.5923287615e+01    0.5512465    0.3699251   0.24  0.001908807    1.712    0.416
        24 -10.0652      9.0122     10.5010   1.1837033143e+02   7.1351376654e+01    0.2344385    0.1013438 -14.15 0.0008635265    4.147    0.759
        25 -11.1991     13.6768      8.2794   1.1504028752e+02   7.1322551144e+01    0.3202346    0.2371357  17.48  0.001657338    1.524    0.344
        26 -11.5406      3.5354      8.7114   1.2035554721e+02   7.2043950503e+01    0.3136342    0.2223206 -57.01  0.001414036    1.707    0.414
        27 -10.7310      9.4056      2.5179   1.1443452650e+02   7.2567462138e+01     0.394374    0.1982799  -7.93  0.002144606    2.572    0.611
        28 -10.2277    210.3648      7.8197   6.4909600353e+01   3.0791438685e+01    0.1820546    0.1293953  -7.73 0.0009489722    1.692    0.409
        29 -10.9511     66.4804      6.4869   9.1888316793e+01   6.4641309954e+01    0.4692831    0.2281058  31.73  0.002297933    2.107    0.525
        30 -10.2640     71.1957      7.4249   9.0771880106e+01   6.3707885281e+01    0.2188669    0.1898532   3.48 0.0007220808    1.100    0.091
        31 -10.1859     69.4327      4.5083   8.9940078530e+01   6.4338704178e+01    0.2082836    0.1769956 -11.06 0.0001306304    1.174    0.148
        32  -9.5741    218.3782      7.2892   6.3992076488e+01   2.8859519985e+01     0.139024   0.09291775  42.49 0.0007018304    1.734    0.423
        33 -10.1836    160.3589      4.6394   6.9934901215e+01   4.3835230209e+01    0.2186403    0.1553584 -62.20    0.0011124    1.641    0.391
        34 -11.5737    130.7354      3.6940   7.4391149550e+01   5.1307160017e+01    0.3262965    0.2596447  62.52  0.001205288    1.217    0.178
        35  -9.3123    107.5342      4.9288   7.9641294485e+01   5.6607140365e+01    0.1769116    0.1254181 -13.00 -5.848844e-05    1.415    0.293
        36 -10.6189    236.1480      3.5910   6.1521273946e+01   2.4953424570e+01     0.317645    0.1782999  25.01  0.001369929    3.108    0.678
        37 -10.0774    120.9747      4.0998   7.6419324348e+01   5.3600668174e+01    0.2033931    0.1799546  31.77 0.0004878491    1.010    0.010
        38 -10.0997    199.5436      2.9792   6.4675623709e+01   3.3967400380e+01    0.2015351    0.1723668  83.17 0.0003416769    1.087    0.080
        39  -9.6415     91.4011      2.7750   8.2662597024e+01   6.0271729902e+01     0.336845    0.1806871  56.41  0.001677041    1.876    0.467
        40 -11.3879     80.1988      1.6726   8.5249488064e+01   6.2618760054e+01    0.3606101    0.1477234  45.63   0.00129385    2.168    0.539
        41 -10.5831     19.5481      2.4734   1.0927957553e+02   7.1633190951e+01    0.2655033    0.1670838   2.69  0.001711042    1.602    0.376
        42 -10.8903     92.5713      9.2469   8.5242265280e+01   5.9399829793e+01    0.2902845    0.1998021   2.00  0.001314801    1.444    0.307
        43 -10.1372     39.6353      1.7220   9.9669864168e+01   6.9346432293e+01     0.303534    0.1424547  30.19  0.001612238    2.217    0.549
        44  -9.5323      2.0530      2.5485   1.1833158430e+02   7.3133332552e+01    0.1361155    0.0951236   8.55  0.001008013    1.534    0.348
        45  -9.0470     67.3451      1.2599   8.9024965631e+01   6.5046070534e+01    0.1292203   0.07859209  21.03 0.0003034882    1.596    0.373
        46  -9.4266    226.3247    124.6555   9.3523519038e+01   1.0729474707e+01    0.1435984    0.1125184 -64.46 0.0007050508    1.739    0.425
        47 -10.9101      1.8498    248.5448   1.5328474481e+02   2.4983214939e+01    0.3274556    0.1398699 -87.82  0.002326058    1.966    0.491
        48 -11.5230      6.0904    247.4366   1.5264459437e+02   2.4756886499e+01    0.3261704    0.1790311  87.47  0.002605781    1.453    0.312
        49 -12.9169      5.0887    240.3624   1.5250256782e+02   2.5984074711e+01     0.841334    0.2316691  54.26  0.004984504    2.466    0.594
        50 -12.0317      8.8181    227.8284   1.5139845057e+02   2.7709999798e+01    0.2835326    0.2215562  65.82  0.001617817    1.262    0.207
        51 -11.1722     23.2680    120.7310   1.4003982989e+02   4.7756496016e+01    0.4820261    0.2263435  87.20  0.002098879    2.775    0.640
        52  -9.6926     96.6273    113.9864   1.1939289376e+02   4.0082455755e+01    0.2029233    0.1711302 -62.58 0.0007551289    1.134    0.119
        53  -9.4741     34.6798    114.6926   1.3620522812e+02   4.8073964510e+01    0.1221141   0.08145496 -43.51 0.0003177706    1.639    0.390
        54 -10.9864      4.0247    113.4287   1.4404658779e+02   5.0798452558e+01    0.2607411    0.1841538 -12.77  0.001474977    2.149    0.535
        55  -9.5849    249.3009    111.3560   8.6664478555e+01   7.9508574328e+00    0.1452335     0.101542   6.91 0.0006527206    1.708    0.414
        56  -9.8874     65.9819    110.6966   1.2696670966e+02   4.5426972608e+01    0.1844095    0.1686383 -79.64  0.001161726    1.074    0.069
        57 -10.8727     12.7191    108.8530   1.4122609667e+02   5.1205383997e+01    0.1983023    0.1130442 -59.99  0.001203227    1.420    0.296
        58 -11.2707      4.9851    108.6575   1.4324388553e+02   5.1775180459e+01    0.2820539    0.2152237   3.91  0.002005018    1.878    0.468
        59  -9.2772     79.7384    106.9875   1.2236825530e+02   4.4321298557e+01    0.1861177    0.1090284 -54.54 0.0008890568    1.542    0.352
        60 -10.4094     58.5425    107.1536   1.2831994973e+02   4.7171242152e+01    0.2392419    0.1784202  -4.40  0.001313221    1.952    0.488
        61  -9.4130     81.3355     99.6885   1.2021510430e+02   4.5693820489e+01    0.1387084    0.1061492  84.92 0.0004653683    1.683    0.406
        62 -10.5616     62.1647     99.1574   1.2560347047e+02   4.8506101703e+01    0.1840068    0.1511784 -88.53 0.0007740872    1.343    0.255
        63 -10.9417     27.0820     90.5954   1.3428139309e+02   5.4124241231e+01    0.6008317     0.300576  40.05  0.003225332    2.380    0.580
        64  -9.8190     25.4464     84.9365   1.3371001668e+02   5.5503892119e+01    0.2319945      0.12948 -53.69 0.0006379164    1.432    0.302
        65 -10.6210     20.0000     97.0038   1.3748086002e+02   5.3279112743e+01    0.2582909    0.1352309 -69.61 0.0007376171    1.551    0.355
        66 -11.1773     17.1976     94.7854   1.3793615895e+02   5.3979349690e+01    0.3069786    0.1956953 -49.87  0.001441511    1.425    0.298
        67  -9.1229    123.7062     97.3414   1.0809172819e+02   3.8576250069e+01    0.1507408    0.1182473 -78.89 0.0007029264    1.656    0.396
        68  -9.7084     37.2526     95.9413   1.3225095915e+02   5.2019573328e+01    0.2664272    0.1373839  58.72  0.001218282    2.941    0.660
        69  -9.8445      3.5252     95.4867   1.4196137214e+02   5.4735643164e+01    0.1151615   0.08729953 -74.97 0.0005577211    1.049    0.047
        70 -10.4935     84.2789     93.8631   1.1792102646e+02   4.6507107424e+01       0.2822    0.2341997  21.42  0.001583897    1.396    0.284
        71 -11.6065     11.2302     87.8617   1.3858406958e+02   5.5913332636e+01    0.5615337    0.1819673 -65.87  0.001830341    2.279    0.561
        72 -10.2576     16.0565     89.4889   1.3740428912e+02   5.5225639367e+01    0.2079918    0.1948071   9.88 0.0008327448    1.375    0.273
        73  -9.9056     18.6465     86.8021   1.3615590040e+02   5.5625490923e+01    0.1933189    0.1385177 -80.21 0.0009777949    1.324    0.245
        74 -10.6203     42.9932     89.1312   1.2914076090e+02   5.2953670385e+01    0.3547741    0.1625449  43.24  0.001628016    2.643    0.622
        75 -10.0820      1.7153     89.6014   1.4166496870e+02   5.6118113819e+01    0.2135432    0.1135896 -69.51 0.0005610038    1.403    0.287
        76  -9.5335    116.9739     90.0000   1.0778936711e+02   4.1438024904e+01     0.241261    0.0850835  45.28  0.000805099    2.961    0.662
        77 -10.8006    104.9099     88.4354   1.1061060287e+02   4.4095943344e+01    0.4394492    0.2416293  64.69   0.00155288    3.433    0.709
        78 -10.2757     76.5696     88.9728   1.1891253616e+02   4.8749794616e+01    0.2139289    0.1911644  -3.14 0.0006436522    1.266    0.210
        79  -9.7824    124.0320     86.9923   1.0507229567e+02   4.0594792052e+01    0.2255654    0.2144487 -21.75 0.0004650784    1.026    0.025
        80 -11.2161     54.4723     84.2707   1.2446964291e+02   5.2738398720e+01    0.2863842    0.2067849 -60.47 0.0007101959    1.252    0.201
        81  -9.7178     92.3672     85.1238   1.1322410934e+02   4.7033802968e+01    0.1965021    0.1630383 -48.07 0.0003645077    1.125    0.111
        82  -9.0637     42.9924     84.0340   1.2801680800e+02   5.4073088229e+01    0.1521343    0.1178441 -56.53 0.0002978392    1.071    0.066
        83  -9.3155     34.1396     84.3648   1.3087417619e+02   5.4871007760e+01    0.1510072    0.1100879  46.15 0.0006307762    1.667    0.400
        84  -8.6470     78.2850     83.3057   1.1688334200e+02   4.9703339273e+01    0.1369063    0.1009662 -23.30 0.0002016153    1.563    0.360
        85 -11.6622     63.9031     81.7224   1.2087675476e+02   5.2098133284e+01    0.3607917    0.3019384 -57.51  0.001204328    1.119    0.107
        86 -10.1372     65.3069     75.6765   1.1879509962e+02   5.3192150882e+01    0.3220657     0.225984 -11.14 0.0007640435    1.902    0.474
        87  -9.1699     37.5080     82.0131   1.2929984398e+02   5.5065553445e+01    0.1699798    0.1007406 -84.37 0.0008086492    2.406    0.584
        88  -9.8895    250.3738     80.7779   7.9119242239e+01   1.2149796822e+01    0.1961926    0.1241251 -20.60 0.0007006821    1.605    0.377
        89  -9.9998     89.3738     80.4876   1.1277060530e+02   4.8506771745e+01    0.2667534    0.1634796 -50.39 0.0006388346    1.553    0.356
        90  -8.7009    124.4768     79.4622   1.0270489420e+02   4.1968612707e+01    0.1484004    0.1429723 -46.22  0.000143879    1.073    0.068
        91  -9.3443     85.3904     79.5670   1.1368869136e+02   4.9360764329e+01    0.1395483    0.1236281 -36.54 4.066626e-06    1.034    0.033
        92  -9.4126     24.0283     78.9862   1.3297295456e+02   5.6915189616e+01    0.1991496    0.1149347 -40.13  0.001127462    1.713    0.416
        93  -9.6388    176.7110     77.0486   9.0077156700e+01   3.0189310856e+01    0.2188148    0.2070113 -18.66  0.001161245    1.044    0.042
        94 -10.1202     56.0089     75.5892   1.2176277989e+02   5.4417811649e+01    0.2776726    0.1782324 -51.61  0.001489259    1.330    0.248
        95 -10.4933     15.8255     76.1200   1.3505535353e+02   5.8148710426e+01    0.1744535    0.1406113 -77.75   0.00086461    1.219    0.179
        96 -10.9441      4.3057     81.9066   1.3973024965e+02   5.7633338939e+01      0.28214    0.1633086 -65.66  0.001772583    1.285    0.222
        97  -9.7401     37.4787     75.5006   1.2781075855e+02   5.6477923006e+01    0.1906662    0.1438487 -50.90  0.001197009    1.085    0.078
        98 -10.6357     35.1190     72.5232   1.2788033495e+02   5.7341696203e+01     0.458713    0.2856736 -26.47  0.002534171    1.926    0.481
        99 -11.3702      4.0783     73.6965   1.3842417712e+02   5.9408278031e+01    0.3015038    0.2216687  18.79  0.001439993    1.778    0.438
       100  -8.9203    224.2966     74.3098   8.1131197125e+01   1.8995466600e+01    0.1460578    0.1110873  16.81 0.0003813657    1.594    0.373
       101  -9.6729    136.6980     74.0694   9.7963833455e+01   4.0282340076e+01    0.2119214    0.1873825 -24.61 0.0003768835    1.112    0.100
       102  -9.5406     95.9814     73.7218   1.0879101991e+02   4.8719580018e+01    0.1840121    0.1789558  29.17 0.0003347286    1.119    0.106
       103  -9.3007     92.4832     72.4317   1.0942267155e+02   4.9599879895e+01    0.1985109    0.1890407 -18.79 0.0009082209    1.052    0.050
       104  -9.7150    216.9621     72.4902   8.1755276189e+01   2.1015048242e+01    0.2289192    0.1886677 -28.66 0.0005443565    1.169    0.144
       105  -9.5590    152.8622     71.8770   9.3515187740e+01   3.6889507881e+01    0.2018776    0.1777134 -64.10  0.001023899    1.278    0.218
       106 -10.4459    105.9910     71.7631   1.0529789479e+02   4.7221925309e+01    0.2312294    0.1961296 -32.21 0.0003660871    1.110    0.099
       107 -10.1205     80.8516     71.7961   1.1276060660e+02   5.1685728191e+01    0.2562648    0.1769006 -69.60  0.001219035    2.040    0.510
       108  -9.6751     76.2763     70.3974   1.1376520462e+02   5.2687366681e+01    0.1449613   0.09715227 -22.81 0.0006989665    1.750    0.429
       109 -10.4626     45.5050     69.2911   1.2355210724e+02   5.6967999943e+01    0.3555989    0.2576362  47.46  0.002107223    1.745    0.427
       110  -9.4803    130.0149     69.5071   9.8169201649e+01   4.2609814193e+01    0.2165617    0.1476542  47.53 0.0003889677    1.494    0.331
       111 -11.1010     10.7257     69.1384   1.3536266509e+02   5.9981822434e+01    0.3278395    0.1616071 -69.58   0.00179437    1.765    0.433
       112 -10.4176      5.0642     67.9617   1.3704506598e+02   6.0571383455e+01    0.1741746    0.1225015  81.13   0.00112771    1.742    0.426
       113  -9.0298    114.2651     66.2924   1.0123570156e+02   4.6583512726e+01    0.1433033    0.1113681  -0.14 0.0002779261    1.504    0.335
       114 -10.6037     35.0139     64.9821   1.2601322884e+02   5.8943352894e+01    0.3232068    0.2667938  33.71  0.001797573    1.481    0.325
       115 -10.6522     39.8039     62.4003   1.2363081208e+02   5.9004369018e+01    0.4206009    0.2099317 -36.09  0.002066085    2.043    0.511
       116 -10.4195     38.1783     59.6043   1.2341813543e+02   5.9742587991e+01    0.3063778    0.2008297  -6.82 0.0002526605    2.004    0.501
       117 -11.1317     17.1054     64.2915   1.3212517225e+02   6.0576744744e+01    0.3080657    0.2302293 -40.20 0.0009466575    1.228    0.185
       118  -9.7338    130.5175     65.0086   9.6583566185e+01   4.3292898435e+01    0.3118002    0.1831648 -48.40   0.00131194    1.893    0.472
       119  -9.7934    133.3759     64.1153   9.5585342679e+01   4.2799289451e+01    0.3340996    0.2079665 -36.40   0.00148955    1.570    0.363
       120 -10.3675      9.0576     61.1154   1.3425978713e+02   6.1774827560e+01    0.3886762   0.06024876 -53.70  0.001252286    3.294    0.696
       121  -9.9809    127.0530     61.8273   9.6399697721e+01   4.4620473065e+01    0.2076133      0.19858 -70.06 0.0003407242    1.180    0.153
       122 -10.3206    101.1652     61.9319   1.0345692819e+02   5.0001476443e+01    0.2145599      0.19162 -58.95 0.0006273249    1.287    0.223
       123 -10.6254     62.8989     61.8870   1.1548961797e+02   5.6341675296e+01    0.2098684     0.157857 -25.06 0.0008309056    1.322    0.243
       124 -10.1955     54.4949     58.4623   1.1729273843e+02   5.8125261085e+01    0.2870724    0.1994604 -55.30  0.001269532    1.427    0.299
       125 -10.8856      2.3857     60.1293   1.3642246799e+02   6.2361959596e+01    0.2479805    0.1584696  77.69  0.001485045    2.213    0.548
       126 -10.5102     53.7498     62.0877   1.1867185171e+02   5.7493140762e+01    0.4596367    0.2222339  25.60  0.001853385    2.632    0.620
       127  -9.4911    178.2074     59.2248   8.4468742213e+01   3.2658013335e+01    0.2052751    0.1729116 -67.95 0.0005112821    1.341    0.254
       128  -9.7535    119.1563     59.3914   9.7614910365e+01   4.6773311877e+01    0.2743287     0.192297  66.62  0.001261453    1.866    0.464
       129 -10.2270     26.3085     57.7461   1.2720242577e+02   6.1221546499e+01    0.3105769    0.1617408 -46.01  0.001725893    1.529    0.346
       130 -10.3592     60.3213     57.8053   1.1506224153e+02   5.7495905224e+01    0.2259491    0.2030218 -18.34 0.0006587454    1.094    0.086
       131 -10.6701      2.2828     54.1816   1.3519347877e+02   6.3596072414e+01    0.2683598    0.1574063 -27.11  0.001223863    1.877    0.467
       132 -10.6866      8.3418     49.1622   1.3171226128e+02   6.4271785030e+01    0.4853653    0.2213351 -19.57   0.00234985    3.275    0.695
       133 -11.9315     16.9988     45.5307   1.2734268288e+02   6.4413800728e+01    0.6512388    0.4623543  16.98  0.004412992    1.709    0.415
       134 -12.3591     20.4669     57.3190   1.2923075201e+02   6.1778417795e+01    0.2527961    0.2384505 -45.20 0.0009177914    1.213    0.176
       135 -11.1188     19.4243     52.1005   1.2824301034e+02   6.2921025141e+01    0.2558307    0.1757535 -45.73 0.0007188067    1.135    0.119
       136  -9.8471     71.8319     57.2327   1.1098050552e+02   5.5952872488e+01    0.1863328    0.1674955 -30.20  0.001095729    1.056    0.053
       137 -12.4006    114.2463     54.2163   9.7132946695e+01   4.8703568775e+01    0.3268128    0.3027986   6.38 0.0006169374    1.035    0.034
       138 -10.4312    104.2273     55.9790   1.0052846212e+02   5.0465194016e+01    0.2179798    0.2000531  -6.07 0.0003334781    1.024    0.024
       139 -10.2687    106.8113     54.0075   9.9103422428e+01   5.0284708217e+01    0.3826476    0.2554211 -63.02  0.001580285    2.325    0.570
       140  -9.9979     99.7857     56.1927   1.0188531771e+02   5.1299424591e+01    0.1963227    0.1558575  -9.28  0.000393897    1.320    0.243
       141 -10.2780      7.6454     56.0387   1.3363377573e+02   6.2912393129e+01    0.1929299    0.1552396 -24.40   0.00101921    1.351    0.260
       142 -11.5751     86.4461     53.4172   1.0494057249e+02   5.4256191068e+01    0.5209623    0.3497028  52.72  0.002273234    1.837    0.456
       143 -11.7500     66.8917     52.4784   1.1101588048e+02   5.7587720368e+01    0.4957028    0.2315355  32.86  0.002227586    2.465    0.594
       144  -9.0554    176.3073     52.2912   8.2690551098e+01   3.4165791701e+01    0.1536474    0.1129054  26.06 0.0001879653    1.578    0.366
       145  -9.2615     46.3726     52.2163   1.1819646778e+02   6.0330436606e+01    0.1731032    0.1064102 -55.98 0.0004268144    1.631    0.387
       146  -8.9857    161.2886     50.6946   8.5014854449e+01   3.8201696442e+01     0.150093    0.1156802 -64.49 0.0002065525    1.570    0.363
       147  -9.4926    212.1522     48.8258   7.5986558062e+01   2.5565064646e+01    0.1894862    0.1646915  31.75 0.0002763672    1.261    0.207
       148  -9.1872    173.4126     49.5447   8.2359373088e+01   3.5297068529e+01    0.1474417    0.1429378  17.33 2.691915e-05    1.032    0.031
       149 -10.4670     38.3367     48.6760   1.2003674357e+02   6.1901157360e+01    0.2186789    0.1593695 -30.59  0.001279077    1.222    0.182
       150 -10.3782    102.0047     48.2814   9.8408262454e+01   5.2212701699e+01    0.1924133     0.176447  11.61 0.0004201187    1.061    0.058
       151 -10.4100     34.4374     53.6050   1.2303093513e+02   6.1323583599e+01    0.3279508    0.1410218 -41.58  0.001467333    2.002    0.500
       152 -10.1523     31.6038     46.5215   1.2192115602e+02   6.2989840034e+01    0.3856002    0.1912217 -67.32  0.001597741    3.338    0.700
       153 -10.4364     77.5119     46.1993   1.0518515183e+02   5.7054726858e+01    0.2690839    0.2395405  -2.36  0.001653285    1.075    0.070
       154 -10.6039     68.6651     46.8073   1.0838486535e+02   5.8357067213e+01    0.2184163    0.1898985 -15.95 0.0002627375    1.041    0.039
       155 -10.5381     70.6892     42.9982   1.0627243585e+02   5.8710984168e+01    0.2559493    0.2205274 -45.34 0.0007412444    1.292    0.226
       156  -9.6521    135.9590     46.4682   8.8991623969e+01   4.5032316902e+01    0.2161252    0.1441812  55.04 0.0006619777    1.515    0.340
       157  -9.2142     91.3736     44.7807   1.0025564679e+02   5.4844845264e+01    0.1972713    0.1211413 -24.70  0.000852011    1.644    0.392
       158 -11.3651     26.2164     43.6421   1.2311517991e+02   6.4038850193e+01    0.2525198    0.2059151 -62.65 0.0004639835    1.373    0.272
       159  -9.8553     22.1293     38.4570   1.2308506636e+02   6.5379108084e+01    0.2070726    0.1461938 -63.04 0.0006957318    1.579    0.367
       160 -10.5831    182.6731     41.7691   7.8364215427e+01   3.3991431358e+01     0.413457    0.3269161  20.51  0.002079386    1.446    0.308
       161 -11.3755    139.9334     40.7650   8.6107827892e+01   4.4901221521e+01    0.2577819     0.243665 -38.80 0.0003954804    1.125    0.111
       162  -9.0442     95.3526     42.2849   9.8112367186e+01   5.4490491411e+01    0.1445041    0.1014243  11.21 0.0004430023    1.662    0.398
       163 -10.5417     35.6959     40.7510   1.1839535423e+02   6.3681347280e+01    0.3544077    0.1908495 -36.84   0.00194176    1.582    0.368
       164 -10.3137      5.5707     39.9225   1.3035676148e+02   6.6272065299e+01    0.2752638    0.1080315 -43.98  0.001473819    1.929    0.482
       165  -9.7671    145.8091     38.3339   8.4011772635e+01   4.3798720394e+01    0.3220588    0.1724797   1.36  0.001093326    3.346    0.701
       166  -9.8998    134.2262     39.5209   8.6937165688e+01   4.6443773915e+01     0.209192    0.1420951  56.26 0.0009930737    1.484    0.326
       167 -11.5307    121.4404     36.5697   8.8873128487e+01   4.9828875800e+01    0.4950258    0.3957931 -81.31  0.002517422    1.757    0.431
       168 -11.1981      2.0556     35.0152   1.3043284091e+02   6.7423295861e+01    0.4192919    0.1293583 -54.66  0.001457352    2.173    0.540
       169 -10.4538      2.3001     28.6179   1.2838648934e+02   6.8621445992e+01    0.2209526    0.1418756 -38.07 0.0008873888    1.214    0.176
       170 -10.8929    150.2066     34.2463   8.1716633798e+01   4.3242999838e+01    0.3348028    0.1821807 -40.23 0.0006833205    1.931    0.482
       171 -10.0207     70.2284     35.3981   1.0346469590e+02   6.0049860024e+01    0.2530435    0.1399257 -26.78 0.0008330404    1.767    0.434
       172 -11.0406     26.4908     35.1788   1.2016227805e+02   6.5609247856e+01    0.2875317    0.1771881 -34.67  0.000976566    1.342    0.255
       173  -9.4225     99.3255     35.4333   9.4301664178e+01   5.4748078902e+01    0.2150307    0.1485902  11.80 0.0006192165    1.657    0.397
       174 -11.5329    144.8736     32.8113   8.2280747766e+01   4.4751178192e+01    0.3771469    0.2679943 -57.44 0.0005424407    1.751    0.429
       175 -11.2156    134.5475     33.9975   8.4881995540e+01   4.7113311768e+01    0.2445337    0.1919339  44.33  0.000409893    1.219    0.179
       176  -9.4125    111.2893     34.6382   9.0715397019e+01   5.2352798443e+01    0.1400253    0.1089355 -58.36 0.0004662449    1.694    0.410
       177 -11.9083     50.6013     33.7662   1.0996143559e+02   6.3182061252e+01    0.3150193    0.2314089  40.97 0.0005442654    1.692    0.409
       178 -11.6949     20.2438     32.0758   1.2169616092e+02   6.6723845585e+01    0.4647754    0.2548276  -8.03  0.001066284    2.452    0.592
       179 -10.1565     88.5830     32.4548   9.6291950564e+01   5.7285844623e+01     0.312971    0.1545175 -39.41  0.001402423    2.046    0.511
       180  -9.9003    166.6718     30.7577   7.7545396016e+01   3.9500085916e+01    0.3010857    0.1417587 -14.35   0.00110088    2.765    0.638
       181 -10.8268     43.5353     29.3194   1.1094012509e+02   6.4823024381e+01    0.4291024    0.1852837 -38.55  0.002040099    1.949    0.487
       182  -9.6661    187.2334     29.9959   7.4082321016e+01   3.4293237909e+01    0.2013986     0.200634 -75.05  0.001180569    1.032    0.031
       183 -11.2022    151.2861     29.7907   7.9977277548e+01   4.3527814839e+01    0.2975244    0.2322366  44.48 0.0008203266    1.227    0.185
       184 -10.6461    103.1682     26.9931   8.9867638633e+01   5.5120955894e+01    0.4352527      0.30772 -74.96  0.001981505    2.624    0.619
       185  -9.4616    162.3644     28.7627   7.7627836065e+01   4.0842116111e+01    0.1995875     0.137923  -7.74 0.0009383134    1.658    0.397
       186  -9.7802     69.9760     28.6795   1.0078400748e+02   6.1135874409e+01    0.1799113    0.1542205   3.11 0.0004664375    1.075    0.069
       187 -10.2658      7.1824     28.0656   1.2602497473e+02   6.8425900230e+01    0.1848167    0.1754365 -43.39  0.001204912    1.348    0.258
       188  -9.9783    230.2800     26.0235   6.7677673837e+01   2.3957163906e+01    0.3314935    0.1082844 -40.46  0.001246127    2.681    0.627
       189 -11.7385      4.3565    232.6562   1.5228728855e+02   2.7318519508e+01    0.2652534     0.174297  69.99   0.00101726    1.039    0.037
       190  -9.7973    132.1443     26.1565   8.2538452132e+01   4.8672097088e+01    0.2192897    0.1692805 -64.83  0.001104562    1.683    0.406
       191 -10.5844    114.1499     25.2642   8.6339535879e+01   5.2954654031e+01    0.2540359    0.2244513   9.43 0.0006196403    1.050    0.047
       192 -10.2961     90.0436     16.2978   8.9047049625e+01   5.9134067784e+01    0.2095719    0.1582479  12.31 0.0003543297    1.254    0.203
       193 -10.2098     89.4778     23.1272   9.2150289826e+01   5.8401939639e+01    0.4884813    0.2277739  -9.36  0.001718401    3.681    0.728
       194  -9.8132     88.5224     19.5083   9.0884031449e+01   5.9047424142e+01    0.2292615    0.1196706 -27.75 0.0005933954    1.827    0.453
       195 -10.4368     58.8117     24.6073   1.0303498088e+02   6.3497695175e+01    0.3073719    0.1944146 -26.32    0.0013424    1.393    0.282
       196  -9.8321    102.6856     30.6648   9.1471705008e+01   5.4732080828e+01    0.2891002    0.1767575   7.63  0.001220525    2.171    0.539
       197 -10.3126     52.2263     23.3841   1.0499573593e+02   6.4634661809e+01    0.3665642    0.1518691 -31.59  0.001028545    2.238    0.553
       198  -9.8381     53.8725     18.3629   1.0211007365e+02   6.5140149361e+01    0.1674934    0.1350343   2.97 0.0001148131    1.113    0.102
       199  -9.4598    229.5250    248.0365   1.1667740977e+02  -6.2236505361e+00    0.1415806    0.1025054 -19.03  0.001020889    1.558    0.358
       200 -10.1995     12.8248     16.0967   1.1891106080e+02   7.0129700261e+01    0.2899997    0.1574046  26.45  0.001807113    2.173    0.540
       201  -9.5192     22.4986     21.9251   1.1684313362e+02   6.8317359642e+01    0.1814807   0.08942205 -42.14  0.001022156    1.588    0.370
       202  -9.4493     84.4808     21.4341   9.2934439235e+01   5.9581581154e+01    0.1338965    0.1140006   5.48 9.000472e-05    1.023    0.022
       203 -10.7587     30.9558     20.1664   1.1235375613e+02   6.7766152093e+01    0.2811901     0.235024  19.75  0.001963965    1.399    0.285
       204  -9.5376    164.3273    247.6754   1.2740742488e+02   3.8794137566e+00    0.1116528   0.07732141  63.14 0.0007049455    1.695    0.410
       205 -11.2371    235.9741     19.4477   6.5446174746e+01   2.3340277890e+01    0.3375222    0.2417605  21.81   0.00176566    1.910    0.476
       206 -10.3523     34.0822    247.4736   1.4856110551e+02   2.1883337407e+01     0.143614   0.07468922  47.54   0.00073017    1.567    0.362
       207  -9.1576      2.4545     20.5022   1.2556671733e+02   7.0094252476e+01    0.1131324   0.07968782 -38.63 0.0001959678    1.031    0.030
       208 -10.4417    190.4958    246.5117   1.2286468134e+02  -8.9119518693e-02     0.115314   0.08812819  35.01 -0.000180653    1.001    0.001
       209  -9.9222    115.0587     17.1667   8.2910427655e+01   5.3691541633e+01    0.2064637    0.1630642  31.39 0.0003354177    1.174    0.148
       210 -10.3753    108.1838     16.7006   8.4374096986e+01   5.5279861038e+01     0.205486    0.1697274 -24.01 0.0003466976    1.243    0.196
       211 -12.0351     22.8086    245.2462   1.5012590600e+02   2.3440716222e+01    0.2605215    0.1170733  58.17  0.001809134    1.616    0.381
       212  -9.4770    217.2649    244.8310   1.1819701470e+02  -4.0505944633e+00    0.2561083   0.06846499  46.22   0.00100812    3.655    0.726
       213  -9.6432    202.4894    239.9913   1.1994718400e+02  -1.2148096560e+00    0.1436492    0.1121838 -25.45 0.0007248242    1.532    0.347
       214 -12.6523      9.7781    232.0842   1.5144944543e+02   2.6900806487e+01    0.4257662     0.304914 -64.51  0.003411019    1.865    0.464
       215  -9.5215     60.2323    241.1303   1.4410899533e+02   1.9862193877e+01    0.2533821    0.0474405  41.86  0.001060623    3.917    0.745
       216 -11.3678     20.8898    236.0265   1.4995529890e+02   2.5141683548e+01    0.2013203    0.1132173  84.83  0.001228263    1.441    0.306
       217 -10.9710     20.1291     16.7463   1.1574907274e+02   6.9396772780e+01    0.1848584    0.1532215 -16.79 0.0003305198    1.153    0.133
       218  -9.2439    210.5043    235.5461   1.1794870576e+02  -1.9685879416e+00    0.1180806   0.09043191  28.21 0.0001366732    1.016    0.016
       219  -9.1719      1.2710     15.3075   1.2420129921e+02   7.1080089428e+01     0.113127   0.05880282 -33.46 0.0002122777    1.542    0.351
       220  -9.0210    155.5689    235.5086   1.2738668254e+02   6.9058844954e+00    0.1171608   0.09409048  45.03 2.237756e-05    1.011    0.011
       221  -9.8624    249.1603    234.1377   1.1139985985e+02  -7.7276614668e+00    0.1741102    0.1157601  18.53 0.0005467546    1.205    0.170
       222  -9.3197     79.8365    231.6057   1.4011802509e+02   1.8900682194e+01    0.1594174   0.07695545  52.67  0.000781426    1.665    0.399
       223  -9.3866    209.5395    229.5208   1.1719723767e+02  -1.1079846456e+00    0.1193182   0.09383398  28.01 0.0001843523    1.003    0.003
       224  -9.3962    140.6808    227.3424   1.2898250456e+02   1.0503439648e+01    0.1208714   0.08188203  68.46 0.0007049562    1.719    0.418
       225 -11.3741      2.5055    220.6927   1.5204204193e+02   2.9520320009e+01    0.2874341     0.094202 -86.25  0.001592863    2.718    0.632
       226  -9.7441     32.8024    225.1815   1.4747495802e+02   2.5726734429e+01    0.2220272   0.04165876  43.31  0.001017089    3.522    0.716
       227 -10.2486     25.6879    224.9976   1.4861051846e+02   2.6514900129e+01    0.1451162    0.1009181  81.40 0.0006961434    1.116    0.104
       228  -9.4727     37.3289    223.6566   1.4663892587e+02   2.5495513102e+01    0.1149826   0.05659196  67.54 0.0007050957    1.747    0.428
       229 -10.8105      7.7292    217.5265   1.5107369021e+02   2.9592255095e+01    0.2401784    0.1504811  87.39  0.001445448    1.231    0.188
       230  -9.3567    109.5524     11.5248   8.1915225830e+01   5.5524912143e+01    0.1375426    0.1185105  22.81 0.0008075745    1.034    0.033
       231 -10.0539    246.4865    216.5147   1.0890175254e+02  -5.4852144445e+00    0.1209172   0.09097961  15.92  0.000222972    1.046    0.044
       232  -9.7760    209.3263    211.9984   1.1442111042e+02   1.1097932317e+00    0.1696848    0.1436194   4.77   0.00113476    1.158    0.136
       233 -10.2940      3.7517    212.2392   1.5144858552e+02   3.0892427009e+01    0.1778408     0.125907  40.80  0.001431643    1.670    0.401
       234  -9.5418    249.4904    211.4811   1.0753806306e+02  -5.3956934923e+00    0.1209094   0.09293415  14.68 0.0002094963    1.014    0.014
       235  -9.4593     20.3701    209.6956   1.4858151667e+02   2.9774927417e+01    0.1143696   0.05450937  65.70 6.996373e-05    1.753    0.429
       236  -9.8951    246.8605    206.9086   1.0715654835e+02  -4.4668905601e+00    0.1886042    0.1335861   7.92 0.0007606525    1.259    0.206
       237 -10.0431      2.3773    206.1695   1.5137159787e+02   3.2106060852e+01    0.1452721   0.06862891  85.57 0.0009438116    1.700    0.412
       238  -9.3466    197.0491    204.0054   1.1526103251e+02   4.3215351125e+00     0.155449    0.1315988  27.90 0.0006615171    1.007    0.007
       239 -10.5810      9.5454    203.4048   1.5003588586e+02   3.1965082732e+01     0.186874    0.1321325  78.42 0.0008042466    1.009    0.009
       240  -9.1148    181.5600    199.4944   1.1734907440e+02   7.7499000770e+00    0.1285139    0.1123624  37.42 6.003297e-05    1.044    0.042
       241  -9.5218     23.4718    197.4845   1.4726219887e+02   3.1735085811e+01     0.108861   0.07882094  77.58 4.967997e-05    1.024    0.024
       242  -8.8326      6.6884    191.7252   1.4985817145e+02   3.4408740117e+01   0.08892515   0.07122774 -65.56 0.0006967873    1.556    0.357
       243 -10.2703     15.4564    185.4726   1.4788861973e+02   3.4821354631e+01    0.2085178   0.08487473 -78.86  0.001168864    2.050    0.512
       244  -9.1724    250.4796    183.4669   1.0217957448e+02  -2.2500403860e+00    0.1280591    0.1030754   8.72 0.0008093002    1.022    0.022
       245 -10.5670      4.6690    167.3370   1.4867446983e+02   3.9363823921e+01    0.2761891    0.1429264  69.58  0.001683434    1.721    0.419
       246  -9.0279    247.4743    155.5169   9.6953548569e+01   1.9627183765e+00    0.1349524     0.114005   1.95 6.916768e-05    1.022    0.022
       247  -9.4176    243.1981    155.0054   9.7548261665e+01   2.8250689232e+00     0.178865   0.09774668 -29.54 0.0005077781    1.743    0.426
       248 -10.2461     22.0557    143.2083   1.4295979632e+02   4.2939894192e+01     0.216011    0.1362899 -77.08  0.001373592    1.267    0.211
       249 -10.9622     12.6946    130.5037   1.4378626277e+02   4.6468506132e+01    0.3160694     0.167296  65.92   0.00108115    2.059    0.514
       250  -9.4005     51.6819    131.2996   1.3437401481e+02   4.2556863592e+01    0.1279941    0.0866304  76.19 0.0003486171    1.618    0.382
       251  -9.8286     29.1458    128.6747   1.3959928787e+02   4.5478159782e+01     0.250881    0.1412184 -87.17  0.001079457    1.753    0.429
       252  -9.4838     21.2510    126.0401   1.4121383505e+02   4.6754707597e+01    0.1628001    0.1230656 -79.90 0.0004189429    1.049    0.047
