#   1 NUMBER                 Running object number                                     
#   2 MAG_AUTO               Kron-like elliptical aperture magnitude                    [mag]
#   3 X_IMAGE                Object position along x                                    [pixel]
#   4 Y_IMAGE                Object position along y                                    [pixel]
#   5 X_WORLD                Barycenter position along world x axis                     [deg]
#   6 Y_WORLD                Barycenter position along world y axis                     [deg]
#   7 A_WORLD                Profile RMS along major axis (world units)                 [deg]
#   8 B_WORLD                Profile RMS along minor axis (world units)                 [deg]
#   9 THETA_WORLD            Position angle (CCW/world-x)                               [deg]
#  10 FWHM_WORLD             FWHM assuming a gaussian core                              [deg]
#  11 ELONGATION             A_IMAGE/B_IMAGE                                           
#  12 ELLIPTICITY            1 - B_IMAGE/A_IMAGE                                       
         1 -14.3262    184.3396     78.6418   2.6353793104e+01   2.7803820658e+01     2.798706     1.432999  37.59   0.01070965    2.593    0.614
         2 -15.8872    192.2584     99.9313   3.0519556575e+01   2.2428991671e+01     9.505284      5.09273  55.89   0.04075018    2.031    0.508
         3 -10.9074     40.9515     13.8474   4.4271306950e+01   7.0360099167e+01    0.2338868    0.1913327  -0.19 0.0002588807    1.088    0.081
         4  -9.4847     97.7204     11.8504   2.1568681772e+01   5.9007689141e+01    0.2235529    0.1669331  15.40  0.001180107    1.476    0.322
         5  -8.2889      6.9524      4.7533   6.1334723598e+01   7.5936876319e+01     0.134286   0.09046254   9.71 0.0003035595    1.475    0.322
         6  -8.3889     51.8270      3.3705   3.2800447395e+01   6.9912217858e+01    0.1752682     0.102417  36.26 0.0002641669    1.581    0.367
         7  -8.7425     67.5311      1.3061   2.5346625961e+01   6.6977664233e+01    0.2023087    0.1080715  53.80 7.391396e-05    1.720    0.419
         8  -8.8353     73.5830    243.4798   8.1171191181e+01   1.6054955952e+01    0.1140055   0.08796617  48.58 0.0001048365    1.024    0.024
         9 -11.7136    166.7514    241.9309   6.2738920443e+01   3.5853301685e+00     1.136279    0.3239205  30.83  0.004361884    3.515    0.716
        10 -11.6563    166.1592    248.1052   6.3631049914e+01   2.8491353525e+00    0.6728731    0.2427396  31.40  0.003201412    2.321    0.569
        11  -9.5116     57.0397    246.5194   8.4595832124e+01   1.7537051605e+01    0.2221754    0.1169182  41.91  0.000801495    1.407    0.289
        12 -10.7367     20.3976    248.9968   9.1560761429e+01   2.1067985377e+01    0.3361988    0.1910539  69.56  0.002363621    1.475    0.322
        13 -10.0945     13.4989    250.1463   9.2837936704e+01   2.1543791563e+01    0.2738242   0.09498741  39.17  0.001260902    1.984    0.496
        14  -9.7219      4.2290    249.4414   9.4451723588e+01   2.2525472301e+01     0.197438    0.1095953  60.20  0.000599973    1.285    0.222
        15  -9.6089      6.5967    243.0986   9.3849288780e+01   2.3392105047e+01    0.3172312    0.1028433  27.43  0.001568185    3.299    0.697
        16  -9.6892    250.4803    241.1223   4.8083331096e+01  -7.0804495709e+00    0.2111305    0.1186406 -18.62  0.001028935    1.619    0.382
        17 -10.8584    249.0164    236.8764   4.7676560907e+01  -6.4856847667e+00    0.2731954    0.1875618 -14.92  0.001308113    1.319    0.242
        18  -9.9489    235.4644    240.4499   5.0380174096e+01  -5.2626066020e+00    0.2002316     0.141431 -34.77  0.001084799    1.887    0.470
        19 -10.1112    238.2923    239.3313   4.9755194072e+01  -5.4827629438e+00    0.1745705    0.1128557  10.75 0.0004491227    1.191    0.160
        20 -10.6231    108.0080    238.5239   7.3870017648e+01   1.2352302667e+01     0.325238    0.2386079 -52.93  0.002171597    1.727    0.421
        21 -10.0803     13.1448    244.1709   9.2701179539e+01   2.2596020869e+01    0.1727565   0.09744447  53.59 0.0004870732    1.250    0.200
        22 -10.1261     90.4126    235.4948   7.7142040949e+01   1.5240684384e+01    0.2534789    0.2273107  39.20  0.001109841    1.185    0.156
        23 -12.3555     89.3793    228.2916   7.6688070345e+01   1.6628286405e+01     1.067377    0.6690332  57.38  0.006389581    1.515    0.340
        24 -11.4585     98.5011    225.3057   7.4483363321e+01   1.5904892443e+01    0.4475501    0.3452444  53.31  0.001699516    1.154    0.133
        25 -11.2689     95.5527    217.6824   7.4315535998e+01   1.7687772629e+01    0.4777434    0.3631835  47.61  0.001758807    1.091    0.083
        26 -10.0408     99.8840    217.1387   7.3321435647e+01   1.7173751955e+01    0.2767667    0.2315128  77.77  0.001171192    1.306    0.234
        27 -11.3400    231.0466    233.3397   5.0043828125e+01  -3.9559383795e+00    0.3854933    0.2338584 -33.81  0.002559229    1.891    0.471
        28 -10.3376    160.8937    231.7214   6.2524608693e+01   5.8408982055e+00     0.938183    0.1946186  42.40  0.003053369    4.691    0.787
        29 -11.1260    162.4534    225.5746   6.1381976509e+01   6.5085017637e+00    0.4355979    0.3001813  26.88  0.002396665    1.207    0.171
        30  -9.8531    130.7687    227.9830   6.8074255894e+01   1.0821806399e+01    0.2161858    0.1545802  38.87 0.0006797651    1.134    0.118
        31 -11.3696    126.2972    220.9164   6.8133893078e+01   1.2647044426e+01    0.4499235    0.3361044 -76.77 0.0008231343    1.835    0.455
        32 -10.4122    122.3551    223.4821   6.9271971590e+01   1.2798022911e+01    0.3506834    0.2170945  70.38  0.001761941    2.561    0.609
        33  -9.8160    116.7008    227.0719   7.0868587504e+01   1.3017715277e+01    0.2384508    0.1409563  40.38  0.000875813    1.355    0.262
        34 -10.9191    248.3662    225.4303   4.6014868338e+01  -5.2107571725e+00    0.4119942    0.1905023  30.31  0.002467907    1.880    0.468
        35 -10.3544    242.8060    223.7950   4.6643842285e+01  -4.3569954899e+00    0.1980191    0.1431665 -20.01 0.0008403109    1.362    0.266
        36  -9.6573    170.7086    225.6849   5.9783398055e+01   5.2741971465e+00    0.1836218     0.133682  30.64  0.001172781    1.120    0.107
        37  -9.0935    168.0560    223.9978   6.0060310725e+01   5.9095679060e+00    0.2168344    0.1417525  37.22 0.0004707646    1.308    0.235
        38 -11.2455    237.9158    230.2431   4.8441768555e+01  -4.4644588410e+00    0.3346215    0.2175177  12.53  0.001297619    1.211    0.174
        39  -9.8683    108.3121    222.9007   7.2156901185e+01   1.4939150789e+01    0.2836743    0.1896499 -24.35  0.001516937    2.437    0.590
        40  -8.4097    174.4560    222.5176   5.8601311693e+01   5.1756874352e+00    0.1234425   0.09876492  21.65 0.0003321608    1.008    0.008
        41  -9.8515    115.1625    220.9916   7.0489890832e+01   1.4278525474e+01    0.2114927    0.1842059  13.77 0.0006247809    1.277    0.217
        42  -8.7233    157.4849    221.5256   6.1805501246e+01   7.8587353798e+00     0.125706    0.1014096  25.53 0.0002236589    1.027    0.026
        43  -8.7975    149.3450    219.7445   6.3205540204e+01   9.3665161039e+00    0.2046989    0.1708076 -29.20 0.0008194118    1.396    0.283
        44  -9.2300    151.9794    216.1679   6.2167658743e+01   9.5328750334e+00    0.2863454    0.1708274  10.99   0.00137761    2.360    0.576
        45  -9.5174     75.0084    219.0854   7.8878351503e+01   2.0214289796e+01    0.1944314    0.1489578  51.19 0.0006934588    1.055    0.052
        46  -9.0023    143.5605    216.7370   6.3983248295e+01   1.0731969171e+01    0.1986453    0.1224751 -43.04 0.0007142944    1.928    0.481
        47  -9.6274    131.2746    215.0347   6.6331996628e+01   1.2895120720e+01    0.2890837    0.1792592 -59.26  0.001084294    2.054    0.513
        48  -9.4049    190.1218    215.5735   5.4555258708e+01   3.8397174284e+00    0.2329667    0.1673373 -16.05  0.001458272    1.452    0.311
        49 -10.3285    170.3341    215.2694   5.8336668478e+01   6.8596716174e+00    0.2555708    0.2118362  15.40 0.0007816075    1.070    0.065
        50  -9.0401    119.0423    215.6463   6.9019458530e+01   1.4638164403e+01    0.1835247     0.145442  36.59  0.001031047    1.060    0.057
        51  -9.9685     84.5468    215.7134   7.6499069536e+01   1.9577610908e+01    0.2093529    0.1168082 -60.66  0.001141186    2.063    0.515
        52  -9.7148    228.4965    214.0387   4.7437050205e+01  -1.3881799695e+00    0.1622929    0.1010485 -25.45  0.001020753    1.555    0.357
        53  -9.8058     23.2624    214.5665   8.9511642963e+01   2.7054832817e+01    0.2581169    0.1018453  28.13  0.001289404    2.564    0.610
        54 -10.4004     77.2641    211.4001   7.7672511573e+01   2.1383141240e+01    0.2952731    0.2489778  41.31  0.001968472    1.129    0.115
        55  -8.2268    202.3083    212.6715   5.1828356202e+01   2.4501879858e+00    0.1060242   0.09521534  53.81 0.0002234372    1.659    0.397
        56  -9.0733    115.8371    210.6174   6.9085644711e+01   1.6018155242e+01    0.1930262   0.09789751  43.77 0.0009477227    1.684    0.406
        57  -9.1709    213.9384    208.0000   4.8965945227e+01   1.3933584622e+00    0.2285661    0.1408135  26.42    0.0010609    1.402    0.287
        58  -8.5137    210.6916    207.3138   4.9431840454e+01   1.9522901384e+00    0.2039698    0.1665124 -27.47  0.001017521    1.378    0.274
        59 -10.3107    124.0150    205.9829   6.6690725910e+01   1.5606344091e+01    0.1854534     0.157818  39.35            0    1.013    0.012
        60  -8.2719     99.3222    206.6502   7.2255115421e+01   1.9213280853e+01    0.1363937   0.08590016  61.77 0.0007048674    1.746    0.427
        61  -9.2434    212.1798    202.3764   4.8336125891e+01   2.3994413037e+00    0.3526587    0.2461865  49.36  0.002066672    1.954    0.488
        62  -8.3110    212.6692    198.6926   4.7618258202e+01   2.8292439262e+00    0.1877869    0.1148805 -25.78 0.0005266125    1.624    0.384
        63  -9.1514    130.3557    201.8257   6.4720258066e+01   1.5363819453e+01    0.2914357    0.2175197 -73.38  0.001645941    1.785    0.440
        64  -9.9978    172.6986    190.2974   5.3843789755e+01   1.0423972093e+01    0.4452683    0.1754844 -45.44  0.001856183    2.882    0.653
        65 -10.0812    174.5122    199.5619   5.5033710859e+01   8.6305637704e+00    0.2877523    0.2363839  -9.32 0.0005754423    1.239    0.193
        66 -11.0286    177.5127    197.0106   5.4007751980e+01   8.5508473063e+00    0.3847732    0.3331799  49.40  0.002165198    1.384    0.277
        67 -10.8566    173.0007    195.6554   5.4691350093e+01   9.4996218564e+00    0.3398756    0.2841478  -5.48  0.001349835    1.199    0.166
        68  -9.8186    249.5788    199.6518   4.1578082692e+01  -2.4458288621e+00    0.3494216    0.2279415 -34.48  0.001998053    1.688    0.408
        69 -10.2325    249.4895    193.1222   4.0456735429e+01  -1.6500528599e+00    0.3956233     0.260036 -17.61  0.002590147    1.299    0.230
        70 -10.4777    166.9487    197.7365   5.6273974815e+01   1.0147597931e+01    0.3103789    0.2132297 -35.73  0.001749906    1.606    0.377
        71  -9.5562    144.2502    198.1095   6.1133540998e+01   1.3791083100e+01    0.2623511    0.2110221 -31.12  0.001564894    1.417    0.294
        72 -10.2638    126.0734    196.9725   6.4975311197e+01   1.6941128414e+01    0.3487394     0.219701  22.23  0.001043384    1.776    0.437
        73  -8.9812    113.0487    194.2901   6.7557016019e+01   1.9522943661e+01    0.1997005    0.1799331  -3.07  0.000370041    1.303    0.232
        74  -9.5013    105.2594    197.5596   6.9786564664e+01   2.0088007867e+01    0.2290298    0.2026531 -32.27 0.0007876067    1.376    0.273
        75  -9.2044    113.0509    198.1973   6.8089923032e+01   1.8765340890e+01     0.321386    0.1690424  60.56  0.001361778    2.676    0.626
        76  -9.1781     66.4719    194.4659   7.8466847935e+01   2.6222079757e+01    0.3048436    0.1452994  62.40  0.001356649    2.433    0.589
        77  -9.4223    162.3060    193.8278   5.6595849836e+01   1.1560365280e+01    0.2364191    0.2021448  72.49 0.0009439752    1.602    0.376
        78 -10.2370    179.4377    191.1096   5.2616673323e+01   9.1765512759e+00     0.317792    0.2441751 -61.36  0.001737838    1.925    0.480
        79  -9.5187    124.7975    193.0032   6.4684187892e+01   1.7896320348e+01    0.2112832    0.1489314 -19.69  0.001038978    2.022    0.505
        80  -8.3941     77.3179    192.6690   7.5721408287e+01   2.5147795813e+01    0.1394531   0.08514119  62.16 0.0007047475    1.688    0.407
        81  -9.0264     15.9700    191.6304   8.9897089051e+01   3.2413317833e+01    0.2321955    0.1462537  11.41  0.001333041    2.285    0.562
        82  -9.4769    139.0154    188.6006   6.0796046833e+01   1.6381262518e+01     0.438787     0.188875 -49.75  0.001867145    2.618    0.618
        83  -9.1625    104.4119    188.8360   6.8820432424e+01   2.1960004507e+01    0.2301477     0.181031  23.05 0.0006338359    1.359    0.264
        84 -10.8195     98.3286    188.4799   7.0215857299e+01   2.2968781979e+01    0.4551044    0.2707888  50.23  0.000895357    1.575    0.365
        85 -11.0969     94.5643    182.8113   7.0362751024e+01   2.4724154759e+01    0.5149694    0.3989541 -71.14   0.00209426    1.408    0.290
        86 -10.0415     22.6379    189.2593   8.8253863893e+01   3.2293110108e+01    0.3659109    0.2310725   0.49  0.001939258    2.758    0.637
        87  -9.7012    203.9788    187.2229   4.7182017140e+01   5.7990729899e+00    0.3517601    0.2839785 -63.38  0.001953384    2.048    0.512
        88  -8.7995    129.1356    188.6602   6.3040216762e+01   1.8016286162e+01    0.2210359     0.148826  50.22  0.000869356    1.467    0.318
        89 -10.7856     11.0974    187.3281   9.0770752417e+01   3.3759472087e+01    0.3559434    0.2105601  39.55  0.001316317    1.518    0.341
        90  -9.9135      5.7649    183.1885   9.1778885414e+01   3.5093937656e+01    0.3402721    0.1264599  55.20  0.001688135    2.221    0.550
        91 -10.6036      3.2877    178.0417   9.2109318752e+01   3.6403837101e+01    0.3397154    0.2363925  35.58  0.002259508    1.455    0.313
        92  -8.2554     55.6631    187.3398   8.0339545585e+01   2.9104196306e+01    0.1414983   0.07892158  61.43 0.0007050907    1.759    0.431
        93  -9.5243    228.5984    184.2175   4.2263550697e+01   2.4340830938e+00    0.2033199    0.1424498  -6.83  0.001239667    1.319    0.242
        94 -10.1322    109.5328    184.7677   6.7030695445e+01   2.1981262643e+01    0.3857162    0.2957008  49.30  0.001730378    1.196    0.164
        95 -10.1387    174.6942    182.6498   5.2089350923e+01   1.1361337906e+01    0.4924611    0.2830295 -55.27  0.002264242    2.504    0.601
        96  -8.8734    120.1749    184.5866   6.4487943765e+01   2.0291099352e+01    0.2371323    0.1067055 -57.96 0.0009844607    2.628    0.620
        97  -9.4946    249.7691    183.8414   3.8757962315e+01  -5.4305461426e-01    0.2559298     0.169606   0.71  0.001608961    1.395    0.283
        98  -8.8986     44.0401    182.5108   8.2708606108e+01   3.1527477928e+01     0.191761    0.1489132  86.46  0.000576194    1.194    0.163
        99 -11.1303     20.0884    181.5091   8.8372093427e+01   3.4210111597e+01    0.4051763    0.3001975  52.70   0.00182168    1.167    0.143
       100 -10.2615     10.3051    180.2932   9.0593019237e+01   3.5342503004e+01    0.2034932    0.1503807  82.27 0.0001723677    1.140    0.123
       101 -10.6373     13.9827    178.9651   8.9660182160e+01   3.5316804842e+01    0.3163978    0.2428874 -65.34  0.001446213    1.447    0.309
       102  -9.3885    147.8371    180.1448   5.7413608676e+01   1.6450360204e+01    0.2160298    0.1794667  60.67  0.001215431    1.392    0.282
       103  -9.0737    138.5773    179.5934   5.9413645834e+01   1.8160350204e+01    0.3100435    0.2022785  69.32  0.001369581    2.464    0.594
       104  -9.1248    104.0517    179.7652   6.7622128276e+01   2.3890339957e+01     0.234694    0.1710259 -42.53  0.001174495    1.619    0.382
       105 -10.3689     88.8413    177.0136   7.0987509674e+01   2.6832551506e+01    0.4214399    0.3050675 -41.86   0.00225161    1.692    0.409
       106  -9.6141     87.6821    172.6774   7.0681468382e+01   2.7957367768e+01    0.4187473    0.2363387  23.82  0.001870431    2.139    0.533
       107  -8.8323    100.7988    177.2626   6.8053665189e+01   2.4935289501e+01    0.1863245    0.1638345  -7.08  0.001072729    1.400    0.286
       108  -9.4913    204.6999    175.4187   4.4865076240e+01   7.4589294521e+00    0.2560859    0.2032299   5.60  0.001546407    1.158    0.136
       109  -9.4654     77.2036    175.6344   7.3730722870e+01   2.8833642977e+01    0.2811163    0.1802667  70.16 0.0009668872    1.753    0.430
       110  -9.7428    148.5798    174.9329   5.6330924669e+01   1.7298447335e+01     0.275747    0.1819306  24.49 0.0009938299    1.603    0.376
       111 -10.0337    105.3114    174.6017   6.6541161816e+01   2.4779928287e+01    0.3085939    0.2011276  80.23  0.001404981    2.216    0.549
       112 -10.1605     24.2396    174.5983   8.6919293892e+01   3.5350482963e+01    0.2475462    0.1489895  66.68 0.0009571175    1.481    0.325
       113  -9.3378    134.9965    171.2964   5.8812539991e+01   2.0411780548e+01    0.2812817    0.2046335 -64.21  0.001033444    1.678    0.404
       114  -9.9960    177.4962    169.3286   4.9032544077e+01   1.3146344176e+01    0.4273303    0.3038198 -43.74  0.002281255    1.535    0.349
       115 -10.4463    121.9962    168.6205   6.1463704666e+01   2.3238634657e+01    0.4834982    0.3712245 -70.85  0.001492273    1.546    0.353
       116 -10.5470    206.9822    167.0163   4.2822402804e+01   8.3720733457e+00    0.6513679    0.2664186 -38.35  0.002807404    2.428    0.588
       117 -10.8376     29.0579    169.0434   8.5304749982e+01   3.6140520447e+01    0.3718406    0.1709352 -56.24  0.001779468    2.379    0.580
       118  -8.6760     55.1821    169.2156   7.8613921573e+01   3.3205174805e+01    0.1958331    0.1335659  65.86 0.0008036976    1.412    0.292
       119 -10.0898    139.4909    165.2518   5.6661692699e+01   2.0813688893e+01    0.4353273    0.3144445 -88.62  0.001741176    2.200    0.545
       120  -8.8963     19.1472    166.8154   8.7641230500e+01   3.7579305759e+01    0.1518318    0.1393137 -62.14 0.0004554875    1.312    0.238
       121  -9.5829    219.4780    165.6472   4.0315431155e+01   6.4949545696e+00    0.3697272    0.3097086  30.09  0.001520599    1.237    0.192
       122  -9.5717    214.0124    164.1683   4.0987767027e+01   7.6235616716e+00    0.2525247    0.1742045 -45.45 0.0009342616    1.711    0.416
       123  -8.3744    199.7559    166.6807   4.4106113821e+01   9.6630803382e+00    0.1318504   0.09420609  -3.24 0.0002248326    1.521    0.343
       124 -11.3235    146.4819    162.5888   5.4527037473e+01   2.0061097747e+01    0.5402572    0.4271261 -76.61  0.001543172    1.707    0.414
       125 -10.4952    142.5770    158.8203   5.4713370281e+01   2.1535974290e+01    0.4645644    0.2508881  51.19  0.001623312    2.037    0.509
       126  -9.3716     98.6754    165.6710   6.6828654965e+01   2.7793060476e+01     0.352248    0.1775034  53.34  0.001229084    2.198    0.545
       127 -10.3888    247.3853    247.9047   4.9563162811e+01  -7.3996777952e+00    0.3062046    0.1730158  29.88  0.001430465    1.541    0.351
       128 -13.9418    192.7307    131.7985   3.8073787196e+01   1.6817544087e+01      7.02516     3.317591  63.28   0.02086656    5.153    0.806
       129 -10.4550     52.5601    249.6244   8.5636188169e+01   1.7532988359e+01    0.3212473    0.1747214  31.26  0.001101111    1.706    0.414
       130 -10.3325     39.2019    136.1405   7.9219153056e+01   4.2943046128e+01     0.397916    0.2210193  70.61  0.001831433    2.063    0.515
       131  -9.6018     23.8723    138.3959   8.4017320584e+01   4.3872430448e+01    0.3743041    0.1729601  59.05  0.001685801    2.297    0.565
       132  -9.6264     92.8719    160.1312   6.7463690076e+01   2.9964807844e+01    0.3793338    0.2203587  62.57  0.001370023    2.155    0.536
       133  -9.4542    138.5698    137.3558   5.1244385620e+01   2.6738420881e+01    0.2744997    0.1474712 -51.47  0.001116773    2.010    0.503
       134 -10.1754    162.6317    135.9882   4.5273565486e+01   2.2142984207e+01    0.3927561    0.2463089 -51.45  0.001167947    1.789    0.441
       135  -8.9188      9.5826    161.7879   8.9728529477e+01   3.9532680856e+01    0.1796883   0.09327405  81.38 0.0006658561    1.742    0.426
       136 -10.1385    179.8800    132.9896   4.0896460048e+01   1.9191687691e+01    0.4186114     0.296702 -54.04  0.001436712    1.663    0.399
       137 -10.6848    131.9487    129.1518   5.1071881762e+01   2.9818923560e+01    0.8201526    0.3458159 -49.14  0.002882275    2.472    0.595
       138 -10.6545    122.0292    110.3745   4.9164836732e+01   3.5958643578e+01    0.8486017    0.3747928 -38.03  0.002929651    2.673    0.626
       139 -10.2606    117.6449    113.5817   5.1186998361e+01   3.6150893669e+01     0.508108    0.2753272 -36.03  0.001464181    2.207    0.547
       140 -10.5316    110.7525    128.6862   5.6646641750e+01   3.4079632975e+01    0.5683479    0.3725105  21.23   0.00242419    1.983    0.496
       141 -10.5973    115.7986    124.7153   5.4356486975e+01   3.4014611984e+01    0.5912343    0.3932896  45.19  0.002219491    1.477    0.323
       142 -10.1817    116.8521    119.3208   5.2804465724e+01   3.5023569278e+01    0.3819014    0.3723609 -38.13  0.001169618    1.052    0.049
       143 -10.3894     83.5087    131.2652   6.5054841894e+01   3.8244279465e+01    0.5446731    0.3504168 -88.85  0.001876545    2.127    0.530
       144 -10.2835    143.1184    130.1874   4.8509656820e+01   2.7318092491e+01    0.6156009    0.2572558 -40.81  0.001911005    2.554    0.608
       145 -10.1619     39.0255    131.4533   7.8678634660e+01   4.4119054526e+01    0.2517149    0.1890073  43.43  0.001211877    1.338    0.252
       146 -10.5623    168.9279    128.4255   4.2149812839e+01   2.2297548010e+01    0.6159121    0.3069176 -43.14  0.002505729    2.026    0.506
       147 -10.2683    172.6243    120.0293   3.9359927528e+01   2.3102159098e+01    0.4196424    0.3210559 -47.67  0.001324507    1.361    0.265
       148  -9.0988     22.7372    130.8390   8.3594305938e+01   4.5818061710e+01    0.2226342    0.1056376 -41.55 0.0009526315    2.788    0.641
       149 -10.5597    152.9947    127.7250   4.5572112299e+01   2.5770700546e+01    0.6888211    0.2993489 -47.92  0.002167742    2.455    0.593
       150 -10.1021     73.0743    128.7458   6.7734998459e+01   4.0469560079e+01    0.4410547    0.2532935  82.82  0.001663711    2.832    0.647
       151  -9.4694     12.9709    129.2760   8.6401174280e+01   4.6973720322e+01    0.3851506    0.1703364  63.96  0.001705982    2.480    0.597
       152 -10.6324     98.4203    126.7799   5.9748332513e+01   3.6787799754e+01    0.6289655    0.4002785 -86.91  0.002211419    2.506    0.601
       153 -10.2936     98.3956    120.7931   5.8447000676e+01   3.8201841705e+01    0.7504987    0.4661862  12.52  0.002842584    2.742    0.635
       154 -11.0314     60.2563    124.5460   7.0982700204e+01   4.3312425753e+01    0.7135316    0.3564799  72.08  0.002374748    3.818    0.738
       155  -9.3207     40.2812    126.0105   7.7555393224e+01   4.5338231592e+01    0.1888191     0.161338 -81.09 0.0002497247    1.061    0.057
       156  -8.2629    168.2885    169.5818   5.1014311757e+01   1.4755309350e+01    0.1354231    0.1111796  89.37 0.0006966235    1.842    0.457
       157 -10.9534     44.4139    122.8997   7.5784384114e+01   4.5663202008e+01    0.6931372    0.3491716  71.19  0.002692814    2.901    0.655
       158 -10.1828     30.2988    124.1997   8.0485725297e+01   4.6785706616e+01    0.4300237    0.1873146  55.83  0.001529982    2.682    0.627
       159  -9.7555     26.7034    119.7140   8.1082977566e+01   4.8227650146e+01    0.3053965     0.209855 -39.44  0.001654714    1.688    0.408
       160 -11.3260    108.5462    112.3809   5.3483777821e+01   3.8239867731e+01     1.013956    0.3747309 -52.43   0.00271027    2.840    0.648
       161  -9.3715     84.2320    122.3169   6.3052710149e+01   4.0288487824e+01    0.3432449    0.1997844 -20.41  0.001131572    3.830    0.739
       162 -10.4524    158.7097    119.9288   4.2382859471e+01   2.6110504084e+01    0.5433441    0.3090125 -42.71  0.001836657    1.769    0.435
       163 -11.0200    141.5229    117.2334   4.5802106160e+01   3.0355516523e+01    0.8738687    0.3776191 -48.50  0.003134932    2.448    0.592
       164  -8.6447     37.9689    164.4891   8.2618607555e+01   3.6275721909e+01    0.1952682   0.07353905  50.29 0.0008097275    2.507    0.601
       165 -10.2505    130.5508    116.6202   4.8449350595e+01   3.2814204235e+01    0.6689799    0.3121387 -48.64  0.002050887    2.213    0.548
       166  -9.7280      2.7626    116.2776   8.8441622107e+01   5.0810903203e+01    0.5065635    0.1706012  76.91  0.001760012    4.069    0.754
       167  -9.7149    105.3280    123.5304   5.7037545879e+01   3.6286214713e+01    0.2673592    0.2050824  38.28 0.0006735689    1.297    0.229
       168  -8.8838    128.3172    158.6438   5.8120337958e+01   2.4203503533e+01    0.2571122    0.1811668 -66.98  0.001039161    1.745    0.427
       169 -10.1004     92.4882    111.6368   5.8133058988e+01   4.1430333794e+01    0.6283743    0.3474172 -70.74   0.00219926    2.601    0.615
       170  -9.4940     92.0471    104.9377   5.6646302413e+01   4.3091753837e+01    0.3676042    0.2594977 -23.92  0.001624244    1.883    0.469
       171 -10.0783     79.4559    112.8112   6.2520998305e+01   4.3372859425e+01    0.4971159    0.3023847  76.93  0.001693168    2.776    0.640
       172 -10.6165    159.3839    110.5334   3.9881080735e+01   2.7804061388e+01    0.5603617    0.2935139 -38.39  0.001460122    1.930    0.482
       173 -10.1600     21.6548     92.1971   7.8997405829e+01   5.5502026607e+01    0.6170224    0.2245339 -42.63  0.002351785    3.147    0.682
       174 -10.5451     14.7473    111.7877   8.4091755987e+01   5.1146625567e+01    0.4008987    0.2188374  81.76  0.001742471    1.910    0.476
       175 -10.8199     16.7119    105.1624   8.2636347537e+01   5.2649705287e+01    0.6352049    0.3562991 -26.51  0.003048853    2.429    0.588
       176  -9.6625     30.7071    105.9646   7.7826145087e+01   5.1303214837e+01     0.348763    0.1661461  60.02  0.001156025    2.787    0.641
       177 -10.6842     23.9027    102.5510   7.9736610682e+01   5.2747477088e+01    0.8237096    0.3253425  62.08   0.00272937    4.416    0.774
       178 -10.4115     61.8682    106.1160   6.6931885082e+01   4.7668247983e+01    0.3090084    0.1981269  31.64 0.0008339037    1.646    0.392
       179  -9.9391    133.3880    108.0728   4.5535263632e+01   3.4035635962e+01    0.4581174    0.2936456 -44.38  0.001596705    1.576    0.366
       180 -10.9613     66.3793    110.2915   6.6274649185e+01   4.5996802641e+01    0.4891276    0.2905638  86.57  0.001788343    2.668    0.625
       181 -10.5949    200.2076    148.4243   4.0294953202e+01   1.2558340704e+01    0.4213082    0.3744583  36.47  0.002271779    1.192    0.161
       182  -9.6135     78.7701    105.5431   6.1092155758e+01   4.5245209271e+01    0.4098368    0.2552706   2.48  0.001520897    3.032    0.670
       183 -10.9991     46.0111    102.4705   7.1773776115e+01   5.0593048255e+01    0.7723415    0.3727834  66.25  0.002611078    3.901    0.744
       184 -10.9330    150.0001    100.0018   3.9270001535e+01   3.1980114646e+01    0.7707758    0.3141717 -43.69  0.002637224    2.464    0.594
       185 -10.2668    139.6154    102.3785   4.2434765824e+01   3.3849360742e+01    0.5545962    0.3176401 -35.77  0.002160179    1.874    0.466
       186  -8.9907      6.8249    102.8251   8.5821880569e+01   5.3871095542e+01    0.1772881    0.1312771  69.66 0.0005274773    1.342    0.255
       187 -10.4513    128.8783     99.3343   4.4381330236e+01   3.6866805460e+01    0.6414552    0.3829862 -31.30  0.002366079    1.992    0.498
       188  -9.2208    112.5712    132.7869   5.7032863293e+01   3.2801618814e+01    0.3504402    0.2263235  68.51  0.001401327    2.209    0.547
       189 -10.1547    159.9158     98.8443   3.6697687622e+01   2.9933662623e+01    0.5165582    0.2648696 -38.02  0.001813364    1.953    0.488
       190 -10.4047    108.8829     98.3251   4.9738606200e+01   4.1347645917e+01    0.6777506    0.4291345  74.85  0.002257078    2.817    0.645
       191  -9.5721    108.1500     91.9226   4.8170304334e+01   4.2912436473e+01    0.4683921    0.2979015  18.99  0.001814116    2.394    0.582
       192  -9.1526     81.8635     99.3773   5.8564339217e+01   4.6205039998e+01    0.3583474    0.2074538 -72.50  0.001363042    2.442    0.590
       193  -9.7159     94.6671     95.9547   5.3478510302e+01   4.4692814276e+01    0.4188047    0.2238636 -60.91  0.001550002    2.254    0.556
       194  -9.3913     96.0067     90.9668   5.1670410793e+01   4.5569933666e+01    0.3964012    0.2547318 -14.98  0.001486464    2.715    0.632
       195 -10.7509     64.0200     96.0722   6.3933924918e+01   4.9828149427e+01    0.5091418     0.314615  78.29  0.001522611    2.682    0.627
       196  -9.9614    138.6392     89.5490   3.9102506141e+01   3.6659439122e+01    0.5321985    0.3006042 -37.09  0.001566932    1.830    0.454
       197  -9.6894     57.9545     91.7193   6.5110415999e+01   5.1743922003e+01    0.1932604    0.1818666  34.72 0.0003806181    1.127    0.112
       198 -10.4168     45.4721     91.6009   6.9772956039e+01   5.3352195099e+01    0.5566269    0.2339849  21.51  0.002139902    2.969    0.663
       199 -11.4659    206.5749    155.1920   4.0523679821e+01   1.0305289537e+01     1.081085    0.4873017  53.22  0.004241738    3.172    0.685
       200 -10.5553    125.0055     87.2668   4.1988109277e+01   4.0239012079e+01    0.9245192    0.4543948 -32.13  0.003289892    2.533    0.605
       201  -9.9622     34.6579     89.0636   7.3414457512e+01   5.5137997136e+01    0.5483561    0.2731625 -80.96  0.002257528    2.486    0.598
       202 -10.0315     36.9677     81.1641   7.0834935108e+01   5.6842466160e+01    0.5001218    0.2625611 -18.99  0.001938498    3.236    0.691
       203  -9.8671    197.0266    156.4863   4.2578636595e+01   1.1804454313e+01    0.4938905    0.2754558 -48.53  0.002256017    2.173    0.540
       204  -9.8402    188.2935    156.5983   4.4305813660e+01   1.3379551979e+01     0.382905    0.2563504 -52.66  0.001204511    1.884    0.469
       205  -9.7688     86.7474     86.5358   5.3461863663e+01   4.8328263236e+01     0.367009     0.242959  70.92    0.0012272    2.345    0.573
       206  -9.3469    183.4260    151.2959   4.4182221133e+01   1.5209366904e+01    0.4181667    0.3033955 -83.54  0.001834843    2.723    0.633
       207  -9.7211    182.6344    141.8362   4.2311848721e+01   1.7042894975e+01    0.3672293    0.2930925 -78.85  0.001384426    1.876    0.467
       208 -10.3992     48.6183     84.2002   6.6874069389e+01   5.4784870282e+01    0.5287144    0.2958931  65.05  0.001920672    2.997    0.666
       209  -9.9771     49.2136     77.0563   6.4839666191e+01   5.6424184044e+01    0.4453295    0.2466846 -22.16  0.001733343    2.933    0.659
       210  -9.9669      7.6795     84.6408   8.3310105944e+01   5.8288547000e+01    0.3300955    0.2139197 -23.54  0.001843272    1.828    0.453
       211  -9.3989      8.3377     80.6911   8.2487497427e+01   5.9216065053e+01    0.4247924    0.2196894  50.91  0.002081254    2.299    0.565
       212  -9.7207    158.4341     81.2515   3.2116639205e+01   3.3540680758e+01     0.459628    0.2942895 -14.98  0.001852158    2.213    0.548
       213  -9.3442    116.7203     83.2555   4.3098933207e+01   4.2916718331e+01    0.2864481    0.2051321 -31.97 0.0005543766    1.511    0.338
       214  -9.9300    171.1694     81.6617   2.9628760468e+01   3.0417266519e+01    0.3600277    0.2562798  -8.34  0.001122407    1.881    0.468
       215  -9.4706    104.3159     82.6333   4.6602544784e+01   4.5722843211e+01    0.3262007    0.2512891 -84.57  0.001286198    1.766    0.434
       216  -9.8285    140.7478     80.3959   3.5891192354e+01   3.7937273411e+01    0.4205554    0.2891188 -25.87   0.00153029    1.664    0.399
       217  -9.6989     24.7462     80.5697   7.5729037691e+01   5.8120640935e+01    0.4020013    0.2282454  76.20  0.001448543    2.489    0.598
       218  -9.3499     86.5300     80.4792   5.1753501214e+01   4.9730510386e+01    0.2717471    0.1447714  28.16  0.001030089    2.391    0.582
       219 -10.7533    189.7336    149.7753   4.2598597871e+01   1.4283472564e+01    0.4956661    0.3447044 -47.74  0.001712317    1.618    0.382
       220 -10.5753    167.3661     76.6148   2.8947836663e+01   3.2199240233e+01    0.4547653    0.2853873 -13.36  0.001821485    2.311    0.567
       221  -9.5137    150.3447     77.8230   3.2884142314e+01   3.6110439301e+01    0.3622776    0.2683292 -22.95  0.001167125    1.524    0.344
       222  -9.2401    186.5149    144.5202   4.2113894400e+01   1.5811755315e+01     0.241375    0.2240661 -11.83   0.00070174    1.048    0.045
       223  -9.8309    168.0320    157.4777   4.8688378579e+01   1.7005243159e+01    0.3176843     0.232364 -68.62  0.001300614    2.047    0.511
       224  -9.2347    157.7231     74.4287   3.0274150469e+01   3.4921156738e+01    0.2956655    0.2258138   1.37 0.0009439295    1.731    0.422
       225  -9.4479    140.5052     73.3077   3.3789125775e+01   3.9313880341e+01    0.4441674     0.253484 -29.55  0.001671173    1.974    0.494
       226  -9.9869    128.0123     71.5774   3.6358765633e+01   4.2629781730e+01     0.695482    0.3281075 -32.46  0.002522838    2.408    0.585
       227 -10.1578     10.4930     74.3338   8.0594672866e+01   6.0637130315e+01    0.2873919    0.2136139  15.49   0.00130053    1.563    0.360
       228 -10.0620     27.7402     71.2562   7.2497395796e+01   6.0120042258e+01    0.5849249    0.2628899 -23.93  0.002090039    3.909    0.744
       229  -9.9364    105.1982    157.1391   6.3723751362e+01   2.8611118860e+01    0.3198201    0.2366373 -85.55 0.0008169498    1.659    0.397
       230  -9.3365     95.3901     71.3683   4.5890836241e+01   4.9948874250e+01    0.3615241    0.1411969 -49.57   0.00122129    2.775    0.640
       231  -9.6715    157.6033    155.6230   5.0611494153e+01   1.9331030365e+01    0.3516335    0.2456534 -66.54  0.001213999    2.051    0.513
       232 -10.9227    208.2094    151.7979   3.9524470774e+01   1.0556551429e+01    0.5932229    0.3793626 -65.01  0.002437448    3.404    0.706
       233 -10.3838     51.6402     69.6136   6.1775901260e+01   5.7849728149e+01     0.427406    0.2395741 -74.11  0.001713549    2.668    0.625
       234  -9.5522     82.6168     72.6260   5.0679420210e+01   5.2186115213e+01    0.3831714    0.2560868  85.54  0.001458153    2.941    0.660
       235  -9.3402     80.4623    164.4455   7.1389811651e+01   3.0882154165e+01    0.3210091     0.175441  78.53  0.001247518    2.933    0.659
       236  -9.4999    163.3229     69.3391   2.7627978370e+01   3.4416849240e+01    0.3322597    0.2407481  22.37  0.001497555    1.820    0.451
       237  -8.8401     16.7859     70.0291   7.7068448820e+01   6.1275639720e+01    0.2108909     0.133252  74.84  0.001063599    2.028    0.507
       238 -10.3903    133.5944    153.1566   5.5766523941e+01   2.4379152318e+01    0.5650848     0.391205  83.48    0.0019424    2.395    0.583
       239  -9.9264    137.9826    147.2380   5.3496146570e+01   2.4781528016e+01    0.5135105    0.2770567 -41.99  0.002168128    1.984    0.496
       240  -9.6870    147.1702     65.3194   2.9769481226e+01   3.9091955182e+01    0.5378388    0.2824537 -26.02  0.002047081    2.305    0.566
       241  -9.8013    134.3313    147.2960   5.4406142645e+01   2.5471003716e+01    0.5027548    0.3045759 -20.69  0.001914473    2.818    0.645
       242  -9.2605    119.2039    154.6328   5.9652583865e+01   2.6711751466e+01    0.2992364    0.2229927  83.86  0.001409164    1.793    0.442
       243  -9.8137     82.0738    154.5130   6.9480805419e+01   3.2935706412e+01    0.3278436    0.2131985  82.03  0.001087804    1.955    0.489
       244  -9.6837    138.4183     64.0951   3.1371268139e+01   4.1465585747e+01    0.5517757    0.3054987 -22.32  0.002088576    2.405    0.584
       245  -9.8051     83.5400     64.5240   4.7657632482e+01   5.3726313730e+01    0.4437903    0.2773086  -3.65  0.001601996    3.160    0.684
       246  -9.9457     68.3610    153.8973   7.3164456851e+01   3.5064875939e+01     0.367108    0.2304904  76.37  0.001223093    1.899    0.473
       247  -9.6904     18.0555     62.5002   7.4895701018e+01   6.2977170440e+01    0.4264182    0.1254184 -51.62  0.001678344    2.609    0.617
       248  -9.4091     49.4445    154.8066   7.8518171773e+01   3.7268188936e+01    0.2799422    0.1652937  74.57   0.00110738    1.870    0.465
       249  -9.5834     37.4612     63.5676   6.6206394970e+01   6.0971471086e+01    0.3209359    0.2181046 -84.52  0.001580258    1.972    0.493
       250  -9.5199     99.5880    152.6409   6.4424259157e+01   3.0572433666e+01    0.4704661    0.2613823 -80.73  0.001746836    3.042    0.671
       251  -8.7292     95.8469    154.1621   6.5690037946e+01   3.0844804653e+01    0.1885285    0.1693494  -1.07 0.0003934384    1.323    0.244
       252  -9.0022    162.8243    150.7580   4.8442729260e+01   1.9260746916e+01     0.257082    0.1932671 -76.21 0.0009339335    2.034    0.508
       253  -9.1768     28.8552    149.6047   8.3675100554e+01   4.0709664358e+01    0.3816549    0.1419482  63.18  0.001384393    3.548    0.718
       254 -11.7869    182.4396    118.1437   3.6891059325e+01   2.1355877535e+01      1.24667    0.7118236 -21.07  0.004996831    2.341    0.573
       255  -9.7896     73.3821     59.4346   4.9653885401e+01   5.6668128385e+01    0.3206752    0.2401919 -61.88   0.00100015    1.578    0.366
       256  -8.9116    142.6174    148.1325   5.2558654083e+01   2.3701124410e+01    0.3154565    0.1423135 -47.24  0.001220632    2.327    0.570
       257  -9.5808     40.0805    147.8611   8.0342623679e+01   3.9990489106e+01    0.4341323    0.1583355  53.93  0.001622829    3.134    0.681
       258  -9.4964     58.8309    147.6055   7.4967772389e+01   3.7840264225e+01    0.3395267    0.1784998  49.06  0.001549089    1.871    0.465
       259 -10.0464     39.2769     57.7600   6.3661129125e+01   6.2090687910e+01    0.2497904    0.1979145 -27.95  0.001428798    1.241    0.194
       260 -10.0605     26.3817     54.8126   6.8944162119e+01   6.4085117946e+01    0.3427328    0.1641897 -24.67  0.001389426    2.976    0.664
       261  -9.6651     55.4686    144.9482   7.5570290991e+01   3.8909498924e+01    0.3911948    0.2211243  84.48  0.001352933    2.189    0.543
       262  -9.0986    176.0838    146.2078   4.4615331026e+01   1.7532743379e+01    0.2553661    0.1913482 -71.24  0.001210261    2.029    0.507
       263 -10.8018    149.2255    144.9218   5.0313125449e+01   2.3063987826e+01    0.5879409    0.4315157 -79.87  0.002137796    2.081    0.519
       264  -9.2012     99.9262     55.3492   3.8851490536e+01   5.2117565810e+01     0.311425    0.2023885 -18.26  0.001323737    2.011    0.503
       265  -9.8838    148.6212    138.1572   4.8985627994e+01   2.4555415941e+01    0.4390832    0.2911246 -19.35  0.001878854    2.084    0.520
       266 -10.3131    106.9923    144.3264   6.0900676629e+01   3.1191375544e+01    0.6194448    0.4087314  84.28  0.002586266    2.344    0.573
       267  -9.6343     62.8799     54.3461   5.2037207529e+01   5.9522915496e+01    0.2493707    0.1861199 -53.70 0.0007331655    1.407    0.289
       268  -9.7660     54.6249     54.3689   5.5581111317e+01   6.0807477606e+01    0.3473007    0.1794364 -65.47  0.001299817    3.110    0.678
       269  -9.2736    195.2455    144.7860   4.0460886313e+01   1.4096663242e+01    0.3246804    0.1722798 -49.74  0.001379418    2.331    0.571
       270 -10.7048      6.4479     56.8350   7.9237853592e+01   6.5019167571e+01    0.4051268    0.2374587 -57.96  0.002274025    1.376    0.273
       271  -9.2547    177.9929    160.8586   4.7263583119e+01   1.4537480755e+01    0.2667468    0.2086041  89.94  0.001241116    2.159    0.537
       272  -8.6814     13.4147    146.1749   8.7659405505e+01   4.2870852372e+01    0.1762038     0.100014  84.15 0.0004912556    1.607    0.378
       273  -8.8683     92.5841     50.7450   3.9509866824e+01   5.4555508147e+01    0.2038753    0.1374568 -49.22 0.0005683121    1.626    0.385
       274 -11.6723     45.4859     48.9158   5.7785759348e+01   6.3246247735e+01    0.3021429    0.2423446 -39.18 0.0001305563    1.138    0.122
       275  -9.6667    165.7514    143.8117   4.6315362251e+01   2.0011127619e+01    0.3424937    0.2722779 -73.22  0.001204003    1.731    0.422
       276  -9.4612     64.3401     46.8146   4.8565854844e+01   6.0786169161e+01    0.2822328    0.1814831   9.78  0.001244647    2.196    0.545
       277  -9.0706    130.4041     45.8340   2.7083106199e+01   4.6453470512e+01    0.2025361    0.1460872 -14.40 0.0004869193    1.658    0.397
       278  -9.4733     22.8199     46.9406   6.8426563404e+01   6.6166326048e+01    0.3287248    0.1882293  -7.76  0.001603943    2.223    0.550
       279  -8.6379      1.4852     46.0105   7.9504811806e+01   6.7743637876e+01    0.1791226    0.1016137 -66.17 0.0004224018    1.475    0.322
       280  -9.7188    149.9903     43.4937   2.2154561675e+01   4.1810922757e+01     0.368997    0.1739068 -30.96  0.001451359    2.186    0.542
       281  -9.5488     17.0240     42.2807   7.0096489859e+01   6.7663344141e+01    0.6953828    0.1470764 -57.61  0.002499016    3.356    0.702
       282  -9.6279     58.1804     42.3050   4.9405295865e+01   6.2690222213e+01     0.254856     0.185937 -71.46  0.001231874    2.124    0.529
       283 -10.4304      5.0309     40.7981   7.6331358934e+01   6.8750404667e+01    0.4664074    0.1965621 -78.70  0.001955349    3.059    0.673
       284  -9.5863    113.7106     41.3231   2.9576121359e+01   5.1274428330e+01    0.2943846    0.2203255  24.79 0.0002393788    1.534    0.348
       285  -9.2627    123.2866     40.4096   2.6810969934e+01   4.9052993356e+01    0.2886109    0.2205482  22.79 0.0007883132    1.532    0.347
       286  -9.1654     69.4020     41.2210   4.4205343877e+01   6.0930621499e+01    0.1960759    0.1296378 -50.52 0.0006120072    1.709    0.415
       287  -8.9546     36.7536     40.6073   5.8988603323e+01   6.6082711858e+01    0.2139145    0.1663278 -75.84  0.001164149    1.754    0.430
       288  -9.1175     26.4156     36.7143   6.3024052385e+01   6.8027661759e+01    0.2382528    0.1174416 -58.26  0.001122935    2.025    0.506
       289  -8.2808    228.6312     36.6801   9.5860744603e+00   2.3602699560e+01    0.1270033   0.09715662  29.58  0.000703632    1.792    0.442
       290 -10.4305    124.6587    141.2930   5.5611536322e+01   2.8611339940e+01    0.7294169    0.3281077 -59.23  0.002572499    2.907    0.656
       291  -9.7515     87.9300    143.2505   6.5978884592e+01   3.4670271114e+01    0.4084665    0.2371899 -84.16  0.001613334    2.583    0.613
       292  -8.8579     84.0458     39.9216   3.8125784082e+01   5.8257572414e+01    0.2343681      0.16841  12.89 0.0008590958    1.704    0.413
       293  -9.7905      6.5178     33.9578   7.3570093205e+01   7.0170682765e+01    0.2268855    0.1485938 -21.68 0.0008571277    1.518    0.341
       294  -8.7851      3.3294    142.6750   9.0190641707e+01   4.4435382944e+01     0.133143   0.07203485  61.72 0.0007050225    1.701    0.412
       295  -9.1117    119.4670     33.0522   2.4965332476e+01   5.1057032806e+01    0.2184692    0.1452025 -29.74  0.001027136    1.580    0.367
       296 -10.1560     69.3816    140.2765   7.0821595533e+01   3.8191873318e+01    0.3817673    0.1992756  81.75  0.001329402    3.453    0.710
       297  -9.1734     12.9081     31.1060   6.8801391521e+01   7.0365614975e+01    0.1762442    0.1629328 -70.55 0.0006618936    1.283    0.221
       298  -9.9815    148.7099     28.5397   1.7393433764e+01   4.4134327542e+01    0.2890251    0.1252522  59.77  0.001137623    2.087    0.521
       299  -8.9109      2.4402     27.5357   7.4106858372e+01   7.1760358936e+01    0.2300555    0.1143535   8.59  0.001224114    2.238    0.553
       300  -9.0136     28.3116     26.3371   5.7698699092e+01   6.9894931726e+01    0.1355952   0.08478552 -21.53  0.000704522    1.687    0.407
       301  -9.2890     44.3448     25.1854   4.8369524958e+01   6.7987731093e+01    0.2050764    0.1607236  11.52 0.0004034199    1.248    0.198
       302  -8.8122    118.5319     24.5075   2.1869658753e+01   5.2405166933e+01    0.1439113    0.1343041  51.79 0.0001245145    1.008    0.008
       303  -8.7852    110.6960     24.2463   2.3613885569e+01   5.4396809866e+01    0.1978616    0.1533492  33.10 0.0005196443    1.324    0.245
       304  -8.2638     58.7770     21.9868   3.9895669597e+01   6.6102516344e+01    0.1658012    0.1049618 -32.34 0.0008446684    1.560    0.359
       305 -10.0068     13.0738     21.0628   6.4819085468e+01   7.2393464868e+01    0.2496784    0.2055256   5.93 0.0007209172    1.255    0.203
       306 -10.0147     82.0039    139.1625   6.6950898110e+01   3.6582431658e+01    0.4553249    0.2530072 -76.44  0.001857466    2.314    0.568
       307  -8.6599     84.9792     21.3001   2.9600869088e+01   6.0853053343e+01    0.1941675    0.1680264  44.56 0.0004777206    1.101    0.092
       308  -8.4521     41.2705     21.3135   4.8055877432e+01   6.9107919723e+01    0.1305198   0.09042024  -9.66 0.0002092072    1.552    0.356
       309  -9.8841    172.6412    137.8988   4.3520053306e+01   1.9749832916e+01    0.4236271     0.292249 -69.24  0.001764838    2.327    0.570
       310  -9.7214     30.7075     19.0169   5.2807292232e+01   7.0950392927e+01    0.1794303    0.1422354 -24.56  0.000341976    1.101    0.092
       311  -8.4282      1.5275     19.5007   7.1989002094e+01   7.3474618336e+01    0.1188792   0.09575788 -39.51 0.0008005732    1.020    0.019
       312  -8.9972     50.3900     15.4758   4.0370285293e+01   6.8567664189e+01    0.2641202    0.1589684  13.97  0.001125942    2.124    0.529
       313  -8.9415    196.1503    248.3180   5.8198036950e+01  -1.1990809529e+00    0.1885064    0.1118109  19.73  0.001199536    1.414    0.293
       314  -9.8519    107.3355    247.2049   7.4849276532e+01   1.1064953080e+01    0.2660917     0.195976  75.34   0.00172354    1.679    0.404
       315  -9.3058     30.7485    248.1408   8.9635475188e+01   2.0163859752e+01    0.1986135   0.05860414  57.12 0.0009502667    2.839    0.648
       316  -9.7729     29.8952    243.8843   8.9603359206e+01   2.0981974085e+01     0.150198    0.1244586  54.89 0.0003903198    1.190    0.159
