#   1 NUMBER                 Running object number                                     
#   2 MAG_AUTO               Kron-like elliptical aperture magnitude                    [mag]
#   3 X_IMAGE                Object position along x                                    [pixel]
#   4 Y_IMAGE                Object position along y                                    [pixel]
#   5 X_WORLD                Barycenter position along world x axis                     [deg]
#   6 Y_WORLD                Barycenter position along world y axis                     [deg]
#   7 A_WORLD                Profile RMS along major axis (world units)                 [deg]
#   8 B_WORLD                Profile RMS along minor axis (world units)                 [deg]
#   9 THETA_WORLD            Position angle (CCW/world-x)                               [deg]
#  10 FWHM_WORLD             FWHM assuming a gaussian core                              [deg]
#  11 ELONGATION             A_IMAGE/B_IMAGE                                           
#  12 ELLIPTICITY            1 - B_IMAGE/A_IMAGE                                       
         1 -11.3174      7.0422     17.4006   1.1220272172e+02   6.9950063610e+01    0.3449763    0.1927119 -34.97  0.001100357    1.428    0.300
         2 -11.4243     33.5925     18.1735   1.0060209913e+02   6.7258992985e+01    0.2764653    0.2142992 -55.92  0.001765991    2.473    0.596
         3 -11.1986     58.5275     16.0566   9.0103817425e+01   6.4077504383e+01    0.3101691    0.1732564 -12.60 0.0009861529    1.924    0.480
         4 -12.5479    113.1568     15.5297   7.4517541234e+01   5.3829319541e+01    0.3967223    0.2304465  56.71  0.000816914    1.495    0.331
         5 -11.4968     80.3234     14.8217   8.2617283576e+01   6.0489585864e+01    0.2705788    0.2126901  41.14  0.001087023    1.171    0.146
         6 -12.3617     25.9993     13.3502   1.0182142294e+02   6.8723579979e+01    0.2538564    0.1980442  -6.62 0.0005776887    1.106    0.096
         7 -11.2220     65.8382     13.1089   8.6422064980e+01   6.3204457461e+01    0.3422177     0.207984   4.37  0.001975151    1.791    0.442
         8 -12.1282     49.4983      9.7228   9.0708411755e+01   6.6114471720e+01    0.4023043    0.3899138 -24.17  0.003117333    1.616    0.381
         9 -11.3936     74.6812      9.2505   8.2110820096e+01   6.2042912177e+01    0.2410969    0.2012671 -21.53 0.0006674123    1.371    0.271
        10 -11.6807     75.5172      3.3635   7.9533977999e+01   6.2402985093e+01    0.3587472    0.2708396  48.02  0.001623151    1.271    0.213
        11 -11.5257     32.0936      3.4795   9.4819342537e+01   6.9126909974e+01    0.3455911     0.223402  35.28  0.002399647    1.594    0.373
        12 -10.2018     37.2019      9.8215   9.5537197740e+01   6.7799904270e+01    0.1515625    0.1139457   0.34  0.000247964    1.040    0.039
        13 -11.3867     39.5620      5.0962   9.2497654754e+01   6.7988024652e+01    0.3971844    0.1856009 -40.51  0.002093136    3.064    0.674
        14 -10.5871      2.9678     10.8445   1.1152329224e+02   7.1164028868e+01    0.1741183    0.1237307  13.01 0.0004071894    1.426    0.299
        15 -11.9265    211.3447      9.8444   5.8411094656e+01   3.1667455063e+01    0.2500692    0.1938719  88.52 0.0007767575    1.049    0.047
        16 -12.4308    208.9594      5.1378   5.7625279402e+01   3.2706998646e+01    0.2630719    0.2028674 -73.84 0.0003715508    1.132    0.117
        17 -11.0630     11.0298      2.9959   1.0414643197e+02   7.1483949336e+01    0.2934867    0.2028313 -15.05  0.001726855    1.110    0.099
        18 -11.1592     16.2575      7.9308   1.0387592938e+02   7.0395237416e+01    0.3247489      0.15863 -16.82  0.001380427    2.065    0.516
        19 -11.0261     20.1605      7.3861   1.0182948523e+02   7.0066245678e+01    0.3042786    0.1421863 -27.22  0.001839819    1.889    0.471
        20 -10.8712     87.6192      8.2612   7.8099118874e+01   5.9718055635e+01    0.2733922    0.2174079  11.48   0.00123689    1.218    0.179
        21 -10.6311    108.1050      7.8629   7.3032869863e+01   5.5593455693e+01    0.1779388    0.1621322  75.15  0.001219006    1.254    0.202
        22 -11.4583     24.6639      6.9435   9.9601384789e+01   6.9631282537e+01     0.215425    0.1535428 -30.44 0.0005946283    1.530    0.347
        23 -10.4068     62.2546      6.6510   8.4947119762e+01   6.4421684577e+01    0.1913621    0.1722533  28.70  0.001426763    1.298    0.229
        24 -10.5118    248.2940      7.3111   5.4777635093e+01   2.3896236549e+01    0.1013016   0.08633453  59.42 0.0002384237    1.592    0.372
        25 -11.1164    191.1211      5.6628   5.9541197207e+01   3.6758654665e+01      0.23597    0.1567397 -69.57 0.0007885751    1.477    0.323
        26 -11.4094    195.1063      3.8166   5.8697377472e+01   3.6015904869e+01    0.3150449    0.1422601  71.13 0.0007633085    1.837    0.456
        27 -11.4833    218.2014      3.0137   5.6342822014e+01   3.0848915336e+01    0.2302049    0.2158018  51.92  0.001250773    1.465    0.317
        28 -11.8027    180.7553      2.6070   5.9964184269e+01   3.9467848778e+01    0.3144486    0.2438291  61.15  0.002019349    1.238    0.192
        29 -11.1906    161.0154      3.1647   6.2530958535e+01   4.4038058723e+01    0.3009828    0.2063159 -84.29  0.001747447    1.504    0.335
        30 -10.7407     91.0163      2.6793   7.5153941109e+01   5.9513289293e+01    0.2590124    0.1473955  53.53 0.0005761237    1.493    0.330
        31 -10.4663     81.1397      1.5949   7.7282348538e+01   6.1504014811e+01    0.1695949    0.1331705  57.45 0.0005335072    1.366    0.268
        32  -9.9818      1.2959      2.1753   1.0862266102e+02   7.2414339475e+01    0.1240452   0.07531807 -36.75 0.0008958627    1.587    0.370
        33 -10.4440     65.3831      1.5690   8.1831529374e+01   6.4339421264e+01    0.2030469    0.1007457  52.67 0.0006146168    2.008    0.502
        34  -9.4948     53.6797      1.3299   8.5579750927e+01   6.6278341298e+01   0.09353074    0.0905782 -55.26 0.0004030569    1.691    0.409
        35 -11.3177    182.0163    235.2299   1.1343064221e+02  -2.0311681845e+00    0.3137872    0.2022471  27.24  0.001193462    1.545    0.353
        36  -9.6772    149.5041    250.6227   1.2229023979e+02   8.8720403631e-01    0.1303684    0.1068102  44.05 -0.0003249878    1.033    0.032
        37 -10.6652    118.3574    250.6841   1.2845982077e+02   6.0756523766e+00    0.3055105    0.1868267  77.41  0.001076896    2.221    0.550
        38 -10.7005    115.3273    249.7003   1.2893596338e+02   6.7531237713e+00    0.2407892    0.1807597  68.80   0.00128046    1.293    0.227
        39 -11.3539    117.5697    237.2439   1.2692003034e+02   8.7588108029e+00    0.6897088    0.4383821 -24.12  0.002898174    3.535    0.717
        40 -10.9099    114.4816    243.5422   1.2834872687e+02   8.0532267826e+00    0.2241951      0.16285  42.53 0.0005512519    1.256    0.204
        41 -10.8352    105.5341    246.4621   1.3047817189e+02   8.9510647474e+00    0.2076345    0.1701518  82.54 0.0005353807    1.195    0.163
        42 -11.5414    109.4818    249.5254   1.3006200133e+02   7.7346531504e+00    0.3963741    0.2759446  25.35  0.001587555    1.881    0.468
        43 -11.8210    109.5120    244.5174   1.2945980638e+02   8.6804656306e+00    0.3845707    0.1857296  49.71 0.0006838174    1.795    0.443
        44 -11.5058     91.9406    250.2350   1.3354121829e+02   1.0368428424e+01     0.182463    0.1458927  61.59   0.00050408    1.017    0.017
        45  99.0000     45.5260    215.0977   1.3909595616e+02   2.4256281729e+01     1.437626    0.6194991  65.77  0.006223371    2.720    0.632
        46 -13.9904      9.5263    214.9374   1.4602533911e+02   2.8329538717e+01    0.9892306    0.6627494  85.47  0.005081734    1.128    0.114
        47 -12.6062     32.4480    203.7676   1.4067311278e+02   2.8343296838e+01    0.5928218     0.387808  79.63  0.002523316    1.328    0.247
        48 -12.0979     46.9968    230.8449   1.4025385049e+02   2.0685048634e+01    0.3676645    0.2038818  78.72 0.0004363542    1.743    0.426
        49 -12.3371     16.7082    208.9580   1.4423433755e+02   2.8894385823e+01     1.068662    0.3765239  72.98  0.003857733    4.411    0.773
        50 -13.4306     21.9039    198.3114   1.4232754164e+02   3.0714604689e+01     1.089976    0.7476352  65.20  0.006937565    1.306    0.234
        51 -12.5626     46.6976    245.5936   1.4154364232e+02   1.7711113605e+01    0.3794517    0.3108547  80.55  0.002712421    1.152    0.132
        52 -13.2170     43.1416    236.1362   1.4142619130e+02   2.0077476066e+01    0.5041639    0.3903211  37.44  0.001369252    1.596    0.374
        53 -13.3766     38.5927    245.4165   1.4297744265e+02   1.8770968578e+01    0.9128222    0.4349232  59.82  0.005088007    1.776    0.437
        54 -12.3552     19.6639    216.7769   1.4427238086e+02   2.6894489472e+01    0.4838023    0.2373594 -52.17  0.001194273    2.756    0.637
        55 -13.6229     37.1456    231.7066   1.4217595279e+02   2.1736879258e+01    0.9012749    0.5898064 -36.11  0.003440856    3.283    0.695
        56 -12.7334     22.7669    221.5930   1.4405686654e+02   2.5530818555e+01    0.5652135     0.232906 -67.23  0.002202114    2.149    0.535
        57 -13.8517     29.6492    216.9060   1.4238258595e+02   2.5765016107e+01    0.8762425    0.3585525 -62.67  0.002278323    2.298    0.565
        58 -14.9370     19.9386    237.7307   1.4570945566e+02   2.2502500587e+01     1.639145    0.7505175  66.42  0.009091894    1.922    0.480
        59 -15.1428     12.3680    230.7788   1.4657497407e+02   2.4731480101e+01     1.553426    0.8672836 -48.53  0.008522089    3.003    0.667
        60 -12.6755     37.8108    224.9557   1.4149413617e+02   2.3076352868e+01    0.2937801    0.2455976 -52.42 0.0004939313    1.663    0.399
        61 -13.2970     37.6213    219.9539   1.4110119031e+02   2.4171116666e+01       0.4952    0.4030038  50.25   0.00337043    1.342    0.255
        62 -14.2408      8.7912    249.6488   1.4830378165e+02   2.1364699067e+01    0.6091404    0.3065212  60.76   0.00238562    1.538    0.350
        63 -14.8376     14.7746    246.7257   1.4715427738e+02   2.1286945342e+01     0.793853     0.407042  51.38  0.003511641    1.617    0.381
        64 -10.6934    178.7035    232.2200   1.1360499786e+02  -9.4006605517e-01     0.277849    0.2211862  28.54 0.0009946801    1.156    0.135
        65 -12.2311    154.0470    232.7320   1.1874747875e+02   3.3038509673e+00    0.4762158    0.2751561  55.82  0.002237956    1.919    0.479
        66 -12.0541    194.9566    233.2367   1.1051197109e+02  -3.9025757565e+00    0.6618438    0.2747985  38.14  0.001389432    2.182    0.542
        67 -10.9012    172.8789    234.9908   1.1523953639e+02  -4.0931120613e-01     0.197286    0.1754586  29.64 0.0003896699    1.026    0.026
        68 -11.9931     58.2079    230.3767   1.3805395563e+02   1.9300222016e+01    0.5212707    0.2091975 -73.93  0.002355372    2.552    0.608
        69 -10.4833     56.5548    226.5051   1.3800412796e+02   2.0344296400e+01     0.292163    0.1567669 -57.22  0.001527933    2.070    0.517
        70 -10.7198     77.2361    234.0912   1.3468959370e+02   1.5813914822e+01     0.235332     0.155817 -58.35   0.00076831    1.698    0.411
        71 -10.0478     75.9034    198.4728   1.3073013064e+02   2.3848174565e+01    0.1920236    0.1574084  70.41  0.000443032    1.097    0.088
        72 -12.0716     77.9351    220.6640   1.3305009865e+02   1.8555919030e+01     0.858111     0.324648 -75.54  0.002255662    3.823    0.738
        73 -10.5750     73.1441    217.2198   1.3364988953e+02   2.0019648230e+01    0.1841543    0.1672854  84.32 0.0005120001    1.167    0.143
        74 -10.1202     89.1938    217.8159   1.3033402361e+02   1.7441514706e+01    0.2042347    0.1612493  72.60 0.0005512231    1.139    0.122
        75 -11.0256     74.4342    230.6539   1.3487997248e+02   1.6943800018e+01    0.3165702    0.2468638 -44.99 0.0007381059    1.792    0.442
        76 -10.9291     80.7016    230.7543   1.3363287335e+02   1.5989048203e+01    0.3207088    0.1402533  48.81  0.001372618    2.000    0.500
        77 -12.1058     80.2133    208.2922   1.3105521045e+02   2.0950228644e+01    0.7260752    0.3475755 -83.87  0.002578212    3.081    0.675
        78 -11.9438     84.3515    215.8464   1.3111753879e+02   1.8630441926e+01    0.4231396    0.2810787  28.75 0.0006984319    1.907    0.476
        79 -10.7525     85.5696    211.5202   1.3030634640e+02   1.9399138136e+01    0.2582292    0.1912962  89.67 7.334044e-05    1.313    0.238
        80 -10.9660    231.4999    232.3597   1.0333668700e+02  -9.6397050064e+00    0.3255103    0.2062382 -23.60  0.001369409    1.591    0.371
        81  -9.9917    219.1584    232.1583   1.0561845572e+02  -7.6968810179e+00    0.2958761   0.08894853 -43.46  0.001100298    3.691    0.729
        82 -12.1374    143.3227    232.2156   1.2089472666e+02   5.2924355620e+00    0.3794347    0.2334773  41.44 0.0008850056    1.442    0.307
        83 -10.5243    186.6384    231.1419   1.1182068592e+02  -2.1301566519e+00    0.2553215    0.1962393  19.31  0.001179897    1.301    0.231
        84 -10.5537    237.9773    229.8605   1.0170145344e+02  -1.0242206874e+01    0.2606217     0.156724  30.56 0.0008154415    1.561    0.359
        85 -10.0444    243.6784    230.7418   1.0082521046e+02  -1.1207453342e+01    0.1489411    0.1400868 -17.33 0.0002524177    1.352    0.260
        86 -10.2076    241.6681    228.2924   1.0074977353e+02  -1.0557605842e+01    0.1770222    0.1459809 -37.92 0.0004436344    1.421    0.296
        87 -10.0891    170.0346    230.2814   1.1505806277e+02   9.2440081632e-01    0.1894809    0.1587228  41.73 0.0004213897    1.087    0.080
        88 -10.5804    249.2166    227.8454   9.9316638650e+01  -1.1586243160e+01    0.2478902    0.1285501 -38.69  0.001047779    1.934    0.483
        89 -12.0179     99.9140    242.1673   1.3108838075e+02   1.0683665363e+01    0.3622797     0.302483  28.18 0.0007605852    1.492    0.330
        90 -10.3257    174.2816    227.1699   1.1367027736e+02   7.3242057732e-01    0.2239693    0.1427947   3.03 0.0006866051    2.718    0.632
        91 -10.7269    164.4777    225.2568   1.1538528027e+02   2.8357942697e+00    0.3273468     0.214673 -22.99   0.00124254    2.189    0.543
        92 -10.4774    158.3949    225.6179   1.1671688860e+02   3.8618173049e+00    0.2811185     0.170301 -65.26  0.001286199    2.285    0.562
        93  -9.6542    151.3506    227.2715   1.1845867280e+02   4.8111814705e+00    0.1349642    0.1044898  12.04 0.0006997105    1.630    0.386
        94 -10.6568    132.5026    227.2966   1.2243211653e+02   8.1557224116e+00    0.2731932     0.162923  44.00  0.000854107    1.491    0.329
        95 -11.5494    100.5271    216.7639   1.2776775352e+02   1.5838394650e+01      0.44399    0.2681557 -46.48  0.001569016    2.044    0.511
        96  -9.7695    111.3790    227.4812   1.2690722796e+02   1.1760595045e+01    0.1965821    0.1782883  74.98 0.0001695178    1.076    0.071
        97 -10.2819    111.8975    223.8768   1.2630777270e+02   1.2419792525e+01    0.2019538    0.1765773  68.50 0.0002840585    1.027    0.026
        98 -11.8157    107.3374    216.1786   1.2621442881e+02   1.4825981419e+01    0.4451668    0.2225406  48.06  0.001841055    1.831    0.454
        99 -11.8169    109.3747    212.8094   1.2528883184e+02   1.5209561432e+01    0.4345578    0.2625487  62.09  0.002037158    1.785    0.440
       100 -11.1611     71.0916    225.8910   1.3504007716e+02   1.8440117252e+01    0.2069898     0.152951  58.50 0.0003898776    1.173    0.148
       101 -11.1808    122.7765    223.4563   1.2393418912e+02   1.0636207430e+01    0.5492405    0.3775975   0.19   0.00175377    3.040    0.671
       102 -11.1032    106.7852    223.6788   1.2736444702e+02   1.3321787936e+01    0.3853646    0.2646728  58.14  0.002068236    1.344    0.256
       103 -10.0806    228.2251    223.9817   1.0244792626e+02  -7.8597721959e+00    0.1738722    0.1468103 -14.46 0.0003427243    1.110    0.099
       104  -9.6496    187.5493    223.4688   1.1032170391e+02  -9.5585988628e-01    0.1361074    0.1210885  18.81 6.059065e-05    1.044    0.042
       105 -10.6424    176.2573    223.5738   1.1265552630e+02   1.0318494726e+00      0.19767    0.1212112  30.25  0.000947184    1.646    0.392
       106 -11.3269     93.6508    221.4299   1.2984822542e+02   1.5950688393e+01    0.3318849    0.2576718  15.03 0.0007059182    1.933    0.483
       107 -11.1365     84.8471    221.4544   1.3170191947e+02   1.7331664582e+01    0.2154752    0.1967013 -73.51 0.0005515339    1.247    0.198
       108 -10.5666     62.8942    220.0450   1.3607935003e+02   2.0867753744e+01     0.287667    0.1696309  71.30  0.001502792    1.687    0.407
       109 -10.7819    130.5843    220.2668   1.2178893522e+02   9.9164771069e+00    0.2455404    0.1724121 -51.67 0.0009620134    1.566    0.361
       110 -10.7713    134.0330    218.9562   1.2084500106e+02   9.5690094743e+00    0.2969949    0.2449972 -12.24 0.0009390188    1.666    0.400
       111 -10.9166    196.3912    219.9881   1.0791754054e+02  -1.8978640028e+00    0.2283327    0.1889557  63.89   0.00105533    1.549    0.354
       112  -9.9478    237.0001    219.4797   9.9998551804e+01  -8.5266364925e+00    0.1593546    0.1112244  59.74 0.0006731941    2.420    0.587
       113  -9.6565    170.3817    219.2589   1.1314020793e+02   2.8922554096e+00    0.1413057    0.1037276  12.94 0.0006973142    1.673    0.402
       114 -10.6308    217.5278    217.5989   1.0331579977e+02  -5.1042644513e+00    0.2720698    0.1967219  -5.67 0.0008730872    1.516    0.340
       115 -10.7932    163.2117    217.1341   1.1428959083e+02   4.6101719830e+00    0.3487864    0.1851382  33.97 0.0005347258    1.909    0.476
       116  -9.7554    141.7272    217.2896   1.1892111878e+02   8.5182313547e+00    0.1855238    0.1665486   6.63 0.0003748404    1.320    0.243
       117 -11.7638    145.8151    215.4940   1.1774585905e+02   8.1357475013e+00    0.2500792      0.23644  44.69 0.0003881743    1.054    0.051
       118 -10.9743    193.2400    214.9252   1.0764207034e+02  -4.4363066087e-01    0.3344141    0.1830945 -46.15  0.001124908    1.978    0.494
       119 -11.9920    126.0125    215.5740   1.2206272935e+02   1.1706935213e+01    0.2921764    0.2207968  50.33 0.0003607752    1.204    0.170
       120 -10.6261     59.0488    215.9938   1.3643766066e+02   2.2286089990e+01    0.1852477      0.15895  81.39  0.000425561    1.098    0.089
       121 -11.1886     58.5274    212.0165   1.3612030773e+02   2.3239464559e+01    0.3708083    0.2667549  54.39  0.002208545    1.280    0.219
       122 -10.2668    231.6934    214.3466   1.0002776163e+02  -6.8851308118e+00    0.2078139    0.1857406 -74.59 0.0007807702    1.680    0.405
       123 -11.4603    228.0187    210.4991   9.9993214413e+01  -5.6645646711e+00    0.4547177      0.27376  55.16 0.0009644862    2.466    0.594
       124  -9.6148    172.4806    215.0369   1.1196520870e+02   3.3080347576e+00    0.1871593    0.1396187 -46.90 0.0004345579    1.452    0.311
       125 -10.3264    199.8501    214.1898   1.0617031994e+02  -1.4870442550e+00    0.1879566     0.178915  42.12 0.0004240366    1.176    0.150
       126 -10.3422    217.0217    212.7023   1.0250560323e+02  -4.2007815017e+00    0.1859049    0.1606229  21.06 0.0004011103    1.085    0.079
       127 -10.6537    161.6649    212.8447   1.1388150035e+02   5.7350259127e+00    0.3815762    0.1672471  47.14  0.001510727    2.228    0.551
       128 -11.5257    118.1116    212.1355   1.2326956631e+02   1.3839253347e+01    0.2722297    0.2216692  45.51 0.0003174043    1.169    0.144
       129 -10.2559    113.9996    210.7814   1.2397221354e+02   1.4852777555e+01    0.2012749    0.1544133  66.87 0.0003825183    1.281    0.220
       130 -10.1805     94.9154    212.5113   1.2840740237e+02   1.7689306962e+01    0.2026995    0.1264025  42.29 0.0005006263    1.535    0.349
       131 -11.5101     69.8808    211.1078   1.3362616440e+02   2.1851827664e+01    0.3772131    0.2396848 -81.23  0.001074101    1.528    0.345
       132 -11.5674     66.5855    206.0961   1.3373980075e+02   2.3454874436e+01    0.2201189    0.1908083  76.02 0.0003648134    1.072    0.067
       133 -10.1062    250.6630    210.6960   9.5907074606e+01  -9.2433582640e+00     0.161422    0.1063142 -38.12 0.0009124436    1.489    0.328
       134  -9.8185     86.4822    226.4085   1.3195525737e+02   1.6019218499e+01    0.1341856    0.1088262  68.11  0.000140993    1.044    0.042
       135 -10.9923    184.0765    209.9981   1.0862972652e+02   2.1264608726e+00    0.2111692    0.1966714 -24.90 0.0003566444    1.115    0.103
       136 -12.4730    183.3429    204.4342   1.0775271412e+02   3.3213757260e+00    0.3180234    0.2584879 -47.44 0.0006037773    1.315    0.240
       137 -10.9148    184.0877    198.9647   1.0656026006e+02   4.2415550781e+00      0.27737    0.1994811 -42.69 0.0003825827    1.439    0.305
       138 -10.9462    190.5359    200.5487   1.0551439282e+02   2.7182738357e+00    0.2469028    0.2341921  40.58 6.434456e-05    1.098    0.089
       139 -12.8021    188.4900    196.3030   1.0512165132e+02   3.9235088631e+00    0.4304047    0.2838818 -44.99 0.0004049514    1.567    0.362
       140 -11.0804    237.7973    208.2735   9.7758018078e+01  -6.8798305141e+00    0.3238706     0.183914  -7.19  0.001385156    2.761    0.638
       141 -12.0394    242.7303    200.5978   9.5394155838e+01  -6.4174293022e+00    0.2514314    0.2261858 -45.30  0.001592896    1.340    0.254
       142 -11.4008     51.0099    207.3210   1.3718834509e+02   2.5289148004e+01    0.5207657    0.2100457  54.83  0.002265835    2.511    0.602
       143 -12.0104     52.3236    201.9085   1.3632582917e+02   2.6348087163e+01      0.34608    0.2163958 -59.26 0.0005005953    1.623    0.384
       144 -11.0310    192.1487    207.1492   1.0643097129e+02   1.1756530947e+00    0.1804936    0.1679741  81.27 0.0004246756    1.306    0.234
       145 -10.9353    145.1304    205.2254   1.1616701047e+02   1.0387403156e+01    0.3618364    0.1966183 -39.52  0.001206432    2.252    0.556
       146 -11.1002    129.6767    206.0403   1.1974390642e+02   1.3081815555e+01    0.1997884    0.1869303 -87.27  0.001071634    1.083    0.076
       147 -10.2389    218.8363    204.6273   1.0062560277e+02  -3.1286150409e+00    0.1806467     0.154944  28.79 0.0003554775    1.149    0.130
       148 -10.5513    199.9925    204.9745   1.0441990147e+02   1.4615446557e-01     0.207245    0.1761561  87.03 0.0008807371    1.650    0.394
       149 -11.4631    117.4130    203.9870   1.2216505262e+02   1.5746336755e+01    0.3174253    0.2807148 -16.74  0.001756255    1.486    0.327
       150 -10.9266    121.3972    203.2649   1.2115158509e+02   1.5192807023e+01    0.3466583    0.2517852  64.02  0.001747133    1.422    0.297
       151 -10.9431    121.4356    199.2796   1.2049300682e+02   1.6072218924e+01    0.3487755    0.2512439 -89.57 0.0006736648    1.666    0.400
       152 -10.3002     98.7105    205.3045   1.2656407293e+02   1.8674185700e+01    0.2119601     0.173943  79.72 0.0002452239    1.151    0.131
       153 -11.1832     96.1740    201.9515   1.2664842292e+02   1.9854463861e+01    0.3477397    0.2179048 -67.72  0.001703322    1.611    0.379
       154 -10.9356      5.8898    203.5487   1.4590031393e+02   3.1130566423e+01    0.3304608     0.252183 -35.90   0.00210419    2.130    0.531
       155 -10.4069      1.5076    204.9195   1.4682456852e+02   3.1235459843e+01    0.1719637   0.08815381 -80.95 0.0005199356    1.523    0.343
       156 -10.5701     59.1343    204.0055   1.3510054700e+02   2.4965124181e+01    0.1971301    0.1640114  79.51  0.000706372    1.022    0.021
       157  -9.9599    235.0624    203.2500   9.7299972784e+01  -5.6178062953e+00    0.1751511    0.1522625   8.97 0.0002976839    1.077    0.071
       158 -10.2019    132.4506    203.4548   1.1869450409e+02   1.3132102971e+01    0.2776377    0.1188979  50.37 0.0009464444    2.419    0.587
       159 -11.3439    211.0771    207.7690   1.0273726593e+02  -2.3295063224e+00    0.2965102     0.188951 -34.48  0.001492377    1.583    0.368
       160 -10.6048    209.2058    201.8026   1.0196587036e+02  -9.3825532063e-01    0.2328412    0.1613724 -32.39  0.001201066    1.451    0.311
       161 -11.5525    211.1694    192.3795   9.9729839072e+01   4.2509628138e-01    0.2734916    0.2339617  32.61  0.000271292    1.163    0.140
       162 -11.7521    205.4938    196.8663   1.0174588232e+02   6.3550923823e-01    0.4678081    0.3064477 -42.54  0.001571483    1.546    0.353
       163 -11.2800    206.7277    191.5387   1.0044545919e+02   1.4003439135e+00    0.2463131     0.222586 -51.20 0.0004518486    1.227    0.185
       164  -9.7367    166.9700    201.9923   1.1079431780e+02   6.9067468615e+00    0.1656119    0.1607099  33.48            0    1.026    0.025
       165  -9.8748    150.0018    201.4580   1.1442506465e+02   1.0260509116e+01    0.2296902     0.180022 -52.73 0.0008606854    1.349    0.259
       166 -11.5212     69.0095    201.0235   1.3259288577e+02   2.4269442490e+01    0.3370155    0.2160278  51.02 0.0003469153    1.472    0.321
       167 -11.1599    170.8652    199.6301   1.0951126055e+02   6.6382464825e+00    0.4683385    0.3213127 -71.96   0.00185515    2.110    0.526
       168  -9.7347    101.5802    201.5102   1.2536148764e+02   1.9052129671e+01    0.1439493    0.1240211  76.59 2.355026e-05    1.065    0.061
       169 -11.6260     40.3789    192.7762   1.3790565283e+02   2.9931507268e+01    0.4193073    0.2226592  73.71  0.002025133    2.072    0.517
       170 -11.4312     44.4010    200.5739   1.3787029211e+02   2.7653844504e+01    0.2687475    0.2120101 -75.58 0.0006772695    1.180    0.153
       171 -11.1590     39.8501    199.5553   1.3872728205e+02   2.8436314465e+01    0.4397981    0.2052221 -73.17  0.002158881    1.888    0.470
       172  -9.9019    160.9752    199.4794   1.1163994093e+02   8.5718388865e+00     0.293682    0.1453689 -38.55 0.0006622812    2.411    0.585
       173  -9.8560     87.0000    199.9348   1.2843095091e+02   2.1801032381e+01    0.2290723   0.07514931 -61.53 0.0008108874    3.001    0.667
       174 -10.8758    177.0071    199.1731   1.0810400751e+02   5.5517277193e+00    0.2625121    0.1899405  40.02 0.0004561414    1.322    0.243
       175 -10.8086     67.0419    184.9461   1.3093352819e+02   2.8322219441e+01    0.4414928    0.2385215  85.97 0.0004437974    2.496    0.599
       176 -10.0690     55.2441    174.9299   1.3235180163e+02   3.2320000704e+01    0.2641684      0.21068 -26.75     0.001472    1.784    0.439
       177 -10.8515     63.3306    196.3293   1.3326709760e+02   2.6158834684e+01    0.4571359    0.1915175 -70.68  0.001916333    2.362    0.577
       178 -12.7909     53.5493    193.0122   1.3504037812e+02   2.8245467243e+01    0.3963079    0.2618011  44.03  0.000531544    1.541    0.351
       179 -11.1836     54.7083    181.4750   1.3334737471e+02   3.0819959810e+01    0.4516594    0.2426096 -83.65  0.001647713    2.004    0.501
       180 -10.8180     71.5977    194.7117   1.3120264454e+02   2.5360194691e+01    0.2939656    0.2455758   4.50 0.0009920661    1.794    0.443
       181 -12.7597     67.2605    191.0608   1.3170639163e+02   2.6841607941e+01    0.6128978    0.3234288  36.18  0.002890583    2.036    0.509
       182 -11.3459     60.7219    187.7861   1.3277462193e+02   2.8522800473e+01    0.2599164    0.2001447 -86.21 0.0003689952    1.149    0.130
       183 -11.7672     60.5993    182.9749   1.3217111780e+02   2.9683238625e+01    0.5433508    0.4049592 -80.91   0.00307624    1.198    0.165
       184  -9.8295    138.8080    198.4030   1.1639455230e+02   1.3042296778e+01    0.2265649    0.1395504  41.80 0.0006209243    1.546    0.353
       185 -10.7665    140.3285    194.9859   1.1544288012e+02   1.3500691114e+01    0.3725358    0.2777963  70.47  0.001613137    1.555    0.357
       186 -10.1873    116.6654    198.0647   1.2138414270e+02   1.7205746198e+01    0.1966358     0.175391 -77.93 0.0004080263    1.114    0.102
       187 -12.4060    108.9871    197.1630   1.2300110060e+02   1.8770084287e+01    0.4819383    0.3107904  68.83  0.001432956    1.816    0.449
       188 -10.1496      1.4193    199.2542   1.4644699176e+02   3.2471275718e+01     0.166812   0.08413197  89.14  0.000939608    1.638    0.389
       189 -12.2326    215.9517    193.9871   9.9110934134e+01  -7.3569673995e-01    0.5591433    0.2927217 -24.53  0.002254986    2.570    0.611
       190 -10.4407    199.4716    196.3844   1.0286891116e+02   1.8388437780e+00    0.2800264    0.1643438  36.28  0.001287057    1.695    0.410
       191 -10.3346     82.4756    196.0829   1.2891752226e+02   2.3402807164e+01    0.1965491     0.128114 -67.50 0.0002989499    1.471    0.320
       192 -11.3535      4.5967    195.8587   1.4558361487e+02   3.2932780264e+01    0.1886516    0.1526893  82.54 0.0003340424    1.127    0.112
       193 -12.1456      2.6804    190.8028   1.4557894313e+02   3.4219385153e+01    0.3655159    0.2466156 -70.08 0.0008218635    1.324    0.245
       194  -9.8203     94.8734    195.1768   1.2594338869e+02   2.1628349050e+01    0.1753204     0.166304  17.83 0.0004500634    1.318    0.241
       195 -13.0707    246.0529    190.9649   9.2924173000e+01  -5.3582838203e+00    0.5448449    0.3911054  30.88 0.0008498711    1.452    0.311
       196 -10.7005    126.1127    193.6304   1.1846462136e+02   1.6482917732e+01    0.2562531    0.1905164 -70.21 0.0006289907    1.445    0.308
       197 -10.0438    113.8401    194.0936   1.2138392984e+02   1.8614670904e+01    0.2193722    0.1793369  69.98 0.0004636154    1.206    0.171
       198 -10.4393    163.3405    192.7653   1.0985801881e+02   9.5136985307e+00    0.2651288    0.2122222  24.80 0.0006328649    1.352    0.260
       199 -10.1306    163.7717    189.0011   1.0903729745e+02   1.0223310970e+01    0.3247518    0.2059194 -60.85  0.001419952    1.884    0.469
       200 -11.1096     15.8754    191.7110   1.4298363796e+02   3.2806346046e+01    0.3415593    0.2309747 -33.45  0.001945896    2.485    0.598
       201 -10.9262      2.3689    173.9441   1.4427633706e+02   3.8029750154e+01    0.5552686    0.2040413  65.64  0.002245946    3.718    0.731
       202 -12.2411     15.8678    183.7325   1.4227218344e+02   3.4620033097e+01    0.4858601    0.3620083  87.08  0.001813552    1.075    0.070
       203 -11.8076     10.4819    174.2336   1.4255104063e+02   3.7286447146e+01    0.6880195    0.1939086 -54.47  0.002738898    3.537    0.717
       204 -11.4378     14.2823    169.2699   1.4122610566e+02   3.8099700333e+01    0.2605724    0.2259602  85.86  0.001038786    1.146    0.128
       205 -11.7122      2.5885    183.0255   1.4498721281e+02   3.5962381248e+01    0.3466327    0.2613525 -68.41  0.001999376    1.286    0.223
       206 -12.1883      8.5549    182.9478   1.4374413134e+02   3.5467078764e+01    0.2909628    0.2545574 -63.75  0.000484604    1.359    0.264
       207  -9.9329    170.6055    192.4320   1.0819651441e+02   8.1596853514e+00     0.142592    0.1391437  47.77 0.0001480226    1.033    0.032
       208  -9.9160    148.4816    192.4677   1.1313106238e+02   1.2479817145e+01    0.1467418    0.1412079  39.61 0.0008088633    1.057    0.054
       209 -11.5412    120.5025    190.1349   1.1916331369e+02   1.8314777841e+01    0.3377041    0.2703181 -61.66 0.0009630704    1.264    0.209
       210 -10.5375    178.0133    189.6348   1.0604156325e+02   7.2809983084e+00    0.2734766    0.2090115 -66.95  0.001334097    1.613    0.380
       211 -10.5258     91.6213    189.6330   1.2585713893e+02   2.3459338155e+01    0.2405211    0.1990901 -67.56  0.000599813    1.178    0.151
       212 -10.0803     84.0043    188.2520   1.2743442457e+02   2.5004742887e+01    0.2279323    0.1849684  34.56  0.000492416    1.403    0.287
       213 -10.5145     83.3518    180.9154   1.2647473662e+02   2.6857644206e+01    0.3603096     0.193287 -80.98  0.000652595    2.438    0.590
       214 -11.6119     78.9447    189.3553   1.2877727924e+02   2.5525571210e+01    0.8069847    0.4227203  74.26  0.002306997    2.928    0.658
       215 -11.4533     83.8668    175.8487   1.2554846458e+02   2.7998323788e+01    0.2438801    0.2373687  42.30 0.0003731842    1.209    0.173
       216 -12.0558     78.6071    174.0694   1.2655363608e+02   2.9243742277e+01    0.6099699     0.321152  29.97  0.001759129    2.337    0.572
       217 -12.4793     75.0480    179.9566   1.2832301160e+02   2.8356468310e+01    0.4793746    0.2907922 -86.02    0.0012374    1.893    0.472
       218 -11.4443     70.9930    178.9988   1.2915390449e+02   2.9182532816e+01    0.2166031    0.1971766 -86.10            0    1.078    0.073
       219 -11.8386    130.5530    188.8734   1.1659427663e+02   1.6725834347e+01    0.2642041    0.2296327  53.09 0.0002780747    1.099    0.090
       220 -10.9837    193.4049    188.1826   1.0249123768e+02   4.5703838893e+00    0.3514448    0.2092839  37.18    0.0013679    1.689    0.408
       221 -10.6665    197.9510    186.0156   1.0111460294e+02   4.1178863305e+00    0.2448411    0.2032943  19.40 0.0003566516    1.254    0.203
       222 -11.0533    186.7972    187.1979   1.0367924908e+02   6.0512854579e+00     0.490175    0.2278489  38.50  0.001621271    2.187    0.543
       223 -10.6042    105.0249    187.4716   1.2235432735e+02   2.1706266252e+01    0.2160614    0.1394242  41.25 0.0004589792    1.543    0.352
       224 -12.0058    104.2224    183.0981   1.2181351969e+02   2.2877055687e+01    0.3864233    0.2697442  75.87  0.001209943    1.668    0.400
       225 -11.0900    107.4317    180.7883   1.2064528051e+02   2.2860093733e+01     0.295121     0.242838 -42.55  0.000782909    1.379    0.275
       226 -11.7903    104.1618    178.1724   1.2098172991e+02   2.4059031924e+01    0.3756779    0.2434084 -54.55  0.001378621    1.530    0.346
       227 -10.8271    101.0116    176.0053   1.2137286955e+02   2.5126458414e+01    0.2149374    0.1947857  85.34            0    1.026    0.025
       228 -11.9139     32.2608    184.6952   1.3881800129e+02   3.2730688049e+01    0.4225891    0.3854823  37.51  0.002205797    1.404    0.288
       229 -10.1647    220.9185    186.3005   9.6613115673e+01  -2.3334217092e-01    0.1901784    0.1702107  17.96 0.0004446363    1.104    0.094
       230 -10.6001    176.1305    183.7776   1.0528078933e+02   8.8620862175e+00    0.3706478    0.2444798 -28.42  0.001641783    1.838    0.456
       231 -11.0415    156.9344    184.5663   1.0970646204e+02   1.2534679084e+01    0.4219882    0.2728715  30.10  0.001854359    1.755    0.430
       232 -11.0493    225.3849    183.9790   9.5294629493e+01  -6.1566893912e-01    0.2760863    0.1908367  31.87 0.0005732583    1.512    0.339
       233 -12.2223    120.5422    182.1078   1.1773239398e+02   2.0164517133e+01    0.9428113    0.3488255  55.47  0.002615893    4.499    0.778
       234 -10.4436     88.3568    183.4872   1.2567671559e+02   2.5446744352e+01    0.3143435    0.1844561  83.27  0.001279763    2.417    0.586
       235 -10.2527     44.2369    183.4198   1.3599606723e+02   3.1661257258e+01    0.1809458      0.10782  51.07 0.0009524419    1.670    0.401
       236 -10.3058    190.2556    180.3802   1.0156244826e+02   6.7429769172e+00    0.3793851    0.2534698  79.70  0.001470826    2.871    0.652
       237 -10.3095     48.0006    181.3849   1.3488970422e+02   3.1686915488e+01    0.1728604    0.1548687  68.19 0.0005606428    1.169    0.144
       238 -11.2789    231.1247    182.8520   9.3995797143e+01  -1.4333633545e+00    0.2639519    0.2111506 -50.06 0.0009227288    1.374    0.272
       239  -9.6805    153.6541    180.2610   1.0960470401e+02   1.4136134590e+01    0.1532277    0.1163909  72.41 0.0002628568    1.600    0.375
       240  -9.6774     92.4416    180.4776   1.2421383884e+02   2.5501199650e+01    0.1438682    0.1318436 -87.81 7.139105e-05    1.037    0.036
       241 -11.3321     26.8087    179.4386   1.3946958580e+02   3.4533833391e+01    0.3451091    0.2269033  41.29  0.001654054    1.657    0.396
       242 -12.1532     31.7890    176.5015   1.3802949808e+02   3.4701786871e+01    0.3223589    0.3007264  82.71 0.0002330392    1.220    0.181
       243 -10.8555    147.0974    177.4411   1.1056057355e+02   1.6082468438e+01    0.3172749    0.2111095 -53.90 0.0006159911    1.545    0.353
       244 -11.0803     40.0960    174.7548   1.3590979300e+02   3.4200428369e+01     0.410118    0.1853182 -65.12  0.001109291    1.867    0.464
       245 -10.0328    246.9899    178.2500   9.0226702087e+01  -3.3534568179e+00    0.1585741     0.113672  38.72 0.0004218845    1.519    0.342
       246 -10.7026    136.5456    176.7103   1.1290047150e+02   1.8347110182e+01    0.2759055    0.1454769 -47.29 0.0007119411    1.953    0.488
       247 -10.1834    120.4644    177.4869   1.1690312998e+02   2.1261199425e+01    0.1492239    0.1424821  83.36 8.950008e-05    1.030    0.029
       248 -10.5260     95.1448    176.6714   1.2292398263e+02   2.5965872590e+01    0.2296287    0.1828596 -79.09 0.0002958056    1.228    0.186
       249 -10.7906    219.1747    176.0492   9.4846334126e+01   1.9868730931e+00    0.4688343    0.1969802  46.91  0.001822823    2.580    0.612
       250 -11.3472    131.9865    174.7073   1.1359797834e+02   1.9704130663e+01    0.3163733    0.2376338 -34.91 0.0007247484    1.566    0.361
       251 -10.0005    124.8776    175.8314   1.1552604357e+02   2.0814835815e+01    0.2147159    0.1700254  68.99 0.0005738084    1.347    0.258
       252 -11.9974    172.2692    173.6156   1.0404174582e+02   1.1793700433e+01    0.2720013     0.264152 -40.17 0.0002177584    1.038    0.037
       253 -10.1233    189.4658    174.4454   1.0049362194e+02   8.1092099250e+00    0.3153771    0.1448978  44.34 0.0009236605    2.188    0.543
       254 -10.3222    143.6409    173.8805   1.1065919873e+02   1.7583507219e+01     0.251868    0.2102052  30.51 0.0006385276    1.291    0.225
       255 -10.4411     70.0888    173.9253   1.2861779654e+02   3.0539524228e+01    0.2062262    0.1598939 -39.29 0.0003553914    1.595    0.373
       256 -10.7143    157.7147    172.8942   1.0717818258e+02   1.4944263369e+01    0.3805221    0.2179408  41.57  0.001585113    1.736    0.424
       257 -11.5265     87.2446    171.6441   1.2402299615e+02   2.8480538719e+01    0.3921555    0.2537303 -74.60  0.001839438    1.612    0.380
       258 -10.0528    106.6529    172.2909   1.1932124255e+02   2.5027343375e+01    0.1564505    0.1106208  73.34 0.0007027268    1.663    0.399
       259 -12.2521     63.3092    170.6889   1.2979409189e+02   3.2275601763e+01    0.5116346    0.2982806  32.34  0.002467228    1.975    0.494
       260  -9.7117     52.2860    172.3371   1.3270867454e+02   3.3321114418e+01    0.1323507   0.09535706 -44.91 0.0002195091    1.630    0.387
       261 -10.6288     25.1867    171.1796   1.3894728917e+02   3.6632619068e+01    0.3464893    0.1419113 -84.36 0.0009281839    2.754    0.637
       262 -10.3755     71.8732    169.8065   1.2754418522e+02   3.1282867352e+01    0.2015936    0.1806743 -52.13 0.0005340552    1.232    0.188
       263 -11.4406     31.2720    169.3601   1.3732786403e+02   3.6445096776e+01    0.2643952    0.2170967  51.03  0.001281014    1.329    0.247
       264 -10.1700     19.9376    169.8121   1.4000036184e+02   3.7458552066e+01    0.1967164    0.1478514 -59.70  0.001246759    1.327    0.246
       265  -9.8591    108.7380    169.0058   1.1819592173e+02   2.5442539694e+01    0.2051159    0.1845196 -71.25 0.0003014934    1.070    0.065
       266 -10.2566      1.6796    168.9356   1.4398713404e+02   3.9222485291e+01    0.1647663     0.113289 -79.60 0.0002978882    1.110    0.099
       267 -10.2490    119.9846    168.4981   1.1530802571e+02   2.3478532673e+01    0.2307278    0.1473819  43.77  0.001020306    1.558    0.358
       268 -10.0295    114.0696    168.5047   1.1677441589e+02   2.4586562883e+01    0.2338628      0.14738  41.81  0.001035637    1.598    0.374
       269 -10.5166     56.9888    167.9684   1.3095043071e+02   3.3778093047e+01    0.2017705    0.1760194 -87.78            0    1.029    0.028
       270 -10.6048     48.5029    167.9337   1.3302477201e+02   3.4849948235e+01    0.2446017    0.1658991 -71.37 0.0006658657    1.276    0.216
       271 -11.6456     50.9827    163.3665   1.3177427275e+02   3.5653656218e+01    0.4093602     0.285183  82.37  0.001027599    1.486    0.327
       272  -9.8513    206.4756    167.4663   9.5518004067e+01   6.0989337453e+00    0.1463155    0.1385091 -17.13 0.0001475824    1.022    0.022
       273  -9.7809    148.5613    167.4077   1.0816937390e+02   1.8058891460e+01     0.242164    0.1520094 -52.87 0.0001074865    1.623    0.384
       274 -10.3637    147.0111    163.7273   1.0776152723e+02   1.9218901194e+01    0.2493744    0.2095117 -65.80   0.00032134    1.239    0.193
       275 -11.2495    142.0842    162.8576   1.0875705368e+02   2.0432578307e+01    0.4587787    0.2598282  47.17  0.001877319    1.768    0.434
       276 -10.5706     40.8609    166.2153   1.3465158411e+02   3.6156900841e+01    0.2239635    0.1601776 -75.36 0.0007985773    1.185    0.156
       277 -11.9294      9.9428    164.0705   1.4168572190e+02   3.9677021775e+01    0.4317918     0.192912 -68.64 0.0009119439    1.733    0.423
       278  -9.7340     11.3094    158.3012   1.4077221134e+02   4.0904179021e+01    0.1895523    0.0952311 -68.51 0.0005003683    1.552    0.356
       279 -11.2147     82.1015    166.3568   1.2441712287e+02   3.0584074701e+01    0.3687783    0.1931196  30.57  0.001543154    2.307    0.567
       280  -9.7894     35.7287    165.0284   1.3573937373e+02   3.7006311795e+01    0.1766955    0.1413057 -80.04 0.0002440303    1.032    0.031
       281 -10.6192    194.8367    167.9765   9.7994823450e+01   8.3425643780e+00    0.2581321    0.2094909  40.13 0.0006349621    1.253    0.202
       282  -9.7795    124.4549    164.4688   1.1340183763e+02   2.3577926971e+01    0.1535397    0.1452555  87.72 0.0001711033    1.015    0.015
       283 -10.7003    103.5463    163.8570   1.1852932209e+02   2.7616663337e+01    0.4826249    0.1842472  42.85  0.001327653    2.609    0.617
       284 -10.4603    203.2070    162.4755   9.5096536741e+01   7.7521672412e+00    0.2953808    0.2000268 -43.59   0.00138809    1.430    0.301
       285 -10.9873    159.1309    164.6471   1.0511492426e+02   1.6488323227e+01    0.2814061     0.217423 -43.45 0.0004573723    1.315    0.240
       286  -9.8897    242.7229    160.9816   8.7420718613e+01   4.3563801961e-01    0.1765956    0.1106003 -38.49 0.0004243413    1.432    0.302
       287 -10.0343     73.6957    165.3582   1.2637471514e+02   3.2102358534e+01    0.1509462    0.1018626  78.56 0.0007039424    1.721    0.419
       288 -12.3588     34.2063    158.1104   1.3521955490e+02   3.8824545870e+01    0.3555981    0.2371455  66.57 0.0003157145    1.602    0.376
       289 -12.2277    107.3972    158.0840   1.1642373732e+02   2.8325025819e+01    0.2670618    0.2530014 -65.06  0.000382952    1.063    0.059
       290  -9.6376     66.3141    158.6855   1.2716473998e+02   3.4792332285e+01    0.1453194    0.1006291  76.27 0.0007034389    1.641    0.391
       291  -9.8427     24.1796    158.0963   1.3767619672e+02   3.9820529692e+01    0.1611707    0.1238182  76.91 0.0002939074    1.257    0.205
       292  -9.8750      1.6465    157.9034   1.4297226500e+02   4.1746983409e+01     0.184808   0.08845059 -85.76 0.0009468507    1.865    0.464
       293  -9.8312    204.5331    156.9463   9.3622487240e+01   8.5931089115e+00    0.2139303     0.141772 -42.82 6.628207e-05    1.449    0.310
       294 -10.7068    190.3305    157.1109   9.6564560516e+01   1.1522684347e+01    0.2821953    0.2178504  54.60 0.0004095068    1.379    0.275
       295 -12.1537    137.5720    154.1712   1.0798783729e+02   2.3379862580e+01    0.6374223    0.4364362 -82.62  0.002367336    2.097    0.523
       296  -9.9546     95.5641    157.4841   1.1936199004e+02   3.0557491858e+01    0.1494215    0.1371151 -81.10 6.148275e-05    1.016    0.016
       297 -10.7998    207.9479    154.6664   9.2445599187e+01   8.3484547305e+00    0.4865777    0.2303517 -58.11  0.001603746    3.336    0.700
       298 -10.6672    183.8588    155.9258   9.7675469756e+01   1.3146098696e+01    0.2267217    0.2063548  -6.79 0.0003991433    1.200    0.167
       299 -10.5786    155.8616    155.8825   1.0396470068e+02   1.9149248326e+01    0.2170049    0.1860553  88.37 0.0004912037    1.314    0.239
       300  -9.8358    130.6936    156.7271   1.1024346192e+02   2.4178961121e+01    0.1488462    0.1250133  -5.36            0    1.543    0.352
       301 -10.5672    113.2985    153.9108   1.1405652243e+02   2.8241680286e+01    0.3652073    0.2362443 -77.53  0.001498917    2.041    0.510
       302 -10.2922     84.5118    155.0026   1.2177945434e+02   3.2986767545e+01    0.3763816    0.1959198  40.09  0.001609727    1.996    0.499
       303 -10.4681     10.3875    154.1570   1.4054323817e+02   4.1943671900e+01    0.2452949    0.1659102 -39.18  0.001473834    1.836    0.455
       304 -10.3363     44.7316    161.4304   1.3305620947e+02   3.6868151198e+01    0.2374422    0.1632391  -9.14  0.001166266    2.510    0.602
       305 -11.7223     18.9328    153.3047   1.3837951088e+02   4.1429305621e+01     0.446614    0.2875415 -41.12 0.0002830445    1.861    0.463
       306 -11.0633    225.5947    152.0289   8.8537361685e+01   5.3166645892e+00    0.4159748    0.2578924 -59.69  0.001746128    2.052    0.513
       307  -9.7477     36.4783    153.4921   1.3402565267e+02   3.9696012072e+01    0.1324573    0.1098648 -76.02 -8.958437e-06    1.005    0.005
       308 -10.8353    249.2062    151.6250   8.4382432348e+01   9.5461660510e-01    0.2393311     0.166636 -47.01 0.0006667102    1.345    0.256
       309 -10.3267    188.9223    149.5070   9.5154125874e+01   1.3416299482e+01    0.2427887    0.1993708 -41.74 0.0006021346    1.190    0.160
       310 -10.2526      3.5160    147.8899   1.4151431711e+02   4.3915046648e+01     0.342278   0.09021665 -70.73  0.001381153    2.826    0.646
       311 -10.5284     92.3472    147.3819   1.1822572319e+02   3.3570925070e+01    0.2901894     0.229681 -23.64 0.0008190437    1.619    0.382
       312 -10.4755     36.9068    147.8583   1.3311444823e+02   4.1006670000e+01    0.2364514    0.1775714  23.22 0.0006255936    1.670    0.401
       313 -10.7599    164.2451    145.9932   9.9775340846e+01   1.9555738875e+01    0.3184654    0.2429098 -85.36  0.001403134    1.712    0.416
       314  -9.7174    195.9676    146.0814   9.2916763390e+01   1.2612988529e+01    0.1878242    0.1646607 -44.45 0.0005906239    1.101    0.091
       315 -10.0160    237.1605    144.7835   8.4939472188e+01   4.4364658685e+00    0.1869892    0.1598845  -8.59 0.0004055618    1.306    0.234
       316 -11.6198     52.6141    144.4510   1.2841544996e+02   4.0057354113e+01    0.2490665    0.2127127 -68.48 0.0003200016    1.021    0.021
       317 -10.7877     22.8517    144.4665   1.3628132221e+02   4.3173154581e+01    0.2463392     0.172351  45.43 0.0009611421    1.614    0.381
       318  -9.5789     85.0052    143.9582   1.1951963443e+02   3.5612785950e+01    0.1780709    0.1505937 -62.77 0.0009453816    1.096    0.088
       319 -10.7956     14.4792    143.2065   1.3825954105e+02   4.4175509747e+01    0.2119507    0.1717752  75.68 0.0005746018    1.260    0.207
       320  -9.5620    225.7760    142.9435   8.6520010141e+01   7.0179537476e+00    0.1874778    0.1115391 -39.95 0.0003086775    1.555    0.357
       321  -9.4460    170.3754    143.2414   9.7743732471e+01   1.8814370305e+01    0.1560248    0.1231234  15.43 0.0006931099    1.626    0.385
       322  -9.6008    122.2958    143.3752   1.0945046166e+02   2.9022860169e+01    0.1601309    0.1231745 -18.52   0.00070253    1.743    0.426
       323 -11.0490    105.6867    142.2756   1.1358095033e+02   3.2464353088e+01    0.3556677    0.2526014  79.09  0.001559521    1.876    0.467
       324 -12.4012    132.5373    140.7174   1.0621812837e+02   2.7567061008e+01    0.2990438    0.2715071 -64.39 0.0003112264    1.089    0.081
       325 -11.4152     92.9039    140.6016   1.1667729781e+02   3.5127224825e+01    0.5802366    0.2587499 -57.25  0.002206251    2.174    0.540
       326 -10.0782     62.6200    140.1837   1.2493496159e+02   3.9820994703e+01    0.1978855    0.1710462  22.43 0.0004906163    1.370    0.270
       327 -10.5988     17.5333    139.2165   1.3696240885e+02   4.4864330941e+01    0.3154245     0.190741 -81.36   0.00175392    1.506    0.336
       328  -9.7599    224.2086    139.5849   8.6057947922e+01   7.9787876385e+00    0.1813744    0.1401329  36.64 0.0004187631    1.458    0.314
       329 -11.1055     35.8268    138.3320   1.3196690396e+02   4.3404434857e+01    0.2453639    0.1636584 -56.73 0.0004183338    1.297    0.229
       330 -10.1037     96.7412    138.4171   1.1516223753e+02   3.4995958719e+01    0.2047449    0.1483207  24.79 0.0009515476    1.667    0.400
       331 -12.7401     43.9888    135.4106   1.2925255206e+02   4.3242855030e+01    0.4162694    0.2811803  69.82  0.002168219    1.807    0.447
       332 -11.6790    195.8521    133.5288   9.0041256906e+01   1.5222852251e+01    0.2885961    0.2347368 -44.75  0.000290147    1.181    0.154
       333  -9.3647    220.3057    134.7262   8.5672179338e+01   9.7196565726e+00    0.1428839    0.1125763 -76.83 0.0002431882    1.543    0.352
       334 -10.2634    101.4725    133.9828   1.1288568105e+02   3.5222288887e+01    0.2255751    0.1439157 -54.25 0.0003256057    1.500    0.333
       335  -9.3417    135.6860    131.7149   1.0328799455e+02   2.8988665520e+01    0.1543574    0.1269317  -1.71 0.0002994956    1.580    0.367
       336 -10.4464     48.3301    130.7224   1.2721186485e+02   4.3879186484e+01    0.2315382    0.1937487  31.30   0.00138117    1.384    0.278
       337 -10.3577     51.3311    128.3048   1.2590755084e+02   4.4107710804e+01    0.2206289     0.175944 -44.98 0.0009440531    1.223    0.182
       338 -10.8513     22.6712    130.7915   1.3440657084e+02   4.6415252554e+01    0.2085729    0.1771835  85.20 0.0003683825    1.209    0.173
       339 -12.5380    156.6521    128.8690   9.7461771013e+01   2.5034087542e+01    0.3044584    0.2961882 -69.49 0.0004679128    1.007    0.007
       340  -9.9545    147.5282    129.9466   9.9912607970e+01   2.6823867148e+01    0.2500516    0.2018576  47.19  0.000702543    1.252    0.201
       341 -11.6815    123.1677    129.0329   1.0587544424e+02   3.2214966060e+01    0.2756965    0.2603372 -33.42 0.0002508723    1.102    0.093
       342  -9.7625    113.4193    130.5616   1.0884188468e+02   3.3796611987e+01    0.1528189    0.1453881 -72.12 0.0001698578    1.030    0.029
       343  -9.9317     76.2899    130.3695   1.1915363391e+02   4.0261458782e+01    0.1508525    0.1050014 -31.75 6.843232e-05    1.714    0.417
       344 -11.5589     62.4408    127.7505   1.2259323249e+02   4.2847833012e+01    0.3972625    0.1916405 -51.54  0.001735395    1.834    0.455
       345 -11.7783     77.3229    135.1379   1.1985442633e+02   3.8955429889e+01    0.2705987     0.248925 -58.44 0.0006917688    1.037    0.035
       346 -10.1634      1.3337    128.2287   1.3980545772e+02   4.8574349922e+01    0.1669213   0.09009141 -78.71 0.0003760597    1.586    0.369
       347 -11.4055     91.7489    126.4577   1.1388597586e+02   3.8718917946e+01    0.3037284     0.268613 -32.13 9.059731e-05    1.191    0.161
       348 -10.1779    102.9273    125.8355   1.1059719309e+02   3.6888235722e+01    0.2164677    0.1964001 -24.82 0.0002947472    1.190    0.159
       349 -10.2810     20.2315    125.9513   1.3435524425e+02   4.7749084138e+01    0.1900218    0.1466715 -87.33  0.001085219    1.280    0.219
       350  -9.7222    140.9772    125.0365   1.0031554593e+02   2.9361359657e+01    0.1848415    0.1807769  80.98            0    1.019    0.019
       351 -10.0850     55.0151    124.6887   1.2414162400e+02   4.4525550096e+01    0.1834419    0.1703416 -47.26 0.0004716727    1.095    0.087
       352 -10.2744      8.6214    124.3266   1.3733524152e+02   4.8990443642e+01    0.3129019    0.1658728  63.67  0.001555349    2.602    0.616
       353 -10.9326     81.2564    124.0352   1.1634374413e+02   4.1009984033e+01    0.2324422    0.2049666  50.90 0.0002238182    1.222    0.182
       354 -10.1354      3.0397    123.8562   1.3879402775e+02   4.9463462299e+01    0.1852799    0.1387312  85.18   0.00121603    1.355    0.262
       355 -10.3541    127.1292    123.2320   1.0340808975e+02   3.2729353393e+01    0.2135116    0.1816537  84.41 0.0003911364    1.343    0.256
       356  -9.7972    108.4789    123.4987   1.0849587103e+02   3.6395980040e+01    0.1521088    0.1458862 -43.21 0.0008099714    1.041    0.039
       357 -10.2807     70.3985    117.3832   1.1803919162e+02   4.4205884530e+01     0.402504    0.2852554 -45.36  0.001373803    1.316    0.240
       358 -11.2539     63.1661    122.4338   1.2128759199e+02   4.4017213324e+01    0.4129204    0.1614989  34.82  0.001630666    2.767    0.639
       359 -10.0544     37.9979    123.0423   1.2880039674e+02   4.6817614308e+01    0.2034309    0.1359063 -38.67 0.0005420266    1.569    0.363
       360 -12.0804     20.4904    118.4795   1.3311021905e+02   4.9459467363e+01    0.6082758    0.3084918 -10.46  0.002617877    3.703    0.730
       361  -9.6680    138.8324    121.4336   9.9948880825e+01   3.0633713835e+01    0.2094284    0.1512905  33.36 0.0004720889    1.546    0.353
       362 -10.5507     84.4180    119.9337   1.1448378929e+02   4.1471828864e+01    0.3170157    0.2642656  55.76  0.001690059    1.326    0.246
       363 -10.8159     29.9991    119.5579   1.3052055276e+02   4.8400116538e+01    0.2661677    0.1961669  19.91  0.001596867    1.661    0.398
       364 -10.5674     93.3301    118.5253   1.1156309858e+02   4.0307268322e+01    0.2974596    0.2240459 -83.70 0.0007746737    1.713    0.416
       365 -11.1696      2.2792    117.3666   1.3813407975e+02   5.0980340579e+01    0.3279326    0.1878721  84.43  0.001778567    2.065    0.516
       366 -10.1950     54.9966    117.9686   1.2278365496e+02   4.6113818119e+01    0.2105412    0.1810727 -57.68 0.0008449447    1.029    0.028
       367  -9.3295    156.2892    116.2726   9.4390405867e+01   2.7849175471e+01    0.1503754    0.1260041   6.53 0.0001930178    1.511    0.338
       368 -10.8717     87.9966    114.6786   1.1217953857e+02   4.2102828557e+01    0.3673075    0.2070005 -56.07   0.00110802    1.752    0.429
       369  -9.8052    126.0306    114.9197   1.0158434710e+02   3.4825646456e+01    0.1821494    0.1777444 -61.89 0.0005563686    1.008    0.008
       370 -10.7330     33.9700    114.9262   1.2850854260e+02   4.9105481169e+01    0.1935657    0.1656884 -66.61 0.0004317449    1.078    0.072
       371  -9.6586     95.4512    112.5216   1.0946554511e+02   4.1312949410e+01    0.1491042    0.1383413 -32.25 0.0002304172    1.071    0.066
       372  -9.8368     49.1424    112.1528   1.2334236458e+02   4.8159405240e+01    0.1753558    0.1530184  77.11  0.000801278    1.332    0.249
       373 -10.7706      3.9364    111.9119   1.3688813689e+02   5.2107220595e+01    0.1783177    0.1385277 -59.67 0.0003461946    1.051    0.049
       374 -10.8139     20.7735    109.4920   1.3150838858e+02   5.1491502191e+01     0.273903    0.1418114 -62.53   0.00089521    1.554    0.356
       375 -11.0642     19.6656    103.6499   1.3079847655e+02   5.2891364240e+01     0.250689    0.1901903 -67.51  0.001595899    1.178    0.151
       376 -10.0669     84.7541    109.0774   1.1175481241e+02   4.3915344590e+01    0.2846345    0.1758645  64.58  0.001148757    2.604    0.616
       377 -10.7577     37.0280    108.0962   1.2624888145e+02   5.0377312594e+01    0.3409269    0.1612077 -65.94  0.001325023    2.052    0.513
       378  -9.7018    170.6951    107.6958   8.8947592086e+01   2.6287296437e+01    0.1527996    0.1256888   8.70 0.0001709305    1.599    0.375
       379 -10.0146     92.0951    105.8678   1.0874574791e+02   4.3394867983e+01    0.2133283     0.193153 -85.34  0.001163426    1.254    0.202
       380 -10.8252     63.9771    106.0344   1.1736937801e+02   4.7708404092e+01    0.2033522    0.1826156 -48.70 0.0003404397    1.024    0.023
       381 -10.1556     44.5583    106.6981   1.2360569858e+02   4.9918242166e+01    0.2099202    0.1200955  29.29  0.001059085    1.994    0.499
       382 -10.5027     87.6224    104.8192   1.0980800953e+02   4.4392501912e+01    0.2552682    0.2053782  44.96 0.0007384878    1.338    0.253
       383 -11.2336     29.1105    103.4087   1.2779036852e+02   5.2172449654e+01    0.2299451    0.1648266 -52.47 0.0003144981    1.145    0.126
       384 -10.8873    234.0240    102.4686   7.6158401667e+01   1.2862255124e+01    0.2517309    0.1875702 -46.03 0.0003513094    1.211    0.174
       385 -11.5677     75.1262    102.1610   1.1294115313e+02   4.6978376532e+01    0.3539046    0.2839622 -34.63  0.001130639    1.205    0.170
       386 -11.1453    135.3740    101.1679   9.5500867193e+01   3.5756370476e+01     0.285546    0.2716444 -42.94 0.0004867008    1.053    0.050
       387 -10.5738    189.7909    100.9145   8.3336134641e+01   2.3122949694e+01    0.2611704    0.2140679  85.55 0.0006657151    1.320    0.243
       388  -9.3386    168.5163    101.5189   8.7821089059e+01   2.8037649592e+01    0.1557241    0.1474584 -82.50 2.621561e-06    1.035    0.034
       389  -9.6220    176.5095    100.6145   8.5902125507e+01   2.6322083819e+01     0.151516    0.1454346  78.56 0.0007990732    1.034    0.033
       390 -11.1232     84.5560     99.9067   1.0944818707e+02   4.5981892705e+01    0.3551047    0.2472571  -2.35  0.001405386    2.040    0.510
       391 -11.0258     67.9025     99.1073   1.1442949918e+02   4.8708952932e+01    0.3514195     0.228321 -28.33  0.001703214    1.750    0.428
       392 -10.5947      8.9995     99.4928   1.3338231823e+02   5.4553309019e+01    0.2106189    0.1807481  31.04  0.000823129    1.458    0.314
       393 -10.0451      4.8137     97.9318   1.3442114940e+02   5.5148390243e+01    0.2202924    0.1333712 -69.04 0.0007023906    1.401    0.286
       394 -10.5710      5.8893     94.0322   1.3340647030e+02   5.5931952360e+01    0.2017004    0.1330587 -60.82 0.0004023037    1.187    0.157
       395 -12.2883    106.0103     97.8892   1.0253510570e+02   4.2565059471e+01    0.3122679    0.2894291  39.20 0.0003576748    1.106    0.096
       396 -10.2202    100.2027     95.5956   1.0358158710e+02   4.4150582516e+01    0.2856107    0.2351136  79.43 0.0007064521    1.582    0.368
       397 -12.2771     55.1225     96.8589   1.1796868006e+02   5.0894017618e+01    0.4230027    0.2462866 -53.88  0.000386005    1.541    0.351
       398 -10.0769    124.9843     97.4679   9.7178844152e+01   3.8783044835e+01    0.2479399    0.1926296 -42.19 0.0009224323    1.283    0.221
       399 -10.6832    118.7809     96.5836   9.8600532604e+01   4.0273342359e+01    0.2621186      0.20487 -42.43 0.0003920997    1.268    0.212
       400 -10.9532     23.8423     96.2756   1.2804401601e+02   5.4197095068e+01    0.1773368    0.1494189  56.13  0.001038663    1.496    0.331
       401  -9.6506    110.7168     95.3075   1.0047790159e+02   4.2179830032e+01     0.144682    0.1190365 -85.29 0.0001647206    1.564    0.360
       402  -9.6592     61.2751     95.6292   1.1566756758e+02   5.0375639626e+01     0.132478     0.105576 -86.93 0.0007004964    1.683    0.406
       403 -10.6063     34.4824     92.7817   1.2379493143e+02   5.4029025578e+01    0.2571533     0.161838 -68.81  0.001289131    1.709    0.415
       404 -11.6542    172.3379     90.3294   8.4085288930e+01   2.9283196756e+01     0.353839    0.2621854 -87.50   0.00161838    1.670    0.401
       405 -11.9899    113.6078     91.2334   9.8514525007e+01   4.2428767348e+01    0.2691308     0.250397  48.80 0.0003067883    1.106    0.096
       406 -11.1690     75.1461     90.1966   1.0975985484e+02   4.9552370364e+01    0.3028966    0.2247757 -81.66  0.001473683    2.053    0.513
       407 -11.1929     77.9594     87.7494   1.0818028699e+02   4.9621905689e+01    0.4538429    0.2586457 -19.09  0.001774123    2.872    0.652
       408 -11.4085     24.9220     91.3862   1.2666863177e+02   5.5173075234e+01    0.2160794    0.1528191 -67.71 0.0008629551    1.393    0.282
       409 -11.6497     88.7241     88.0308   1.0489058615e+02   4.7780533947e+01    0.3856832     0.316314 -34.29  0.001472101    1.166    0.142
       410  -9.4754    150.5287     89.5151   8.8617000939e+01   3.4616047188e+01    0.1506484    0.1480214  49.42 0.0008094579    1.041    0.039
       411 -11.8788     63.4455     87.3034   1.1276737811e+02   5.1855448808e+01    0.2994018    0.2554263  50.43 0.0001896053    1.416    0.294
       412 -11.7612    119.9054     85.3306   9.5085220571e+01   4.2284019652e+01    0.3843959    0.3127479 -64.51  0.001944893    1.438    0.304
       413 -11.1061     26.9460     85.4644   1.2467142515e+02   5.6269099236e+01    0.3014707    0.2726523  80.24  0.002060898    1.408    0.290
       414 -10.8461     31.3524     84.6599   1.2296903006e+02   5.6052769798e+01    0.2417044    0.1726822 -42.22 0.0005120735    1.168    0.144
       415 -10.2447    130.7080     86.3448   9.2543463286e+01   3.9747180222e+01    0.2423785    0.1507217  50.34 0.0008305636    1.602    0.376
       416 -10.6562    127.5312     85.5221   9.3124334703e+01   4.0604348331e+01     0.265737    0.2407422 -84.72 0.0008405538    1.243    0.195
       417 -10.5722     21.0222     88.2908   1.2731164008e+02   5.6146121173e+01    0.1628779    0.1387321 -39.24 0.0004378456    1.089    0.082
       418 -10.4331     48.1508     85.4152   1.1739734867e+02   5.4172545398e+01    0.2208688    0.1516033 -40.90 0.0005126468    1.269    0.212
       419 -11.5187     53.2161     83.1619   1.1507530622e+02   5.4039576090e+01    0.4089158    0.3545691 -72.99  0.002506906    1.413    0.292
       420 -10.6885     10.0975     85.5860   1.3043255599e+02   5.7481378882e+01    0.2163891    0.1670801  27.08  0.001123057    1.602    0.376
       421 -10.5270    132.5436     82.8368   9.1067748054e+01   4.0002344980e+01    0.2195032    0.1997174  50.95  0.001100598    1.083    0.077
       422 -10.2701     99.0070     83.2363   1.0038486562e+02   4.6878412369e+01    0.2660269    0.1547521 -11.10 0.0008981635    3.643    0.725
       423 -10.8668     19.9019     82.0129   1.2631718570e+02   5.7555725295e+01    0.2056042    0.1684948  19.47 0.0005802079    1.444    0.308
       424 -11.3751    154.2134     79.1333   8.4902162307e+01   3.5664982932e+01     0.334259    0.2514508 -48.50  0.001471703    1.369    0.270
       425 -10.5312    113.8778     80.4007   9.5278565663e+01   4.4483561897e+01    0.2355732    0.1984426 -50.92 0.0006369791    1.262    0.208
       426 -10.7493     77.0841     80.7024   1.0643224927e+02   5.1182072202e+01    0.2349973    0.1833122 -40.40 0.0005813534    1.207    0.171
       427 -10.0255     42.6556     80.0540   1.1788697136e+02   5.5890409627e+01    0.2576605    0.1141815 -60.43  0.001094413    2.578    0.612
       428  -9.5218    162.4167     80.4742   8.3505307951e+01   3.3466937013e+01      0.15036    0.1407469 -84.58  7.38481e-05    1.058    0.055
       429 -11.5956      2.6245     78.3163   1.3152579729e+02   5.9430801067e+01    0.6191978    0.2056571 -67.91  0.002175465    3.062    0.673
       430 -11.1392      1.6201     61.6852   1.2826259460e+02   6.2799061140e+01    0.3301373    0.1154271 -53.60  0.001377406    2.012    0.503
       431 -12.2470      6.4432     59.4869   1.2587603873e+02   6.2949149642e+01    0.3917844    0.2454207 -50.38  0.001675958    1.259    0.206
       432 -10.5315      1.2290     65.9798   1.2940105627e+02   6.1984491858e+01    0.1668882   0.09679475 -59.95 0.0003579776    1.450    0.311
       433  -9.7570    174.0055     79.0320   8.0765991377e+01   3.0929544024e+01    0.1742416    0.1651464 -81.68            0    1.021    0.021
       434 -10.3150     68.7392     78.6069   1.0855309951e+02   5.2869183812e+01    0.1770287    0.1254657  43.08 0.0009396973    1.605    0.377
       435 -10.8868    116.8189     77.1018   9.3486048173e+01   4.4482006376e+01    0.2120745     0.199953 -84.59 0.0004409455    1.198    0.165
       436 -12.2954     58.5598     74.4082   1.1077197225e+02   5.5112482674e+01    0.3477328     0.286625  46.75 0.0001238887    1.502    0.334
       437 -10.9108     28.8688     74.3149   1.2128435336e+02   5.8400978919e+01    0.2528994    0.1448731 -46.47 0.0003301735    1.415    0.293
       438 -10.6858    100.9931     75.1330   9.7357710614e+01   4.8037400449e+01    0.2086721    0.1929025   6.58 0.0003433326    1.044    0.042
       439 -11.0223     53.0871     74.5264   1.1270846960e+02   5.5791482724e+01    0.2402496    0.1628944 -38.22 0.0003131079    1.302    0.232
       440 -10.1152     68.9276     73.7355   1.0703996608e+02   5.3786696125e+01    0.1760246    0.1613476   1.24 0.0003443658    1.082    0.076
       441  -9.8652     48.4980     73.9130   1.1414648914e+02   5.6465902008e+01     0.186115    0.1128135 -47.51 0.0003738202    1.473    0.321
       442 -10.8858    116.5255     72.0682   9.2040869116e+01   4.5447727215e+01    0.3678869    0.2486099  -0.12  0.001590339    2.241    0.554
       443 -10.9300     84.3064     71.9592   1.0147105785e+02   5.1661374041e+01    0.2707885    0.2168183 -24.34  0.001194618    1.211    0.174
       444 -11.0612     88.0098     69.1637   9.9430092529e+01   5.1524252241e+01    0.2897767    0.2219215  10.87 0.0007967516    1.424    0.298
       445 -10.3388     36.4875     71.7737   1.1785114536e+02   5.8190220832e+01    0.2660761    0.2070401  86.11  0.001532744    2.109    0.526
       446  -9.6457    187.7273     69.6750   7.5809309580e+01   2.9197311333e+01    0.1374218    0.1157354  19.21 0.0002546922    1.579    0.367
       447 -10.7968     57.5926     68.1384   1.0922855205e+02   5.6437172082e+01     0.201585    0.1967975  78.18 0.0004129527    1.350    0.259
       448 -10.0391     53.2210     69.2940   1.1112225092e+02   5.6784381266e+01    0.1628162    0.1446775 -55.02 0.0006220838    1.321    0.243
       449 -11.2273     26.9340     67.5554   1.2021066198e+02   5.9905449797e+01     0.217287    0.1582767 -40.47 0.0004080256    1.112    0.101
       450 -11.1211     26.1636     63.3164   1.1933411248e+02   6.0786445348e+01    0.2448973    0.1568187 -57.72  0.001447699    1.603    0.376
       451 -10.2356     93.5573     67.2743   9.7123972764e+01   5.0853666899e+01    0.1980342    0.1269876 -26.43 0.0009495701    1.683    0.406
       452  -9.8436    127.2840     66.3670   8.7504373734e+01   4.4088218711e+01    0.1480401    0.1114352   9.93 0.0007018179    1.694    0.410
       453  -9.7164    106.2284     66.5903   9.3188373620e+01   4.8522292197e+01     0.200847     0.125941  34.64 0.0005809168    1.642    0.391
       454 -10.1760    107.1888     70.5137   9.4143783154e+01   4.7648429302e+01    0.3383362    0.1219076  38.03 0.0009616759    3.220    0.689
       455 -11.5080     17.4428     62.4338   1.2241299366e+02   6.1654196819e+01    0.4001731    0.2601758 -69.16  0.001648275    1.957    0.489
       456 -10.9858     12.4450     64.0236   1.2472774332e+02   6.1700785012e+01     0.335193    0.2408004  64.01  0.002020696    2.398    0.583
       457 -10.9543    147.9261     62.8310   8.1639749599e+01   3.9909960587e+01    0.2192109    0.1891696  34.44 0.0004181828    1.221    0.181
       458 -10.0710    128.1754     62.1790   8.6006526713e+01   4.4573013877e+01    0.1856974    0.1660918 -72.98 0.0002958354    1.286    0.223
       459 -11.3443     73.8377     52.4510   9.8508234636e+01   5.6761984649e+01    0.3655587    0.2128831  53.20  0.001087833    2.384    0.581
       460 -11.2905     77.9466     61.1969   1.0008226876e+02   5.4643465947e+01    0.3340391     0.239235 -12.44  0.001099942    1.515    0.340
       461 -11.7697    216.2641     61.3191   6.9385057567e+01   2.3759500424e+01    0.2385369    0.2109125 -77.17 0.0002905728    1.027    0.026
       462 -10.4824     79.0072     56.2871   9.8105358300e+01   5.5287205831e+01     0.216802    0.1735679 -39.19 0.0003229423    1.312    0.238
       463 -10.3109     39.5353     60.3211   1.1339773754e+02   6.0049944025e+01    0.2631671    0.1041817 -47.38  0.001215339    2.203    0.546
       464 -10.4598     31.6918     59.8717   1.1623529457e+02   6.0928568332e+01    0.2073521    0.1432421 -53.13  0.001130774    1.474    0.321
       465 -11.7680     27.7653     55.5107   1.1644318639e+02   6.2091148679e+01    0.3856543    0.2590912 -47.18  0.001602437    1.352    0.260
       466  -9.3325     54.2747     58.3171   1.0731271665e+02   5.8652796458e+01    0.1291149   0.08622185 -15.87 0.0002388975    1.567    0.362
       467 -10.2194    107.4742     57.5017   8.9935420547e+01   4.9760615649e+01    0.2131314    0.1222701  37.68 0.0008529907    1.742    0.426
       468 -10.1856     58.2895     56.9550   1.0541976388e+02   5.8350179861e+01    0.1749628    0.1424462 -24.94            0    1.093    0.085
       469 -10.4375     20.5141     56.9160   1.1969628050e+02   6.2453653962e+01    0.1861927     0.157691  32.24 0.0007274566    1.527    0.345
       470 -10.6604    181.4475     56.1030   7.3379577095e+01   3.2852843451e+01    0.2481071    0.1933571  80.21 0.0005037285    1.251    0.201
       471  -9.9154    145.7943     54.8426   7.9767709883e+01   4.1642476854e+01    0.1890433    0.1623995 -81.14 0.0003108457    1.293    0.227
       472 -10.5571     93.3293     54.3761   9.2982418870e+01   5.3032960870e+01     0.263584    0.1860198   6.46  0.001086763    1.688    0.407
       473 -10.5490    164.2261     54.0466   7.5870272004e+01   3.7342455058e+01    0.2317193    0.1874813  62.18 0.0002619064    1.146    0.128
       474 -11.0133    118.9993     53.5736   8.5615335467e+01   4.7929678528e+01    0.2512725      0.19176  -8.97 0.0008399216    1.524    0.344
       475 -10.5934     33.0067     51.8172   1.1323818994e+02   6.2245543449e+01     0.311711    0.1532794 -50.79  0.001625269    2.018    0.504
       476  -9.6075    136.1808     53.6048   8.1505511973e+01   4.4070850200e+01    0.2048535    0.1205129  45.46 0.0009384472    1.623    0.384
       477 -11.6145     41.7731     51.8381   1.0984571271e+02   6.1303215179e+01    0.2702612    0.1943757 -45.33  0.001072192    1.414    0.293
       478 -10.5439      1.5031     52.8883   1.2612599225e+02   6.4465279969e+01    0.1634673   0.08705197 -53.56 0.0004113041    1.497    0.332
       479  -9.8488     60.5378     52.4605   1.0310630658e+02   5.8790699045e+01    0.1269349     0.109076  -8.82 0.0003187213    1.018    0.018
       480 -10.2509    124.6986     51.6727   8.3598821003e+01   4.6957311743e+01    0.1431824    0.1038895  20.27 0.0004191538    1.641    0.391
       481 -11.4209      3.8111     68.3854   1.2899092318e+02   6.1372044644e+01     0.384359    0.1615985 -43.47  0.001765463    1.823    0.452
       482 -10.0018    107.3413     50.4125   8.7656114985e+01   5.0865400007e+01    0.2601837    0.1190049  44.78 0.0005466929    2.038    0.509
       483 -10.9025     20.4707     41.4345   1.1492303020e+02   6.5173089011e+01    0.3697846    0.2843102 -31.76  0.002650069    1.110    0.099
       484 -10.7975     19.0117     49.5513   1.1811299879e+02   6.3902402430e+01     0.307079    0.2192666  -2.19  0.001829249    1.382    0.277
       485 -11.8186     16.4973     46.4513   1.1818603158e+02   6.4642446531e+01    0.3499149    0.2523201  -8.59  0.002433275    1.300    0.231
       486 -11.3287     12.7941     46.2996   1.1966869957e+02   6.4944281596e+01    0.2641991    0.2420528  72.03   0.00151558    1.740    0.425
       487 -10.5186     24.2563     39.6123   1.1272452935e+02   6.5137414058e+01    0.2045874     0.153806 -13.19 0.0005440026    1.113    0.102
       488 -10.0565     22.5137     36.5540   1.1239422052e+02   6.5786896107e+01     0.181335    0.1223134 -40.63 0.0008576873    1.359    0.264
       489 -10.0504    151.7893     49.3845   7.6947216704e+01   4.1009101983e+01    0.2039232    0.1181349  49.48 0.0003975744    1.624    0.384
       490  -9.5707    129.0195     49.7673   8.1973890854e+01   4.6263179868e+01    0.1792829    0.1093068  54.08  0.000356846    1.529    0.346
       491 -10.0037     74.2180     48.5939   9.7046592270e+01   5.7303225595e+01    0.1832711    0.1114985  27.85 0.0004796011    1.660    0.398
       492 -10.1268     46.3133     48.3035   1.0692133421e+02   6.1359319104e+01    0.1265124   0.08190518 -11.58 0.0005349208    1.615    0.381
       493 -11.0766     46.9602     53.2237   1.0833742000e+02   6.0456150150e+01    0.2420987    0.1504794 -31.83            0    1.435    0.303
       494  -9.8030    122.5907     46.1959   8.2376478984e+01   4.8202398820e+01    0.1746256    0.1318075 -12.17 0.0003999484    1.532    0.347
       495 -12.2748     61.8516     44.7632   9.9950065388e+01   5.9819773089e+01    0.2580386     0.214394 -15.51 0.0003383571    1.085    0.078
       496 -10.8575    164.0959     43.3710   7.2950158529e+01   3.8876355998e+01    0.2914619    0.2014974 -46.72   0.00151103    1.535    0.349
       497 -10.4158     34.6036     44.5611   1.1020016968e+02   6.3309102624e+01    0.1623178    0.1574596  80.48 0.0001022673    1.615    0.381
       498 -10.8582    141.2275     42.9623   7.7202444614e+01   4.4387327178e+01    0.2866618    0.1832825 -39.02    0.0014358    1.690    0.408
       499  -9.7014     80.4555     44.0115   9.3398955756e+01   5.6927048352e+01     0.188131    0.1209263 -30.80 0.0007554038    1.555    0.357
       500  -9.8112     26.1039     44.1761   1.1350586354e+02   6.4215695644e+01    0.1375045    0.1255917 -12.53 0.0003406193    1.283    0.221
       501  -9.5797    199.4863     43.5995   6.7509158401e+01   3.0302483305e+01    0.1365927    0.1178614  87.77 8.906601e-05    1.022    0.022
       502 -11.0473     86.1919     43.0099   9.1248325879e+01   5.6044449513e+01    0.2088873    0.1775437  39.85 0.0003280508    1.203    0.168
       503 -10.8238     56.0259     41.3442   1.0082266999e+02   6.1175850737e+01    0.3203575    0.1600368 -22.73  0.001515101    2.340    0.573
       504 -10.2329     70.0254     41.9227   9.6086508877e+01   5.8979794629e+01    0.1902345    0.1606317  -0.87 0.0004901073    1.033    0.032
       505 -10.3029     38.2944     40.6006   1.0734308981e+02   6.3540705839e+01    0.3114194    0.1606198  10.86  0.001548109    2.480    0.597
       506 -11.8320      8.9730     39.5060   1.1916910458e+02   6.6377825681e+01    0.3315548    0.1994168   2.09 0.0008693076    1.714    0.417
       507 -11.3641    126.6739     40.0456   7.9467166446e+01   4.8112153876e+01    0.2895143    0.1763121  50.45 0.0003707172    1.470    0.320
       508 -10.2361     41.4570     36.5156   1.0460270303e+02   6.3797164354e+01    0.1702008    0.1651745  83.43 0.0008864298    1.691    0.409
       509 -10.4632     29.7957     35.6193   1.0900396412e+02   6.5231121930e+01     0.284058    0.2190902 -75.90  0.001623098    2.976    0.664
       510 -11.9684    166.2764     37.9094   7.1081453830e+01   3.9064679793e+01    0.2420831    0.2189246  87.98 0.0002510635    1.059    0.056
       511 -10.9535     60.4099     34.5037   9.6698196512e+01   6.1520634608e+01    0.2953328    0.1965274  -8.85  0.001528185    1.529    0.346
       512 -10.7239     17.1464     32.9085   1.1341205129e+02   6.6829678935e+01    0.2989743   0.09748498 -46.16  0.001138353    2.622    0.619
       513 -10.6425    118.4913     33.2920   7.9186363627e+01   5.0768215218e+01     0.324688    0.2073476  72.56  0.001066414    1.985    0.496
       514 -10.0714     92.0019     33.7112   8.6221201572e+01   5.6187278550e+01    0.1788472    0.1480011  34.20 0.0002819483    1.086    0.079
       515 -11.9623     78.9527     32.9734   8.9884301143e+01   5.8689514094e+01    0.4542698    0.2466159  41.89  0.002035429    1.697    0.411
       516  -9.8103     35.7409     34.6667   1.0620982085e+02   6.4737907473e+01    0.1394442   0.09838297  26.96 0.0003915537    1.485    0.326
       517 -10.5090    232.9983     32.2616   6.1017463874e+01   2.4117060833e+01    0.2045481    0.1596434 -58.57 0.0002964795    1.169    0.145
       518 -11.0644    103.2113     32.9530   8.2870021605e+01   5.4051524999e+01    0.2226789    0.1870145 -22.56 0.0007498835    1.274    0.215
       519 -10.9501    106.2211     31.4327   8.1567163549e+01   5.3611657040e+01    0.2720315    0.2429756  66.52  0.001031709    1.274    0.215
       520 -10.5681     55.4722     33.9986   9.8298962523e+01   6.2313966175e+01    0.2151182    0.1081554 -39.35 0.0008317688    2.048    0.512
       521 -10.2925      4.8275     32.6627   1.1875901086e+02   6.7785413643e+01    0.2084255    0.1098591  -9.40  0.001260374    1.988    0.497
       522  -9.9063    183.1462     31.8898   6.6901134679e+01   3.5748308126e+01    0.1691195    0.1483862  48.56            0    1.280    0.219
       523 -11.3887    142.5516     31.2019   7.3422478687e+01   4.5544494888e+01    0.3042318    0.1806897  41.01 0.0008341238    1.742    0.426
       524 -10.2032    206.1689     31.4991   6.3801724437e+01   3.0323815021e+01    0.1908043    0.1156918  70.84 0.0005016414    1.483    0.326
       525 -10.1333    158.9412     30.4708   7.0265595408e+01   4.1743042007e+01     0.188408    0.1750073 -45.40 0.0004729997    1.200    0.167
       526 -10.1218    239.4821     36.4966   6.1241174266e+01   2.2137530180e+01    0.1294046    0.1032192 -74.90 4.271754e-05    1.012    0.012
       527 -10.5995     31.8673     27.2913   1.0500331324e+02   6.6239356936e+01    0.3289002    0.1587339 -50.86  0.001575812    3.305    0.697
       528 -11.6236    100.6659     27.2380   8.1551086343e+01   5.5239114207e+01    0.3472354    0.2007733  46.78  0.001832475    1.512    0.339
       529 -11.2353     76.7591     27.4449   8.8513319856e+01   5.9757598918e+01    0.2505314    0.1913936 -29.40  0.000891058    1.412    0.292
       530 -10.8393    187.0658     27.0477   6.5154168185e+01   3.5395221695e+01    0.1994344    0.1703604  80.42 0.0003438873    1.031    0.030
       531  -9.6326     17.4946     27.4436   1.1126775963e+02   6.7635553256e+01    0.1129498   0.08279432 -16.97 0.0002334929    1.038    0.036
       532  -9.5082    204.3183     26.6984   6.2916869208e+01   3.1353807473e+01    0.1370123   0.08598264 -72.61 0.0002457242    1.622    0.384
       533 -10.0986    168.7701    248.9937   1.1823283354e+02  -2.0864080229e+00    0.1474807    0.1090575 -45.62 0.0003711759    1.579    0.367
       534 -11.1494      1.8381     25.3732   1.1762380984e+02   6.9133121923e+01     0.185415     0.126561 -39.02 0.0006035265    1.245    0.197
       535 -12.9772      8.3394     23.5853   1.1396717844e+02   6.8953274540e+01    0.3536882    0.1836277  21.63  0.001397787    1.995    0.499
       536 -10.0007     90.9289     24.4763   8.3197684946e+01   5.7479793544e+01    0.1957476    0.1103449  48.14 0.0006496297    1.590    0.371
       537 -10.1132     65.6120     24.1898   9.0912500639e+01   6.2027212420e+01    0.1662861    0.1030637 -14.61 0.0007119916    1.655    0.396
       538 -10.4044     61.8176     23.8021   9.2066627524e+01   6.2678729221e+01    0.1914964    0.1404121   6.73 0.0006213811    1.230    0.187
       539 -11.2555     17.5527     22.9877   1.0954066512e+02   6.8281074446e+01    0.2811779     0.153542  28.09  0.001787963    1.950    0.487
       540  -9.9655    188.3639     23.2630   6.4056824566e+01   3.5528780286e+01    0.1312242   0.08904069  47.92 0.0003002048    1.642    0.391
       541 -10.1830    118.8386     22.8377   7.5685435279e+01   5.1864635778e+01    0.1658356    0.1425771  74.96 0.0002441483    1.274    0.215
       542 -10.6632    114.1632     20.8628   7.6076306428e+01   5.3087739891e+01    0.1801123    0.1682867  79.54 0.0006147739    1.228    0.186
       543 -11.1985    135.9019    247.7042   1.2460076462e+02   3.6983549371e+00    0.3129198    0.2122124 -22.10  0.001158208    2.578    0.612
       544 -10.3667    218.2940     19.6754   5.9839324445e+01   2.8976926273e+01    0.1332203    0.0792535 -69.01 0.0002052075    1.620    0.383
       545 -10.9717    182.3889     18.6591   6.3692421718e+01   3.7466414857e+01    0.2286323    0.1938124  66.01 0.0004344982    1.143    0.125
       546 -10.2350     92.5416     18.6225   8.0622708728e+01   5.7784980459e+01    0.2338851    0.1186012 -26.09  0.001196388    2.136    0.532
       547 -11.4138    130.2819    247.2797   1.2566682029e+02   4.7214494756e+00    0.3438506    0.2209821  30.95  0.001133947    1.672    0.402
       548 -10.0277    225.9939     16.9683   5.8524241584e+01   2.7568606350e+01    0.1507775    0.1193249 -82.37 0.0003321943    1.006    0.006
       549  -9.5587    158.2771     17.3150   6.6734640260e+01   4.3347011421e+01    0.1276519   0.09022141  39.29 0.0002522278    1.567    0.362
       550 -13.0237    128.1808    240.9164   1.2524514306e+02   6.2594716234e+00     0.340949    0.2798282  80.53 0.0006174304    1.295    0.228
       551 -10.4224    131.9300     16.6155   7.1028148900e+01   4.9558656328e+01    0.2736483   0.08434628  53.76  0.001086392    2.522    0.603
       552 -10.8228     96.7282    248.7126   1.3245405809e+02   9.9167720283e+00    0.3545169    0.1770137  61.30  0.001685751    2.118    0.528
       553 -10.1514    209.7172    247.3564   1.0999645384e+02  -8.5069163983e+00    0.2181503    0.1502489  40.33 0.0005950808    1.397    0.284
       554 -10.6181    173.0121     13.7330   6.3679517685e+01   4.0213407196e+01     0.182914    0.1466819  77.94 0.0004147513    1.056    0.053
       555 -11.1308     86.5828     14.0050   8.0533319524e+01   5.9394222821e+01    0.3031333    0.1404222  48.46  0.001214241    1.828    0.453
       556 -10.6519    206.3422    245.9208   1.1040587919e+02  -7.7632674484e+00    0.2357948    0.1678009  11.46  0.001104158    1.435    0.303
       557 -11.3918    144.8667    247.8551   1.2282987318e+02   2.1544048209e+00    0.2451045    0.2064871  31.97 0.0006907497    1.177    0.150
       558 -11.3543    138.2842    242.4970   1.2341122969e+02   4.2418579989e+00    0.6434175    0.2723176 -60.01  0.002676583    3.090    0.676
       559 -11.3379    143.6859    238.4768   1.2174053657e+02   4.0530132884e+00    0.4859192     0.262279  41.90  0.001691287    1.612    0.379
       560 -13.1588     76.9773    242.2630   1.3559032666e+02   1.4188766536e+01    0.6703404    0.3789056  82.18   0.00344208    2.016    0.504
       561  -9.9250    153.5168     15.0073   6.6834014870e+01   4.4703239720e+01    0.1715033    0.1309262 -25.51  0.001019267    1.555    0.357
       562 -11.3642     83.6586    238.4594   1.3388920315e+02   1.3955395343e+01     0.302137    0.2213378  36.70 0.0006593442    1.509    0.337
       563 -10.3443     87.4465    236.4644   1.3291830736e+02   1.3781171180e+01    0.2145064    0.1438161 -71.71 0.0006502363    1.530    0.346
       564 -12.0518    164.7177    244.1753   1.1831853578e+02  -5.8999713952e-01    0.3038953    0.2407989 -52.28 0.0004587437    1.483    0.326
       565 -11.4341    168.7059    240.1421   1.1689891875e+02  -5.8128710757e-01    0.3512234    0.2559654 -50.83  0.001262886    1.599    0.375
       566 -11.4681    121.4565    243.3540   1.2692525920e+02   6.9310606629e+00     0.212604    0.1903108  75.97 0.0001412708    1.119    0.106
       567 -12.3674     85.4661    245.3456   1.3427066692e+02   1.2306765986e+01    0.2583581    0.2050429  81.02 0.0002294453    1.145    0.127
       568 -11.6100     89.4456    244.5215   1.3341122750e+02   1.1860812466e+01    0.2788468    0.2202607  38.09 0.0001014998    1.400    0.286
       569 -11.5137    146.2689    242.0656   1.2173135192e+02   2.9498618994e+00    0.3353216     0.263479  52.52   0.00112173    1.163    0.140
       570  -9.7247      8.9755     11.0000   1.0866268308e+02   7.0668262824e+01    0.1469599   0.05210012  25.23 0.0007821667    2.804    0.643
       571 -10.2156    187.1934    245.3719   1.1403692251e+02  -4.5754944974e+00    0.2384936    0.1050498  39.46  0.001086186    1.975    0.494
       572 -11.8019    190.4491    241.3090   1.1274349433e+02  -4.4645555356e+00     0.392828    0.2431076  10.65  0.001879743    2.256    0.557
       573 -11.5067     94.5095    229.0865   1.3062292138e+02   1.4194103941e+01     0.465469    0.2716888  55.20  0.002012763    1.558    0.358
       574 -10.9801     88.3878    231.4473   1.3215640285e+02   1.4666821296e+01    0.3363728    0.1816828  52.64  0.001694387    1.644    0.392
       575 -12.2201    110.3631    234.7976   1.2807836655e+02   1.0445763678e+01    0.7616361    0.3961287  29.18  0.002258207    2.571    0.611
       576 -11.3130    102.2469    234.2108   1.2966501832e+02   1.1895874482e+01    0.3122756    0.2275298 -60.57 0.0006501898    1.505    0.335
       577 -13.2906     95.3155    237.6457   1.3147948284e+02   1.2312977506e+01    0.8096014    0.3061317  48.51  0.003267044    2.306    0.566
       578 -10.9388    180.9096    244.2229   1.1509575699e+02  -3.3425394199e+00    0.2440518    0.1638954  23.57  0.001113581    1.520    0.342
       579 -10.2477    174.5079    243.5321   1.1626101086e+02  -2.1482383871e+00    0.1313009    0.1129224  31.47 0.0008097111    1.016    0.016
       580 -11.6989    203.5607    240.4641   1.1003954966e+02  -6.4843928662e+00    0.4370533    0.1904457  40.55 7.849871e-05    2.081    0.520
       581 -10.9391     64.6015    241.7577   1.3790463196e+02   1.6070613550e+01    0.1920711    0.1529322  51.00  0.000353307    1.259    0.205
       582 -10.6955     66.9715    238.7870   1.3717038124e+02   1.6338911783e+01    0.2328471    0.1755918  25.07  0.001380869    1.909    0.476
       583  -9.7783     55.4174    242.5060   1.3969228984e+02   1.7180652866e+01    0.1225432   0.09413217  73.61 0.0001499772    1.014    0.014
       584 -11.0799    183.8890    239.7401   1.1378953002e+02  -3.1073208743e+00    0.2145945    0.2073146  24.01 0.0007261524    1.147    0.128
