#   1 NUMBER                 Running object number                                     
#   2 MAG_AUTO               Kron-like elliptical aperture magnitude                    [mag]
#   3 X_IMAGE                Object position along x                                    [pixel]
#   4 Y_IMAGE                Object position along y                                    [pixel]
#   5 X_WORLD                Barycenter position along world x axis                     [deg]
#   6 Y_WORLD                Barycenter position along world y axis                     [deg]
#   7 A_WORLD                Profile RMS along major axis (world units)                 [deg]
#   8 B_WORLD                Profile RMS along minor axis (world units)                 [deg]
#   9 THETA_WORLD            Position angle (CCW/world-x)                               [deg]
#  10 FWHM_WORLD             FWHM assuming a gaussian core                              [deg]
#  11 ELONGATION             A_IMAGE/B_IMAGE                                           
#  12 ELLIPTICITY            1 - B_IMAGE/A_IMAGE                                       
         1 -12.2597    121.1201     37.2167   4.7075674000e+01   4.9504164797e+01    0.4102502    0.3747108 -40.41  0.001006397    1.176    0.150
         2 -11.2717    144.4418     31.6594   4.0824670395e+01   4.4543627926e+01    0.3946119    0.2393873 -48.76 0.0006334144    1.743    0.426
         3 -11.4522     14.1856     16.0096   7.9115184197e+01   7.2688556424e+01    0.3535897     0.254982 -57.52  0.001348447    2.166    0.538
         4 -11.8240    213.7387     17.3461   2.9117265594e+01   3.0233348261e+01     0.302193    0.2063466 -22.20  0.000972321    1.854    0.461
         5 -11.4671    125.2058     17.1134   3.9426139165e+01   5.0805101581e+01    0.2252111    0.1998963  75.72 0.0002802584    1.046    0.044
         6 -10.7490     67.7845     17.3243   5.3780355384e+01   6.3881227126e+01    0.2809056    0.1961123 -53.43  0.001085271    2.099    0.524
         7 -11.4113    234.8778     14.8528   2.7100298234e+01   2.6235276770e+01    0.2336115    0.1854062  80.74 0.0003225554    1.326    0.246
         8 -11.5831     84.2975     13.7467   4.7099723582e+01   6.0722680568e+01    0.5931227    0.3067234  10.55   0.00241999    3.203    0.688
         9 -11.0383     35.0774     12.3507   6.5093279345e+01   7.0423996173e+01    0.2827729    0.2222437  43.27 0.0009693644    1.499    0.333
        10 -11.7171     29.8719      7.6863   6.5233908627e+01   7.1806069491e+01    0.4040425    0.2799869  11.29  0.002533911    1.287    0.223
        11 -11.0844    175.6358     12.5383   3.1342841674e+01   3.9177415695e+01    0.2261947    0.1610436  59.21  0.001030726    1.437    0.304
        12 -11.9487    125.2210      9.8483   3.6979713219e+01   5.1482061229e+01    0.4718478    0.2129376 -51.49   0.00122675    2.802    0.643
        13 -10.6832    192.8701     11.8442   2.9565807088e+01   3.5330357797e+01    0.1783587    0.1552379  67.87 0.0007390431    1.277    0.217
        14 -10.7177    119.5836     11.8223   3.8601561594e+01   5.2664217249e+01    0.2408084    0.1768562  70.56 0.0003945195    1.220    0.181
        15 -11.2031    116.8308      8.6521   3.7975565450e+01   5.3606516134e+01    0.3601231    0.2124663  84.11  0.001016468    1.863    0.463
        16 -11.1806     45.2296      9.9564   5.8955788007e+01   6.9009727221e+01    0.2318145    0.1774686  11.17 0.0002695984    1.166    0.142
        17 -10.1190     22.3293      9.2556   7.0409544336e+01   7.2685796507e+01    0.3080402    0.1505439  16.26  0.001458454    2.509    0.601
        18 -10.6523     56.3318      8.4200   5.3601346091e+01   6.7105100491e+01    0.2547807    0.2240347   5.55 0.0008765683    1.146    0.127
        19  -9.9463     53.9400      3.4215   5.1923077549e+01   6.8049295067e+01    0.2770841     0.161037 -35.35  0.001519481    2.060    0.515
        20 -10.5765     15.7564      8.3032   7.3926557489e+01   7.3653908404e+01    0.2960186    0.1711457  -2.78  0.001639351    1.881    0.468
        21 -12.3025     18.8927      2.4653   6.8487198415e+01   7.4020546609e+01    0.4298719    0.1878684  31.79  0.001830281    2.074    0.518
        22  -9.2528      8.9963      9.5307   7.9098969251e+01   7.4230273550e+01    0.1325535   0.09429412  43.43 0.0007985353    2.166    0.538
        23 -10.3977    164.5356      7.1881   3.1067853197e+01   4.2285735146e+01    0.2501751   0.08920352  76.81  0.001016551    2.675    0.626
        24 -10.1531     98.1868      7.1412   4.1018119617e+01   5.8150279852e+01    0.1908092    0.1488037  42.58 0.0003619412    1.179    0.152
        25 -10.5688      2.7070      6.2346   8.1723141330e+01   7.5337430541e+01    0.2524582     0.147647  16.06 0.0008548701    1.571    0.363
        26  -9.0537    247.2806      6.2751   2.4711970291e+01   2.4800174996e+01   0.08743358   0.08255611  70.92 0.0002232642    1.500    0.333
        27 -10.8760    199.1155      5.1199   2.7496376015e+01   3.4627055995e+01    0.2055534    0.1679825 -32.31 0.0008136962    1.416    0.294
        28  -9.6704    151.3148      6.2710   3.2272944113e+01   4.5507020248e+01    0.1253745   0.08556484  48.78 0.0002138246    1.556    0.357
        29  -9.2276     70.3190      6.3021   4.7801837694e+01   6.4453764469e+01    0.1347766   0.08021879  31.69 0.0007025422    1.625    0.385
        30 -10.0328     38.1260      5.0029   5.9505463061e+01   7.0784210833e+01    0.2215303    0.1387506   2.67  0.001258018    1.697    0.411
        31 -10.8506    104.6616      3.5679   3.8334650999e+01   5.6920720946e+01    0.2893592    0.2307608 -12.28 0.0009890732    1.462    0.316
        32 -10.0951    241.6393      2.6376   2.4319251487e+01   2.6227551879e+01    0.1684103    0.1476652 -78.95 0.0005886525    1.266    0.210
        33 -10.8926    236.8190      1.8424   2.4420753460e+01   2.7224517754e+01    0.2931505    0.1280206  87.07  0.001300784    2.216    0.549
        34  -9.6355     59.2553      3.3926   4.9987420650e+01   6.6998931625e+01     0.169757    0.1103629  61.69 0.0009457528    1.662    0.398
        35 -10.6875    162.8114      2.3943   2.9947919999e+01   4.3120271894e+01    0.2836642   0.09905871  70.68  0.001225816    2.401    0.584
        36 -10.2909    112.7658      1.2250   3.6032564400e+01   5.5177712549e+01    0.3806414    0.0775518  66.32  0.001260613    3.725    0.732
        37  -9.9341     80.6867      1.5007   4.2728918571e+01   6.2592734140e+01    0.1574278    0.1123001  70.63  0.000371436    1.430    0.301
        38 -10.0626     29.9270      1.3390   6.1482507083e+01   7.2525022297e+01    0.2103972   0.09847198  44.07 0.0009357553    2.025    0.506
        39 -10.8137      5.0320    153.5271   1.1405912943e+02   4.1570483996e+01    0.2630732    0.1409521  40.85   0.00133447    1.892    0.471
        40  -9.7547    109.9776    250.8099   9.8038008619e+01   7.3676529071e+00    0.1734498   0.08185965  32.25 0.0004761305    1.764    0.433
        41 -10.7820     27.5579    250.5004   1.1524994627e+02   1.7461810312e+01    0.2339015   0.09432115  32.33  0.001202236    2.138    0.532
        42 -11.9729     18.0719    248.9653   1.1704502528e+02   1.8719874911e+01    0.2930266    0.2617229 -31.44  0.002187472    1.640    0.390
        43 -12.1880      3.3444    248.1152   1.1985582652e+02   2.0282469720e+01    0.8071625    0.4273528  64.43  0.005064987    1.535    0.348
        44 -13.2416     11.5987    243.6626   1.1806781144e+02   2.0383354448e+01     0.772847    0.4046855  43.02  0.004720268    1.520    0.342
        45  -9.5140      2.0025    146.7770   1.1436521051e+02   4.3481312676e+01    0.1471108    0.1080958  20.88 0.0003421763    1.592    0.372
        46  -9.6447      6.4576    145.4526   1.1293589244e+02   4.3525811852e+01    0.1323199    0.1117647  89.82 0.0001759819    1.046    0.044
        47  -9.9809    236.1633    138.4838   5.2849516331e+01   8.1563206515e+00    0.2046846    0.1566795 -19.23 0.0007002049    1.274    0.215
        48  -9.6344    212.8143    133.8149   5.5573602548e+01   1.2905469008e+01    0.1790663    0.1580912 -65.70 0.0006232827    1.333    0.250
        49 -10.1870     96.5225    133.1569   8.2637733799e+01   3.5674854696e+01    0.4167445    0.2606126 -23.00  0.001589453    2.382    0.580
        50 -10.1646      8.1884    133.3500   1.1120119531e+02   4.6516170149e+01     0.176532    0.1128047  36.47 0.0004418907    1.696    0.410
        51 -10.1119     61.6185    130.8588   9.3223143962e+01   4.1784005198e+01    0.2258511    0.2052922   1.92 0.0003864621    1.202    0.168
        52  -9.2713     44.9471    129.9623   9.8615152625e+01   4.4112161830e+01    0.1702669    0.1539013 -64.26 0.0002960004    1.020    0.019
        53 -10.0448     12.3876    129.7503   1.0944107608e+02   4.7158986968e+01    0.2014122    0.1035363 -63.11 0.0009513752    1.627    0.386
        54 -11.8897     28.4646    128.0741   1.0386657772e+02   4.6298811479e+01    0.2420068    0.2297291 -75.68 0.0003542188    1.063    0.059
        55 -10.0350     41.2983    127.3132   9.9391600769e+01   4.5212513270e+01    0.1493437    0.1004443 -37.21 0.0002843207    1.604    0.377
        56 -11.5885     10.3342    121.2722   1.0909525344e+02   4.9488779450e+01    0.3758423    0.3093214  50.76  0.001248768    1.336    0.252
        57  -8.9992     68.2809    122.7061   8.9317592521e+01   4.2934366746e+01    0.1476351    0.1165591  73.85 0.0001895786    1.534    0.348
        58 -11.2033     23.0105    121.5504   1.0476195349e+02   4.8474524449e+01    0.4617094      0.13184  37.28  0.001621288    3.531    0.717
        59  -9.6656     69.3594    116.8098   8.7630335653e+01   4.4269447676e+01    0.2122771    0.1301567 -47.42 0.0001025643    1.559    0.359
        60 -10.7723      1.9454    113.8992   1.1109840587e+02   5.1876612174e+01    0.2158136    0.1598951 -71.12            0    1.132    0.116
        61 -11.5422      4.1728    109.4526   1.0975668100e+02   5.2887574524e+01    0.4283929    0.2767672  -9.82  0.001882074    1.874    0.466
        62 -11.5992      1.5026    104.7793   1.1012717438e+02   5.4211561958e+01    0.3312549     0.159285 -61.87 0.0002330923    1.648    0.393
        63 -11.0397     25.0129    111.7117   1.0248324513e+02   5.0852541562e+01    0.1899721    0.1746401 -52.31 0.0004230759    1.055    0.052
        64 -11.8610     13.4017    109.5446   1.0640508610e+02   5.2297796899e+01    0.4692973    0.2009611 -71.83  0.001508499    2.083    0.520
        65 -10.6584     42.0529    107.3245   9.5320026080e+01   5.0296348035e+01    0.1936205    0.1865512 -28.94 0.0005899895    1.072    0.067
        66  -9.9278     60.0553    105.0000   8.8122394516e+01   4.8592678935e+01    0.2339135   0.08526003  30.26 0.0007951552    2.892    0.654
        67  -9.4690    186.9972    102.4873   5.2841369074e+01   2.3606732275e+01    0.2015621    0.1436377  52.10 0.0005125681    1.512    0.339
        68  -9.4683     94.4849    102.4697   7.5583273918e+01   4.3434162698e+01    0.1534459    0.1493831 -20.87 -5.866527e-05    1.006    0.006
        69 -11.2010     22.0079    101.7381   1.0186583040e+02   5.3649396237e+01     0.292507    0.1631023  79.85 0.0008721991    2.711    0.631
        70 -10.3639    246.9470    101.5220   4.3788521214e+01   1.2304848530e+01    0.1577386    0.1256288  57.02 0.0006445748    1.539    0.350
        71 -11.4988      7.8096     98.1642   1.0678695913e+02   5.5535160850e+01    0.3610406     0.167851 -44.92  0.001667651    1.940    0.485
        72 -11.8192     10.5334     93.8034   1.0499467116e+02   5.6461479174e+01    0.2682413    0.2359622 -10.22 0.0003617497    1.246    0.198
        73 -10.6007      7.0390     90.9743   1.0593009585e+02   5.7370965389e+01    0.2649903    0.2069252 -65.87 0.0004410344    1.120    0.107
        74 -12.1863     20.2687     93.2607   1.0095367580e+02   5.5915001744e+01    0.4889973    0.2740485 -34.65  0.001636117    1.831    0.454
        75 -11.1095    125.1384     93.2352   6.3927953425e+01   3.9086806353e+01    0.2579269    0.2478753 -53.40            0    1.054    0.051
        76  -9.8421     99.8388     94.2916   7.1558175702e+01   4.4226463239e+01    0.2082328    0.1901304  26.72 0.0003852891    1.102    0.093
        77  -9.8080     66.5079     91.9435   8.2320181917e+01   5.0780974969e+01    0.2149941    0.1418546 -51.81 -0.0001110011    1.469    0.319
        78 -11.3014     57.8579     91.6133   8.5505586805e+01   5.2159943730e+01    0.3235286    0.2269985 -15.30 0.0008788905    1.720    0.419
        79  -9.4600     29.1610     91.8528   9.7031011330e+01   5.5502156894e+01    0.1895539    0.1464762 -25.59 0.0004294237    1.312    0.238
        80 -11.9678      6.9705     84.9170   1.0490202334e+02   5.8862931598e+01    0.3758914    0.3036091 -20.55   0.00105945    1.283    0.220
        81  -9.9107    250.4047     80.7781   3.9165981718e+01   1.4825277169e+01    0.1673269    0.1013265 -31.84 0.0005407743    1.578    0.366
        82 -10.1304     89.3070     80.7077   7.0832231399e+01   4.9229192688e+01    0.2206348     0.208568 -85.59 0.0002031398    1.220    0.180
        83 -10.1076     86.1805     78.6345   7.1227707347e+01   5.0269315994e+01    0.2646544    0.2201512  40.78  0.000409439    1.215    0.177
        84 -10.1057    134.9541     78.8826   5.7226512212e+01   3.9652178821e+01    0.2207472     0.213178  46.18 0.0004156144    1.038    0.037
        85  -9.3959    124.4282     79.2751   5.9969083838e+01   4.1996233389e+01    0.1969658    0.1429017 -51.33 0.0003327963    1.464    0.317
        86  -9.0068     80.3246     79.6536   7.3590477791e+01   5.1162538768e+01    0.1492496    0.1212252  85.55     0.000705    1.744    0.426
        87 -11.2342     55.1386     75.0771   8.1766889924e+01   5.6342356103e+01    0.5126306    0.3202917  27.15  0.001658923    1.660    0.397
        88 -10.7200     48.0882     79.0930   8.5896840020e+01   5.6422542054e+01     0.221177    0.1946443   4.14  0.001257116    1.141    0.123
        89 -10.1647     51.2775     77.7000   8.4160737836e+01   5.6308090730e+01    0.2200866    0.2155139 -21.26  0.001310124    1.126    0.112
        90 -11.4466     16.6705     77.6102   9.9185373902e+01   5.9996846417e+01     0.454914    0.2835338  67.47  0.002124807    2.512    0.602
        91 -10.6381     22.0848     76.5463   9.6510408009e+01   5.9821837077e+01    0.3107137    0.2104498  52.85 0.0005836107    1.978    0.494
        92  -9.1860    146.5060     78.6201   5.4507135614e+01   3.7013520412e+01    0.1457863    0.1410346  66.90 0.0001027835    1.032    0.031
        93  -9.9733    177.0106     76.6961   4.8063569645e+01   3.0292568921e+01    0.2020977    0.1828045  70.34 0.0007511395    1.130    0.115
        94 -10.4165     37.0666     74.8964   8.9405652847e+01   5.8730785399e+01    0.2778394    0.2019598 -81.86  0.001385127    1.912    0.477
        95  -9.7157    165.3833     75.3493   4.9778540695e+01   3.3183837758e+01    0.1840173    0.1302884 -47.71 0.0003201325    1.377    0.274
        96 -10.2567     69.9854     74.1866   7.5616455092e+01   5.4164504353e+01    0.4028001     0.231032  37.31  0.001560022    1.757    0.431
        97 -10.1692     42.5579     74.3026   8.6837069724e+01   5.8215768430e+01    0.2588479    0.2015295  55.20  0.001366141    1.676    0.403
        98 -11.0834      5.1619     74.9120   1.0378925844e+02   6.1369553199e+01    0.1918883    0.1714027 -86.80  0.001215686    1.268    0.211
        99  -9.5430    217.0002     71.9143   4.1057253884e+01   2.2422860443e+01    0.1544595     0.127143 -49.88 0.0003126105    1.053    0.051
       100  -9.4173    106.7165     72.0371   6.2566143058e+01   4.7321426414e+01    0.4002317    0.1865813  61.41  0.001281038    3.474    0.712
       101 -10.1841     19.1916     72.1032   9.6727038173e+01   6.1097792185e+01    0.2076769    0.1534537 -37.47 0.0003476257    1.186    0.157
       102  -9.6048     93.0312     71.6661   6.6662067351e+01   5.0301603012e+01    0.3009624    0.1340118  51.06  0.001092735    2.514    0.602
       103  -9.2665    158.3652     70.2832   4.9699630108e+01   3.5666797540e+01    0.1471179    0.1119022  26.52 0.0007017569    1.688    0.408
       104  -9.7016     44.8773     69.2622   8.4282332248e+01   5.9038371099e+01     0.298299    0.1415987 -52.24  0.001273778    2.016    0.504
       105  -9.6025     38.4992     70.4656   8.7473177082e+01   5.9565532858e+01     0.140297    0.1215315 -26.58 7.971022e-05    1.028    0.027
       106  -9.6035      1.4898     70.4966   1.0458854538e+02   6.2595823332e+01    0.1307347    0.1042191 -47.65 -2.789432e-05    1.028    0.027
       107 -12.2468     80.7948     67.3412   6.9341244717e+01   5.3577389996e+01    0.2707859    0.2590962   5.05 0.0003082621    1.043    0.041
       108 -10.5814      9.4894     67.4944   1.0016176555e+02   6.2854486498e+01    0.1897309    0.1563303  60.77  0.001148554    1.576    0.365
       109 -11.5974      6.1720     65.3167   1.0124763782e+02   6.3553031378e+01    0.6387727    0.1908236 -48.63  0.002636976    2.448    0.591
       110  -9.9434     59.0687     67.4992   7.7689146126e+01   5.7364087191e+01     0.213098    0.1848901 -26.59  0.001034772    1.079    0.073
       111 -13.9965     20.4034     58.8470   9.2506666495e+01   6.3981412432e+01     0.636398    0.3592174 -37.31  0.001132149    1.580    0.367
       112  -9.3215     88.5417     67.3935   6.6694787853e+01   5.2037287302e+01    0.1454956    0.1367639  18.49 8.016208e-05    1.020    0.020
       113 -10.4612     51.6400     66.1535   8.0341764798e+01   5.8770506899e+01    0.3081854    0.2067876 -25.78 0.0008755781    1.565    0.361
       114  -9.5374     39.8361     65.5976   8.5358831898e+01   6.0472387552e+01    0.1767409    0.1246207  36.29 0.0005899414    1.566    0.361
       115 -10.3594     62.7301     61.2593   7.4025820084e+01   5.8024584067e+01    0.3313962    0.2732713 -28.07    0.0018376    1.162    0.139
       116  -9.2625     66.3632     59.7003   7.2015802547e+01   5.7702267288e+01    0.2165297    0.1265617  58.79 0.0008464811    2.860    0.650
       117  -9.7073     38.9380     61.6992   8.4497200044e+01   6.1415246944e+01    0.1881607    0.1642603  -5.11 0.0004814503    1.081    0.075
       118  -9.8416    157.3035     60.9781   4.7259531678e+01   3.7407573173e+01    0.1869636    0.1723521 -43.15  0.000183332    1.111    0.100
       119  -9.9104    146.0157     59.7924   4.9077344389e+01   4.0285536289e+01    0.2337342    0.1895437 -87.81  0.001218495    1.355    0.262
       120 -10.3541     48.6982     59.3246   7.9265074205e+01   6.0600332205e+01    0.2771642    0.2412634  39.59  0.001081435    1.322    0.244
       121  -9.7552    131.8266     59.1061   5.1887031059e+01   4.3782658561e+01    0.2051425    0.1835393 -65.84 0.0003304248    1.180    0.152
       122 -12.7321     86.4497     54.4549   6.2787000304e+01   5.4795559470e+01    0.4201187    0.3466464  11.45 9.161671e-05    1.271    0.213
       123 -10.8377      3.8023     58.1186   1.0069995495e+02   6.5313052323e+01     0.354597    0.1681709 -16.88  0.001663864    2.387    0.581
       124 -13.8599    114.7525     53.1523   5.4038644914e+01   4.8743483269e+01    0.4280443     0.393653  35.45 0.0008165148    1.068    0.064
       125 -11.4532    119.5421     48.2084   5.1176909677e+01   4.8365650832e+01    0.4417369    0.3107055 -60.07  0.002142027    1.746    0.427
       126 -10.2188     71.8081     56.4765   6.8730538384e+01   5.7320287089e+01    0.2325588    0.1822466 -35.82 0.0004806264    1.283    0.221
       127 -10.5447    103.9491     56.0977   5.7979700751e+01   5.0741902985e+01    0.2175398    0.2036782  35.58 0.0007394502    1.013    0.013
       128 -12.1922    106.0906     50.4686   5.5398792501e+01   5.1155032690e+01    0.2970844     0.249462 -28.39 0.0002715098    1.254    0.202
       129 -10.6169     32.7814     55.8517   8.5436744692e+01   6.3369104145e+01    0.2348343    0.1788428 -18.79 0.0006884246    1.227    0.185
       130  -9.6621    127.7378     54.9805   5.1500171374e+01   4.5401733676e+01    0.1928839    0.1846943 -54.16 0.0003599376    1.083    0.077
       131  -9.5910    200.5073     53.9243   3.8883349013e+01   2.8521484883e+01    0.1804764    0.1205476 -38.40 -0.000169648    1.419    0.295
       132 -10.2742     51.6967     48.5907   7.3919259688e+01   6.2209851420e+01    0.6347214    0.4580938 -24.80  0.003459241    1.354    0.261
       133 -12.1031     66.7897     52.6094   6.9199046662e+01   5.8935767160e+01     0.417983    0.2315441  34.28  0.001230375    1.791    0.442
       134 -10.3635     75.8525     48.5299   6.4210480114e+01   5.7928578525e+01    0.3201643    0.2414486 -72.71  0.001542747    2.169    0.539
       135 -10.3739     79.4025     45.4812   6.1764707567e+01   5.7712980375e+01    0.3226353    0.2145359  32.23  0.001151495    1.494    0.331
       136 -10.6038    148.7607     51.5292   4.6078624613e+01   4.0870233127e+01    0.4610692    0.1993855 -47.76  0.001782497    2.543    0.607
       137 -11.2781     38.1707     48.7000   8.0229853199e+01   6.4136553252e+01    0.3564653    0.2801274  21.86  0.001472665    1.265    0.209
       138  -9.3984     32.7812     50.6495   8.3598949897e+01   6.4424710175e+01    0.2444515    0.1197057  28.96  0.000361885    2.069    0.517
       139 -11.1178      9.5817     47.4369   9.4657944571e+01   6.7269333149e+01    0.3569107    0.2586131  10.33  0.002194401    1.428    0.300
       140  -9.3538    154.9999     47.5173   4.3783262010e+01   3.9937820612e+01    0.2050575    0.1312356  64.22 0.0006659423    1.499    0.333
       141 -10.7677    137.0373     46.5049   4.6798105292e+01   4.4416845590e+01     0.483326    0.2133138  65.81  0.001863381    2.443    0.591
       142  -9.8679     68.9132     46.5501   6.6008233268e+01   5.9590285164e+01     0.196358    0.1282254  38.23 0.0002941952    1.458    0.314
       143 -10.4261     25.3989     43.4924   8.4720936046e+01   6.6661477764e+01     0.362803    0.2837957  77.08  0.001722519    2.352    0.575
       144 -10.9592     16.3041     42.8711   8.9421760099e+01   6.7671740509e+01    0.3583953     0.274812 -57.20  0.001262136    1.447    0.309
       145  -9.6671     30.6027     44.2169   8.2282175400e+01   6.5935523866e+01    0.1866411    0.1054873 -37.05 0.0005770297    1.615    0.381
       146  -9.9192     57.7401     59.0105   7.5262320633e+01   5.9284279762e+01     0.191138    0.1709305 -17.33            0    1.043    0.041
       147 -10.7673     61.0434     42.5313   6.7488753051e+01   6.1693297237e+01    0.2287952    0.1886132 -27.50 0.0003098069    1.213    0.176
       148 -10.5611     36.7479     41.9505   7.8268981948e+01   6.5587125156e+01    0.2923713    0.2389696  38.14  0.001088477    1.448    0.309
       149 -10.1800    184.3274     41.1556   3.7726473182e+01   3.3874834512e+01    0.3400958     0.213819 -85.17  0.001474201    1.762    0.432
       150  -9.1002    141.6947     41.7459   4.4415276605e+01   4.3938996343e+01    0.1454962    0.1280497 -84.39 0.0002374045    1.138    0.121
       151  -9.4841    139.4651     39.5309   4.4138452249e+01   4.4771326954e+01    0.2504852    0.1302971 -35.86 0.0008545748    1.977    0.494
       152 -10.5913      5.0071     41.5399   9.5348566410e+01   6.8796373355e+01    0.1730488    0.1127739   7.81 0.0009493197    1.567    0.362
       153  -9.4084    221.0006     40.0097   3.3474574408e+01   2.6040950729e+01    0.1467934    0.1200238 -61.61 0.0009606235    1.012    0.012
       154  -9.9666    170.8805     40.2475   3.9274115121e+01   3.7123229156e+01    0.1946095    0.1601445 -80.15 0.0002451848    1.156    0.135
       155  -9.6598    133.9766     39.6949   4.5237340874e+01   4.6081009403e+01    0.2010684    0.1631984  59.76 0.0003299186    1.146    0.127
       156  -9.5961     90.2732     40.5531   5.6299894214e+01   5.6165037657e+01    0.2035194    0.1182724  39.91   0.00093881    1.658    0.397
       157  -9.8972     44.7252     39.9740   7.3582935159e+01   6.4807119815e+01    0.1792791     0.155114 -12.53 0.0002128034    1.064    0.060
       158  -9.0785    162.2639     39.3012   4.0261936451e+01   3.9293068212e+01    0.1268615     0.103429  31.30 0.0002442272    1.518    0.341
       159  -9.3250    229.9684    247.4905   7.3764433001e+01  -7.5495142220e+00    0.1552031   0.09257634  22.93 0.0006419407    1.488    0.328
       160 -10.6268     21.5031     37.9695   8.4685329707e+01   6.8125062982e+01    0.1885273    0.1537025  -0.50 0.0007823766    1.125    0.111
       161  -9.8958    133.0810     35.2597   4.3980679849e+01   4.6865319004e+01    0.2551461    0.1606195  15.43 0.0008186453    2.564    0.610
       162 -11.1546      5.4965     35.3427   9.2953280155e+01   7.0007200512e+01    0.2985927     0.235223 -18.82  0.001941889    1.085    0.078
       163 -10.2166    224.9615    247.0666   7.4574947840e+01  -6.9381665180e+00    0.1906189    0.1095305  -4.48  0.001131267    1.686    0.407
       164  -9.6150     38.4499     34.8231   7.4399863786e+01   6.6601372569e+01    0.4293294    0.1817953  37.65  0.001914498    2.377    0.579
       165  -9.5823    220.1682     33.8217   3.2193515074e+01   2.6984293559e+01    0.1459637    0.1410892  81.81 0.0003428618    1.303    0.233
       166 -10.0888     49.8509     33.3634   6.8344532413e+01   6.5081218771e+01    0.1972636    0.1673708 -28.82 0.0003470345    1.245    0.197
       167 -10.0988     28.1113     33.6491   7.9259702023e+01   6.8167529902e+01    0.2495805    0.1332193 -26.80 0.0007990369    1.944    0.486
       168 -10.7063     91.7452     31.4996   5.2317070877e+01   5.7067040848e+01    0.3388053    0.2588073  52.33  0.001172338    1.215    0.177
       169  -9.4850    177.4514     32.1997   3.6261859502e+01   3.6587129354e+01    0.1766033    0.1085722 -49.19 0.0005016498    1.555    0.357
       170 -12.6165     10.7118     29.8756   8.7690468414e+01   7.0648354669e+01    0.3705289    0.2424799  34.65  0.002185297    1.870    0.465
       171  -9.9945      2.8173     26.4034   9.1237035409e+01   7.1901390853e+01    0.1597894   0.09706305  -5.10 0.0006932703    1.577    0.366
       172  -9.9360    227.3379     31.0430   3.0986523123e+01   2.5866978964e+01    0.1654178     0.126049 -54.37 0.0003895121    1.095    0.086
       173  -9.8769    128.6091     31.2738   4.3534759520e+01   4.8436157046e+01    0.3313187    0.1748274  80.70  0.001335979    2.536    0.606
       174 -10.1437     39.0922     31.0804   7.2401771819e+01   6.7123203781e+01    0.2201281    0.1836604  30.82  0.001184208    1.293    0.227
       175  -9.6537    135.6142     29.2219   4.1571938053e+01   4.6976779655e+01    0.1713448    0.1328038  -8.36 0.0003313895    1.597    0.374
       176 -10.6083     69.7069     26.7837   5.7387273288e+01   6.2356883518e+01    0.4270423    0.2352897 -28.85  0.002101411    1.926    0.481
       177 -10.1851    164.9834     28.3109   3.6803850692e+01   3.9985531005e+01    0.1854124    0.1558495  82.86 0.0003890746    1.078    0.072
       178  -9.3659    147.4157     28.8273   3.9484187695e+01   4.4154186523e+01    0.1824523    0.1342169 -31.77 0.0005155911    1.474    0.321
       179  -9.4793     94.1865     27.2203   4.9944531417e+01   5.7044147850e+01    0.1736283    0.1549206  85.56 0.0004223982    1.300    0.231
       180  -9.5174    128.3929     38.4810   4.5961301996e+01   4.7590223742e+01    0.1359231    0.1287666  65.33 8.258932e-05    1.024    0.023
       181  -9.4523    100.3494     26.3046   4.7982382781e+01   5.5740185391e+01    0.1454122    0.0928611  32.27 0.0004102626    1.700    0.412
       182 -10.7049     46.3273     26.1663   6.6633710333e+01   6.6743096265e+01    0.2273206    0.1719804  37.05 0.0006020343    1.319    0.242
       183  -9.8034    216.0031     26.0000   3.0836003570e+01   2.8781911317e+01    0.1860183   0.06361905  72.15 0.0007977429    2.910    0.656
       184  -9.8248    156.4095     24.9867   3.7025499495e+01   4.2415810706e+01    0.1956082    0.1613272  57.23 0.0002154845    1.222    0.182
       185  -9.8924     59.2779     24.8151   6.0429195803e+01   6.4641293506e+01    0.2352686    0.1959089 -50.47  0.001404096    1.609    0.378
       186  -9.3291    124.6488     23.3101   4.1621137830e+01   5.0299738489e+01    0.1398453   0.09798162 -73.22 0.0007044525    1.718    0.418
       187 -10.1832     35.2067     22.6260   7.0354276979e+01   6.8996080649e+01    0.2873097    0.1716187   3.40  0.001447912    2.030    0.507
       188 -10.6470     74.8081     22.0997   5.3574050831e+01   6.1883225704e+01    0.2146173    0.2012907 -66.50 0.0004090743    1.358    0.264
       189 -10.5205     75.1619     18.2699   5.1765237752e+01   6.2241890447e+01    0.3368614    0.1659871  53.86  0.001345276    1.841    0.457
       190 -11.0574     14.9619     21.2140   8.1209656931e+01   7.1766440375e+01    0.3624934    0.2219717  36.84  0.002076442    1.986    0.496
       191  -9.8466    170.9191    246.8399   8.4778332043e+01  -2.4091752923e-01      0.19789    0.1414724   3.89  0.001215685    1.311    0.237
       192 -11.2331      2.1318     20.6053   8.9261667721e+01   7.3005145402e+01    0.2587055    0.2165979 -30.34  0.001146961    1.187    0.158
       193 -10.1472      7.2497     18.9346   8.5078619418e+01   7.2885983199e+01    0.2859675    0.1571878 -17.40  0.001149544    1.803    0.445
       194 -10.1217     85.0281     20.9639   4.9949973516e+01   5.9809954623e+01    0.2680209    0.1701556  30.02 0.0006750156    1.649    0.394
       195 -10.7041     88.8208     18.8153   4.7999756238e+01   5.9196935066e+01    0.3634888    0.1954793  32.16  0.001300165    2.095    0.523
       196  -9.2277     30.7807     20.9788   7.1874912803e+01   6.9874110347e+01    0.1524233   0.09271532 -33.23 0.0004313981    1.591    0.372
       197  -8.9691    101.6968     20.2758   4.5340536172e+01   5.6091758381e+01    0.1267306    0.1008715 -78.72 0.0006956631    1.542    0.351
       198 -10.7047     59.3942     19.6661   5.7961817185e+01   6.5269617617e+01    0.3427982    0.2034198  23.14  0.001727729    1.833    0.455
       199  -9.8919     59.3287     16.2732   5.6357250012e+01   6.5681454332e+01    0.2011871    0.1544226  34.50 0.0005978423    1.123    0.109
       200  -9.7183    116.1530    246.5531   9.6223836556e+01   7.2838513864e+00    0.1680172     0.107307  21.79 0.0009185153    1.514    0.339
       201  -9.2127     86.6766    245.2777   1.0246756656e+02   1.1480582710e+01    0.1289064   0.08014112  54.08 0.0006989379    1.585    0.369
       202  -9.4229     51.9909    244.9900   1.0988097538e+02   1.5841226789e+01    0.1973085    0.1258302   4.78  0.001013463    2.550    0.608
       203 -10.7483    238.0260     16.9930   2.7324693255e+01   2.5391841773e+01    0.1880939    0.1409588 -61.58  0.001329707    1.028    0.027
       204 -10.1881    146.6071    244.2555   8.9427515100e+01   3.4727343404e+00     0.167344    0.1116281 -32.20  0.000952981    1.687    0.407
       205 -11.1844    203.5886     16.5634   2.9758833411e+01   3.2481287903e+01    0.2894153    0.1693223 -78.70  0.001612203    1.650    0.394
       206  -9.5724     20.0153     17.0614   7.6035659352e+01   7.1862180723e+01    0.1487072    0.1157241 -15.49 0.0004696373    1.097    0.089
       207 -10.0893    118.3081    239.6474   9.4916396443e+01   8.2320762017e+00    0.2263029    0.1777746  50.07 0.0009154982    1.307    0.235
       208 -10.3045     39.8746     14.9986   6.4115571982e+01   6.9319829719e+01    0.2069516    0.1691777  10.71 0.0003883364    1.008    0.008
       209  -9.0322     60.9773    241.0000   1.0764490371e+02   1.5559973254e+01    0.1972096   0.06100988  31.13 0.0005154927    2.829    0.647
       210 -10.2658     35.6134    240.0931   1.1298314278e+02   1.8656345697e+01    0.2066983    0.1300994  47.07 0.0005144731    1.294    0.227
       211  -9.5131    105.6946     13.9260   4.2035513076e+01   5.5785198176e+01    0.1643427    0.1597587  22.35 0.0001561881    1.132    0.116
       212 -10.7652    208.0242     13.0276   2.8604470378e+01   3.1905548846e+01    0.1837415    0.1471247 -70.13 0.0003560547    1.013    0.012
       213 -11.9879      9.8402    237.4280   1.1813008655e+02   2.1793381631e+01    0.6012213    0.2397648  16.55  0.002481068    4.315    0.768
       214 -12.0833     23.9095    235.9487   1.1517422797e+02   2.0724548818e+01    0.3705925    0.1905406  27.28   0.00176051    1.988    0.497
       215  -9.7082    201.4899     12.4396   2.8986836768e+01   3.3373357900e+01    0.1198357    0.1006795 -77.86 0.0001547874    1.051    0.049
       216  -9.5115    249.4980    233.4848   6.8241052211e+01  -7.8692180817e+00    0.1142067   0.08225402  -7.89 0.0008104946    1.005    0.005
       217 -11.2119     12.4784    226.4956   1.1704826019e+02   2.3804401468e+01    0.1835201   0.08416289  41.99 8.458873e-05    1.779    0.438
       218 -11.9966      2.4703    225.1105   1.1906958288e+02   2.4999180488e+01    0.5439574     0.186735  56.58  0.002505776    2.469    0.595
       219  -8.9158     77.5387     11.5579   4.8051470817e+01   6.2419940698e+01    0.1266505    0.1132587  47.19 0.0001677001    1.098    0.089
       220 -10.7829      2.3265    219.9666   1.1886528639e+02   2.6103716976e+01    0.2822006    0.1289453  74.50  0.001462849    2.030    0.507
       221  -8.8802     64.6502     10.7154   5.1740882658e+01   6.5217896274e+01    0.1366813   0.08124603  29.44 0.0007019244    1.655    0.396
       222  -9.2939     47.8240    229.8232   1.0961025629e+02   1.9402468782e+01    0.1707478    0.1173903  56.77            0    1.274    0.215
       223 -12.0766      4.0264    232.6792   1.1908642048e+02   2.3290384371e+01    0.3108365    0.2099518  55.75  0.002095113    1.174    0.148
       224  -9.7811    209.5298    229.4992   7.4568452960e+01  -2.6627265153e+00    0.1229664   0.09737696  -1.03 0.0002200441    1.023    0.022
       225 -10.9345    140.0838    227.8610   8.8524060673e+01   7.2690734717e+00    0.2947883    0.2028023 -66.67  0.001550407    2.070    0.517
       226 -10.2627     17.8356    227.9608   1.1599590963e+02   2.2985242404e+01    0.1479073    0.1305392  -1.51 0.0004952786    1.568    0.362
       227  -9.7102    223.2169    226.6236   7.1596402485e+01  -3.9491607899e+00    0.1590471   0.09524633  16.22 0.0002972834    1.557    0.358
       228 -10.1408     26.7902    223.8499   1.1381704517e+02   2.2966656732e+01    0.1758739    0.1148351  63.07 0.0005233084    1.333    0.250
       229  -9.5808    167.3722    221.2527   8.1602572890e+01   4.4433789799e+00    0.1629074    0.1247449 -49.75 0.0005312373    1.577    0.366
       230 -10.9536      8.3397    218.5215   1.1751396114e+02   2.5887852461e+01     0.303956    0.1733804 -57.63    0.0017243    2.030    0.507
       231  -9.1392     85.5721    215.4077   9.9438152177e+01   1.7681946649e+01    0.1317725    0.1200497  40.23  2.95122e-05    1.044    0.042
       232  -9.6854     15.8172    213.1655   1.1557376807e+02   2.6377169483e+01    0.1506122    0.1409338 -69.88 0.0009072542    1.291    0.225
       233  -9.6546    205.4851    212.1215   7.2388141514e+01   5.3376324677e-01    0.1845208    0.1127931 -34.71  0.001016267    1.542    0.352
       234  -9.7147     20.3554    209.6497   1.1432459188e+02   2.6731866092e+01    0.2008199    0.1095669  59.40 0.0006509025    1.657    0.397
       235  -9.9278    193.8565    202.3611   7.2913338246e+01   3.8044522414e+00    0.1875083     0.151741  11.46   0.00111553    1.122    0.109
       236 -11.1909      4.0273    201.5302   1.1756358985e+02   3.0036524338e+01    0.2246127    0.1457836 -66.85 0.0006409787    1.548    0.354
       237  -9.3707     22.4832    200.5419   1.1319305452e+02   2.8610382219e+01    0.1291113    0.1054785  68.93 0.0001130581    1.045    0.043
       238  -9.1964     14.3220    192.6922   1.1459667743e+02   3.1206380925e+01    0.1366141   0.07704056  60.96 0.0007034444    1.644    0.392
       239  -9.0798     89.6417     13.2828   4.5497463999e+01   5.9566959332e+01    0.1269256   0.09895096 -80.92 0.0003702696    1.671    0.401
       240  -9.5413      6.2513    191.9672   1.1649086005e+02   3.2065175633e+01    0.1645827   0.09283001 -83.38 0.0008842795    1.569    0.363
       241  -9.5808      1.0000    190.9644   1.1767934615e+02   3.2718604969e+01    0.1967555     0.060723 -79.62 0.0007898996    2.856    0.650
       242  -9.3589      7.3859    188.2186   1.1598212041e+02   3.2857016522e+01    0.1600519     0.101966  85.46 0.0002695848    1.383    0.277
       243  -8.9566    226.0000    163.9925   5.9625640208e+01   5.4935904817e+00    0.2105071   0.06465533 -39.49 0.0007832333    2.811    0.644
