#   1 NUMBER                 Running object number                                     
#   2 MAG_AUTO               Kron-like elliptical aperture magnitude                    [mag]
#   3 X_IMAGE                Object position along x                                    [pixel]
#   4 Y_IMAGE                Object position along y                                    [pixel]
#   5 X_WORLD                Barycenter position along world x axis                     [deg]
#   6 Y_WORLD                Barycenter position along world y axis                     [deg]
#   7 A_WORLD                Profile RMS along major axis (world units)                 [deg]
#   8 B_WORLD                Profile RMS along minor axis (world units)                 [deg]
#   9 THETA_WORLD            Position angle (CCW/world-x)                               [deg]
#  10 FWHM_WORLD             FWHM assuming a gaussian core                              [deg]
#  11 ELONGATION             A_IMAGE/B_IMAGE                                           
#  12 ELLIPTICITY            1 - B_IMAGE/A_IMAGE                                       
         1 -12.3265    164.2944     45.4170   7.7550978705e+01   3.8604909151e+01     1.194149    0.9958948   4.84  0.004549187    1.478    0.323
         2 -11.0812    176.5729     16.6351   6.7488266328e+01   3.9101975479e+01    0.7671621    0.4612144 -68.30    0.0037079    2.014    0.503
         3 -11.6667    180.7696     12.0413   6.5699265595e+01   3.8555374163e+01    0.8411885    0.5450409 -59.18  0.004075921    1.677    0.404
         4  -9.2579    120.0088      9.1420   7.4945219433e+01   5.3206291408e+01    0.3043401    0.2681876  -0.44  0.001218328    1.233    0.189
         5  -9.4586    205.0521      7.8268   6.1784437827e+01   3.3112724716e+01    0.1971434    0.1466517 -79.66 0.0003604786    1.214    0.177
         6  -8.9849    232.5513     12.9331   6.0209761812e+01   2.6111002494e+01    0.2782565    0.2239325 -32.30  0.001681897    1.515    0.340
         7  -9.1367    195.5699      2.6118   6.1561437087e+01   3.5910692199e+01    0.2696449   0.06194264  58.08 0.0009569433    3.423    0.708
         8 -10.4719    167.4186    225.2433   1.1905512389e+02   2.9178963605e+00    0.3971255    0.3083363 -12.56 0.0007654832    1.728    0.421
         9  -8.9726    165.8997    250.1943   1.2309033236e+02  -9.5421577289e-01    0.2420037    0.1944035 -10.22   0.00149603    1.659    0.397
        10  -9.8031    138.6246    243.8224   1.2742474003e+02   4.7879257387e+00    0.7282796    0.2518462 -59.82  0.002753428    4.193    0.762
        11  -9.0747    134.0000    248.9928   1.2896614918e+02   4.6876773440e+00    0.1957136     0.165169 -55.13  0.000642233    1.445    0.308
        12 -10.2079    134.7850    243.9132   1.2817231404e+02   5.4299298888e+00    0.4116008    0.2404419 -47.25  0.001060364    2.135    0.532
        13  -8.0887    127.1345    250.7060   1.3046460345e+02   5.5460380374e+00    0.1693556   0.09643018  38.84 0.0008968092    1.633    0.388
        14 -18.4905     66.1985    228.6509   1.3948774680e+02   1.9200063629e+01     4.636293     3.679441  83.41   0.01769895    1.088    0.081
        15  -9.7481    127.1400    173.9381   1.1891660076e+02   2.0999836212e+01    0.5157794    0.2767086  58.50  0.002047067    2.204    0.546
        16  -9.3555    121.4212    171.8905   1.1987568866e+02   2.2552918869e+01    0.3515839    0.2452557  74.95 0.0008388367    1.730    0.422
        17  -9.3295    201.4917    168.9107   1.0146794855e+02   6.7758205834e+00    0.3708114    0.2142828  38.10  0.001606969    1.781    0.438
        18  -9.3514    189.7171    156.0143   1.0109168213e+02   1.1831015357e+01     0.548503    0.4224431  82.65  0.002535253    1.748    0.428
        19  -9.7438    193.5987    167.0162   1.0268384765e+02   8.7905428743e+00    0.3555176    0.3363558 -60.06 0.0007861361    1.125    0.111
        20  -9.2174    190.6316    162.2301   1.0226874969e+02   1.0375134044e+01     0.380796    0.3023055 -41.29  0.001005902    1.271    0.213
        21 -10.0507     17.7152    166.1310   1.4306484744e+02   3.8470678712e+01    0.4530165    0.3031107  76.74  0.002869942    1.367    0.269
        22  -8.7276     25.2857    165.9568   1.4139558202e+02   3.7798319325e+01    0.1830948    0.1793161 -82.00 0.0006694929    1.357    0.263
        23 -10.2935    171.3587    206.1540   1.1503812824e+02   5.6544399787e+00    0.2662524    0.2325205  40.40 0.0001859422    1.048    0.046
        24 -10.0966     39.3002    149.8377   1.3618250063e+02   4.0088853024e+01    0.5877633    0.3116626 -89.56  0.002749242    2.225    0.551
        25 -10.3953     44.0025    146.7141   1.3458240913e+02   4.0309006758e+01    0.4507897    0.3334053  51.36  0.002703439    1.462    0.316
        26 -11.6224     34.4764    159.8904   1.3862753929e+02   3.8262035815e+01     0.778877     0.606158 -72.20  0.003957365    1.105    0.095
        27  -9.4992    136.0764    196.9459   1.2097169200e+02   1.4262954677e+01    0.3523391    0.2359687 -60.24  0.000516755    1.605    0.377
        28  -8.4565    203.7284    162.2114   9.9570417902e+01   7.6093346130e+00    0.2695861    0.1744514 -44.09 0.0007950042    1.550    0.355
        29 -10.7874    146.0904    157.4394   1.1116646941e+02   2.0920929551e+01     0.624307     0.495952 -89.84  0.002449689    1.495    0.331
        30  -9.2730    147.4511    151.1963   1.0949214045e+02   2.2035066903e+01    0.3222592    0.2110607 -72.58 0.0009900137    2.088    0.521
        31 -10.2238    156.8696    192.7305   1.1569965331e+02   1.1115143241e+01    0.6513554    0.3873597 -78.42  0.001912413    3.321    0.699
        32  -9.2645    157.9893    156.6949   1.0823866637e+02   1.8565920287e+01    0.4559019    0.3078259 -86.45  0.001266085    2.380    0.580
        33  -9.6470    121.6655    156.4928   1.1683886771e+02   2.6060118595e+01    0.2757727    0.2316814 -52.45 0.0006999216    1.200    0.167
        34  -8.6144     22.9283    157.0380   1.4094238480e+02   4.0052270878e+01    0.1824701    0.1470908 -84.05 0.0005014085    1.036    0.035
        35  -9.7508      7.0101    155.3958   1.4433842817e+02   4.1778501191e+01    0.4744504    0.2455437 -33.11   0.00126156    3.597    0.722
        36  -7.9248    129.8186    153.8526   1.1430387126e+02   2.5070012042e+01    0.2110129    0.1750131  84.59 0.0004690683    1.316    0.240
        37 -10.6566    122.9602    143.2993   1.1373963618e+02   2.8878614450e+01    0.5361497     0.340148  46.59  0.001426693    1.592    0.372
        38 -11.8928    132.7904    145.4175   1.1175799477e+02   2.6410514148e+01     1.401142    0.7275731 -64.90  0.004948519    2.681    0.627
        39  -8.1278     17.3151    142.5290   1.4056758150e+02   4.3853456485e+01     0.130933     0.116769 -25.80  0.000922345    1.488    0.328
        40  -8.8582    153.2661    201.9958   1.1812164948e+02   9.9440850895e+00    0.4204629    0.2401076 -61.87  0.001841782    2.184    0.542
        41  -9.4535    127.7769    189.2974   1.2150921807e+02   1.7464806698e+01    0.4332265      0.27635  84.33   0.00166906    2.302    0.566
        42 -10.0163    229.6519    136.3393   8.8854779603e+01   7.0868429444e+00    0.2645471    0.2474816  67.93 0.0006782975    1.169    0.145
        43  -9.6604     41.9632    155.5263   1.3631135261e+02   3.8471636187e+01    0.2937234    0.2329478  22.11  0.001038601    1.674    0.403
        44  -9.5101     44.7061    131.4145   1.3202324288e+02   4.3818999695e+01    0.2735017    0.1781194 -89.73  0.001433288    1.734    0.423
        45 -10.2691    172.2054    196.8456   1.1317533122e+02   7.2697474673e+00    0.6083912    0.3275719 -61.65  0.001547946    2.726    0.633
        46  -8.5242    136.3139    128.5062   1.0696471299e+02   2.9529008660e+01    0.2878321    0.1413322 -47.21  0.001080334    2.013    0.503
        47  -9.2758    121.0155    128.4918   1.1086623633e+02   3.2691089747e+01    0.2923504     0.210747 -36.00 0.0008166668    1.528    0.346
        48  -8.5704    159.2836    126.9243   1.0101732346e+02   2.4803002572e+01    0.2233537    0.2062865 -49.77 0.0005291545    1.079    0.073
        49  -8.9229    109.6414    124.4011   1.1290116450e+02   3.5837979594e+01     0.266645    0.2460992 -36.31 0.0006563924    1.127    0.113
        50  -7.5541    176.4437    120.5377   9.5554718618e+01   2.2186975458e+01    0.1552074    0.1529585  -6.41 5.118209e-05    1.071    0.066
        51  -8.9002    247.8850    117.7424   8.1638453324e+01   6.6718392962e+00    0.2382857    0.2081031 -28.14 0.0005230545    1.154    0.134
        52  -7.9937    114.4889    118.4442   1.1016106058e+02   3.6270900031e+01    0.1505705    0.1448031 -72.12 7.093741e-05    1.026    0.026
        53  -7.5997    233.4737    117.4292   8.3879743194e+01   9.7533707914e+00    0.1460407    0.1325682 -58.56 0.0001466878    1.072    0.067
        54  -9.2486    195.8867    183.6851   1.0568234390e+02   5.0863024715e+00    0.3301063    0.2060291 -36.33  0.001061225    1.691    0.409
        55  -8.4036    183.2380    143.1335   9.9538919483e+01   1.5916243669e+01    0.2144203    0.2062873  -2.69 0.0003543131    1.094    0.086
        56  -9.7432     98.5828    111.8868   1.1290859713e+02   4.0715587081e+01    0.3205917     0.240193 -43.22 0.0009557999    1.290    0.225
        57  -8.4007    180.9960    194.7293   1.1093282878e+02   5.9455980649e+00    0.2979889    0.1901904 -73.24  0.001197168    2.803    0.643
        58  -9.1845    172.5050    190.9747   1.1200928722e+02   8.3608982772e+00    0.3034721     0.241723 -85.23  0.001528155    1.630    0.387
        59 -11.2814     64.7502    108.3384   1.2187178948e+02   4.6758491478e+01    0.7520482     0.583598  -6.37  0.004142234    1.636    0.389
        60  -9.0240    164.5674    180.4985   1.1169538181e+02   1.2090346898e+01    0.3301187    0.2544649  89.33  0.001179865    1.695    0.410
        61  -9.7204    139.4849    180.2636   1.1725563603e+02   1.7190382994e+01    0.5095251    0.3300981  61.21  0.001326441    1.714    0.417
        62  -8.3800     54.8057     91.0000   1.2085183694e+02   5.1837313129e+01    0.3176321   0.07569806  31.20  0.001034505    4.783    0.791
        63  -8.2264     30.6074     86.2494   1.2752856728e+02   5.5335117639e+01    0.1928693    0.1421216  37.88 0.0008617164    1.663    0.399
        64  -8.6325    221.7955    178.7624   9.9539153353e+01   9.0013459254e-01    0.1833934    0.1695143 -76.69 0.0005465554    1.347    0.258
        65  -8.7158    185.9947     73.2861   8.1261176543e+01   2.8875703251e+01    0.2298774    0.2055525 -44.24 0.0002904236    1.145    0.126
        66  -9.8856    204.6752    176.5428   1.0243333040e+02   4.6713901374e+00    0.3558942    0.3142089 -36.87 0.0008124246    1.148    0.129
        67  -9.8662    147.0554     65.6829   8.7098785094e+01   3.9698545630e+01    0.4310226    0.2082124 -41.61  0.001718509    2.137    0.532
        68 -11.2340    152.7301     59.6223   8.4039649385e+01   3.9322161800e+01    0.5634087    0.4838863 -31.67 0.0009576872    1.234    0.190
        69  -9.8029    241.3850     61.6750   6.9946514450e+01   1.7480910231e+01    0.2406442    0.2214905 -77.30 0.0002260625    1.105    0.095
        70  -8.7612    127.0447     59.9647   9.0137198392e+01   4.5247489516e+01    0.2064171    0.1990444  33.28  0.001192526    1.030    0.029
        71  -8.2720    245.7827     57.3857   6.8463258492e+01   1.7151637931e+01    0.1796579    0.1188318  57.90 0.0006937928    1.633    0.388
        72  -8.9260    197.7086    177.3642   1.0401655595e+02   5.9233973738e+00    0.2781036    0.1825857  59.33  0.001247765    1.852    0.460
        73 -10.3963    168.6820     37.0773   7.4376951396e+01   3.8641149035e+01    0.4006068    0.3458189  28.66 0.0008522797    1.323    0.244
        74 -10.3451    137.8888     36.8088   8.0235851928e+01   4.6127041296e+01    0.2288687    0.2162765   4.42 0.0002742371    1.121    0.108
        75  -8.5982    168.3485    242.3891   1.2150103212e+02  -1.3763309797e-01    0.2206328    0.1621559 -54.47   0.00130391    1.662    0.398
        76 -10.6201    135.0063    170.6752   1.1646259222e+02   2.0202041904e+01    0.6884151    0.4304411  57.37  0.002934767    1.711    0.416
        77  -7.7808    115.6302     12.7127   7.7117546536e+01   5.3837839629e+01    0.1398557   0.08100819  34.38 0.0007021041    1.708    0.415
        78  -6.6196      6.8547    235.5038   1.5027315489e+02   2.5002685913e+01    0.2319938    0.1270422  66.40  0.001581969    1.387    0.279
        79  -9.9276    156.3378    229.8987   1.2199397915e+02   4.1076942667e+00    0.3766214    0.1569465  48.28   0.00158871    2.182    0.542
        80 -10.6179    162.0107    227.0306   1.2042078221e+02   3.5884293209e+00    0.4497632    0.3885036  66.26  0.002744363    1.215    0.177
