#   1 NUMBER                 Running object number                                     
#   2 MAG_AUTO               Kron-like elliptical aperture magnitude                    [mag]
#   3 X_IMAGE                Object position along x                                    [pixel]
#   4 Y_IMAGE                Object position along y                                    [pixel]
#   5 X_WORLD                Barycenter position along world x axis                     [deg]
#   6 Y_WORLD                Barycenter position along world y axis                     [deg]
#   7 A_WORLD                Profile RMS along major axis (world units)                 [deg]
#   8 B_WORLD                Profile RMS along minor axis (world units)                 [deg]
#   9 THETA_WORLD            Position angle (CCW/world-x)                               [deg]
#  10 FWHM_WORLD             FWHM assuming a gaussian core                              [deg]
#  11 ELONGATION             A_IMAGE/B_IMAGE                                           
#  12 ELLIPTICITY            1 - B_IMAGE/A_IMAGE                                       
         1 -15.0746     38.9697    199.8741   1.3485379392e+02   2.7769588091e+01     14.16562       5.2415 -89.43   0.01223591    6.773    0.852
         2 -12.7891    199.5081     34.5142   6.1220563374e+01   3.1695692531e+01     1.140591    0.9748119  67.07  0.007449162    1.240    0.194
         3 -13.4520    216.7463     17.2516   5.5767792049e+01   3.0017308664e+01    0.9949296    0.8205854  49.07   0.00676923    1.654    0.395
         4 -12.4669      2.2021     13.5322   1.0735249456e+02   7.0738204095e+01    0.7737671    0.3128557 -48.51  0.004045249    3.245    0.692
         5 -11.1125      2.5519      4.1357   1.0316223312e+02   7.1884307358e+01    0.4165087    0.1926604 -33.79  0.002693248    1.893    0.472
         6 -10.0834    226.2583    201.4258   9.3001183302e+01  -3.6553620071e+00    0.3060038     0.207547 -54.70 0.0009125589    1.803    0.446
         7 -10.2901    124.1634    249.6510   1.2239029890e+02   4.1568395205e+00    0.2486843    0.1738173  84.37  0.001292368    1.911    0.477
         8  -8.9492     62.9930    250.5007   1.3496216349e+02   1.3270595307e+01    0.1872511    0.0758532  56.14  0.000752822    2.446    0.591
         9 -12.1364      4.4918    184.7912   1.4103640581e+02   3.4858231795e+01    0.6165553    0.3932523 -87.38  0.001003258    1.284    0.221
        10 -13.2467      5.3854    225.1860   1.4398490565e+02   2.5566854386e+01     1.949888    0.5657709 -72.64  0.008659522    2.767    0.639
        11 -13.2282      9.9738    207.2384   1.4176539003e+02   2.9135486882e+01    0.9718259    0.7469671  53.56  0.002942245    1.329    0.247
        12 -11.3192     38.3293    245.6655   1.3929172678e+02   1.7505332308e+01    0.5572889    0.3868558  64.84   0.00355733    1.182    0.154
        13 -11.4274     29.0423    249.4420   1.4131113492e+02   1.7839453649e+01    0.6657419    0.3310465  37.32  0.003683628    2.050    0.512
        14 -12.3670     14.2554    240.0231   1.4334878849e+02   2.1471355399e+01     1.120951    0.3478326  52.25  0.004327657    2.748    0.636
        15 -11.1419     14.2219    248.9188   1.4393872799e+02   1.9626585120e+01    0.5411017    0.2310459  63.16  0.000921913    2.095    0.523
        16 -11.2430      8.2979    250.2653   1.4505642168e+02   1.9986495973e+01    0.8607194     0.193965  44.40  0.003180356    3.148    0.682
        17  -8.8669    191.5240    192.0378   9.8055765781e+01   4.0744475930e+00    0.2089776    0.1278036 -66.91 0.0008096865    2.715    0.632
        18  -8.2223    181.5320    192.4603   1.0026351581e+02   5.8215194463e+00    0.1454041    0.1389562 -11.87 9.403051e-05    1.002    0.002
        19 -11.5477     62.7580    184.7135   1.2732525372e+02   2.8452674095e+01    0.3160983     0.256449 -48.55  0.000680656    1.349    0.258
        20 -12.5207     27.4585    224.0443   1.3962055872e+02   2.3489704281e+01    0.3320766    0.2843681 -67.31  0.000774817    1.357    0.263
        21 -13.7094     33.7444    216.6085   1.3767682869e+02   2.4452888130e+01    0.9527906    0.7456439  82.12  0.002562586    1.042    0.040
        22 -10.6161     73.6068    172.8984   1.2275556771e+02   2.9871786969e+01    0.2784427    0.2327137 -59.20 0.0004352079    1.147    0.128
        23 -12.9018     59.9987    170.3568   1.2588273017e+02   3.2429247068e+01    0.5669703    0.2938563 -44.14  0.001639788    2.224    0.550
        24 -11.6201     81.8172    164.4479   1.1912964870e+02   3.0759341899e+01    0.6411572    0.6195265  20.74    0.0036478    1.173    0.148
        25 -10.2871     89.9915    245.9811   1.2904874667e+02   1.0282851492e+01    0.2223374    0.1374054  67.17 0.0009780956    1.730    0.422
        26  -9.6426     95.3160    149.4938   1.1253940827e+02   3.2305288101e+01    0.2905891    0.2726617 -62.76 0.0008023423    1.009    0.009
        27 -11.7269     83.6657    148.1413   1.1549523305e+02   3.4577616497e+01    0.3278759    0.2545382 -45.29 0.0006414619    1.273    0.214
        28 -12.1616     67.5877    143.8316   1.1919029132e+02   3.8079399274e+01    0.7460848    0.5298942  69.13  0.003230357    1.759    0.432
        29  -8.9403     98.6360    145.6327   1.1080226781e+02   3.2686306889e+01    0.2230682     0.175546 -21.05  0.000480027    1.573    0.364
        30 -11.5887     56.2399    192.2395   1.2993752093e+02   2.7468454940e+01     0.724884    0.3518703 -41.01 0.0006014564    3.163    0.684
        31  -9.1128    108.3810    135.1278   1.0574382639e+02   3.3476364709e+01    0.3167245    0.2397282  -4.71 0.0009438671    1.838    0.456
        32 -10.1900     94.9650    132.2597   1.0884828931e+02   3.6605116020e+01    0.2767927    0.2409916 -18.55 0.0004961928    1.281    0.220
        33 -11.1079     56.8661    130.8157   1.1975390404e+02   4.2744399205e+01    0.6368814    0.2981584 -76.46  0.002060682    3.866    0.741
        34  -9.0351    105.8022    122.5890   1.0344861918e+02   3.6929922602e+01    0.1982985    0.1826426  42.75 0.0004264828    1.126    0.112
        35  -9.7114    167.8074    112.6465   8.5397502753e+01   2.5955054083e+01    0.3664585    0.2757431 -87.96  0.001110082    1.682    0.405
        36  -8.5660    203.4790    111.4643   7.8155969194e+01   1.8288946964e+01    0.1454298    0.1352311 -57.15 0.0003296656    1.056    0.053
        37 -10.7923     18.2797    233.1514   1.4211967401e+02   2.2504078400e+01     0.228231    0.1918897 -71.14  0.001464286    1.376    0.273
        38 -10.7185    244.3222     97.5397   6.8892794823e+01   1.2477195190e+01    0.2525987    0.1071586 -42.58  0.001098894    2.052    0.513
        39  -8.9370    160.2969     78.6640   7.8289410498e+01   3.4159636550e+01     0.150358    0.1101714 -76.04 0.0003963478    1.651    0.394
        40 -10.9890      1.9834     61.2387   1.2300228370e+02   6.2998035205e+01    0.4591518    0.1206643 -60.57  0.001776545    3.842    0.740
        41 -10.6780     13.0183     61.5076   1.1865231692e+02   6.2229483305e+01    0.2137343    0.1547968 -61.27  0.001039651    1.576    0.366
        42 -10.8378      2.2364     46.5500   1.1887902867e+02   6.5658002611e+01    0.3465043    0.0766268 -54.41  0.001372718    3.830    0.739
        43 -10.3819    106.0275    241.0739   1.2508592959e+02   8.7958490689e+00    0.2192155    0.1447681  67.49 0.0004150658    1.684    0.406
        44 -14.3634    100.1599    230.2679   1.2493334879e+02   1.2029349183e+01     5.415119    0.9364787  44.29   0.01495243    4.991    0.800
        45  -9.4687     26.0243     29.5437   1.0268478232e+02   6.6346151957e+01    0.1869854    0.1595583  29.45  0.001368632    1.569    0.363
        46 -11.3522     19.7446     26.7398   1.0435765704e+02   6.7385975827e+01    0.3467181    0.2101746  36.89   0.00132474    2.113    0.527
        47 -10.6172    149.3738    228.6665   1.1387722503e+02   4.0973622181e+00    0.3413056    0.1695596  38.16  0.001487228    1.873    0.466
