#   1 NUMBER                 Running object number                                     
#   2 MAG_AUTO               Kron-like elliptical aperture magnitude                    [mag]
#   3 X_IMAGE                Object position along x                                    [pixel]
#   4 Y_IMAGE                Object position along y                                    [pixel]
#   5 X_WORLD                Barycenter position along world x axis                     [deg]
#   6 Y_WORLD                Barycenter position along world y axis                     [deg]
#   7 A_WORLD                Profile RMS along major axis (world units)                 [deg]
#   8 B_WORLD                Profile RMS along minor axis (world units)                 [deg]
#   9 THETA_WORLD            Position angle (CCW/world-x)                               [deg]
#  10 FWHM_WORLD             FWHM assuming a gaussian core                              [deg]
#  11 ELONGATION             A_IMAGE/B_IMAGE                                           
#  12 ELLIPTICITY            1 - B_IMAGE/A_IMAGE                                       
         1 -10.0112     40.8110     12.5850   7.5988297170e+01   6.8724977674e+01    0.2318017    0.1470724 -26.70  0.001405062    1.425    0.298
         2  -9.9986     57.1517      9.8841   6.7655262097e+01   6.6555983906e+01    0.2209974    0.1388787  46.80  0.001256606    1.722    0.419
         3  -9.5677     48.1829     10.2247   7.1516661584e+01   6.7951315831e+01    0.1522442    0.1397962 -10.03 0.0009577901    1.380    0.275
         4  -9.3383     91.6607      9.3468   5.6028665384e+01   6.0016289299e+01    0.1243016    0.1007528 -66.00 0.0007047096    1.785    0.440
         5  -9.7316     71.8266      6.6382   6.0776252905e+01   6.4270667432e+01    0.1729702    0.1130798  57.77 0.0009528274    1.774    0.436
         6  -9.4208     34.6758      5.3796   7.5185188993e+01   7.0473954934e+01     0.102251   0.09336549 -45.93 0.0007022148    1.836    0.455
         7  -9.3640     24.4806      4.9782   8.0152478173e+01   7.1791936565e+01    0.1387739   0.09622921 -50.71 0.0008095713    2.479    0.597
         8  -9.3288     63.6507      1.3067   6.0980480059e+01   6.6298166080e+01    0.1073106   0.09840999 -68.19 0.0007042805    1.705    0.414
         9  -9.6338    171.0684    225.5270   9.4275215217e+01   3.1468578143e+00    0.1861822    0.1121688  37.14 2.988925e-05    1.439    0.305
        10 -11.2713    125.8223    221.0117   1.0297040045e+02   1.1348729041e+01    0.2728213      0.24661 -17.59  0.001144368    1.344    0.256
        11 -10.1252     88.2966    227.3345   1.1152514004e+02   1.5856237658e+01    0.1117896   0.09801131 -17.97 0.0003258295    1.647    0.393
        12  -9.8016    131.4834    214.5090   1.0085365176e+02   1.1661324922e+01    0.1332276    0.1191226  40.47 3.393184e-05    1.033    0.032
        13  -9.7829     89.0452    199.5322   1.0813028576e+02   2.1464371773e+01    0.1972327   0.09083595  55.88 0.0007920591    2.440    0.590
        14 -10.0695    126.6707    197.3972   9.9321225935e+01   1.5880155758e+01      0.25905    0.1705638 -51.10   0.00130477    1.633    0.388
        15 -11.0763    173.0331    195.9338   8.8859741381e+01   7.9784338733e+00    0.2758029    0.2595326 -68.36 0.0009824694    1.289    0.224
        16  -9.7645    174.3022    192.2831   8.7916182480e+01   8.4276956099e+00    0.1900827    0.1701054  63.74 0.0006677588    1.344    0.256
        17  -9.5745     67.3459    195.6701   1.1253209508e+02   2.5375218903e+01    0.1423393   0.08484693  67.02 0.0007050085    1.756    0.431
        18  -9.8718    157.1531    188.3742   9.0926028973e+01   1.2303701109e+01    0.2112078    0.1246972  48.01 0.0009488364    1.725    0.420
        19  -9.9521     56.6518    188.3290   1.1412775653e+02   2.8402055084e+01    0.1417718   0.08328229  67.21 0.0007049291    1.760    0.432
        20 -10.3704    110.3144    186.7580   1.0141122793e+02   2.0915383795e+01    0.3487163    0.1832461  70.61  0.001150671    3.975    0.748
        21 -10.5756     13.4525    184.8257   1.2332485628e+02   3.3775728402e+01    0.2193427     0.197319 -15.40  0.001583099    1.656    0.396
        22  -9.9488    212.0383    183.2161   7.8445900709e+01   3.2935007049e+00    0.1839717     0.106141  37.51 0.0007271997    1.708    0.414
        23  -9.5006     45.0250    183.0000   1.1621203982e+02   3.1005160806e+01    0.1919277   0.06971376  31.74 0.0008000377    2.926    0.658
        24 -11.4029     97.0526    187.8871   1.0469903352e+02   2.2806339357e+01    0.5305493     0.203137  45.06  0.002075011    2.469    0.595
        25 -10.5849     78.8173    176.7243   1.0745506577e+02   2.8110712229e+01    0.5371746    0.1380426  48.30  0.001575083    4.648    0.785
        26  -9.7263     60.9514    177.6478   1.1188778522e+02   3.0322473334e+01    0.2279009   0.06578545  51.17 0.0007040285    4.366    0.771
        27  -9.3857     13.6731    177.3444   1.2272893874e+02   3.5432454626e+01    0.1306339   0.07017587  68.03 0.0007050671    1.744    0.427
        28  -9.9011    204.5053    176.0450   7.8469350967e+01   5.8842655600e+00    0.2167347    0.1329586 -37.06  0.001035221    1.597    0.374
        29  -9.4050     45.3316    172.6524   1.1503439093e+02   3.3375825852e+01    0.1415905    0.0839592  69.47 0.0007049158    1.766    0.434
        30  -9.8706    207.8222    170.3910   7.6639007390e+01   6.2831393994e+00    0.2046762    0.1257314  28.78 0.0007813647    1.730    0.422
        31 -10.0264    122.5292    170.5098   9.5706286192e+01   2.2437917727e+01    0.2715095    0.1250046  49.15  0.001024884    2.322    0.569
        32  -9.8949     55.8158    170.2276   1.1221106367e+02   3.2715165024e+01    0.2411893    0.1159586  66.74 0.0009575165    2.838    0.648
        33 -10.0330    101.2183    167.1880   1.0040393964e+02   2.6886006965e+01    0.3942423    0.1265477  51.21   0.00109364    4.646    0.785
        34  -9.7434    140.4712    165.9936   9.0489040249e+01   2.0118157604e+01      0.32041    0.1848863  69.94  0.001046858    3.659    0.727
        35 -10.1423     81.1286    165.2639   1.0517769480e+02   3.0486589906e+01    0.3867623    0.2023696  68.22  0.001441885    3.013    0.668
        36  -9.7861     38.4903    165.0167   1.1583701234e+02   3.5929482862e+01    0.1867967   0.09350567  80.85 0.0008083534    2.423    0.587
        37 -10.1582     94.0651    161.3475   1.0121722323e+02   2.9433856101e+01    0.2945848    0.1671835  51.64  0.001285968    1.878    0.468
        38  -9.9696      9.5153    161.0511   1.2238556770e+02   3.9507166789e+01    0.1846253   0.07834169  78.51 0.0008093925    2.633    0.620
        39  -9.4172     23.6618    160.3255   1.1895503792e+02   3.8490895571e+01    0.1343066   0.07853988  68.53 0.0007051437    1.724    0.420
        40 -10.1694    107.2023    159.0013   9.7410110167e+01   2.7804033337e+01    0.4173445    0.1553483  51.28   0.00130047    3.564    0.719
        41 -10.5494     51.2252    156.2818   1.1156057104e+02   3.6620110631e+01    0.4832007     0.168593  52.22  0.001686794    3.719    0.731
        42  -9.9389    219.0645    156.0811   7.1413490714e+01   6.7381602007e+00    0.2099298    0.1922322 -15.29 0.0004055159    1.056    0.053
        43 -10.4600     83.1825    155.7612   1.0309650868e+02   3.2472903453e+01    0.3506438    0.2012673  56.71  0.001529234    2.014    0.503
        44 -10.4233     69.1357    154.6072   1.0662191329e+02   3.4766991833e+01    0.4124815     0.199969  52.25  0.001718002    2.343    0.573
        45  -9.9734    134.2720    154.1409   8.9569661033e+01   2.3957679605e+01    0.3083696    0.1986957  65.69  0.001247616    2.179    0.541
        46  -9.8860     99.7594    151.6284   9.7959198488e+01   3.0830986194e+01    0.2182759    0.1300943  48.19 0.0009517639    1.742    0.426
        47  -9.9713     30.0137    151.1939   1.1640066613e+02   4.0088207327e+01    0.2233725    0.1187245  60.14  0.001088473    2.078    0.519
        48 -10.5361     40.3906    148.3458   1.1334651608e+02   3.9752205064e+01    0.4802075    0.2000681  53.79  0.001947698    2.931    0.659
        49 -11.3507    109.0822    146.5191   9.4468120114e+01   3.0441392810e+01    0.7590905    0.3709541  62.19  0.002276242    4.147    0.759
        50 -11.1848     57.2546    146.7273   1.0858727133e+02   3.8238515603e+01     0.592981    0.2736911  57.20  0.002313035    2.907    0.656
        51 -10.7650    150.2532    146.2124   8.3907796748e+01   2.2540680717e+01    0.4766739    0.2895263  70.06    0.0016629    3.057    0.673
        52  -9.6894     78.8073    147.6028   1.0285638192e+02   3.5116687513e+01    0.2041902    0.1262439  47.90 0.0007098975    1.692    0.409
        53  -9.9728     14.1373    146.6941   1.1996933430e+02   4.2524216557e+01    0.2207046   0.09045597  35.69   0.00105172    2.551    0.608
        54 -10.5411     89.3395    144.6984   9.9443099880e+01   3.4217248302e+01    0.4984718    0.2201591  48.17  0.001876657    2.531    0.605
        55 -10.8145    197.2139    143.1264   7.2748656029e+01   1.3419974271e+01    0.3199591    0.2485744 -43.08 0.0005927953    1.276    0.216
        56 -10.4774    126.8433    144.5257   8.9382843656e+01   2.7603133262e+01    0.4320689    0.2394059  63.12    0.0014969    2.948    0.661
        57 -10.5845     24.3186    138.9528   1.1646426262e+02   4.3560284659e+01    0.4389821    0.2003415  61.78  0.001885423    2.853    0.649
        58 -10.2490     39.8024    136.3703   1.1186423777e+02   4.2749584264e+01    0.2813769    0.1422601  42.06  0.001183385    2.123    0.529
        59 -10.4086    114.7613    134.5684   9.0358416977e+01   3.2246845848e+01    0.3615165    0.1315624  47.72  0.001141126    3.136    0.681
        60 -11.5116     85.3620    132.7602   9.8191221555e+01   3.7771365797e+01    0.7255235     0.293998  47.09  0.002596669    2.845    0.649
        61 -10.2704    144.4456    132.8056   8.2196034296e+01   2.6716892855e+01    0.3021111    0.1875849  64.69   0.00114592    2.339    0.572
        62 -11.2520    133.8392    132.7764   8.4882053292e+01   2.8918954769e+01    0.5789016    0.2667747  52.41  0.001997124    2.633    0.620
        63 -11.1747    101.5073    129.6341   9.2914756971e+01   3.5842451662e+01    0.7261364    0.3755046  55.27   0.00268924    2.583    0.613
        64 -10.9640     74.5056    130.4214   1.0086072441e+02   3.9979687809e+01    0.3914992    0.2209437  53.72  0.001675737    2.147    0.534
        65 -10.5582     13.6736    130.0315   1.1831807030e+02   4.6548684581e+01    0.3862814    0.1952057  69.70  0.001832518    2.419    0.587
        66 -10.1636    154.1204    130.3415   7.9222818711e+01   2.5203020286e+01    0.3315443    0.1978265  68.23  0.001148483    2.905    0.656
        67  -9.4142      2.3118    130.6241   1.2146122028e+02   4.7156085345e+01     0.129183   0.07494228  71.90 0.0007029943    1.789    0.441
        68 -10.7298    120.7990    127.0813   8.6967955749e+01   3.2846936509e+01    0.7098719    0.2939345  53.87  0.002153821    3.558    0.719
        69 -11.5236     61.2364    125.6246   1.0385228976e+02   4.2964873426e+01    0.6657897    0.3395841  56.09  0.002674027    2.706    0.630
        70 -11.4512     45.2490    124.1568   1.0837424963e+02   4.5196270632e+01     0.757109    0.3947132  68.08   0.00298018    3.128    0.680
        71 -11.4786     29.8472    123.4108   1.1283516119e+02   4.6874014664e+01    0.8545238    0.3792984  65.85  0.003022585    4.202    0.762
        72 -10.0196    160.2265    122.9758   7.5928082745e+01   2.5454381165e+01    0.2794205    0.1768253  82.87  0.000892067    3.582    0.721
        73 -11.2289    143.8898    120.3958   7.9244354936e+01   2.9585425365e+01     0.618071    0.3433873  52.09  0.002415903    1.981    0.495
        74 -10.4512     72.6183    121.0203   9.9500809220e+01   4.2565878240e+01    0.4393805    0.2182465  46.23   0.00181213    2.294    0.564
        75 -10.4632    132.7209    120.0230   8.2024624655e+01   3.2045545311e+01    0.5554349    0.2559395  56.81  0.001756907    3.227    0.690
        76 -10.5342      4.1291    118.3820   1.1967202988e+02   4.9952983371e+01     0.371982    0.1839682  63.67  0.001818004    2.514    0.602
        77 -11.0057    111.1807    115.9775   8.6895505035e+01   3.7305146153e+01    0.5487206     0.380742  74.62  0.002263003    2.191    0.544
        78 -11.1815     80.8718    114.3200   9.5491422258e+01   4.2972231084e+01    0.6704326    0.3856518  61.68  0.002597349    2.729    0.634
        79 -11.5018     95.4644    113.8883   9.0960277884e+01   4.0674420085e+01    0.8129341    0.3282834  44.30  0.002892439    2.688    0.628
        80 -10.5946    124.2675    113.8612   8.2696099778e+01   3.5190998531e+01    0.4803438    0.2064649  44.96  0.001694233    2.403    0.584
        81  -9.8491    176.7238    113.2364   6.9704982909e+01   2.3759944019e+01    0.2512392     0.120924  39.03 0.0008956747    2.390    0.582
        82  -9.6384    160.6474    113.3167   7.3329313823e+01   2.7390523148e+01    0.1624568    0.1267948 -84.56 0.0007046711    1.739    0.425
        83 -11.2068     68.4941    112.0231   9.8822692428e+01   4.5343373698e+01    0.5227405    0.2672647  47.84  0.002177985    2.358    0.576
        84 -10.8585     15.0310    111.4461   1.1556324282e+02   5.0926893666e+01     0.417518    0.2486219  77.35  0.002177526    1.994    0.499
        85 -10.0738    134.2950    110.3132   7.9063693831e+01   3.3872944730e+01    0.3179435    0.1938024  65.62  0.001172526    2.473    0.596
        86 -11.6910     47.2015    103.7407   1.0391122728e+02   4.9981006354e+01    0.9065398    0.4480809  61.07  0.003191246    4.098    0.756
        87 -11.5633     24.1399    103.6689   1.1148375080e+02   5.2136010852e+01    0.7626103    0.3665437  63.46  0.002998085    3.695    0.729
        88 -10.8410    142.0198    106.1246   7.5927522654e+01   3.3090159315e+01    0.5533022    0.2244352  54.38  0.001729423    3.133    0.681
        89 -10.4144    151.4962    104.7574   7.3200954592e+01   3.1246428108e+01    0.3703538    0.2421498  86.21  0.001290337    3.012    0.668
        90 -11.0581    130.9787    103.5349   7.8088982579e+01   3.6065933549e+01    0.5671587    0.2646264  52.94  0.001987417    2.519    0.603
        91 -10.5876      8.0607    103.8936   1.1667129480e+02   5.3166761342e+01    0.3448844    0.1829465  40.80  0.001857439    2.256    0.557
        92 -11.6863    112.4088    100.9221   8.2534104930e+01   4.0500980731e+01     1.025436    0.4657424  56.85  0.003166414    3.668    0.727
        93 -10.4868     84.0978    101.3262   9.1274376525e+01   4.5550668777e+01     0.492481    0.2704535  51.15  0.002008982    2.303    0.566
        94 -10.8105     97.3156     98.1193   8.6266814583e+01   4.4009550461e+01    0.6006759    0.2785856  41.14  0.002315231    2.260    0.558
        95 -11.4185     66.4449     97.5941   9.6080378021e+01   4.9080576403e+01    0.7740423    0.3594423  47.41  0.003030425    2.794    0.642
        96 -10.6986    141.3571     93.4736   7.2526498030e+01   3.5876749276e+01    0.5313933    0.2594805  58.23  0.001846674    2.624    0.619
        97 -11.0099    128.1797     92.5419   7.5700593928e+01   3.9010607895e+01    0.8158673    0.2984337  51.14   0.00256586    3.127    0.680
        98 -10.6526      7.6653     92.9809   1.1519195478e+02   5.5758355258e+01    0.5266763    0.1582379  30.03  0.002273097    3.664    0.727
        99 -11.1672     36.5056     90.8627   1.0481167583e+02   5.4130549623e+01    0.5006035    0.3290904  52.39  0.002465295    1.982    0.496
       100 -11.3271     89.5933     88.2497   8.5890202360e+01   4.7592014218e+01    0.8500906    0.3772869  48.69  0.003094324    2.819    0.645
       101  -9.5884    152.9721     90.0000   6.8686970842e+01   3.3880571746e+01    0.2617754   0.08924177  50.29  0.000806632    2.972    0.663
       102 -11.3276     50.6290     86.2481   9.8691473319e+01   5.3727257304e+01    0.6400617    0.3666148  59.11  0.002658512    3.048    0.672
       103 -10.8052    108.9756     86.0000   7.9197383045e+01   4.4419990150e+01    0.6436513    0.2317298  40.25  0.002129812    2.944    0.660
       104 -10.4812    105.4950     84.4863   7.9780957108e+01   4.5432237437e+01    0.3393828    0.3074625  86.74  0.001556397    1.336    0.252
       105 -10.1274    142.9765     84.3310   6.9428738139e+01   3.7318911699e+01     0.409763     0.192086  57.29  0.001438125    2.526    0.604
       106 -11.0722     26.0781     81.7564   1.0658350239e+02   5.7144641748e+01    0.4858406    0.2857156  50.53  0.002271304    2.368    0.578
       107 -10.6189     11.5292     81.9836   1.1196502453e+02   5.8088356643e+01    0.5228565    0.1386138  37.27  0.001950601    4.776    0.791
       108 -10.0279    121.2504     81.8675   7.4386078969e+01   4.2697777125e+01    0.2790029    0.2121998  57.15  0.001111392    1.464    0.317
       109 -10.9000     75.8915     81.6768   8.8514793935e+01   5.1309264920e+01    0.3591247    0.2387807  63.87  0.001551642    2.452    0.592
       110  -9.5262    152.0239     81.5131   6.6421202818e+01   3.5725886103e+01    0.2436383    0.1527446  51.95  0.001038848    1.609    0.378
       111 -10.7062    130.9305     77.0374   7.0260577659e+01   4.1489182878e+01    0.5292377    0.2990069  53.53  0.002167242    1.875    0.467
       112 -10.3588     62.4291     78.1274   9.2217177389e+01   5.4064519139e+01    0.2527335    0.1832279  73.23  0.001190228    2.298    0.565
       113  -9.4216    159.0030     77.2517   6.3582101129e+01   3.4833509343e+01    0.2115156    0.1311121  53.36 0.0009000972    1.619    0.383
       114  -9.8231    142.9260     76.3890   6.7032512757e+01   3.8832260361e+01    0.3678675    0.1482793  51.87   0.00127046    2.506    0.601
       115 -11.0226     84.4028     74.2766   8.3326874795e+01   5.1475910248e+01     0.627061     0.393977  63.91  0.002515364    2.849    0.649
       116 -10.0869     44.0315     73.7898   9.7834075544e+01   5.7271109516e+01    0.2622954    0.1754232  40.47  0.001404662    1.810    0.448
       117  -9.8048    117.1426     73.6685   7.2948718600e+01   4.5189336689e+01    0.3041671    0.1400932  54.48  0.001083389    2.601    0.616
       118 -10.1854    108.1653     73.0637   7.5365815303e+01   4.7200444152e+01    0.4560171    0.1897449  52.34  0.001563877    2.938    0.660
       119 -10.3673     96.3842     72.5629   7.8839073896e+01   4.9639838062e+01    0.3770033    0.2878423 -85.13  0.001723081    2.127    0.530
       120 -10.0222      7.6648     73.2167   1.1172289776e+02   6.0292444592e+01     0.265714    0.1388258  38.31  0.001416789    2.473    0.596
       121 -10.9991     53.0396     71.1038   9.3625228243e+01   5.6812088658e+01    0.4968551    0.3541043  59.48  0.002523195    2.127    0.530
       122 -10.8091     17.7832     70.8587   1.0730283133e+02   6.0213588474e+01    0.3523078    0.2072507  33.00  0.001972255    2.073    0.518
       123 -10.0128    140.2453     67.5672   6.4927040601e+01   4.1049777399e+01    0.2987849     0.150406  58.16  0.001137017    2.177    0.541
       124  -9.9578    123.4733     67.2941   6.9118344567e+01   4.4977706940e+01     0.322927    0.1919746  63.18  0.001297552    2.197    0.545
       125 -10.5262     39.3535     65.5231   9.7316736087e+01   5.9556316491e+01    0.4595876    0.2365444  45.38  0.002086458    2.799    0.643
       126  -9.9629    148.9869     69.3566   6.3436354410e+01   3.8647938464e+01    0.3607662     0.142621  53.58  0.001251561    2.515    0.602
       127 -10.2380    112.3355     65.2494   7.1546872777e+01   4.7792395038e+01    0.4535061    0.2025707  54.81  0.001627061    2.715    0.632
       128 -10.0729    102.4157     62.1530   7.3441445643e+01   5.0426966301e+01    0.2915572     0.202632  63.76  0.001327421    1.959    0.489
       129 -10.9422     75.9014     60.8292   8.1787528927e+01   5.5592891983e+01    0.6580198    0.2726291  46.83  0.002483226    3.011    0.668
       130 -10.4885     26.8780     60.3030   1.0092044909e+02   6.1826234663e+01    0.3791313     0.183158  38.45  0.001833233    2.672    0.626
       131  -9.5276     90.1893     60.4242   7.6729822176e+01   5.3138123193e+01    0.1987349    0.1368013  52.61 0.0009498899    1.725    0.420
       132  -9.8203    132.2434     59.0138   6.4111159914e+01   4.4391091072e+01    0.2754355     0.200296  69.51  0.001284837    1.642    0.391
       133 -11.0205      9.3748     58.3598   1.0777985499e+02   6.3457119281e+01    0.4734053    0.2484124  38.07   0.00254195    2.556    0.609
       134 -10.2347    121.3197     57.3992   6.6378246000e+01   4.7177916268e+01    0.4239099    0.2297446  63.00    0.0016468    2.433    0.589
       135 -10.5189     55.1309     55.1494   8.7646890452e+01   5.9808475948e+01    0.4078893    0.3056835 -84.39  0.001995847    2.569    0.611
       136 -10.5033     45.4089     56.6501   9.2091497382e+01   6.0731008883e+01     0.353172    0.2242599  49.04  0.001777446    2.316    0.568
       137 -10.6627     64.3820     55.7196   8.4241036572e+01   5.8386051383e+01    0.4083554    0.2486827  44.32  0.002008184    1.961    0.490
       138  -9.9949    107.7316     54.8547   6.9287515408e+01   5.0591410681e+01    0.2750944    0.1997948  77.90  0.001239719    2.159    0.537
       139 -10.8352     33.1791     52.8387   9.5985782492e+01   6.2800887408e+01    0.4793602     0.264333  44.41  0.002351432    2.656    0.624
       140 -10.2480     22.2529     53.4851   1.0092654455e+02   6.3622774149e+01    0.3533453    0.1762445  30.08  0.001848922    2.338    0.572
       141 -10.7895     94.5529     52.0839   7.2310935437e+01   5.3768451773e+01    0.4756624    0.2941914  55.64  0.002172309    1.976    0.494
       142 -10.2695     83.5665     47.7754   7.4329870267e+01   5.6593340331e+01      0.39188    0.2205373  57.80  0.001629012    2.712    0.631
       143  -9.5018    124.4862     47.3156   6.2070802011e+01   4.8046482010e+01    0.2663929    0.1288712  53.51  0.001078646    2.001    0.500
       144 -10.4859     46.5376     45.4299   8.7671229717e+01   6.2755714656e+01    0.3845164    0.2076062  37.84  0.001935057    2.136    0.532
       145 -10.6437     18.6463     45.6468   1.0014909563e+02   6.5483622635e+01    0.3994364    0.1823002  27.44  0.002067856    2.490    0.598
       146 -10.5644     71.5912     42.8415   7.6679278840e+01   5.9528464060e+01    0.4767109    0.2633798  53.80   0.00207572    2.684    0.627
       147 -10.3709     59.6910     43.8255   8.1639764468e+01   6.1249169914e+01     0.307848     0.236051  56.73  0.001685424    1.971    0.493
       148 -10.7899      6.4841     43.1546   1.0503930990e+02   6.6767596092e+01    0.3517284    0.2568177  50.95  0.002183856    2.094    0.522
       149 -10.1396    107.7988     42.3498   6.4719935285e+01   5.2545636376e+01    0.3487457    0.2255794  63.40  0.001617099    1.900    0.474
       150 -10.3138     38.3315     41.7275   8.9852104741e+01   6.4404934407e+01    0.3313957    0.1977004  44.93  0.001700333    2.445    0.591
       151 -10.1832     96.9789     39.2324   6.6701838324e+01   5.5301987865e+01    0.3509887    0.1919743  59.70  0.001491296    2.366    0.577
       152  -9.9461     82.5367     37.9190   7.0827487433e+01   5.8351349884e+01    0.2693842    0.1849588  60.56  0.001330111    2.034    0.508
       153 -10.5412     27.2878     36.7004   9.3027540096e+01   6.6464960740e+01     0.224606    0.2069627  74.26  0.001528327    1.721    0.419
       154 -10.0526    113.5223     36.1404   6.0857629655e+01   5.2149760738e+01    0.2851971    0.1946863  75.67  0.001323574    2.046    0.511
       155  -9.6173    121.4690     34.3145   5.8191389584e+01   5.0567100684e+01    0.2577572    0.1238283  56.83  0.001069463    2.000    0.500
       156 -10.4671     62.6749     33.7246   7.6361796128e+01   6.2450884583e+01    0.3863117    0.2161593  50.10  0.001830848    2.407    0.584
       157 -10.5288     51.2408     33.6456   8.0999381263e+01   6.4178823804e+01     0.321516    0.2125739  47.02  0.001738001    2.057    0.514
       158 -10.4811     74.6291     32.4865   7.1355689413e+01   6.0607681171e+01    0.4246218    0.2075142  52.31  0.001834669    2.591    0.614
       159 -10.4975     13.9836     31.2804   9.7509398356e+01   6.8574279672e+01    0.2931952    0.2479994  74.63  0.001832012    2.059    0.514
       160  -9.6343    103.0183     30.4688   6.1529822732e+01   5.5223103275e+01    0.2127005    0.1286506  52.19  0.001029712    1.593    0.372
       161  -9.6408     42.9761     30.5205   8.3283304714e+01   6.5792983253e+01    0.1790243    0.1150607  27.19  0.001028366    1.581    0.367
       162 -10.3462     83.0899     28.7605   6.6884089449e+01   5.9548019458e+01    0.3612879    0.2490438  76.48  0.001638378    2.856    0.650
       163 -10.3724      4.7492     28.4278   1.0121728443e+02   6.9706374361e+01    0.2316403    0.1723628  42.90   0.00154041    2.047    0.511
       164 -10.2327     93.4361     27.7871   6.3227754539e+01   5.7599677389e+01    0.3832763    0.2441179  71.86  0.001721028    2.561    0.609
       165  -9.2911    111.0386     28.0000   5.8436893749e+01   5.3754841790e+01    0.2268319   0.07366013  55.79 0.0007950961    2.892    0.654
       166  -9.4796     40.4897     25.4967   8.2226076344e+01   6.6909264466e+01    0.1247224    0.1007983 -11.14 0.0008104115    1.030    0.029
       167 -10.6445     50.7780     22.3704   7.6242298164e+01   6.5963430741e+01    0.4064709    0.1943104  44.21  0.001958468    2.454    0.592
       168 -10.4542     64.9594     21.5150   7.0134592051e+01   6.3816119151e+01    0.3112772    0.2295297  54.47  0.001780214    1.800    0.444
       169  -9.6209     20.6612     22.3080   9.0518310100e+01   6.9593799938e+01    0.1495275    0.1434382  84.34 0.0008121589    1.767    0.434
       170 -10.4848     75.9106     20.6056   6.5785257845e+01   6.1961610253e+01    0.4307528    0.2228058  54.83  0.002004991    2.297    0.565
       171  -9.1980     12.4896     21.4702   9.4466963569e+01   7.0425002979e+01    0.1173498   0.08818274 -25.54 0.0001650282    1.013    0.013
       172  -9.7707     40.3221     19.2103   7.9426152276e+01   6.7875530528e+01    0.2004625    0.1978307 -41.07  0.001426958    1.629    0.386
       173  -9.8793     90.1992     18.4065   6.0297183871e+01   5.9390098402e+01    0.2584026    0.1105281  48.88  0.001036565    2.074    0.518
       174  -9.9378     31.9020     17.2340   8.2517648362e+01   6.9213561187e+01    0.2337705    0.1564875  44.84  0.001360878    2.262    0.558
       175 -10.0943     98.6233     16.0629   5.6961471035e+01   5.7854481075e+01    0.2688397    0.1706523  77.51   0.00124909    2.411    0.585
       176  -9.1676      8.3229     15.6652   9.4288578929e+01   7.1713820348e+01   0.09332021   0.09084883 -78.24 0.0007050619    1.709    0.415
       177  -9.6111     18.2053     14.4380   8.8278181857e+01   7.1085519575e+01    0.1446123    0.1001744  29.77 0.0009449381    1.740    0.425
       178 -10.9409    166.0959    248.8913   9.8670643342e+01   2.8340067338e-01    0.1897542    0.1516063  46.17  0.001250104    1.263    0.208
       179  -9.6218     84.7866     11.5700   5.8952193703e+01   6.1228454135e+01    0.1757713    0.1207037  62.94 0.0009503323    1.723    0.420
       180 -10.5525    246.3612    247.5239   8.3744947706e+01  -1.0982910860e+01    0.2612153    0.1388235  33.69  0.001581393    1.713    0.416
       181 -10.6552    173.5063    244.0206   9.6561599249e+01  -1.3014495041e-01     0.163688    0.1224719 -39.89  0.001030938    1.585    0.369
       182 -10.1332    236.8690    240.0935   8.4181929536e+01  -8.8570997755e+00    0.2812377    0.1225934  26.16  0.001418392    2.157    0.536
       183  -9.4946     73.6576    229.3274   1.1466469503e+02   1.7499789999e+01     0.132856   0.07514488  64.12 0.0007051164    1.740    0.425
       184 -11.2936    164.0032    225.7068   9.5733426706e+01   4.2721233984e+00     0.362063    0.2422872  50.89  0.001767665    1.592    0.372
       185 -10.7394     99.5157    226.1534   1.0910070251e+02   1.4448089270e+01     0.284482    0.1763886  31.94  0.001538812    1.663    0.399
