#   1 NUMBER                 Running object number                                     
#   2 MAG_AUTO               Kron-like elliptical aperture magnitude                    [mag]
#   3 X_IMAGE                Object position along x                                    [pixel]
#   4 Y_IMAGE                Object position along y                                    [pixel]
#   5 X_WORLD                Barycenter position along world x axis                     [deg]
#   6 Y_WORLD                Barycenter position along world y axis                     [deg]
#   7 A_WORLD                Profile RMS along major axis (world units)                 [deg]
#   8 B_WORLD                Profile RMS along minor axis (world units)                 [deg]
#   9 THETA_WORLD            Position angle (CCW/world-x)                               [deg]
#  10 FWHM_WORLD             FWHM assuming a gaussian core                              [deg]
#  11 ELONGATION             A_IMAGE/B_IMAGE                                           
#  12 ELLIPTICITY            1 - B_IMAGE/A_IMAGE                                       
         1 -14.4115    196.6246     14.4542   6.8563850513e+01   3.3667593693e+01     3.175494     1.815585  26.06   0.01068761    2.242    0.554
         2 -13.3672    201.6111      7.6586   6.5823218328e+01   3.3023362349e+01     1.363845    0.6501173  48.42  0.001492016    2.162    0.537
         3 -10.8591    163.7555    226.1480   1.2183882934e+02   1.0664466507e+01    0.2075925    0.1158322  29.01  0.001254136    2.084    0.520
         4 -10.3325    163.0840    249.1927   1.2439374315e+02   8.2409401490e+00     0.166827    0.1294809  58.30  0.001416267    1.313    0.238
         5 -11.1985    139.7699    250.2522   1.2793490516e+02   1.1367034911e+01    0.3176242   0.09222198  46.03  0.001699311    2.404    0.584
         6 -11.2042    124.8834    250.0150   1.3011613904e+02   1.3410356164e+01    0.3304157   0.09716757  43.74  0.001792259    2.412    0.585
         7 -10.0790    109.9050    250.5489   1.3237002442e+02   1.5320403539e+01    0.1506136   0.06868713  44.94 0.0008166219    1.570    0.363
         8 -11.1217     98.4643    249.8222   1.3400111044e+02   1.6873359946e+01    0.2404588    0.1611593  69.85  0.002016188    1.364    0.267
         9 -11.6207    102.5020    247.5179   1.3323894891e+02   1.6646591970e+01    0.2833274    0.1755974  56.70  0.001099016    1.180    0.153
        10 -10.5780     88.7124    248.9879   1.3537691908e+02   1.8194347174e+01     0.193832    0.1222614  62.51 0.0006975639    1.230    0.187
        11 -11.5470     81.5475    248.5548   1.3639910188e+02   1.9123091167e+01    0.5976797     0.208525  62.70  0.003130198    3.443    0.710
        12 -11.6916     83.5331    244.4007   1.3583958234e+02   1.9421624749e+01    0.3972361    0.1854962  63.74  0.002681966    1.969    0.492
        13  -9.8142     74.0130    250.4766   1.3761217739e+02   1.9772057379e+01    0.1418455   0.06566167  46.00 0.0005656596    1.555    0.357
        14 -11.8016     66.7660    242.9758   1.3823459760e+02   2.1607909072e+01    0.3596478    0.1630472  53.62 0.0004956944    1.529    0.346
        15 -10.9197     67.2441    249.9637   1.3856053110e+02   2.0625331078e+01    0.2232387    0.1780815  82.73  0.001224188    1.365    0.267
        16 -10.2200     63.5077    250.5577   1.3913015595e+02   2.0974335090e+01    0.1747877   0.08839849  47.92 0.0005975006    1.407    0.289
        17 -15.0005      4.0041     17.3173   1.2568834875e+02   7.0930939901e+01     21.01506     1.286037 -63.17   0.03326754   21.957    0.954
        18 -13.6121     32.3858    245.9215   1.4334304137e+02   2.4937878810e+01     1.397215     0.410596  42.29   0.00889975    2.456    0.593
        19  -9.2801    229.4907    229.5155   1.1233133126e+02   5.0546953609e-01    0.1041872    0.0758296  32.15 0.0008098232    1.054    0.051
        20 -11.2259    173.9752    222.2361   1.1977582081e+02   9.5635246360e+00     0.292153    0.1852279  51.37  0.001363988    1.367    0.268
        21 -15.6750      8.5934    240.2972   1.4648051188e+02   2.8004708490e+01     6.745897    0.8919697 -72.19   0.03284518    6.161    0.838
        22 -10.0534    186.0036    239.0169   1.1990889885e+02   5.9869530075e+00    0.1490258    0.1082701  62.11 0.0004934456    1.687    0.407
        23  -9.0601    152.7023    212.9598   1.2207841284e+02   1.3951884977e+01    0.1399687    0.1189288  52.75 0.0003618666    1.113    0.102
        24 -10.8223    193.1000    194.9889   1.1302830763e+02   9.6710898517e+00    0.5312064    0.2978215 -64.64  0.002051359    6.104    0.836
        25 -11.7432     71.3718    196.8131   1.3429886174e+02   2.7930977922e+01    0.3453002    0.2802317  40.36  0.001549438    1.485    0.327
        26 -11.7498     76.5916    189.5165   1.3273927960e+02   2.8476737646e+01    0.2177631    0.2028783 -67.53 0.0007629744    1.484    0.326
        27 -11.1273     84.8774    177.2187   1.2999796024e+02   2.9480559638e+01    0.2084756    0.1670551  75.67 0.0003648659    1.069    0.065
        28 -13.3407     72.6923    174.8331   1.3206978988e+02   3.1520540721e+01    0.3719634    0.2481965 -45.96  0.001773693    2.256    0.557
        29 -12.3142     50.3467    129.7858   1.3183702570e+02   4.2950634902e+01     0.381844    0.2539511  72.12  0.001248777    1.405    0.288
        30 -13.9530     11.2284    206.9370   1.4494790815e+02   3.2754448406e+01     1.047833    0.6616879  46.99  0.003536951    1.452    0.311
        31 -13.2892     67.5697    144.5424   1.2977944859e+02   3.7878538470e+01     1.106084     0.559558  81.36  0.005242693    2.702    0.630
        32 -10.2564    102.6402    151.4275   1.2324460729e+02   3.1554515607e+01    0.2765845    0.2541309  34.73  0.001059498    1.331    0.248
        33  -9.4515    105.2308    147.1983   1.2207321893e+02   3.1939201063e+01    0.2323938    0.1872335 -17.64  0.001361597    2.001    0.500
        34 -12.0629     91.6934    151.0163   1.2547341110e+02   3.3289693879e+01    0.2309844    0.2210431  52.16 0.0005702953    1.286    0.223
        35 -12.1970     46.6025    148.6272   1.3471749417e+02   3.9582622614e+01    0.4345352    0.2030966 -66.96  0.002485099    1.950    0.487
        36  -8.5838    192.2589    143.9942   1.0433831812e+02   1.6539591251e+01    0.1495103    0.1133058 -31.78 0.0003046062    1.426    0.299
        37 -12.8010     48.7443    231.0443   1.4026644538e+02   2.5306747311e+01    0.2695937    0.2266904 -87.64  0.000915656    1.484    0.326
        38 -10.0047    112.6127    136.6995   1.1879518098e+02   3.2722966446e+01    0.2517338     0.211523  -5.81  0.001206148    1.776    0.437
        39 -10.6606    100.2703    134.0188   1.2105597273e+02   3.5261965531e+01    0.2374608    0.2040818 -33.25 0.0005371957    1.532    0.347
        40 -12.9626     58.2623    132.2120   1.3031574241e+02   4.1522364585e+01      1.84986    0.5783231 -77.58  0.005198491    7.234    0.862
        41 -15.2479     56.8266    218.5773   1.3829566318e+02   2.6243854796e+01     5.393572    0.7731574  44.14   0.02022082    3.842    0.740
        42 -12.6552     90.1433    167.4519   1.2788424083e+02   3.0476670705e+01     2.218192    0.4727696  50.24  0.007446387    4.894    0.796
        43  -9.4628    108.9211    123.8046   1.1730356558e+02   3.5853868267e+01    0.1756768    0.1702001  58.16 0.0003312852    1.155    0.134
        44 -11.0555    168.3546    113.4299   1.0226442658e+02   2.6234154992e+01    0.3746175     0.303349 -82.83  0.001241198    1.588    0.370
        45 -10.9541    248.6128    248.6185   1.1214711767e+02  -3.6247618042e+00    0.2202004    0.1366304  26.57  0.001776772    1.153    0.133
        46  -9.7431     35.8602    230.3444   1.4216933328e+02   2.6779778746e+01     0.193405   0.06423269  53.01  0.001242042    2.019    0.505
