#   1 NUMBER                 Running object number                                     
#   2 MAG_AUTO               Kron-like elliptical aperture magnitude                    [mag]
#   3 X_IMAGE                Object position along x                                    [pixel]
#   4 Y_IMAGE                Object position along y                                    [pixel]
#   5 X_WORLD                Barycenter position along world x axis                     [deg]
#   6 Y_WORLD                Barycenter position along world y axis                     [deg]
#   7 A_WORLD                Profile RMS along major axis (world units)                 [deg]
#   8 B_WORLD                Profile RMS along minor axis (world units)                 [deg]
#   9 THETA_WORLD            Position angle (CCW/world-x)                               [deg]
#  10 FWHM_WORLD             FWHM assuming a gaussian core                              [deg]
#  11 ELONGATION             A_IMAGE/B_IMAGE                                           
#  12 ELLIPTICITY            1 - B_IMAGE/A_IMAGE                                       
         1 -12.0706    146.9588     43.2047   8.1940497613e+01   4.3261183797e+01     2.468312     1.206347  80.08  0.006807328    4.941    0.798
         2  -9.6753    182.4971      2.6209   6.3132669067e+01   3.8451842341e+01      1.09238    0.4393632 -87.72  0.003538967    3.865    0.741
         3 -10.7947    205.4051     18.1259   6.4846604881e+01   3.0936483437e+01     1.796439    0.7195714 -70.87  0.004861377    5.747    0.826
         4 -11.1657    229.5923     25.6760   6.4199524249e+01   2.4011775364e+01     0.522366    0.3441234  40.41  0.001817272    1.934    0.483
         5 -12.8144    218.7115     34.9904   6.7764502124e+01   2.5571822462e+01     3.960216      1.26927 -47.47   0.01335609    3.345    0.701
         6  -9.1887    236.5573      1.6575   5.7845284169e+01   2.4950624337e+01    0.6941211    0.4028772  17.26  0.002976742    3.591    0.721
         7 -11.0557    239.9746     13.4875   6.0313213433e+01   2.2911205601e+01    0.5650259    0.2845545 -65.00  0.001509172    2.105    0.525
         8 -10.8364    237.2925     10.6277   5.9869214177e+01   2.3850651881e+01    0.5623049    0.2213281 -57.54  0.002100881    2.766    0.638
         9  -8.6795    209.3771     13.1849   6.3100273945e+01   3.0447439788e+01    0.2749994    0.1909317 -78.69 0.0006370833    1.424    0.298
        10  -9.8327    221.5752     13.6723   6.2005747097e+01   2.7329461932e+01     0.562671    0.2316174 -58.22  0.002174212    2.857    0.650
        11 -12.1448    119.9822      9.7433   7.5633784577e+01   5.3985952959e+01    0.8438405    0.6243665  62.37  0.003344097    1.290    0.225
        12 -10.1301    143.5077      7.8687   7.0337578288e+01   4.8233259059e+01    0.4691129    0.2300557  -2.56  0.001854277    2.938    0.660
        13 -10.3628    212.3743      4.2924   6.0500942848e+01   3.0587557403e+01     0.558898    0.2094197 -52.26  0.001423657    2.859    0.650
        14  -9.6608      6.2637      8.5722   1.1988431098e+02   7.2966592758e+01    0.1864418   0.09552484  21.98  0.001153471    2.162    0.537
        15  -9.2057    172.1865      2.6121   6.4372936518e+01   4.1167240967e+01    0.3741339    0.2313685 -62.22  0.001364718    1.840    0.457
        16  -8.7818    248.6107      2.6329   5.7192394622e+01   2.2068854283e+01    0.2564184    0.1650504  84.42  0.001426704    1.441    0.306
        17  -7.9659    228.0398     11.9662   6.0985708017e+01   2.5925300480e+01    0.1557316    0.1343113 -56.70 0.0004217827    1.106    0.096
        18  -8.3921    187.4685     10.0139   6.4681485145e+01   3.6453270744e+01    0.3115428    0.1575017 -86.63  0.001244009    2.434    0.589
        19  -8.7634    150.4826      2.4979   6.7351033306e+01   4.6883201127e+01    0.1408506    0.1223581  61.29 0.0008104261    1.007    0.007
        20  -8.7479    188.7249    137.0456   9.9604294107e+01   1.6389756284e+01    0.2502352    0.2078478  42.46 0.0004380162    1.158    0.136
        21  -9.1749     55.1447    250.1640   1.4417164109e+02   1.8573574763e+01    0.1665807    0.1152177  54.62  0.000412532    1.127    0.113
        22 -11.6756    243.0052    129.5003   8.7690819370e+01   5.9731619970e+00    0.7351583    0.5950214 -33.60  0.003432685    1.200    0.166
        23 -10.3780    234.8165    129.5576   8.9072116272e+01   7.6348240484e+00    0.3306696    0.2793026  31.73 0.0007386678    1.184    0.156
        24 -11.3683    243.1485     84.8686   7.7132151596e+01   1.2773587547e+01      1.01753    0.5064334 -33.89  0.004123878    1.846    0.458
        25 -12.4642    241.7791    111.0834   8.3611490269e+01   9.0693362556e+00     1.442438    0.8142002 -33.36  0.006695544    1.645    0.392
        26  -8.1333    120.9823    130.9341   1.1423773714e+02   3.2375986516e+01    0.2084073    0.2027729  60.90            0    1.018    0.018
        27  -8.2091    160.6588    127.3044   1.0349599440e+02   2.4635973059e+01     0.158217    0.1249753  86.28 0.0007040563    1.680    0.405
        28 -10.5215    185.2112    121.6387   9.6607954606e+01   2.0056739549e+01    0.5361164    0.4063614  10.75  0.002451871    1.635    0.388
        29  -7.8139    163.6180    120.7747   1.0118323394e+02   2.5266533752e+01    0.2058816    0.1483321 -51.24 0.0002802515    1.511    0.338
        30 -11.6081    243.5173     99.5979   8.0618492264e+01   1.0465736836e+01    0.7894572    0.4090637 -31.98  0.003502713    1.802    0.445
        31  -9.0700    215.1651    116.6804   8.9470284409e+01   1.4007449794e+01    0.2956164    0.1407883  59.30  0.001087929    2.577    0.612
        32  -7.6927    181.1411    114.8633   9.5757014011e+01   2.2287176910e+01     0.208619    0.1794364  13.27 0.0002699482    1.266    0.210
        33 -10.0595    167.3574    112.9745   9.8317836087e+01   2.5929542358e+01    0.4181152    0.3330885 -82.41 0.0008019261    1.651    0.394
        34  -9.1959    203.8532    110.9071   9.0140524775e+01   1.7613437950e+01    0.2464406    0.2056327  10.62  0.001229713    1.325    0.246
        35 -11.1838    187.4965    102.1455   9.1090974313e+01   2.3100639546e+01      1.01355    0.3116889 -34.20  0.002967187    3.523    0.716
        36  -8.7463    149.6973     94.4642   9.7442100352e+01   3.3785984336e+01    0.3219008    0.2612107  -2.74 0.0007851032    1.487    0.328
        37  -8.1885    135.2178     92.7861   1.0064174109e+02   3.7514138363e+01    0.2339032    0.2093337 -77.41 0.0009211565    1.272    0.214
        38  -8.7523    159.3273     86.3021   9.2784110465e+01   3.2991866275e+01    0.3055294    0.2295665  30.73 0.0006193996    1.466    0.318
        39  -9.5411    162.3775     83.8345   9.1364169332e+01   3.2683593636e+01    0.5997663    0.3753589 -52.61  0.002457957    1.862    0.463
        40  -9.0563    250.0767     85.3174   7.6288391448e+01   1.1194085610e+01    0.2718211    0.1822281 -39.28  0.000662658    1.358    0.264
        41  -8.2617    248.3438    249.6895   1.0987796432e+02  -1.0422142555e+01   0.09739769   0.08133576  40.65 0.0007045387    1.701    0.412
        42 -11.3853    165.5274     54.3758   8.1707842567e+01   3.6798867646e+01     1.809057    0.9684702 -73.54  0.004975243    5.032    0.801
        43 -11.6553    177.4201     52.5732   7.8880412334e+01   3.3935120968e+01    0.6011616    0.3980053   2.82  0.001636392    2.221    0.550
        44 -10.9471    183.1588     81.0205   8.6146324053e+01   2.7910111136e+01    0.9507142    0.4656294 -41.26  0.003434543    2.064    0.515
        45 -11.1612    177.2814     71.5449   8.4574906804e+01   3.1012793210e+01    0.9027493    0.6779222 -15.54   0.00174237    1.549    0.354
        46  -9.4263    143.4682     83.1495   9.5668434423e+01   3.7465275654e+01    0.3360199     0.288461 -37.44  0.000731831    1.189    0.159
        47  -9.0291    231.2394     78.7593   7.7329483792e+01   1.6401478862e+01    0.3556124     0.245303 -74.90  0.001402306    1.910    0.476
        48  -8.1465    214.6790    242.6468   1.1458020148e+02  -4.6838219634e+00    0.1246839   0.07526102  14.71            0    1.752    0.429
        49  -8.9701    216.0481     21.3574   6.4524933009e+01   2.7864833319e+01    0.3104535    0.2267309 -48.73  0.000719185    1.322    0.244
        50  -8.9666    122.8872    238.8280   1.3105610568e+02   1.0797887741e+01    0.1782704    0.1431663  37.09 0.0006280456    1.249    0.200
        51  -8.3800     33.1285    228.3278   1.4660263947e+02   2.4937762968e+01    0.1565727    0.1202498  88.06 0.0003698197    1.246    0.197
        52 -11.2092    227.8726     48.2541   7.0061553167e+01   2.1585197849e+01     1.329641    0.4533334 -49.87  0.004379523    3.494    0.714
        53 -11.9661      4.4061    222.1667   1.5118997192e+02   2.8965966967e+01    0.6940415    0.3654369 -88.09  0.004847784    1.564    0.361
        54 -10.6758    158.7289     73.2475   8.9016173350e+01   3.5488446066e+01    0.3913472    0.3080835 -15.48 0.0008723967    1.443    0.307
        55  -9.3114    167.9718     69.4415   8.5849041418e+01   3.3768590956e+01    0.3459193    0.1771781 -51.41  0.001247432    2.436    0.590
        56  -7.8285    152.1250     70.2115   8.9589892527e+01   3.7684288940e+01    0.2073271    0.1826917 -73.83 0.0003948531    1.295    0.228
        57  -9.1876    207.5668     66.2273   7.7665068021e+01   2.4069192346e+01    0.6627612    0.3433346 -69.88   0.00203582    4.081    0.755
        58  -8.1886    189.6643     67.0346   8.0920886712e+01   2.8531580645e+01    0.2006321    0.1886648 -26.52 0.0002985914    1.103    0.094
        59 -10.4789    204.1531     57.2786   7.5751052541e+01   2.6266345184e+01     1.107106    0.5546463 -65.39  0.003607758    3.567    0.720
        60 -10.2402    194.9359     55.2008   7.6633364718e+01   2.8951436875e+01    0.5012692    0.3862672 -69.28 0.0007549336    1.445    0.308
        61 -10.3699    200.5392     50.6277   7.4457844244e+01   2.8147451675e+01    0.4438107    0.3059728  35.85   0.00120466    1.719    0.418
        62  -9.6818    184.5637     64.1996   8.1028654763e+01   3.0301049302e+01    0.2808656    0.2554464  41.65  0.000371032    1.116    0.104
        63  -9.3399    244.9129     54.4479   6.9551093953e+01   1.6725960421e+01    0.2312255    0.2170068  64.38 0.0005431827    1.159    0.137
        64  -8.8086    130.3507     54.9229   8.9910646972e+01   4.5630041708e+01    0.2335893    0.2067159  65.24 0.0004024973    1.214    0.176
        65  -8.3290    249.0324     50.4410   6.8131819245e+01   1.6328024518e+01    0.2687576    0.1626077 -11.24  0.000641105    2.374    0.579
        66  -8.7581     28.2252     43.1082   1.2184035692e+02   6.5089280168e+01    0.1827696    0.1359044 -80.45  0.001070851    2.023    0.506
        67  -7.7859    186.0830     40.5652   7.3811019002e+01   3.3309804786e+01    0.2227258    0.1394665  66.00 0.0003953618    1.524    0.344
        68  -7.9587    250.7044     34.7390   6.4285340250e+01   1.7961607316e+01    0.1755877    0.1031992 -39.55 0.0004685432    1.522    0.343
        69  -7.6101     73.6915     34.3070   9.9628681398e+01   6.0767889107e+01    0.1203907    0.1091293 -72.96 0.0002726043    1.613    0.380
        70 -10.3498    140.5400     31.6956   7.9343886045e+01   4.6439605725e+01     0.267169     0.251148  34.82 0.0003236974    1.040    0.039
        71  -8.8111    178.9841     28.8439   7.1409040939e+01   3.6665158967e+01    0.2356362    0.1973511 -59.96  0.000408612    1.249    0.199
        72 -10.2097    128.0214     22.8093   7.8864003589e+01   5.0654639653e+01    0.3620411    0.1974038  58.34  0.001612265    1.683    0.406
        73  -7.4043     52.7148    205.6502   1.4137271902e+02   2.6917312332e+01    0.1029473   0.08791155 -50.67 0.0007020056    1.656    0.396
        74 -12.5291     30.5361    198.4995   1.4517090012e+02   3.0875402917e+01    0.7144196    0.5388401  71.26  0.002722598    1.030    0.029
        75 -10.9705     38.3198    192.0495   1.4313878141e+02   3.1332762472e+01    0.3854723    0.3379314  20.43  0.001123314    1.646    0.392
        76  -8.5227    249.9464     75.9508   7.4081679809e+01   1.2585589196e+01    0.2044257    0.1836521 -47.64 0.0003236509    1.038    0.037
        77 -12.6286     46.1261    184.2044   1.4083857823e+02   3.2070436909e+01    0.9600842    0.8741949  44.94  0.004655711    1.352    0.260
        78  -8.9113    231.9664     16.6055   6.1753884073e+01   2.4471503852e+01    0.2481183    0.1498041 -51.38 0.0006098156    1.544    0.352
        79  -7.7544    208.2971    198.3006   1.0839058529e+02   2.1773046477e+00    0.1347075   0.09199671  12.89 0.0002538524    1.577    0.366
        80  -9.9202    177.6996    200.3486   1.1478406909e+02   7.5093246729e+00     0.230993    0.2014664  37.66 0.0002781919    1.063    0.059
        81  -7.4181    203.3403    160.6843   1.0191426265e+02   9.0681140416e+00    0.1388985    0.1173965  86.99 0.0007048122    1.705    0.413
        82  -7.9400      6.4496    154.4326   1.4702361280e+02   4.2263197967e+01    0.1123568   0.08702494 -89.76 0.0001621277    1.037    0.036
        83  -9.8792    241.2239    149.6093   9.2477906855e+01   3.2670996704e+00    0.3721185     0.244531  71.72  0.001532355    2.976    0.664
        84  -7.7488    192.5906    149.5433   1.0166255241e+02   1.3267990094e+01    0.1471642    0.1376697  18.66 0.0001012599    1.015    0.015
        85  -9.0362    123.5517    145.9918   1.1680064602e+02   2.8552753429e+01    0.2541202     0.204008  44.41 0.0004438605    1.197    0.164
        86 -10.2155     67.6501    144.2693   1.3092181355e+02   3.8225478772e+01    0.5828165    0.3261941  54.48  0.001862507    1.895    0.472
        87  -9.4161    241.4890    142.9818   9.0975775216e+01   4.2153498522e+00    0.2140893    0.1275558 -29.66  0.001033155    1.596    0.373
