#   1 NUMBER                 Running object number                                     
#   2 MAG_AUTO               Kron-like elliptical aperture magnitude                    [mag]
#   3 X_IMAGE                Object position along x                                    [pixel]
#   4 Y_IMAGE                Object position along y                                    [pixel]
#   5 X_WORLD                Barycenter position along world x axis                     [deg]
#   6 Y_WORLD                Barycenter position along world y axis                     [deg]
#   7 A_WORLD                Profile RMS along major axis (world units)                 [deg]
#   8 B_WORLD                Profile RMS along minor axis (world units)                 [deg]
#   9 THETA_WORLD            Position angle (CCW/world-x)                               [deg]
#  10 FWHM_WORLD             FWHM assuming a gaussian core                              [deg]
#  11 ELONGATION             A_IMAGE/B_IMAGE                                           
#  12 ELLIPTICITY            1 - B_IMAGE/A_IMAGE                                       
         1 -12.7955     72.4089      9.0223   7.7684223613e+00   6.5755330179e+01    0.6126736    0.2228408 -28.29  0.002080334    2.910    0.656
         2 -11.5100     92.1766      8.1415   2.2777813477e+00   6.0881297606e+01    0.2490396    0.1850007 -17.15 0.0009294026    1.571    0.363
         3 -11.6648     77.6387      6.5946   4.9923229342e+00   6.4705857035e+01    0.3169258    0.1150752  63.92  0.001236628    2.360    0.576
         4 -13.2764     36.7940      4.8000   2.0186086205e+01   7.4199266776e+01    0.2755577    0.2424184  39.37 0.0007022812    1.096    0.087
         5 -10.5872    139.6584      4.2750   3.5363072871e+02   4.8960238462e+01    0.1428009   0.08479206 -66.69 0.0006241213    1.618    0.382
         6 -10.6795    114.0342      1.7558   3.5576267016e+02   5.5781412572e+01    0.1818365    0.1021544  76.61 0.0008736828    1.563    0.360
         7 -10.7624     25.4590      1.5623   2.5170479930e+01   7.6733860615e+01    0.1262664    0.1079982  20.02 0.0001346942    1.005    0.005
         8 -11.3156    178.1968    247.2048   4.3113089885e+01   1.3220517913e+00    0.1700409     0.117469   3.22 0.0004510181    1.201    0.167
         9 -12.4322    238.3140    250.5274   3.3368108189e+01  -5.0189498056e+00      0.18766   0.09204816  21.99  0.001291535    1.766    0.434
        10 -10.7546    171.0014    250.2797   4.4860789722e+01   1.7014922816e+00     0.155257    0.1126781  11.83 0.0003179949    1.048    0.046
        11 -12.6266    140.0863    248.8053   5.0774867584e+01   5.4375895882e+00    0.3386891    0.3092743 -49.74  0.002111124    1.493    0.330
        12 -11.8159    143.6139    242.8039   4.9337556798e+01   5.9270827860e+00    0.2752658    0.1975318 -26.95  0.001802588    1.516    0.341
        13 -11.5083    114.5195    249.0198   5.6152717420e+01   8.4261870143e+00    0.2826756    0.1702522  53.78  0.001421497    2.126    0.530
        14 -11.0657    107.0939    250.7001   5.7913570174e+01   9.0308981439e+00    0.2773914   0.08531266  29.30 0.0006842681    2.495    0.599
        15 -13.8344     36.7825    227.6687   7.2124245125e+01   2.1264895501e+01    0.7772116    0.4750096 -65.72  0.002869087    1.912    0.477
        16 -12.5393     37.0830    247.4824   7.3093546956e+01   1.7375600709e+01    0.4807758    0.3084969  49.51  0.003094127    1.247    0.198
        17 -12.7499     29.9272    247.9655   7.4686877660e+01   1.7990284567e+01    0.5963774    0.3113683  18.41  0.003269513    1.983    0.496
        18 -13.3953     30.6343    240.2180   7.4184453668e+01   1.9389115538e+01      0.95675    0.6235734  -1.67  0.005422561    2.217    0.549
        19 -13.4451     22.8136    242.1671   7.6013696969e+01   1.9763651287e+01    0.6900801    0.3902171  20.78  0.004001383    1.732    0.423
        20 -14.5060     16.0496    228.2535   7.7012657033e+01   2.3140885690e+01    0.9167084    0.7449998  31.33  0.006312243    1.212    0.175
        21 -12.8213     13.8888    244.3003   7.8046561818e+01   2.0173929623e+01    0.3794531    0.2110885  58.50  0.001466309    1.487    0.327
        22 -14.7111     10.3503    239.4532   7.8671539221e+01   2.1417289351e+01    0.5471505     0.454826 -12.89  0.002668968    1.691    0.409
        23 -13.3146     17.3541    237.7003   7.7061185919e+01   2.1133793999e+01    0.2848759    0.1996605  36.78  0.000723789    1.154    0.134
        24 -15.0957      5.3683    247.2029   7.9955680942e+01   2.0369798765e+01    0.9406008    0.3501182  44.88  0.004554283    1.796    0.443
        25 -13.0175      1.4658    250.1248   8.0841851713e+01   2.0155450011e+01    0.1827301    0.1180317  73.04 0.0007768341    1.450    0.310
        26 -13.9231      6.8871    235.1630   7.9313773467e+01   2.2556768142e+01    0.4979357     0.219118  59.50  0.002705059    1.876    0.467
        27 -13.6292      2.9910    235.4986   8.0184498346e+01   2.2818856076e+01    0.3170014     0.190024  59.87 0.0009116422    1.349    0.259
        28 -11.3742     99.6133    246.8087   5.9162071291e+01   1.0560203604e+01    0.2078083    0.1373488  20.05 0.0005745668    1.329    0.248
        29 -10.2546    246.2716    245.3046   3.1448608025e+01  -5.1497044720e+00    0.1009167   0.05473226  -7.56 0.0001672158    1.537    0.349
        30 -11.0851    132.1203    244.9099   5.1973906756e+01   6.9782908945e+00    0.1770929    0.1407247  35.27  0.001127234    1.251    0.200
        31 -10.7349    216.3133    244.6547   3.6058096479e+01  -2.3201706717e+00   0.08851058   0.07948757  17.12 0.0007046926    1.711    0.416
        32 -11.3573    206.4310    244.1098   3.7645726709e+01  -1.2691490667e+00    0.2054281    0.1169829  34.45  0.001173209    1.951    0.488
        33 -11.0666     94.3491    243.1636   5.9980385070e+01   1.1812172731e+01    0.1809963    0.1564645  82.66 0.0009390877    1.457    0.314
        34 -11.3114    222.8231    242.8754   3.4745360557e+01  -2.7419250879e+00    0.1559336    0.1035973  -4.01 0.0002951391    1.132    0.116
        35 -11.1261    127.6929    242.9813   5.2687364144e+01   7.8167901271e+00    0.2151843    0.1341178  42.49 0.0006603349    1.614    0.380
        36 -12.0747    117.4638    241.3794   5.4705939211e+01   9.3218460855e+00    0.2311497    0.1834803  20.99 0.0007773335    1.037    0.035
        37 -12.3445     67.3705    240.3883   6.5839017317e+01   1.5461278123e+01    0.4608592    0.1878457  33.80  0.001899642    1.822    0.451
        38 -10.5935    180.2429    240.5763   4.1849933164e+01   1.9887038731e+00    0.1623551    0.0880639  16.29 0.0009451595    1.637    0.389
        39 -10.1970    171.2892    240.3233   4.3512402907e+01   3.0396010629e+00     0.117527    0.0738942  -4.51 0.0003099942    1.607    0.378
        40 -10.9669    207.9803    236.4796   3.6312049597e+01  -4.7981467633e-01    0.2080529   0.08833151  23.36  0.001043115    2.133    0.531
        41 -11.3330    137.6257    236.1369   4.9767674970e+01   7.6981874219e+00    0.1958922    0.1392016  32.33 0.0005271253    1.246    0.198
        42 -12.4380     70.1133    234.7563   6.4764844024e+01   1.6207350853e+01    0.4607759    0.2864819  -4.21  0.001444691    2.439    0.590
        43 -11.1720     73.2401    229.0197   6.3548633767e+01   1.6945800318e+01    0.2252628    0.1866128  86.79 0.0009724977    1.405    0.288
        44 -12.1520    165.6981    234.3418   4.3796007583e+01   4.5556109063e+00    0.2130086    0.1720526  15.53 0.0002378512    1.105    0.095
        45 -11.1125     47.9490    235.5026   6.9971389633e+01   1.8534200325e+01    0.1910329   0.09775794  31.05 0.0008511932    1.549    0.354
        46 -11.9130    158.4457    233.4489   4.5120228661e+01   5.5622722906e+00       0.2083    0.1773901  21.60 0.0004972832    1.205    0.170
        47 -11.6299    101.0113    233.9867   5.7570604442e+01   1.2627171897e+01    0.2069977    0.1248346  48.15  0.001036912    1.679    0.404
        48 -11.3961     56.8491    232.2049   6.7672624177e+01   1.8209680082e+01    0.4035268    0.2098101 -57.20  0.002127902    2.312    0.568
        49 -10.4710    243.2077    233.3804   3.0211899748e+01  -3.5645428503e+00    0.1193097    0.0813086  22.12 0.0002944007    1.534    0.348
        50 -10.3370     51.6516    233.6995   6.8993715203e+01   1.8488174723e+01    0.1166021   0.09130953 -10.30 0.0002534348    1.688    0.408
        51 -11.4574     28.7929    226.5424   7.3956946639e+01   2.2294002153e+01    0.4472176   0.09348737  28.92  0.001683133    3.228    0.690
        52 -10.8235     25.6854    233.2840   7.4996190829e+01   2.1228818342e+01    0.1736256     0.133883  66.82 0.0007161978    1.216    0.178
        53 -11.0875     26.2764    229.6639   7.4696323717e+01   2.1900431369e+01    0.2918884    0.1679883  69.18 0.0009681929    1.683    0.406
        54 -12.8448    147.9576    224.2628   4.6038402018e+01   8.3217765088e+00    0.3046165     0.231168  38.23 0.0004146979    1.378    0.274
        55 -11.9885    153.5155    231.4790   4.5858389733e+01   6.4690765901e+00    0.2383219    0.1515424 -48.86 0.0009594294    1.917    0.478
        56 -12.3515    150.1173    229.2520   4.6261618014e+01   7.2424333643e+00    0.3212536     0.277535  48.68  0.001899324    1.509    0.337
        57 -11.3795    216.4771    231.2202   3.4120501668e+01  -7.0187384405e-01     0.183036    0.1213881  16.00 0.0006568115    1.288    0.224
        58 -10.7685    181.7688    231.0219   4.0240020774e+01   3.1414256065e+00    0.1345304   0.08873129 -34.51 0.0003284836    1.567    0.362
        59 -11.3087     61.6193    230.3471   6.6409846547e+01   1.8038025310e+01    0.2948658     0.195742 -83.23  0.001724709    1.800    0.444
        60 -12.5928    194.2998    228.2656   3.7533257478e+01   2.0866605043e+00    0.2875324    0.2102343   4.32 0.0009778327    1.087    0.080
        61 -11.0860    138.3035    227.6650   4.8548398697e+01   8.9978884621e+00    0.1886002    0.1561459 -65.20  0.000782224    1.681    0.405
        62 -12.8372    105.5502    226.3437   5.5700777811e+01   1.3446080194e+01    0.3333947    0.2789912  17.35  0.002147682    1.103    0.093
        63 -11.8509    101.0419    224.0795   5.6494579991e+01   1.4446584692e+01    0.2067715      0.17909  48.75 0.0004180481    1.197    0.165
        64 -12.4320     80.7488    226.8996   6.1575053766e+01   1.6453694964e+01    0.3019688    0.2417586  73.02  0.001181923    1.430    0.301
        65 -13.2184     12.2985    216.5346   7.7462257974e+01   2.5926966170e+01    0.8476365    0.4360192  36.29  0.004658902    1.526    0.345
        66 -13.1275     14.6837    210.1996   7.6630605592e+01   2.7094097001e+01    0.7659994    0.2603278  27.50  0.002633111    2.401    0.584
        67 -12.1143     20.4519    203.5093   7.4868360245e+01   2.8068166329e+01    0.2863142    0.2021267  77.46 0.0006019998    1.344    0.256
        68 -13.8539     21.4643    196.7298   7.4251618724e+01   2.9530897884e+01    0.6798221    0.5020435  16.81  0.003423164    1.474    0.322
        69 -13.3466     32.0071    183.1834   7.0493124809e+01   3.1744131835e+01    0.8244361     0.203601  44.91  0.001253459    3.207    0.688
        70 -11.7603      1.7602    226.9313   8.0248447909e+01   2.4639650586e+01    0.1845643    0.1480938  71.55 0.0006281975    1.194    0.162
        71 -12.7979     13.5151    194.8007   7.6259904969e+01   3.0689441236e+01    0.2837261    0.2395471  58.01 0.0004604808    1.034    0.033
        72 -13.7893     10.7575    190.0994   7.6783556222e+01   3.2027687277e+01    0.9720041    0.4999786  -2.65  0.004172014    3.117    0.679
        73 -13.7945      2.0903    218.9232   7.9965246104e+01   2.6276495042e+01    0.6275768    0.2844976  76.22  0.002061417    2.086    0.521
        74 -13.2554      3.9738    209.7368   7.9250823880e+01   2.8101785601e+01    0.6123552    0.2594579 -79.91  0.002999543    2.396    0.583
        75 -14.2464      3.7826    201.5484   7.9039259334e+01   2.9941297289e+01     0.718631    0.6562637 -39.67  0.003525303    1.429    0.300
        76 -12.2488    119.5368    213.6850   5.0911552039e+01   1.3954915329e+01    0.3655483    0.1551343  41.79  0.001587171    2.253    0.556
        77 -13.2538    115.8307    224.2351   5.3095440339e+01   1.2502448342e+01    0.5680573    0.3190418 -71.89  0.002402284    2.898    0.655
        78 -11.5933    115.6870    215.1966   5.2004256749e+01   1.4192230632e+01    0.2370448    0.1273026 -67.59  0.001087032    2.735    0.634
        79 -11.5301     92.1440    224.1584   5.8598196340e+01   1.5566439515e+01    0.2243843    0.1936271   2.87 0.0008191295    1.246    0.197
        80 -13.0475    160.8573    222.6502   4.3140339640e+01   6.9344125957e+00    0.3960599    0.2317668  35.37  0.002245169    1.616    0.381
        81 -11.8290     52.5918    223.7551   6.8080641373e+01   2.0380347201e+01    0.2711497    0.1748587 -64.09  0.001222003    1.805    0.446
        82 -13.6344     50.0441    217.3051   6.8235293895e+01   2.2008554535e+01    0.7547008    0.4080234 -60.69  0.003906556    2.118    0.528
        83 -13.6015    128.4349    215.3017   4.9086108600e+01   1.2448095705e+01    0.6144081    0.3889458  43.81  0.003324544    1.618    0.382
        84 -12.9360    173.4834    220.4025   4.0294017566e+01   5.6967630316e+00    0.2812435    0.2084057 -29.53 0.0006278128    1.355    0.262
        85 -11.1232    246.6074    220.7879   2.7844335263e+01  -2.4313180064e+00    0.1332979   0.08089365 -33.30 0.0005547447    1.579    0.366
        86 -12.3501    190.3421    220.3062   3.7076606477e+01   3.6600552168e+00    0.2548529    0.1696692  23.33 0.0002960844    1.339    0.253
        87 -11.7323    193.8074    217.0930   3.5954113794e+01   3.7084131189e+00    0.2504359    0.1508517 -36.57 0.0002981634    1.652    0.395
        88 -11.8008     27.4770    219.9587   7.3943107219e+01   2.3795950106e+01    0.2634769    0.1859038  65.25  0.001621275    1.288    0.223
        89 -12.4029     30.1681    216.0831   7.3081047973e+01   2.4359318142e+01    0.4626756    0.2786086  33.90  0.002336114    1.373    0.272
        90 -11.6312    240.2211    220.4190   2.8741052711e+01  -1.7710608963e+00    0.1295514   0.08872923  27.44 0.0007026967    1.654    0.395
        91 -10.6425    197.2140    219.8284   3.5754233804e+01   2.9200494323e+00    0.1590067    0.1080487  -5.41 0.0004654132    1.306    0.234
        92 -12.5606     76.8382    219.0899   6.1772085935e+01   1.8484972051e+01    0.4428772    0.2063346  26.03  0.002042857    1.923    0.480
        93 -13.0675    124.5686    221.8506   5.0819413790e+01   1.1785888356e+01    0.3819837    0.2427447  33.91  0.001475923    1.351    0.260
        94 -12.3469    140.0212    208.5156   4.5530441185e+01   1.2086116377e+01    0.3928358    0.2853889  87.67  0.001973854    2.634    0.620
        95 -12.4284    145.3398    216.1120   4.5460522767e+01   1.0029506758e+01    0.3182819    0.3008912 -76.44  0.001857409    1.451    0.311
        96 -12.2823    141.7770    213.7614   4.5900190714e+01   1.0915150993e+01     0.261908    0.2299032 -77.12  0.001398994    1.613    0.380
        97 -12.0459     92.9028    217.1003   5.7655044062e+01   1.6847441208e+01    0.3932613     0.190195  34.93  0.001081779    1.693    0.409
        98 -11.7052     66.0903    216.6132   6.4191998281e+01   2.0302417841e+01    0.3209616    0.1921832 -54.42  0.001313342    1.961    0.490
        99 -11.1628    161.4103    216.3512   4.2114817558e+01   7.8695176672e+00    0.2036073     0.110624 -38.54 0.0007465921    1.919    0.479
       100 -10.9334    138.4884    217.5343   4.7150244296e+01   1.0698849515e+01    0.1284757    0.1075811  16.58 8.014897e-05    1.004    0.004
       101 -12.3449     22.5620    216.9176   7.4989677778e+01   2.4914136107e+01    0.3162206    0.2017612  35.39 0.0008555657    1.294    0.227
       102 -11.4709     22.9679    213.2154   7.4712684209e+01   2.5676435373e+01    0.3630393    0.1653465  44.42  0.001823631    1.703    0.413
       103 -10.4528    226.3002    216.3169   3.0278173383e+01   1.5478343742e-01    0.1138877   0.06660227  -7.45  0.000319788    1.616    0.381
       104 -12.4579    107.9427    213.7402   5.3646852388e+01   1.5515623914e+01      0.34363    0.2604266 -62.26  0.002011284    1.585    0.369
       105 -11.7646     84.9531    214.6022   5.9324312292e+01   1.8376181362e+01    0.4208752    0.1863951  38.73  0.001918978    1.864    0.464
       106 -11.9218    156.4706    213.4781   4.2713093051e+01   8.9906050525e+00    0.2899504    0.2430768  89.34  0.000556129    2.023    0.506
       107 -11.3151     72.9050    212.3598   6.2092899107e+01   2.0363486212e+01    0.1973842    0.1682671  59.99 0.0002933136    1.170    0.145
       108 -12.8944     36.4044    195.8509   7.0201524882e+01   2.8264829529e+01    0.7438275      0.25076  33.58  0.003054081    2.297    0.565
       109 -11.8948     41.7252    211.5949   6.9915231130e+01   2.4143978499e+01      0.29487    0.2637475 -13.27  0.001149948    1.405    0.288
       110 -13.3248     37.2207    207.0213   7.0756542006e+01   2.5629488612e+01    0.5004517    0.4815437  69.45  0.001158494    1.186    0.157
       111 -11.0882    194.0491    211.9667   3.5117086959e+01   4.4205139920e+00    0.1755654    0.1402018  -4.27  0.000427507    1.026    0.025
       112 -11.0380    172.6056    211.2371   3.9086179958e+01   7.2321808566e+00    0.1684205    0.1030106 -28.69 0.0009439052    1.644    0.392
       113 -11.1521     97.1770    209.9214   5.5785408387e+01   1.7722463315e+01     0.233057    0.1565343 -74.31  0.001225444    1.909    0.476
       114 -13.3837    180.2326    207.4439   3.7000946360e+01   6.8394926652e+00    0.2823128    0.2270464  10.51 0.0005732841    1.075    0.069
       115 -11.2003     26.4247    208.2350   7.3589316707e+01   2.6443206233e+01    0.2421866    0.1527587  84.81  0.001347053    1.610    0.379
       116 -11.4789     26.9969    204.6342   7.3243253860e+01   2.7194732748e+01    0.3332551    0.1720756  31.51  0.001689237    1.636    0.389
       117 -12.3271    160.9078    207.1511   4.0830722515e+01   9.4526775940e+00    0.2321778    0.1843938 -44.33  0.000324932    1.450    0.310
       118 -11.4785    160.4714    203.5127   4.0354749959e+01   1.0128217624e+01    0.2010663    0.1781809  22.90 0.0001084189    1.177    0.151
       119 -11.2065    103.8633    205.5097   5.3594301165e+01   1.7706346511e+01    0.1864048    0.1789505  28.78 0.0007865923    1.105    0.095
       120 -12.7794     91.4762    198.9546   5.5876283574e+01   2.0788010480e+01    0.6628075    0.3979813 -43.96  0.002926604    1.955    0.488
       121 -11.9871     92.0149    193.7102   5.5068435596e+01   2.1851163508e+01    0.6270659    0.2811938  34.04  0.002674852    1.918    0.479
       122 -12.7739     83.1367    201.5759   5.8338104249e+01   2.1351670110e+01    0.6123275    0.4184415 -13.27   0.00193895    2.065    0.516
       123 -11.8468     82.2109    196.6229   5.7998715448e+01   2.2559306133e+01    0.4343112    0.2670159  19.61  0.001075258    1.696    0.410
       124 -14.1471     23.8873    187.6408   7.3071544759e+01   3.1454761980e+01    0.9565958    0.4928028  34.71  0.003943471    1.650    0.394
       125 -12.7728    145.4852    201.0702   4.3198149303e+01   1.2663413368e+01    0.4273702    0.3307807  76.45  0.001573094    2.167    0.538
       126 -13.0319    121.9781    196.5910   4.7947173027e+01   1.6924247582e+01    0.4145305    0.2655198 -46.55   0.00214058    1.694    0.410
       127 -11.0876    213.2308    201.0701   3.0000232170e+01   3.6710230072e+00    0.1879827    0.1537236  54.21  0.001225082    2.153    0.536
       128 -10.2200     59.3059    198.0018   6.4226762412e+01   2.5182708515e+01    0.2105638   0.07324928 -47.27 0.0007017826    4.086    0.755
       129 -12.6117    192.7270    194.7540   3.2566620632e+01   7.1836529520e+00    0.3477964    0.2228257 -15.87  0.001149616    1.571    0.363
       130 -11.8522    136.8831    200.8399   4.5094362549e+01   1.3937878810e+01    0.2241617    0.1765025  83.84 0.0007621375    2.002    0.501
       131 -10.7448    160.4950    192.9603   3.8644107756e+01   1.1958889757e+01    0.1844091    0.1239426 -40.83 0.0006375636    1.526    0.345
       132 -11.6724    164.7006    191.9301   3.7589356587e+01   1.1531939853e+01    0.2338825    0.1742866  34.38 0.0006252747    1.341    0.254
       133 -12.3667    133.4164    190.8952   4.4351334628e+01   1.6355466790e+01    0.3542054    0.2259256 -25.53  0.001719707    1.912    0.477
       134 -10.5687    216.5137    191.4680   2.7853183275e+01   4.6394533795e+00    0.1172406   0.09395965 -11.32  0.000809372    1.038    0.036
       135 -12.9461    172.7447    195.7494   3.6581996061e+01   9.7375985809e+00    0.2636771    0.2194455 -10.59 0.0003748375    1.078    0.072
       136 -13.2082    110.4121    188.0432   4.9532854904e+01   2.0403453913e+01    0.5359952    0.3139469 -75.15  0.002087138    2.627    0.619
       137 -10.6192     50.3959    190.4945   6.5945677664e+01   2.7982386265e+01    0.1363016    0.1200525  53.84  9.86014e-05    1.023    0.023
       138 -12.3019     34.1731    200.2487   7.1100701575e+01   2.7477663253e+01    0.4202766    0.2296931  16.86  0.001596953    2.006    0.502
       139 -10.7767    188.8219    191.6216   3.2762774347e+01   8.1998271197e+00    0.1756239    0.1619105 -85.70 0.0003635047    1.745    0.427
       140 -11.5192    227.0916    186.8302   2.5362990172e+01   4.0114381030e+00    0.1632392    0.1378414 -15.64 0.0004176413    1.186    0.157
       141 -11.4041    186.1740    187.1691   3.2496855982e+01   9.2826810324e+00    0.1891997    0.1462143  -8.83 0.0004328815    1.181    0.154
       142 -13.1061    127.5124    185.8044   4.4941621707e+01   1.8271761888e+01    0.4325063    0.2464078  37.84  0.001415588    1.629    0.386
       143 -11.7092    209.0141    186.0190   2.8179044715e+01   6.3846419726e+00    0.1837819    0.1483908 -12.10   0.00048355    1.011    0.011
       144 -11.4674    164.7471    185.6562   3.6509964679e+01   1.2632546218e+01    0.3065113    0.2148792  66.54  0.001448524    2.726    0.633
       145 -12.8067      8.0773    176.1902   7.6894917298e+01   3.5611026056e+01    0.5416513    0.3581037  43.12  0.001945869    1.312    0.238
       146 -13.2652     20.6509    173.8753   7.3123826185e+01   3.5136659537e+01    0.4905894    0.3691709 -78.21  0.001832593    1.329    0.248
       147 -13.3321     23.6504    167.5574   7.1791272646e+01   3.6465946006e+01    0.6038796    0.4058914  35.78   0.00179425    1.367    0.268
       148 -13.4762      3.5537    168.2669   7.7848365785e+01   3.7924421368e+01    0.6344726    0.5235142 -80.59  0.002800167    1.221    0.181
       149 -12.2423      1.6315    179.7053   7.8854023262e+01   3.5233491795e+01    0.4934658    0.1819161 -84.51   0.00173925    2.579    0.612
       150 -12.2779      6.2484    163.3410   7.6814912968e+01   3.8979624785e+01    0.5339217    0.2409894  10.25  0.002259054    2.692    0.629
       151 -13.0627      5.9357    159.4083   7.6712142203e+01   4.0011620047e+01    0.4938029    0.3381155   2.78  0.002616427    1.782    0.439
       152 -12.5381      7.3789    184.9177   7.7476091715e+01   3.3537824227e+01    0.4833038    0.2993056 -34.72  0.001299193    2.296    0.564
       153 -12.7019      2.4461    184.4601   7.8803265635e+01   3.4026162164e+01    0.4561581    0.2917272 -42.37  0.002085179    2.076    0.518
       154 -13.2684     14.9378    166.5781   7.4365131434e+01   3.7477572131e+01    0.5038129    0.4611621  62.68   0.00202097    1.076    0.070
       155 -11.5783     12.7583    161.5793   7.4726312754e+01   3.8937904946e+01    0.4028399    0.1775916  41.28  0.001111671    1.954    0.488
       156 -11.9558    155.9871    184.4488   3.8169275930e+01   1.4167519798e+01    0.2469886    0.1903893 -59.47  0.001368837    1.659    0.397
       157 -12.6603    105.2186    182.8968   5.0095770458e+01   2.2301172527e+01    0.3186573    0.2279333 -43.18 0.0008664159    1.534    0.348
       158 -10.6948     54.4911    184.5137   6.4226565725e+01   2.8925459746e+01    0.1398414    0.1253386  49.15   0.00081035    1.024    0.023
       159 -12.2427     94.6796    180.8488   5.2590750276e+01   2.4341572856e+01    0.4434882    0.2477144 -59.85  0.001776875    1.947    0.486
       160 -11.8053    134.0891    181.9907   4.2734041372e+01   1.8025319450e+01     0.204523    0.1882749  16.89 0.0003090439    1.024    0.023
       161 -10.4227     66.7934    181.6214   6.0427292859e+01   2.8073925424e+01      0.13557    0.1010645 -41.82 0.0005578612    1.585    0.369
       162 -10.5339    179.5575    180.4941   3.2598008665e+01   1.1344389350e+01    0.1274811    0.1135707  -7.02 3.484213e-05    1.065    0.061
       163 -11.3628     49.3892    179.1059   6.5145117029e+01   3.0848921878e+01    0.3906338    0.2466643 -18.70  0.001712342    2.460    0.594
       164 -12.4979    155.4671    177.7970   3.7114019229e+01   1.5490817937e+01    0.3880617     0.307304 -85.66  0.002028075    2.050    0.512
       165 -12.6658    116.2614    178.2885   4.6516174315e+01   2.1601719843e+01    0.3931385    0.2159581  21.33  0.001655836    2.086    0.521
       166 -10.8995    191.4566    177.4948   2.9790207369e+01   1.0118877014e+01    0.1269824    0.1083317 -10.69 7.579321e-05    1.015    0.014
       167 -12.9822    137.8694    176.4982   4.0892883673e+01   1.8536534733e+01    0.4395985    0.2837174  60.09  0.001969253    2.305    0.566
       168 -13.5650    128.8179    175.9161   4.2972213768e+01   2.0108651858e+01    0.4880734    0.3691312  47.82 0.0009995681    1.399    0.285
       169 -11.9244     63.3242    176.6841   6.0838336840e+01   2.9722428621e+01     0.328343    0.2446072   1.65 0.0009268367    1.671    0.401
       170 -12.2980     31.1438    176.0631   7.0200097970e+01   3.3591586385e+01    0.3491165    0.2412261 -66.27  0.001188556    1.514    0.339
       171 -12.4784    106.7888    175.5791   4.8541881311e+01   2.3685952100e+01     0.308829    0.2260859  41.52 0.0009038286    1.289    0.224
       172 -10.4999    169.3077    175.2817   3.3716060931e+01   1.3801555878e+01    0.1339366    0.0956935  -4.19 0.0002416805    1.561    0.360
       173 -11.3179     14.4877    175.0625   7.4993704202e+01   3.5373744724e+01    0.2000023    0.1227667 -85.61 0.0008949319    1.568    0.362
       174 -12.4103    145.6055    173.6477   3.8581266604e+01   1.7862615450e+01    0.3024891    0.2310679  45.61  0.001000656    1.407    0.289
       175 -12.7240     78.4281    173.0319   5.6004534010e+01   2.8551276730e+01    0.5667757     0.271477  31.01  0.002335541    1.928    0.481
       176 -10.6193     50.4098    174.1776   6.4342304106e+01   3.1950954795e+01    0.1915746    0.1279491  83.64 0.0002844637    1.611    0.379
       177 -13.7749     90.6422    170.5410   5.2163247805e+01   2.7345865618e+01    0.5546064    0.4280816 -74.27  0.001785392    1.449    0.310
       178 -13.4184     92.3090    162.6080   5.0425700234e+01   2.8985631802e+01    0.4836985    0.3092163  50.24  0.001320832    1.606    0.377
       179 -10.5013    163.6089    171.8008   3.4266031306e+01   1.5330150287e+01    0.1781338     0.126515 -52.33 0.0005698675    1.610    0.379
       180 -12.1821    198.2222    170.6176   2.7302356412e+01   1.0266734085e+01    0.2800372    0.2095257  43.89  0.001243029    1.623    0.384
       181 -12.2118    153.1529    169.9973   3.6203633326e+01   1.7354560271e+01    0.2656159    0.2210609  63.87 0.0007286557    1.579    0.367
       182 -11.5620     53.2549    170.5957   6.3105214978e+01   3.2506517069e+01    0.3034037    0.1894353 -60.28 0.0009175249    1.672    0.402
       183 -11.8563    207.9888    169.4844   2.5396902243e+01   9.0570046057e+00     0.224508    0.1635942 -47.36  0.001352755    1.583    0.368
       184 -11.3322     62.8652    170.1948   6.0184257882e+01   3.1387060209e+01    0.2155901     0.177443  55.00  0.000257823    1.138    0.121
       185 -10.8937    145.4614    169.4284   3.7843110905e+01   1.8726591563e+01    0.1389784    0.1285008   7.98 3.987061e-05    1.009    0.009
       186 -12.0982     39.3062    168.7927   6.7133988492e+01   3.4577460645e+01     0.311921    0.1811415  35.36  0.001365048    1.548    0.354
       187 -11.9236     31.4296    168.2187   6.9478457990e+01   3.5547835416e+01    0.2834291    0.1894266  48.93 0.0008856375    1.343    0.255
       188 -12.7715    121.4427    167.7111   4.3382202211e+01   2.3068261092e+01    0.3828277    0.2343456  38.07  0.001774509    1.545    0.353
       189 -12.0851    127.6933    166.2692   4.1537661805e+01   2.2339625866e+01       0.2777    0.2246381 -10.57 0.0008724445    1.392    0.281
       190 -12.6635    152.9784    165.1583   3.5331447443e+01   1.8328683117e+01    0.3876714    0.2671354  50.06  0.001435181    1.686    0.407
       191 -12.3483    102.6789    165.3384   4.7962674037e+01   2.6682197214e+01    0.3486415    0.2194944  42.92 0.0008162876    1.520    0.342
       192 -11.6479     64.6247    166.0431   5.9124855610e+01   3.2194961826e+01     0.203528    0.1907679 -80.48  0.001150503    1.111    0.100
       193 -12.5630    198.9066    164.2567   2.5990023448e+01   1.1203922102e+01    0.2386287    0.2079007 -21.03 0.0003706481    1.075    0.070
       194 -12.9793    110.9506    164.0808   4.5491324719e+01   2.5619189046e+01    0.4938674    0.3411147 -24.98  0.002261492    1.856    0.461
       195 -11.3964     45.8317    164.1673   6.4659093450e+01   3.5031502303e+01    0.3230122    0.1923438 -31.37  0.001079533    2.428    0.588
       196 -11.3857     49.1282    161.0975   6.3285075473e+01   3.5436189370e+01    0.2221491    0.2054347  56.93 0.0004666542    1.027    0.026
       197 -11.2808     56.6582    164.3098   6.1331662744e+01   3.3677411285e+01    0.1602379   0.09767935  57.63 0.0007044819    1.694    0.410
       198 -11.9107     75.6042    161.2825   5.5138428247e+01   3.1852984081e+01    0.2587298    0.1855321 -52.81 0.0008428193    1.478    0.323
       199 -11.2840     41.3634    161.7122   6.5791744389e+01   3.6175591992e+01     0.243047    0.1730585  -4.50 0.0009567076    1.839    0.456
       200 -12.7905     25.2306    160.0186   7.0718900603e+01   3.8268897959e+01    0.4111492     0.256447  40.31  0.002049909    1.454    0.312
       201 -12.4610    170.2805    160.5183   3.0721878329e+01   1.6344771288e+01    0.2630131    0.2378384 -15.49 0.0008402837    1.020    0.020
       202 -11.8716     37.1715    160.8538   6.7024027208e+01   3.6856657606e+01    0.2263254    0.1718885  60.41  0.000439932    1.228    0.186
       203 -11.7098    250.1062    158.3013   1.7038088699e+01   5.1635962207e+00    0.1974806    0.1276964 -33.54 0.0003658186    1.238    0.193
       204 -12.0120    190.9943    157.1118   2.6035212563e+01   1.3610503862e+01    0.3376229    0.1724702 -46.42 0.0005973331    2.003    0.501
       205 -11.9226    152.6720    158.8918   3.4185307323e+01   1.9619711412e+01    0.2455913    0.1968888  40.54 0.0002712415    1.282    0.220
       206 -12.6259    104.8733    158.3464   4.6130373522e+01   2.7959485533e+01    0.4681496    0.2869443  59.49  0.001945789    2.103    0.524
       207 -13.1184    132.6495    155.8690   3.8325931901e+01   2.3730177245e+01    0.6229229    0.4323717  65.80  0.002244694    2.055    0.513
       208 -12.7458    118.8564    157.6731   4.2210618319e+01   2.5736879399e+01    0.3695001    0.2797532  39.06  0.001853992    1.272    0.214
       209 -11.7740    213.0778    156.9603   2.2205094885e+01   1.0294257366e+01    0.1881295    0.1586743 -22.29 0.0004666508    1.043    0.041
       210 -11.4211    141.1800    155.8585   3.6246013465e+01   2.2233366022e+01    0.2030087    0.1951755  78.32 0.0003426904    1.185    0.156
       211 -12.0413     61.8532    154.8443   5.8455534222e+01   3.5435625657e+01    0.2251997    0.2080213 -20.03  0.001229757    1.239    0.193
       212 -12.4234     19.4354    138.5546   7.0807944281e+01   4.4505254193e+01    0.4090362    0.2335391 -24.42  0.001361548    2.465    0.594
       213 -13.4413      4.6329    150.2736   7.6643851539e+01   4.2479126406e+01     0.548826    0.3752988 -49.27  0.002338279    1.654    0.396
       214 -14.0078     10.6431    143.9052   7.4266879514e+01   4.3747633708e+01    0.5892418    0.4667165 -56.42  0.001362298    1.346    0.257
       215 -13.4810     75.1493    150.7963   5.3634575616e+01   3.4579302229e+01      0.66575    0.2693818  42.09  0.002413217    2.324    0.570
       216 -11.5154     70.6797    151.6822   5.5184429036e+01   3.5013544429e+01    0.2510339    0.1423122 -65.15 0.0003433604    1.818    0.450
       217 -12.5310     81.5953    153.2071   5.2037709499e+01   3.2981527173e+01    0.3987526     0.216224 -51.65  0.001658972    1.915    0.478
       218 -12.1473     84.3985    150.2017   5.0666537442e+01   3.3297902569e+01     0.288485    0.2344619  21.46 0.0008033756    1.297    0.229
       219 -13.1270     53.7648    152.7308   6.0762350037e+01   3.7050125687e+01    0.3911464    0.3329464 -73.83  0.002099286    1.183    0.155
       220 -11.1597     19.8906    154.1686   7.1960294828e+01   4.0284111747e+01    0.2292107    0.1673625  59.78  0.001218747    1.252    0.201
       221 -10.4684    195.2059    154.3877   2.4739258332e+01   1.3411605579e+01    0.1557538    0.1234507  47.20 0.0002850888    1.520    0.342
       222 -11.2766    172.6302    153.7108   2.8890100548e+01   1.7213948656e+01    0.1420815    0.1016238  -0.60 0.0007023038    1.713    0.416
       223 -11.4300     67.4674    153.5153   5.6481997773e+01   3.5002010106e+01    0.1480485    0.1418815  56.14 0.0001819721    1.034    0.033
       224 -12.6675     27.6170    150.5880   6.9122830028e+01   4.0533896644e+01    0.3690351    0.2997051  -8.03 0.0007680976    1.501    0.334
       225 -11.8000    108.9963    149.2562   4.3271587831e+01   2.9395528816e+01    0.3100992    0.2626874  63.09     0.000875    1.281    0.219
       226 -12.4798    103.3001    143.7741   4.3812272823e+01   3.1706398577e+01    0.5449017    0.3565027  77.35  0.001432229    2.411    0.585
       227 -11.4225    173.4411    149.4867   2.7867098641e+01   1.7859264447e+01    0.1369241    0.1245562 -19.01 7.819698e-05    1.007    0.007
       228 -11.5735    146.8669    147.9604   3.3297432004e+01   2.2860749138e+01    0.3435815    0.1821497 -47.93  0.001468859    1.898    0.473
       229 -12.1815     95.8029    148.9859   4.7015463092e+01   3.1731223431e+01    0.2758694    0.2134835  36.60 0.0008748582    1.241    0.195
       230 -10.2947     19.6841    148.2746   7.1558865297e+01   4.1866948092e+01    0.1496553   0.09021494  55.19 0.0002645632    1.564    0.361
       231 -11.1412    170.5347    145.4902   2.7625165012e+01   1.9111627822e+01    0.1384162    0.1274695 -19.73 0.0008095786    1.005    0.005
       232 -11.0815    158.1156    145.1083   3.0162205049e+01   2.1401288932e+01    0.2160725    0.1834997  -1.11 0.0004185503    1.253    0.202
       233 -12.2377    143.5248    142.9769   3.3030156833e+01   2.4511991238e+01    0.4291037    0.2945276 -18.45  0.001544898    1.911    0.477
       234 -12.1418      1.4994    139.5427   7.7102226369e+01   4.5516420930e+01    0.4059044     0.124451 -85.16  0.001426804    3.057    0.673
       235 -13.2576     50.5107    142.2188   6.0401010590e+01   4.0257757678e+01    0.6036704    0.2854314  41.56  0.002053034    1.980    0.495
       236 -11.5220     52.7266    138.9858   5.9166261408e+01   4.0844771573e+01    0.2088017    0.1895564 -84.83 0.0003175755    1.078    0.072
       237 -11.8951     37.8020    142.9746   6.4866960903e+01   4.1542610909e+01    0.2406347    0.2036684  39.41 0.0003727773    1.154    0.134
       238 -11.8737     30.1594    142.3700   6.7439472837e+01   4.2496934949e+01    0.2522591    0.1835866 -65.98 0.0006039655    1.352    0.260
       239 -11.3305    121.9277    145.0890   3.8904188194e+01   2.8041650399e+01    0.2199667    0.2153555  -5.72 0.0003826877    1.025    0.024
       240 -11.0495    150.5225    141.4949   3.1084762385e+01   2.3520324608e+01    0.2313485    0.1380265  29.28 0.0005498868    1.924    0.480
       241 -11.9289     58.0550    132.9819   5.6350759487e+01   4.1748201218e+01    0.2815957    0.2246297  85.89 0.0005509524    1.310    0.237
       242 -12.9602     72.8348    139.1876   5.2394021635e+01   3.7937615647e+01     0.380142    0.3310135   6.89   0.00102076    1.301    0.231
       243 -13.4159     68.5446    137.2377   5.3476299721e+01   3.9101036859e+01    0.4751392     0.327118  49.85 0.0003065387    1.449    0.310
       244 -12.3021     60.1774    139.7890   5.6736127493e+01   3.9631127231e+01    0.2907656    0.2570441 -65.12 0.0005051664    1.146    0.127
       245 -12.7185     61.4613    136.2862   5.5721813486e+01   4.0385913654e+01    0.4329647    0.2720907  26.42  0.001381172    1.642    0.391
       246 -10.9215    234.2132    140.0466   1.5797637795e+01   9.8344830375e+00    0.1629089    0.0794789 -35.32 0.0005573303    1.659    0.397
       247 -12.1915    206.4164    139.1714   1.9775361410e+01   1.4165018927e+01    0.2201513    0.1976074 -18.66 0.0002640338    1.064    0.060
       248 -10.8158    159.6056    139.2541   2.8584493493e+01   2.2287794247e+01    0.1921788    0.1296904 -34.03 0.0003854451    1.487    0.327
       249 -13.1580     40.7584    137.7685   6.3181192895e+01   4.2626399183e+01    0.4323789    0.3050673  34.12  0.001849737    1.380    0.275
       250 -12.8277     49.1512    130.5704   5.9136371415e+01   4.3580605883e+01    0.4428318    0.2665357  14.75  0.001868044    1.982    0.495
       251 -13.1956     57.5443    127.3282   5.5555848682e+01   4.3342644262e+01    0.5807981    0.3590322 -18.01   0.00222386    2.595    0.615
       252 -10.9517    179.9884    138.7550   2.4339083853e+01   1.8694029252e+01     0.170681     0.116326  40.96  0.000877983    1.573    0.364
       253 -11.4839    133.1635    136.7922   3.4218555963e+01   2.7792072063e+01    0.4158709    0.2702603 -22.17  0.001729833    2.150    0.535
       254 -10.7929    183.7635    137.0269   2.3260370087e+01   1.8342028149e+01      0.17643    0.1051847 -40.30 0.0002788704    1.536    0.349
       255 -11.6431     32.0329    136.3395   6.6105080434e+01   4.3949973049e+01    0.2573121    0.1862514 -46.82 0.0006838489    1.508    0.337
       256 -12.7464    123.2665    135.0148   3.6390551695e+01   3.0081222810e+01    0.2673035    0.2405255 -47.73 0.0002864682    1.119    0.107
       257 -13.0544    126.6297    133.5880   3.5184167845e+01   2.9757648829e+01    0.4324089     0.329083  85.13  0.001631622    1.816    0.449
       258 -12.1280     52.3719    134.9725   5.8675572220e+01   4.1973428596e+01     0.377744     0.175521  46.49  0.001436798    2.168    0.539
       259 -10.8026    197.0291    134.5357   2.0373932763e+01   1.6487472978e+01    0.1660654    0.1191173  78.24 0.0008083408    2.446    0.591
       260 -11.5403     86.4953    134.5135   4.7068319974e+01   3.6928092454e+01    0.1535469    0.1498829  56.84 0.0003072071    1.019    0.019
       261 -12.1870     83.9461    127.4886   4.6446368105e+01   3.9159196344e+01    0.3158817    0.2427062 -25.95 0.0008805855    1.609    0.379
       262 -12.5678     78.0938    133.1809   4.9534760705e+01   3.8670650250e+01    0.3645544    0.2779812 -37.65  0.000965332    1.485    0.327
       263 -12.4653     82.3863    131.1703   4.7721027630e+01   3.8479524539e+01    0.2959591      0.23152  52.80  0.001005948    1.289    0.224
       264 -13.0944     19.4368    131.8515   7.0178660343e+01   4.6331307605e+01    0.5229064    0.2788368  25.67 0.0006386359    1.874    0.466
       265 -11.4662      6.7974    133.9859   7.4916386091e+01   4.6677955238e+01     0.253359    0.1233402  63.95  0.001080423    2.046    0.511
       266 -13.6242     96.3511    138.0063   4.4710073689e+01   3.4342395610e+01    0.7507711    0.4574471  -5.21  0.002383895    3.612    0.723
       267 -11.3564     26.2649    140.5905   6.8608654677e+01   4.3351477989e+01    0.1891557    0.1389995   0.65 0.0008821069    1.647    0.393
       268 -10.3775     31.4836    131.5121   6.5724713742e+01   4.5326281018e+01      0.14665    0.1352402  77.43 0.0002341662    1.004    0.004
       269 -11.4005    110.9026    135.8805   3.9985884526e+01   3.2216279087e+01    0.2297614     0.208448  -4.17 0.0003582988    1.216    0.178
       270 -11.4615     88.8978    130.1682   4.5405544635e+01   3.7615596428e+01     0.231597    0.2057073  66.39 0.0003012295    1.153    0.133
       271 -11.0706      9.6588    130.7181   7.3647888153e+01   4.7373773051e+01    0.1416153   0.09810305 -41.51 0.0003664719    1.630    0.387
       272 -12.3813    176.5759    127.1432   2.2453632653e+01   2.1444928381e+01    0.2627146    0.2261101  32.81 0.0003755781    1.247    0.198
       273 -11.6808     41.6145    127.4787   6.1429903157e+01   4.5339502245e+01    0.2820035     0.175526 -66.10 0.0005945778    1.542    0.352
       274 -10.9973    183.1537    126.8491   2.1159645288e+01   2.0281243878e+01    0.1816376    0.1511832 -12.63 0.0002453153    1.274    0.215
       275 -11.8134     97.3950    126.7429   4.1986300829e+01   3.6940950309e+01    0.2983019    0.1534037 -58.56  0.001129998    2.066    0.516
       276 -12.8622      3.9536    121.4886   7.5077770735e+01   5.0241294418e+01    0.4353067    0.2083232  88.69  0.001753002    1.996    0.499
       277 -11.2579    116.0184    126.2928   3.6392097674e+01   3.3491359373e+01    0.2231407    0.1949244  39.18 0.0007413871    1.141    0.124
       278 -10.5182     35.6925    126.6860   6.3531672911e+01   4.6216951338e+01    0.1519341    0.1074705 -37.88  0.000464097    1.625    0.385
       279 -12.2358     26.9000    125.4586   6.6697667239e+01   4.7434013344e+01    0.2667373    0.2212201 -75.49 0.0002929177    1.143    0.125
       280 -12.1839     75.7652    123.1223   4.8283799411e+01   4.1673170192e+01     0.302972    0.2129672 -39.72  0.001292425    1.603    0.376
       281 -11.1999     49.1283    124.0977   5.8089218757e+01   4.5347551017e+01    0.2196032    0.1937728 -35.01 0.0003253061    1.251    0.201
       282 -10.2503    130.6791    128.2527   3.2918435228e+01   3.0155296229e+01    0.1477293    0.1186646  74.98 0.0001755503    1.537    0.349
       283 -10.7143    164.4172    122.5284   2.3806855999e+01   2.4645609442e+01    0.1433777    0.1325985 -28.80 6.374094e-05    1.042    0.041
       284 -10.9415    188.8771    120.9033   1.8818045912e+01   2.0285838490e+01    0.1784357    0.1539324 -61.38 0.0003669746    1.277    0.217
       285 -11.9623    104.4174    120.6098   3.8424704386e+01   3.7104855271e+01    0.4227368    0.2393499  66.02   0.00141927    3.022    0.669
       286 -10.9106     28.8853    121.0711   6.5377420988e+01   4.8456511666e+01    0.2252563    0.1797441  60.90            0    1.237    0.191
       287 -12.2014     20.1616    109.9942   6.7448482887e+01   5.2291409769e+01     0.284045    0.2577616  47.44  0.000566204    1.124    0.110
       288 -13.5501     15.3007    119.6189   7.0522360447e+01   5.0012992173e+01    0.6043406    0.4175355 -17.07  0.002979427    1.775    0.437
       289 -12.5933      9.8236    118.0973   7.2526358446e+01   5.0811378352e+01    0.2931376    0.2357373  16.27 0.0007416258    1.365    0.267
       290 -14.3775     68.4039    112.1451   4.8529716145e+01   4.5760864881e+01     1.028535    0.4987391 -65.99  0.003200612    2.283    0.562
       291 -13.3608     82.4509    116.2068   4.4453237042e+01   4.2310800433e+01    0.5353941    0.3890387 -44.93 0.0008775787    1.444    0.307
       292 -12.1697     82.4541    111.9270   4.3442000253e+01   4.3400951541e+01    0.4671647    0.2430383 -46.54  0.001365575    2.008    0.502
       293 -13.6693     75.0295    115.3322   4.6842882367e+01   4.3826903249e+01    0.6933489    0.5053829  81.09  0.003062732    1.706    0.414
       294 -12.0337     77.5385    113.4196   4.5515156578e+01   4.3891232786e+01    0.2859055    0.2498734 -52.72 2.955969e-05    1.157    0.136
       295 -10.8369    211.0139    118.9981   1.4850065077e+01   1.6684567801e+01    0.1628434    0.1275694 -35.68  0.000428779    1.084    0.078
       296 -11.0540     99.5103    119.5006   3.9661717716e+01   3.8322118951e+01    0.1561521    0.1520938  71.66 0.0001239654    1.008    0.008
       297 -12.3421    100.4864    113.5407   3.7908432009e+01   3.9580365923e+01    0.2906717    0.2353526  41.27  0.000744408    1.227    0.185
       298 -12.9282     96.9547    115.9627   3.9613536668e+01   3.9679118874e+01    0.5312643    0.3062674 -35.59  0.001600335    2.204    0.546
       299 -11.9948    124.0705    122.3683   3.3260906693e+01   3.2789320273e+01    0.3729087    0.2509886  24.52 0.0003194016    1.848    0.459
       300 -13.6264     62.7471    110.9253   5.0383676206e+01   4.6980341106e+01     0.743045     0.390042 -57.78  0.002617243    1.850    0.460
       301 -10.9572    214.3283    114.0919   1.3320887377e+01   1.6902810511e+01    0.1799146    0.1393713 -37.92  0.000347272    1.088    0.081
       302 -10.6846    201.8015    114.1807   1.5202697713e+01   1.9080957567e+01     0.171254    0.1447339 -12.19 0.0003333362    1.272    0.214
       303 -10.1721    142.9914    114.3229   2.6536437313e+01   3.0640296588e+01    0.2445702     0.121642  65.59 0.0007050036    4.307    0.768
       304 -13.3335     11.8522    112.3785   7.1159851785e+01   5.2248737624e+01    0.4334055    0.3438843 -31.09  0.002351653    1.409    0.290
       305 -12.6528     93.4952    116.4656   4.0841121054e+01   4.0215464667e+01    0.5638977    0.2865666  44.16  0.002012627    1.951    0.487
       306 -12.1452      2.4820    109.1459   7.4711881814e+01   5.3685333478e+01    0.2506698    0.1754936  49.13  0.001252743    1.432    0.302
       307 -11.6796    210.3297    107.7215   1.2512090758e+01   1.8609403591e+01    0.2165018    0.1973901 -22.79 0.0006971614    1.125    0.111
       308 -10.9303     87.4929    108.4889   4.0867274181e+01   4.3333940255e+01    0.1568155    0.1529184  75.39 0.0001027872    1.000    0.000
       309 -11.0915    139.5017    107.0255   2.5511521720e+01   3.2896970784e+01    0.2373887    0.2099957  50.93  0.001144235    1.157    0.136
       310 -12.1306     12.6783    104.1126   6.9905150919e+01   5.4466305318e+01    0.2365817    0.2070192  -0.54 0.0003739707    1.275    0.216
       311 -10.7428    104.9693    102.2856   3.3592322979e+01   4.1338799306e+01    0.2198266    0.1999303  53.94 0.0003449262    1.091    0.083
       312 -11.9286     78.4861    101.8326   4.2326305423e+01   4.6678356740e+01    0.3211581    0.2424468  64.30   0.00145961    1.507    0.336
       313 -12.0283     55.9997    101.4773   5.0918266388e+01   5.0513051586e+01    0.3233978    0.2587568 -69.61 0.0006791393    1.254    0.203
       314 -11.8546     57.8171     97.6148   4.9259264846e+01   5.1257579055e+01     0.282225    0.2475774  49.33 0.0009403598    1.148    0.129
       315 -12.7804      5.0801    100.7922   7.2857247415e+01   5.5830972177e+01    0.5215569    0.3840152   6.12  0.002800375    1.527    0.345
       316 -10.9300    129.5310    100.1396   2.6139910877e+01   3.6512175555e+01    0.2299486    0.1497434 -44.27  0.001005893    1.519    0.341
       317 -10.6475     85.4672    100.4445   3.9472571544e+01   4.5712433828e+01    0.1554344     0.152945  70.46 0.0001600881    1.017    0.016
       318 -12.2313     94.0889     98.4086   3.5985645736e+01   4.4497224198e+01      0.39539    0.2761693  55.59 0.0008889143    1.528    0.345
       319 -11.2505    122.5218     98.1272   2.7416480529e+01   3.8487451387e+01     0.319827    0.2075215  28.98  0.001309017    2.009    0.502
       320 -10.5452    199.3393     96.7179   1.1623588302e+01   2.2410309327e+01    0.1336303   0.09646553 -67.15 0.0003252485    1.627    0.385
       321 -11.7998      6.4197     94.3879   7.1578259218e+01   5.7504553510e+01    0.4903369    0.2039911  29.34  0.002030308    2.390    0.582
       322 -11.4310      3.1956     90.4479   7.2645964682e+01   5.8735576456e+01    0.2601663    0.1839458 -88.49 0.0003060537    1.334    0.250
       323 -11.3750      2.6875     87.3204   7.2545882878e+01   5.9602898456e+01    0.2133321    0.1825295  66.87 0.0006657677    1.193    0.162
       324 -13.1591    121.1001     91.7317   2.5990457760e+01   4.0171139294e+01    0.4866274    0.3829791  -6.83  0.001533138    1.763    0.433
       325 -11.2628    125.3949     86.8489   2.3442998747e+01   4.0209841283e+01    0.2987705    0.2405314 -15.30 0.0008803078    1.585    0.369
       326 -11.6801     57.9105     90.1340   4.7318300522e+01   5.3185802707e+01    0.4450769    0.2098339 -53.86  0.001388308    2.041    0.510
       327 -12.1028     54.8227     85.2492   4.7330397647e+01   5.4919768436e+01    0.5357506    0.4738899   0.99  0.002793944    1.244    0.196
       328 -10.7435     41.1729     91.6907   5.5042996711e+01   5.5149274921e+01     0.231978    0.1699846  48.38 0.0006397637    1.430    0.301
       329 -11.2580     25.4762     92.0273   6.2348455204e+01   5.6762008435e+01    0.2712583    0.1848955  41.74 0.0004386587    1.517    0.341
       330 -11.5480    152.0368     90.8495   1.8418988150e+01   3.3351133756e+01    0.4640829    0.1750586  43.89  0.001235261    3.139    0.681
       331 -13.5073     74.0945     89.9991   4.0741541199e+01   5.0434965580e+01    0.4889186    0.3654732  54.00  0.002271767    1.409    0.290
       332 -14.6273     94.4079     83.3842   3.1460912917e+01   4.7906794324e+01    0.7265519    0.5938051  87.29  0.001328727    1.441    0.306
       333 -10.5859      6.6259     86.7800   7.0569700415e+01   5.9554587854e+01    0.1906047    0.1224592 -89.90 0.0006234273    1.537    0.349
       334 -10.5476    144.4978     82.5214   1.7697861123e+01   3.6636721966e+01    0.1502939    0.1412871 -70.71 3.511136e-05    1.010    0.010
       335 -11.1065     10.2425     81.8970   6.8090997274e+01   6.0662495261e+01    0.2070868    0.1786353  75.52   0.00100432    1.192    0.161
       336 -11.4754     65.8020     81.5688   4.1571757829e+01   5.4006504549e+01    0.2978896    0.1528222  31.42  0.001136557    2.101    0.524
       337 -11.5376    112.9001     79.0384   2.4428925126e+01   4.4693858923e+01    0.4626949    0.2445647  61.98  0.001706857    2.324    0.570
       338 -11.2286    108.0356     78.7992   2.5751866878e+01   4.5863863530e+01    0.2585094    0.2154623 -47.46 0.0007415278    1.210    0.174
       339 -11.2429      3.8557     79.2912   7.0992692476e+01   6.1700669641e+01    0.4338118      0.13103  37.81  0.001526959    3.426    0.708
       340 -11.5244    162.8174     77.8662   1.2801852718e+01   3.3260875606e+01    0.2076242    0.1609342 -67.53 0.0005788042    1.345    0.256
       341 -11.1003      9.3521     77.5166   6.7872342603e+01   6.1884530282e+01    0.2444137    0.1871981  51.55  0.001320872    1.412    0.292
       342 -11.5619    105.2811     73.4196   2.4829079332e+01   4.7607005050e+01    0.3658513    0.2670287  52.38  0.001239426    1.347    0.258
       343 -11.8846      1.6369     73.3692   7.1379180679e+01   6.3366949557e+01    0.2796588    0.1498673 -61.98  0.001215858    1.609    0.379
       344 -10.9731    193.4751     73.4921   6.8953843948e+00   2.7274948097e+01    0.1351221    0.1181704 -50.83 1.123279e-05    1.025    0.024
       345 -10.7210     45.4214     73.2551   4.8247045820e+01   5.9349083672e+01    0.1968087    0.1430696 -75.05 0.0006017236    1.570    0.363
       346 -12.0746     52.5719     71.6340   4.4322849578e+01   5.8661057937e+01    0.3456375    0.2733083 -16.36 0.0004997792    1.489    0.328
       347 -12.2879     71.0937     69.7901   3.5572846986e+01   5.5782487540e+01    0.4270843     0.299972 -15.68  0.001363396    2.082    0.520
       348 -12.3626     60.4930     67.5030   3.9312530269e+01   5.8293561612e+01    0.3642535    0.2802352 -79.61 0.0009570686    1.637    0.389
       349 -10.6780    154.4604     68.0569   1.1560796812e+01   3.6869958390e+01    0.2128901    0.1384231 -38.10 0.0004450331    1.501    0.334
       350 -12.5546     48.9463     66.1611   4.4278621577e+01   6.0548171033e+01    0.3260543     0.318945  18.62 0.0003633673    1.027    0.026
       351 -11.4733     46.6965     62.7249   4.4235166917e+01   6.1710003325e+01    0.3233615    0.1720464  29.18 0.0005958219    1.952    0.488
       352 -11.2297      7.7346     67.2218   6.7020611416e+01   6.4682657104e+01    0.2487086    0.1609655 -75.43  0.001160941    1.470    0.320
       353 -11.1178    124.8663     66.8537   1.7410912347e+01   4.4211778967e+01    0.2144284    0.2047855  33.64  0.000292144    1.169    0.144
       354 -11.4103    135.5699     60.1275   1.2847097342e+01   4.2770689485e+01    0.2891886    0.1355317 -41.31  0.001137478    2.067    0.516
       355 -11.2088     27.6336     60.7247   5.3930959466e+01   6.4709748005e+01    0.2097156    0.1838392  28.79  0.000260773    1.182    0.154
       356 -11.8639     12.6453     60.0068   6.2640525981e+01   6.6227880130e+01    0.3131545    0.2524313  34.07 0.0009471284    1.337    0.252
       357 -11.7013     21.0687     61.0704   5.7858299957e+01   6.5281486913e+01     0.279709    0.2154395  30.76 0.0003922485    1.356    0.263
       358 -11.4816     17.5206     61.1164   5.9974211392e+01   6.5577763742e+01    0.3798971    0.2577468 -68.13  0.001116841    1.432    0.302
       359 -10.6563    183.5441     60.0311   4.8080733324e+00   3.1450446362e+01    0.2008163    0.1218917 -38.18 0.0003721573    1.498    0.332
       360 -11.5101     41.7705     59.3890   4.5636642145e+01   6.3230838232e+01    0.1988605    0.1849668 -56.64 0.0006856741    1.103    0.093
       361 -12.1309     33.7201     58.3320   4.9699714517e+01   6.4575449174e+01    0.4422873    0.2819416  57.72  0.001277294    2.097    0.523
       362 -12.8353     37.6060     54.2685   4.6089874361e+01   6.5014176688e+01    0.5025501    0.2987938 -56.51  0.001618466    1.693    0.409
       363 -12.2417    153.3754     57.1712   8.5614766862e+00   3.8898771857e+01    0.2491859    0.2248421 -87.57  0.000339181    1.055    0.052
       364 -11.4096     96.9694     56.6216   2.1476649210e+01   5.2828608358e+01    0.2174757    0.1890187  57.62 0.0005768505    1.107    0.097
       365 -10.8958    179.8403     56.1611   4.2789778507e+00   3.2849469941e+01    0.2067399     0.159797 -62.73 0.0003531609    1.193    0.162
       366 -13.4059    107.2815     51.5519   1.6616589156e+01   5.1230942368e+01    0.6524052    0.4224374  84.98  0.001142388    2.116    0.527
       367 -12.7230    195.4588     52.4250   1.4085823195e+00   2.9941629581e+01    0.2390625    0.2037256 -56.99 0.0003204097    1.020    0.019
       368 -10.9312    122.6272     51.7650   1.2896197811e+01   4.7373656094e+01    0.2117236    0.1312053 -47.68 0.0004385481    1.632    0.387
       369 -11.3344    174.4906     51.0064   3.5976281270e+00   3.4819103093e+01    0.2116154    0.1247992 -37.72  0.001026065    1.573    0.364
       370 -11.1528    151.1644     51.1592   7.1273699207e+00   4.0362276646e+01    0.2037035    0.1988148  69.84 0.0004852311    1.162    0.139
       371 -13.2930     29.8207     49.7889   4.9020163263e+01   6.7069033659e+01    0.3714198    0.3443715 -42.06   0.00132857    1.065    0.061
       372 -12.0441     16.4839     49.6433   5.7453679362e+01   6.8493600534e+01    0.3241907    0.2196308 -15.32 0.0002099856    1.590    0.371
       373 -11.4490     41.2559     47.1189   4.1249256088e+01   6.6073201446e+01    0.4429401    0.1659394  44.83  0.001548389    3.090    0.676
       374 -11.8838     89.2302     44.9024   1.9347221200e+01   5.6748576904e+01    0.2671514     0.222785  43.55 0.0004413629    1.191    0.160
       375 -11.8684     49.7040     43.9733   3.5319805916e+01   6.5319637703e+01    0.2383416    0.1975527  40.73 0.0003268196    1.195    0.163
       376 -13.4976     33.9196     40.4010   4.2719709465e+01   6.8603495574e+01     0.469766    0.3665069  50.76   0.00222162    1.494    0.331
       377 -12.3094     96.1711     45.7532   1.7542628567e+01   5.4932864254e+01    0.3649848     0.234968 -81.00  0.001455945    2.446    0.591
       378 -11.0593      3.4091     44.1610   6.4923284325e+01   7.0701682644e+01    0.1758356    0.1208726 -86.56 0.0004792804    1.627    0.385
       379 -11.9944    120.8172     39.3820   8.9161893208e+00   4.9736036337e+01    0.2453545    0.2318101  60.11 0.0004836117    1.119    0.106
       380 -11.6685     93.9650     40.0662   1.5897750781e+01   5.6393899712e+01    0.2290934    0.1728987  27.11 0.0004742278    1.620    0.383
       381 -11.9831     77.6370     30.9553   1.7119841405e+01   6.1726242111e+01    0.2621478    0.2481156 -45.86 0.0007827756    1.133    0.117
       382 -10.8861     83.9738     37.9984   1.8150047563e+01   5.9136707079e+01    0.2155816    0.2036743  63.73 0.0003439974    1.021    0.021
       383 -12.1200     80.1024     36.8839   1.8973827908e+01   6.0229389843e+01    0.5148437    0.2535941 -43.24  0.002121198    2.170    0.539
       384 -12.5705      9.7947     36.9013   5.8068489410e+01   7.2024413299e+01    0.2610241    0.2199518 -26.21 0.0004019048    1.083    0.077
       385 -11.4853     22.0101     36.0546   4.8738645546e+01   7.1067421173e+01    0.2033983    0.1630657  67.23 0.0004910548    1.686    0.407
       386 -12.3058     41.8284     34.2481   3.5078302789e+01   6.8599782275e+01     0.315481    0.2424136  -5.01  0.001668407    1.493    0.330
       387 -11.5358    127.5397     32.5129   5.1365991212e+00   4.8961125138e+01    0.2397153    0.2222373  79.46 0.0003014349    1.068    0.064
       388 -12.5707     30.6930     31.7918   4.0778020873e+01   7.0835098599e+01    0.3183581    0.1880957  31.59 0.0009333437    1.647    0.393
       389 -11.7373     15.4826     33.2316   5.2348225156e+01   7.2367262217e+01    0.3336251    0.1705263  26.46  0.001591506    1.928    0.481
       390 -11.9796      2.2043     30.6367   6.2009516764e+01   7.3942580320e+01    0.2562653    0.2016379 -18.68 0.0004432799    1.187    0.157
       391 -10.5636    146.1822     30.6015   1.4720437677e+00   4.4454340483e+01    0.1841798    0.1205298  60.57 0.0001501092    1.510    0.338
       392 -10.9374    137.8286     30.1024   2.5637252682e+00   4.6635954522e+01     0.184986     0.164626  42.21 0.0004429202    1.317    0.241
       393 -11.3742     96.5903     30.2308   1.1045203918e+01   5.7191094823e+01    0.1855576    0.1436537 -14.30 0.0005396314    1.567    0.362
       394 -11.1305     64.3199     30.2986   2.1890230267e+01   6.4863652373e+01    0.1446802    0.1063264  20.52 0.0002820822    1.619    0.382
       395 -11.4370     67.6479     29.2425   2.0004119424e+01   6.4289000962e+01    0.1915299    0.1350569 -22.47 0.0007594312    1.638    0.390
       396 -10.9069     52.3259     29.6734   2.7072042279e+01   6.7477384470e+01    0.1368165    0.1123018  88.84  0.000704971    1.696    0.411
       397 -10.6098    116.5277     26.4348   4.9765976103e+00   5.2580536709e+01    0.1433914    0.1287832  82.77 6.821544e-05    1.008    0.007
       398 -11.5798     45.2184     25.1213   2.8345247067e+01   6.9618813774e+01    0.2574712    0.1979697 -59.41  0.001372576    1.687    0.407
       399 -11.0958      1.4172     25.7157   6.0999548876e+01   7.5093210650e+01    0.2165152    0.1194515 -70.22 0.0009275948    1.899    0.473
       400 -11.0040    125.1457     25.1846   2.9315576831e+00   5.0504059339e+01    0.2045481     0.154109 -64.15  0.001072145    1.324    0.245
       401 -12.7043     85.2166     24.1892   1.1530702377e+01   6.0838130186e+01    0.3470672    0.2611884  57.76  0.001673035    1.211    0.174
       402 -10.6420    113.3451     23.3087   4.3907196440e+00   5.3785328913e+01    0.1478582    0.1012715  39.42 0.0003135097    1.700    0.412
       403 -11.5758     70.9007     20.9707   1.4584047823e+01   6.4717067932e+01    0.2113347    0.1962034  49.25  0.000547614    1.017    0.016
       404 -11.0609     98.7959     20.1549   6.1812132849e+00   5.7911230861e+01    0.1978315    0.1571297  41.74 0.0005525977    1.331    0.249
       405 -10.4025    141.3420     18.7292   3.5825719246e+02   4.7084103248e+01    0.1458912    0.0912219 -68.96 0.0003828861    1.610    0.379
       406 -11.2218    132.1712     17.1273   3.5895293101e+02   4.9609243583e+01    0.2013182    0.1747332  58.58 0.0004557535    1.223    0.182
       407 -10.9037     96.9249     15.5091   4.5749426527e+00   5.8914664248e+01    0.1939754     0.184588 -54.31  0.000329482    1.137    0.120
       408 -11.2616     66.0340     16.3895   1.3920509915e+01   6.6442269074e+01    0.3365346    0.1530954  57.49   0.00141444    2.006    0.502
       409 -10.3462     34.0018     15.2354   2.9126554070e+01   7.3261972114e+01    0.1618334    0.1021232  39.64 0.0001964598    1.479    0.324
       410 -10.8614    190.2446    249.0658   4.1153954825e+01  -2.1354305730e-01    0.1429969    0.1084094  -2.54  0.000305451    1.093    0.085
       411 -10.6822    125.4230    249.4824   5.3890868567e+01   7.0613634720e+00    0.1191246   0.09349395  19.89 0.0001564568    1.021    0.020
       412 -11.7781     50.0237    247.9355   7.0254869837e+01   1.5962879454e+01    0.2604301      0.17419  77.41   0.00122872    1.684    0.406
       413 -12.6098    162.5296    247.4633   4.6130952024e+01   3.0370476630e+00    0.2099265    0.1641076  14.84 0.0003227318    1.073    0.068
       414 -11.2726     68.3841    246.8949   6.6095690042e+01   1.4156747874e+01    0.2620479    0.1512869  58.18  0.001485343    1.832    0.454
       415 -10.8067     58.2701    248.5704   6.8463870958e+01   1.4967143051e+01    0.1645664   0.09907091  20.05 0.0008823926    1.587    0.370
