#   1 NUMBER                 Running object number                                     
#   2 MAG_AUTO               Kron-like elliptical aperture magnitude                    [mag]
#   3 X_IMAGE                Object position along x                                    [pixel]
#   4 Y_IMAGE                Object position along y                                    [pixel]
#   5 X_WORLD                Barycenter position along world x axis                     [deg]
#   6 Y_WORLD                Barycenter position along world y axis                     [deg]
#   7 A_WORLD                Profile RMS along major axis (world units)                 [deg]
#   8 B_WORLD                Profile RMS along minor axis (world units)                 [deg]
#   9 THETA_WORLD            Position angle (CCW/world-x)                               [deg]
#  10 FWHM_WORLD             FWHM assuming a gaussian core                              [deg]
#  11 ELONGATION             A_IMAGE/B_IMAGE                                           
#  12 ELLIPTICITY            1 - B_IMAGE/A_IMAGE                                       
         1 -13.4603     30.9344     10.6115   9.2806549553e+01   7.0172668667e+01     1.843123     0.532482 -34.00  0.007354563    3.333    0.700
         2 -14.0529     24.9239     48.9270   1.1073543715e+02   6.3857434739e+01     1.387218    0.8357673 -12.92  0.007695935    2.013    0.503
         3 -14.8325     96.5405     71.3865   9.1657280511e+01   4.9526104668e+01     2.346651     1.529396   4.04  0.009724597    2.461    0.594
         4 -15.0453     63.8546     68.9270   1.0173888724e+02   5.5375730918e+01     2.970597     1.724318  -7.77   0.01167509    3.276    0.695
         5 -14.7663     79.0693     69.8209   9.6782644284e+01   5.2898338522e+01     3.223107     1.784244 -17.62   0.01154665    3.463    0.711
         6 -15.1775      8.7597     22.2168   1.0931414105e+02   7.0254997023e+01     2.062689    0.8842058 -44.72   0.01015028    1.713    0.416
         7 -15.0030     44.2301     41.4478   1.0007279053e+02   6.3398088137e+01     2.171642      1.43348 -34.28   0.01003491    1.297    0.229
         8 -12.5443    149.2712      8.4275   5.6326337158e+01   4.6636339159e+01    0.6161004    0.3531387  74.07  0.002720615    1.774    0.436
         9 -13.7868    138.6107      4.4973   5.6679378543e+01   4.9661083319e+01     3.032484          nan  58.41   0.00762245    5.762    0.826
        10 -11.7788     73.2338      1.5029   7.0743437762e+01   6.4652338239e+01    0.2821734    0.1420649  50.24 0.0006072922    1.891    0.471
        11 -13.1938     83.5567     22.5559   7.7278650351e+01   6.0247047800e+01    0.7552628    0.5631561  49.07 0.0007778977    1.442    0.307
        12 -13.5264    123.7792     10.2604   6.1596200854e+01   5.2774330156e+01     1.320115    0.5242805  50.60 0.0003834474    2.159    0.537
        13 -12.2865     75.7395     13.4105   7.5693790829e+01   6.2890257565e+01    0.3677689    0.3258372 -20.43 0.0009284852    1.231    0.188
        14 -14.0687     85.7761     11.9035   7.1796523536e+01   6.1098472685e+01      2.35428    0.4676722  49.30  0.007688168    4.015    0.751
        15 -14.2233     84.8544      3.5655   6.8198581021e+01   6.2142354739e+01     3.381363    0.5086707  57.02  0.008883683    6.674    0.850
        16 -12.2956    151.2101     20.9242   6.0293147688e+01   4.4885693202e+01    0.5993588    0.3546528  55.98  0.002318069    1.544    0.353
        17 -12.9903    192.4277      5.9426   4.9931485832e+01   3.5908859179e+01    0.6531079    0.4792866  85.75  0.002675466    1.302    0.232
        18 -10.7698    186.8362     18.5327   5.4209641827e+01   3.6049659270e+01     0.368181    0.1972186 -29.77  0.001459679    1.879    0.468
        19 -13.3098    185.9339     12.0000   5.2406289222e+01   3.6956579285e+01    0.6546607    0.5357203  63.53  0.002859713    1.163    0.140
        20 -12.5935    175.4666     13.4973   5.4175949893e+01   3.9470948138e+01    0.5268161    0.3324228  25.90   0.00219459    2.045    0.511
        21 -10.9214    133.0682     14.6618   6.1410515634e+01   5.0081209427e+01    0.2408951    0.1832001 -33.17 0.0009005258    1.405    0.288
        22 -11.5265    169.9035     10.3253   5.3936325618e+01   4.1204497806e+01    0.2442816    0.1805476 -40.91 0.0007678333    1.407    0.290
        23 -10.2289     49.0450      4.1084   8.1073047253e+01   6.8583350648e+01    0.2104573    0.1793259  -1.68  0.001450042    1.147    0.128
        24 -11.6623     64.7638     17.9077   8.1725896274e+01   6.4283749850e+01    0.4319265    0.2797417  24.64  0.001383999    1.533    0.347
        25 -11.1253    168.0302      2.4856   5.1724610929e+01   4.2397625178e+01    0.2572705    0.1920502  17.28  0.001390488    1.593    0.372
        26 -14.7038     37.4195     82.4846   1.1461160553e+02   5.5466491433e+01      2.85278     0.952699 -50.82   0.01191453    2.380    0.580
        27 -12.9923    203.1298    125.3478   8.0952328055e+01   1.5799508238e+01    0.8018618    0.5642327  31.05  0.003858157    1.526    0.345
        28 -11.1647    122.3761    127.3531   9.9576545482e+01   3.2539242318e+01    0.4051864    0.3810639 -81.97  0.001322525    1.092    0.084
        29 -11.3173    245.1826    249.6867   9.7415832123e+01  -8.9002236418e+00    0.2163187   0.08136956  42.36  0.001095851    2.652    0.623
        30 -10.6391    189.1379    197.3352   9.8786739162e+01   6.3453525081e+00    0.2804727     0.104959  35.63  0.001100583    2.625    0.619
        31  -9.2607    178.3578    184.7021   9.8643109382e+01   1.0338144229e+01    0.1332794    0.1063877  70.74 0.0004312336    1.705    0.413
        32 -10.5390    144.5025    181.4935   1.0513440509e+02   1.7111596970e+01    0.1369355    0.1251918  47.30 0.0008105471    1.023    0.022
        33 -10.3676     33.9789    177.6269   1.2891070135e+02   3.4072911128e+01    0.2066651    0.1480543 -57.87  0.001339422    1.570    0.363
        34 -11.3785    202.9831    172.0443   9.1335233314e+01   7.8693417704e+00    0.3578402    0.2088603 -35.96  0.001738033    1.757    0.431
        35 -10.5641    135.0650     98.7742   8.9048283100e+01   3.6072497821e+01    0.4676237    0.3134406  20.45  0.001938735    2.060    0.514
        36 -11.4919    141.6769     96.3760   8.6714097850e+01   3.5105389230e+01    0.4901444    0.3044303 -24.19  0.001980384    2.016    0.504
        37 -10.8569    114.1394     96.7665   9.4068110604e+01   4.0846019591e+01    0.4036989    0.2663314 -51.74  0.001209783    1.530    0.346
        38 -10.4908    188.6756     94.5777   7.5858827697e+01   2.4504124336e+01    0.3074087    0.2448826 -60.80 0.0005446615    1.444    0.308
        39 -11.4917    138.5759     92.7810   8.6462922174e+01   3.6517699873e+01    0.3039981    0.2505745  -6.83  0.001475031    1.401    0.286
        40  -9.7626      2.0000    170.9953   1.3507667320e+02   3.8353441411e+01    0.1813908   0.04982926 -78.28 0.0008004833    2.929    0.659
        41 -10.9471    249.2017     86.2722   6.3942753856e+01   1.2263911474e+01    0.3483414    0.2793861 -51.23  0.001992411    1.260    0.206
        42 -13.1598      5.7284     82.8436   1.2547439889e+02   5.7738186948e+01     1.042691    0.3917823 -54.30  0.005236092    2.000    0.500
        43 -14.0339     69.3960     53.9979   9.4851737252e+01   5.7579641527e+01    0.9825092     0.793624  -5.57  0.003268374    1.271    0.213
        44 -10.7691    137.7796     84.4362   8.4211850645e+01   3.8342124936e+01    0.3841532    0.1478607  46.69   0.00130356    2.618    0.618
        45 -11.6717    128.0990     81.8641   8.5925194010e+01   4.1000731546e+01    0.4012809    0.3368238 -48.65  0.001058696    1.219    0.180
        46 -12.7335    120.7664     80.6313   8.7517549920e+01   4.2827029330e+01    0.6057138    0.4071143  19.31  0.002579059    2.020    0.505
        47 -11.9583    117.0521     74.7013   8.6689177244e+01   4.4779106268e+01    0.2417599    0.2078716   3.10  0.001041429    1.257    0.205
        48 -10.4872    149.0674     78.5189   7.9681904084e+01   3.6846160089e+01    0.4569524    0.2297362 -31.74  0.001733222    2.107    0.525
        49 -12.9652      2.6899     70.3790   1.2447720389e+02   6.0677127412e+01     1.133392    0.2817343 -68.75  0.004526061    3.106    0.678
        50 -12.0529    143.9880     74.9912   7.9800673760e+01   3.8687978554e+01    0.4797513    0.3531868 -27.53  0.001008908    1.401    0.286
        51  -9.2142    195.5171     76.5130   6.9630227099e+01   2.5924935451e+01    0.1489075    0.1441664 -35.38 0.0008103005    1.004    0.004
        52 -13.2415    125.7686     72.8109   8.3712512401e+01   4.3255382840e+01     0.955662    0.3503532  50.45  0.003211732    2.866    0.651
        53 -10.2113    182.7226     72.0315   7.0675606534e+01   2.9782950945e+01    0.2337127    0.2090555  54.35 0.0005550815    1.135    0.119
        54  -9.3594    168.9994     72.0000   7.3345091686e+01   3.3171341592e+01    0.2496218   0.08716854  55.28 0.0007948528    2.890    0.654
        55 -12.6926    117.7064     66.9908   8.4001760188e+01   4.6102709183e+01    0.5163664    0.3850383 -13.41  0.002037759    1.541    0.351
        56 -10.1117    146.7803     66.2315   7.6382061624e+01   3.9574130901e+01    0.3335503    0.2531705  -2.12  0.001411792    1.602    0.376
        57 -12.2595      8.2160     65.9947   1.2163092762e+02   6.1353920498e+01    0.4643039    0.2573862 -53.75  0.001873011    1.372    0.271
        58 -11.0068    214.6838     60.9298   6.2318000331e+01   2.3696014632e+01    0.3733624    0.2645429 -19.74  0.001012972    1.526    0.345
        59 -10.2605    169.9685     63.0170   7.0437150819e+01   3.4405815475e+01    0.3028829    0.2106182  47.41 0.0007098218    1.443    0.307
        60  -9.5983    165.9828     62.9447   7.1205697193e+01   3.5410597638e+01    0.2204604    0.2004808 -84.56 0.0003660002    1.203    0.169
        61 -13.2846      3.3727     46.6641   1.1931796195e+02   6.5746073484e+01    0.7099112    0.5140668 -81.79  0.002767459    1.583    0.368
        62  -9.5102    189.5663     59.4201   6.5804232431e+01   3.0063529733e+01    0.1457115    0.1414427 -62.24 0.0001134524    1.021    0.021
        63 -12.3154    124.5524     57.6017   7.8980644999e+01   4.6255097295e+01    0.4211421    0.3141727  46.40 0.0008409161    1.338    0.252
        64 -10.9199    174.7735     56.4534   6.7525882613e+01   3.4220736672e+01    0.2582749     0.248334 -63.19 0.0004730391    1.057    0.054
        65 -10.4448    137.9790     55.1964   7.4816135151e+01   4.3522616583e+01    0.3248122    0.2134447  32.40  0.001011232    1.710    0.415
        66 -11.6628    133.1794     53.7234   7.5467776376e+01   4.4899668424e+01    0.3976294    0.2792146  54.14 0.0007000032    1.441    0.306
        67 -10.2767    152.9884     53.7574   7.0974694199e+01   4.0090206405e+01    0.2291581    0.1330854  45.04 0.0005731053    1.731    0.422
        68 -11.1879    145.3867     50.5146   7.1544461566e+01   4.2462388268e+01    0.3498685    0.2874946 -32.22 0.0008097289    1.226    0.185
        69  -9.6635    173.7465     47.9926   6.5118772498e+01   3.5721028290e+01    0.2086297    0.1958148 -44.09 0.0008691089    1.073    0.068
        70 -10.3703    176.6687     45.8008   6.3937720314e+01   3.5286963821e+01    0.2895298    0.2741035 -26.99 0.0009457423    1.077    0.072
        71  -9.7796    137.1532     48.1374   7.2597085031e+01   4.4825875297e+01    0.2036377    0.1773878 -63.28 0.0006263744    1.325    0.245
        72 -11.4038    157.2957     43.6808   6.6800787343e+01   4.0496409035e+01     0.338845    0.2702941  35.73 0.0007166633    1.297    0.229
        73 -11.1646    122.1143     44.0193   7.4796991130e+01   4.8994059140e+01     0.313904    0.2652031   6.83  0.001420238    1.219    0.179
        74 -10.2034    181.9230     43.5962   6.2395164444e+01   3.4254717280e+01    0.2309621    0.2062039  -1.16 0.0005356209    1.229    0.186
        75 -10.6094    140.9721     43.9953   7.0299352435e+01   4.4512719138e+01    0.2227437    0.2156696  23.83 0.0003553233    1.012    0.012
        76 -10.4805    197.0612     41.1680   5.9384290927e+01   3.0756487194e+01     0.239829     0.202474 -36.73 0.0005042667    1.170    0.145
        77 -10.0512    188.8703     41.8174   6.0776857973e+01   3.2732493936e+01    0.2078393     0.165236 -65.25 0.0006821455    1.344    0.256
        78 -12.1369    216.0925     39.0028   5.6276350804e+01   2.6350043796e+01    0.7942153     0.281606  57.68  0.002236258    2.699    0.629
        79 -11.6208    204.9385     37.8877   5.7385953333e+01   2.9219389757e+01    0.4900947    0.3777437  46.12  0.002174546    1.399    0.285
        80  -9.7691     90.0210     40.4999   8.2676226991e+01   5.6369286314e+01    0.1952728     0.134226  42.58 0.0003515035    1.481    0.325
        81 -10.1723    159.9876     36.3398   6.3885887410e+01   4.0806595636e+01    0.2047189    0.1710601  58.34 0.0002039955    1.155    0.134
        82 -12.9287     80.4655     32.0398   8.2390471741e+01   5.9488811982e+01    0.6814523    0.5846265  58.66  0.002578022    1.501    0.334
        83 -10.5032    185.8488    167.1478   9.3728845734e+01   1.1955451039e+01    0.2120157    0.1963418  66.51 0.0007243211    1.290    0.225
        84 -11.8790    215.2393    162.7600   8.7107706408e+01   7.0637611605e+00    0.4003338    0.2398739   9.63  0.001714695    2.424    0.587
        85  -9.2817    208.5393    161.4753   8.8094095576e+01   8.5415353119e+00     0.140227     0.124933   6.17 0.0001053195    1.010    0.010
        86 -12.2219    199.2557    154.9627   8.8493340992e+01   1.1441939845e+01    0.4749422    0.3113323 -46.72  0.002293524    1.712    0.416
        87 -12.0510     18.7791    154.0530   1.3019606993e+02   4.0638702241e+01    0.3343992    0.2905098  78.74  0.002430288    1.147    0.128
        88 -10.9551    190.4367    153.2203   8.9870641292e+01   1.3508025068e+01     0.354697     0.136774 -42.03  0.001304004    2.667    0.625
        89 -10.4485     29.6867    153.5785   1.2761901639e+02   3.9757878703e+01    0.2165652     0.123315  82.24 0.0009376267    1.728    0.421
        90  -9.9901    138.9642    152.3073   1.0091124878e+02   2.3971137176e+01    0.2101047    0.1874702  39.75  0.000841999    1.096    0.087
        91 -11.4446    176.6325     33.4011   6.0134495990e+01   3.6930777301e+01    0.2942017    0.2501843  65.92 0.0005435742    1.140    0.123
        92  -9.8407     97.0842     34.1156   7.7930686393e+01   5.5934728249e+01    0.2210056    0.1771086   9.12 0.0008385452    1.242    0.195
        93 -10.6063    151.1021     32.2742   6.4186483648e+01   4.3576787316e+01    0.4768503    0.1739363  56.73  0.001735787    2.463    0.594
        94  -9.4333    216.4827     28.4715   5.3443836305e+01   2.7551966594e+01    0.1346418    0.1261363 -70.33 0.0001600613    1.026    0.026
        95  -9.4355    109.3305     28.3057   7.2135233238e+01   5.4104551681e+01    0.1493989   0.09963177  22.52 0.0007037873    1.658    0.397
        96 -11.3732    241.8351     22.9563   4.9539630867e+01   2.2281085158e+01    0.3961459    0.2575415 -62.81  0.001508273    1.497    0.332
        97 -11.5107    233.5367    154.2247   8.2013929979e+01   4.9868254198e+00    0.3422337    0.2149675  14.82  0.001640572    1.929    0.482
        98 -10.1212    235.4397     21.4855   4.9761000912e+01   2.3897510347e+01    0.2650228    0.1234104  71.82   0.00121373    2.176    0.540
        99 -10.8364    139.3493     21.0869   6.2536074823e+01   4.7845848119e+01    0.2548343    0.1792114  49.16 0.0007997511    1.317    0.241
       100 -10.8486    208.9157     18.6801   5.1669900040e+01   3.0511985363e+01    0.2997299    0.2510752 -46.26   0.00104221    1.153    0.133
       101 -11.4183     58.2574    144.1784   1.1946039575e+02   3.8806526099e+01    0.5929254    0.3434511  70.80  0.002840619    2.121    0.529
       102 -12.8697     49.3155    142.0524   1.2144228285e+02   4.0349886804e+01     0.780057    0.6081332  39.26  0.004633554    1.415    0.293
       103 -11.5390    246.1061    145.1960   7.7955246422e+01   4.0475542838e+00    0.2545875    0.1942613 -36.54   0.00145536    1.329    0.248
       104  -9.7548     90.3791    145.7920   1.1153378231e+02   3.3961069849e+01    0.2010852    0.1202269 -50.28 0.0009517582    1.685    0.407
       105 -11.6325    213.0229    142.2336   8.3041252810e+01   1.0848395830e+01    0.6948647    0.3340225  55.57  0.002713506    2.700    0.630
       106 -12.1220     75.9976    139.4319   1.1413160356e+02   3.7565719043e+01    0.7262309    0.2244331 -60.39  0.002588645    3.029    0.670
       107  -9.6285    240.5054     34.4955   5.2436582095e+01   2.1212377103e+01    0.1306142     0.119015 -54.81 -9.689469e-05    1.041    0.039
       108 -11.7513     34.2170    135.8173   1.2450597404e+02   4.3371279745e+01    0.3114706     0.182504  28.29  0.001721496    2.032    0.508
       109 -11.2599     82.0004    134.1718   1.1161360119e+02   3.7914029839e+01    0.2644256    0.1955697 -62.70  0.001414809    1.267    0.210
       110 -10.4050     21.9584    133.9680   1.2743686418e+02   4.4898487943e+01     0.197839    0.1222143  73.24  0.001132703    1.642    0.391
