#   1 NUMBER                 Running object number                                     
#   2 MAG_AUTO               Kron-like elliptical aperture magnitude                    [mag]
#   3 X_IMAGE                Object position along x                                    [pixel]
#   4 Y_IMAGE                Object position along y                                    [pixel]
#   5 X_WORLD                Barycenter position along world x axis                     [deg]
#   6 Y_WORLD                Barycenter position along world y axis                     [deg]
#   7 A_WORLD                Profile RMS along major axis (world units)                 [deg]
#   8 B_WORLD                Profile RMS along minor axis (world units)                 [deg]
#   9 THETA_WORLD            Position angle (CCW/world-x)                               [deg]
#  10 FWHM_WORLD             FWHM assuming a gaussian core                              [deg]
#  11 ELONGATION             A_IMAGE/B_IMAGE                                           
#  12 ELLIPTICITY            1 - B_IMAGE/A_IMAGE                                       
         1 -13.8836    226.8286      4.1728   3.6569547951e+01   2.7728633248e+01     1.868781    0.9965337  53.01  0.006276173    2.147    0.534
         2 -13.7607    183.6767     47.7770   5.3241483505e+01   3.3049851201e+01      1.25135     1.069438 -13.03 0.0008941269    1.318    0.241
         3 -14.0213    194.5549     38.9302   4.9036507538e+01   3.1509659349e+01     1.382368     1.111052 -34.74  0.003252269    1.269    0.212
         4 -14.5739    203.2359     29.4018   4.5269690815e+01   3.0555563638e+01      1.61512     1.305007  25.88  0.001366339    1.571    0.364
         5 -12.4352     31.5554      3.5456   7.9386737952e+01   7.1030429183e+01     0.345704    0.3010237  -3.63  0.002547743    1.344    0.256
         6 -11.8991     60.1844      3.2847   6.6670318925e+01   6.6774663238e+01     0.408366    0.1619413  34.71  0.001841977    2.425    0.588
         7 -10.9013     48.7045      2.6290   7.0940557011e+01   6.8732958000e+01    0.2063606    0.1202657  11.58  0.001131884    1.748    0.428
         8 -12.4101    196.1520    198.4053   8.8008966862e+01   3.1463965606e+00      1.22283    0.9987151 -76.78  0.006634148    1.994    0.498
         9 -14.0678     61.4800    188.2000   1.1580091324e+02   2.7801883675e+01     6.348892     2.713811  22.00  0.003004826    5.062    0.802
        10 -16.8698     52.6956    202.9241   1.1913449779e+02   2.5737146944e+01     12.40136     2.904434  49.10    0.0459303    3.772    0.735
        11 -11.6873    207.3691    195.0996   8.5168520158e+01   1.6968730457e+00     0.458152    0.2418125 -36.04  0.002106159    1.965    0.491
        12 -10.1368    183.5614    206.2763   9.1962881750e+01   4.0793954330e+00    0.2432039     0.132637 -45.82  0.001156624    2.122    0.529
        13 -11.6009    108.3207    203.4268   1.0743236997e+02   1.7676861443e+01    0.3394298    0.2235075  46.97 0.0009625024    1.348    0.258
        14 -15.7075     68.3819    144.2253   1.0820642381e+02   3.7155543745e+01     6.211009     3.292482  65.90    0.0249882    2.723    0.633
        15 -12.6951    112.7462    197.7407   1.0567586973e+02   1.8114089591e+01    0.4943205    0.4173105  54.73  0.002952842    1.060    0.056
        16 -10.2277    151.5184    196.0950   9.6919666858e+01   1.1661049199e+01     0.224775    0.1688899  40.11 0.0006549411    1.203    0.169
        17 -10.2208     81.6865    194.8988   1.1213533994e+02   2.3560437500e+01    0.2593341    0.2266162  68.97 0.0009104817    1.038    0.037
        18 -14.7846     47.3118    221.9119   1.2176296416e+02   2.2540400453e+01     2.664701     1.021963  85.22   0.01055186    4.065    0.754
        19  -9.2567     97.2699    191.2959   1.0820940696e+02   2.1975141388e+01    0.1851249    0.1422445  74.30 0.0001836121    1.302    0.232
        20 -10.1701     94.9895    187.9045   1.0825441859e+02   2.3067169400e+01    0.2160469    0.1845574 -79.45  0.000467223    1.155    0.134
        21  -8.8517    161.6072    200.2715   9.5471799418e+01   9.0534208682e+00    0.1404631     0.101888  63.24 0.0006988203    1.727    0.421
        22  -9.4879     73.7678    188.5824   1.1312259187e+02   2.6064046727e+01    0.2095597    0.1627325  86.61 0.0005608793    1.192    0.161
        23 -10.8776     99.2851    180.9949   1.0626756162e+02   2.3903709194e+01    0.2871877    0.2543302  28.69 0.0006258521    1.289    0.224
        24 -10.9714    145.8070    182.4930   9.5795399971e+01   1.5392049079e+01    0.2803329    0.2589036  33.74  0.001449188    1.044    0.042
        25  -9.7397     43.0296    179.6268   1.1897961452e+02   3.1951947247e+01    0.1965024    0.1419715  82.04 0.0003301446    1.197    0.164
        26 -10.4531    204.4346    175.9651   8.1954913537e+01   5.4168185568e+00    0.3490016    0.2681971 -47.66  0.001407557    1.521    0.343
        27 -10.0673    197.0003    176.3838   8.3541585245e+01   6.7518773828e+00    0.3117753    0.2640687  42.89  0.001279711    1.238    0.192
        28 -10.0504    188.4380    174.8807   8.5003042397e+01   8.6683876484e+00    0.2979943    0.2423072 -69.05  0.001116369    1.712    0.416
        29 -12.2128     74.0756    174.3591   1.1124558801e+02   2.9221600052e+01    0.3824804    0.2722627 -41.26  0.001328697    1.803    0.445
        30 -12.2321     77.9808    169.5467   1.0964577144e+02   2.9775613204e+01    0.3820093    0.2840624 -44.55   0.00118582    1.590    0.371
        31 -11.3130     47.6049    173.2925   1.1729038506e+02   3.2865957848e+01      0.48789    0.3355693  48.67  0.002328119    1.420    0.296
        32 -11.0884     53.2890    172.7607   1.1591893765e+02   3.2313341497e+01    0.3155812    0.2320426  80.71  0.001870627    1.240    0.194
        33 -11.2739     54.9411    167.2404   1.1487610838e+02   3.3390720624e+01    0.5059871    0.2004573 -54.02  0.002151992    2.559    0.609
        34 -10.3327    159.5359    162.9299   8.8854367331e+01   1.6738625311e+01    0.2987442     0.243454 -66.07   0.00149778    1.456    0.313
        35  -9.7581    186.5637    164.9452   8.3320010623e+01   1.0888258434e+01    0.2197789    0.1424978 -39.00 0.0006676718    1.568    0.362
        36 -12.2481     92.4861    153.6580   1.0348610256e+02   3.1301238614e+01     0.686915     0.500838 -22.13  0.003252527    2.027    0.507
        37  -9.9711    188.6383    153.3254   8.0332353114e+01   1.2684815097e+01    0.1506217      0.12257 -89.68  0.000704147    1.788    0.441
        38 -11.4227    133.9323    145.3322   9.1214862575e+01   2.5719906689e+01       1.2739    0.3340315 -54.71  0.003014461    5.699    0.825
        39 -15.6165     11.3655    206.5888   1.2743781184e+02   2.9441947419e+01    0.6764836      0.65094 -70.06  0.003931996    1.543    0.352
        40 -10.7114    174.6928    148.9674   8.2373295637e+01   1.6465710111e+01    0.2835735    0.2667948  39.76 0.0008001266    1.080    0.074
        41 -10.6443    143.8877    145.9969   8.8898230325e+01   2.3553117636e+01    0.3458354    0.2098259 -62.95  0.001374663    2.130    0.530
        42 -10.6761     86.3155    145.4125   1.0362444166e+02   3.4254214315e+01    0.2885149    0.2230768  67.39 0.0003895483    1.384    0.277
        43 -12.3166     92.6489    139.2836   1.0075963847e+02   3.4720992017e+01    0.2880744    0.2522694 -51.71 0.0003547537    1.137    0.121
        44 -11.1352    105.0662    138.9918   9.7348462262e+01   3.2670137622e+01    0.5753794    0.3626767 -32.03  0.002417741    2.109    0.526
        45 -16.2778     34.8795    250.0704   1.2577515955e+02   1.8786284248e+01     3.327473    0.8669789  31.38    0.0104402    8.392    0.881
        46 -10.8797    106.0099    130.8215   9.5331634228e+01   3.4447441795e+01    0.3604105    0.3130899 -72.76  0.001186757    1.175    0.149
        47 -11.4093    135.8256    127.5914   8.6621101831e+01   2.9345728971e+01    0.7861909    0.2090225 -49.85  0.002094837    4.089    0.755
        48  -8.8955     98.2557    129.6805   9.7225411156e+01   3.6091740838e+01    0.2150258    0.1479316  43.76 0.0002356602    1.507    0.337
        49 -11.0542    100.6681    125.8885   9.5709290209e+01   3.6579985600e+01    0.3131324     0.255228 -20.26 0.0009680621    1.484    0.326
        50 -10.1188    160.5695    127.7234   8.0544166177e+01   2.3951507745e+01     0.319548    0.2745695 -73.96  0.001551509    1.371    0.271
        51 -11.4107    119.7123    123.3760   8.9850716920e+01   3.3601907013e+01    0.5887043     0.388327  -9.33  0.002181576    2.759    0.638
        52 -10.8141    113.5116    129.8535   9.3065715935e+01   3.3287639564e+01    0.3436245    0.3071234   8.75 0.0008780673    1.278    0.218
        53 -10.1309    109.0091    119.0147   9.1745961150e+01   3.6689651704e+01    0.2206224    0.2139723 -57.70 -0.007547014    1.009    0.009
        54  -9.8369    167.6917    112.5308   7.4966852229e+01   2.5503846196e+01    0.3222243     0.235616 -67.76  0.001376097    1.797    0.444
        55 -10.5299    134.7027    104.5062   8.0891126122e+01   3.4718378875e+01    0.7942407    0.1903915 -41.96  0.002041067    4.225    0.763
        56 -11.7506    118.1394    110.0378   8.6899528853e+01   3.6987102937e+01     0.686464    0.5011035  67.93  0.002717094    1.782    0.439
        57 -10.0845    205.6576    110.1140   6.6447445244e+01   1.7181762240e+01    0.2760275    0.2219715  40.70 0.0006707025    1.307    0.235
        58 -10.4681     56.1051    223.9567   1.2026575190e+02   2.1064008520e+01    0.1741489    0.1256093  68.49            0    1.114    0.102
        59 -11.7893    174.5837    212.6717   9.4871030031e+01   4.5923507940e+00    0.4189333    0.1908113  32.56  0.001803689    2.169    0.539
        60  -9.0945    152.4483    211.4380   9.9222389195e+01   8.6666193920e+00    0.1340905    0.1165401  40.27 6.069308e-05    1.018    0.018
        61  -8.9517    161.7113     89.3155   6.9875780952e+01   3.1557772735e+01    0.1589365    0.1251841 -72.71 0.0002653615    1.590    0.371
        62 -10.2238     39.8135     88.3700   1.0622773308e+02   5.4012739494e+01    0.2266187    0.1632364 -66.17  0.001145255    1.285    0.222
        63  -9.7253    156.9337     81.3174   6.8609052224e+01   3.4242589178e+01    0.2226028    0.2067324  41.44 0.0007303556    1.080    0.074
        64  -9.7337    184.5039     77.0356   6.1556678824e+01   2.8189570423e+01    0.2357911    0.1502454 -34.49 0.0004991339    1.550    0.355
        65 -12.2010    170.7045     59.9123   5.9190194425e+01   3.4520160557e+01    0.9113791     0.513371 -34.20   0.00382812    1.779    0.438
        66 -18.3256      7.9426    240.6447   1.2969365675e+02   2.3288078055e+01      15.9889     1.652943 -78.26   0.04801225    9.219    0.892
        67  -9.9252     93.9345    249.9406   1.1548619983e+02   1.1242383441e+01    0.1728382    0.1362912  54.34 0.0004573595    1.047    0.045
        68  -9.1863    169.1908    236.8561   9.9670026270e+01   1.6799148010e+00    0.1611795    0.1294401  13.87 0.0003477618    1.279    0.218
        69  -9.9306     72.2450    231.1944   1.1782416260e+02   1.7582363246e+01    0.1851476    0.1094852  69.58 0.0005113829    1.628    0.386
        70 -11.2382    152.4485     55.5617   6.1579601870e+01   3.9829325233e+01    0.4346131    0.3028944 -77.70 0.0008021717    2.079    0.519
        71 -10.9797    154.9326     49.6934   5.9156122958e+01   4.0108080579e+01    0.3548736    0.2758152 -78.59 0.0008781763    1.589    0.371
        72 -12.0046     33.3730     16.1498   8.4900785722e+01   6.9051228223e+01    0.2804071    0.1644058  34.32  0.001633516    1.930    0.482
        73 -10.0943    189.7443     15.0275   4.2993955946e+01   3.5592414058e+01    0.2393369    0.1863271  75.48 0.0007051608    1.177    0.150
        74 -11.7984    114.0694    208.1931   1.0684441063e+02   1.5792038417e+01    0.4260457     0.252504  68.08  0.001685713    2.175    0.540
        75 -13.8443     74.2602    155.8816   1.0853251496e+02   3.3529885262e+01    0.6924714    0.5540823 -39.34  0.001350088    1.494    0.331
