#   1 NUMBER                 Running object number                                     
#   2 MAG_AUTO               Kron-like elliptical aperture magnitude                    [mag]
#   3 X_IMAGE                Object position along x                                    [pixel]
#   4 Y_IMAGE                Object position along y                                    [pixel]
#   5 X_WORLD                Barycenter position along world x axis                     [deg]
#   6 Y_WORLD                Barycenter position along world y axis                     [deg]
#   7 A_WORLD                Profile RMS along major axis (world units)                 [deg]
#   8 B_WORLD                Profile RMS along minor axis (world units)                 [deg]
#   9 THETA_WORLD            Position angle (CCW/world-x)                               [deg]
#  10 FWHM_WORLD             FWHM assuming a gaussian core                              [deg]
#  11 ELONGATION             A_IMAGE/B_IMAGE                                           
#  12 ELLIPTICITY            1 - B_IMAGE/A_IMAGE                                       
         1  -9.5014    211.9167     20.4593   3.5817617097e+02   3.1251105795e+01    0.5786477    0.4736399   0.68  0.003889448    1.909    0.476
         2 -14.5976    195.7514     82.2762   1.3939787896e+01   2.6133376305e+01     2.209195     1.600822  -8.98   0.01059933    2.043    0.511
         3 -12.0581    241.6808     22.7817   3.5703742945e+02   2.5591289687e+01     1.062482        0.392  61.36  0.005616454    3.487    0.713
         4 -13.6908    228.9224     65.9966   6.7290455682e+00   2.2507371406e+01     2.040366    0.9454466 -58.29    0.0103869    2.293    0.564
         5 -13.3321    202.9264     39.9094   3.2785958955e+00   3.0718077150e+01      2.23312    0.8411632 -58.43  0.009533441    2.819    0.645
         6 -12.7572    225.0534     23.9862   3.5816912383e+02   2.8382816050e+01    0.8740734    0.4319265  51.90  0.004650723    3.147    0.682
         7 -13.1706    181.5977     36.9778   4.5403765559e+00   3.5536562458e+01     1.297988      0.58784  56.93  0.005011893    2.499    0.600
         8 -12.7580    221.2238     38.2036   1.4586053318e+00   2.7427068869e+01    0.7146302    0.4224029 -47.37    0.0010571    1.281    0.219
         9 -14.0209    182.6840     64.5408   1.1405157424e+01   3.1461367849e+01     1.512127      1.21613 -38.82  0.002656763    1.211    0.174
        10 -11.0861     20.6467     23.8485   4.8992361978e+01   7.4226859215e+01    0.8621624    0.2417041 -51.47  0.001872645    3.577    0.720
        11 -11.3844     75.9397      7.4373   1.0723340013e+01   6.5011128060e+01    0.7277938    0.5687383  56.91  0.002849391    1.152    0.132
        12 -12.8406     65.8791     14.9283   1.7799434809e+01   6.6681139390e+01     1.317051    0.6493227  54.62  0.005941986    1.749    0.428
        13 -14.0128      4.1093     55.4762   7.3010594030e+01   6.8326341667e+01     2.437811     1.151071 -83.45  0.002936226    2.360    0.576
        14 -12.9895     25.8524     39.9066   5.2731811639e+01   7.0183620360e+01     2.339246     1.025674 -41.89  0.004235759    2.431    0.589
        15 -14.1099     36.7586     56.7450   5.2244005327e+01   6.4846356818e+01     2.223681     1.545176   8.54    0.0105324    1.667    0.400
        16 -13.6179      6.8964     67.3808   7.3377730840e+01   6.5078053098e+01     1.009318    0.9594795  35.64   0.00204197    1.120    0.107
        17 -14.0024     61.6488     42.1000   3.3167427455e+01   6.3474700366e+01       1.5743     1.053306 -23.37  0.003160376    1.973    0.493
        18 -12.9020     50.2106     31.7083   3.3702206016e+01   6.7715337970e+01     1.571607     1.035372  23.97  0.007370961    1.852    0.460
        19 -12.2666     52.9161     21.2011   2.6658515013e+01   6.8835632249e+01    0.6437643    0.4523414 -79.23  0.003009548    2.299    0.565
        20 -13.5379      6.0410     37.6967   6.7187223580e+01   7.2617173608e+01     1.162083    0.5570351 -85.56   0.00383525    3.009    0.668
        21 -13.5490     13.5643     34.8529   6.0003013318e+01   7.2686934073e+01      1.21526    0.6335742 -71.37  0.005023879    2.368    0.578
        22  99.0000     35.6073     21.2165   3.6372740656e+01   7.2327383927e+01     3.449814    0.9691932  46.58   0.01134882    3.631    0.725
        23 -12.0172     79.9898     22.0912   1.6851835575e+01   6.2337285606e+01     1.514095    0.6441608  50.26  0.002605519    2.171    0.539
        24 -11.6089    158.9300     27.0241   4.2272384787e+00   4.1927435701e+01    0.4347359    0.2582256 -15.85  0.001676714    2.427    0.588
        25 -10.4402    151.2481     24.1745   4.2606326217e+00   4.4102162587e+01     0.631316    0.3997664 -82.35  0.002993335    1.523    0.343
        26 -12.1057    135.3698     23.2780   5.9933636665e+00   4.8113235021e+01    0.4414745      0.32908 -39.47  0.001839281    1.368    0.269
        27 -11.4515    123.8332     23.6295   7.8352416396e+00   5.0982573688e+01    0.4050859    0.2956746 -13.88  0.001295308    1.801    0.445
        28  -9.7909    112.8787     22.6731   9.3669545043e+00   5.3896277937e+01    0.4841778    0.4017597  24.89  0.002692667    1.558    0.358
        29 -11.0691    113.4209     14.2293   6.0486392491e+00   5.4704851261e+01      0.33911    0.2691315   8.55 0.0008141847    1.720    0.419
        30 -12.1963    115.9360      8.3495   3.4313469560e+00   5.4648549830e+01    0.7172412    0.3514702 -39.67  0.002742741    2.002    0.501
        31 -11.0559    202.9583     18.0382   3.5817771657e+02   3.3291772889e+01    0.3740458    0.3654159   8.04  0.002810746    1.474    0.321
        32  -9.1713    228.1051      9.5431   3.5498905067e+02   2.9377724216e+01    0.7068533    0.2222107 -64.55  0.003259973    3.089    0.676
        33  99.0000    228.0533     15.6826   3.5626622909e+02   2.8744383609e+01    0.5435747    0.2426292 -71.71  0.003025444    2.182    0.542
        34 -11.2031    219.8930     12.3925   3.5597064903e+02   3.0597712155e+01    0.3429224    0.2234462  85.68  0.001031443    1.566    0.361
        35 -12.7629    220.7270      7.4205   3.5486727457e+02   3.0954790478e+01    0.2717043    0.1557534 -55.00 0.0005251209    1.279    0.218
        36 -10.8722    156.2868     11.9544   1.0193211336e-01   4.4244605694e+01    0.4698994     0.284843   0.92   0.00216211    3.036    0.671
        37 -10.1420    156.6226      8.0956   3.5894221257e+02   4.4555615221e+01     0.226746    0.1769514 -18.24 0.0007057506    1.612    0.379
        38 -12.2371    250.0119     11.0187   3.5439309472e+02   2.5447102017e+01    0.3604173    0.1565294 -33.90  0.001920067    1.858    0.462
        39 -13.3555    244.0379      8.0111   3.5403988582e+02   2.6746437193e+01     0.843388    0.3488713 -78.98  0.004202681    2.480    0.597
        40 -10.5254    150.3233     13.1459   1.0203941991e+00   4.5552456913e+01    0.2306259    0.1850656 -58.72 0.0006629482    1.117    0.105
        41  -9.8221     14.9508     13.7702   4.8037802884e+01   7.6898335716e+01    0.2900867    0.1730113  49.74  0.001408457    2.247    0.555
        42 -10.7858    125.1526     11.8527   3.4632833827e+00   5.1946653778e+01    0.3412499    0.2120009  67.25  0.001771415    1.467    0.319
        43 -10.5597     38.0607     12.2881   2.9118469162e+01   7.3239432957e+01    0.2039751    0.1802156   2.11 0.0003084071    1.180    0.152
        44  -9.9158     92.9826     11.7994   8.8059983405e+00   6.0227674409e+01    0.1869519    0.1604466 -89.71 0.0004161279    1.082    0.076
        45 -10.0864     88.6643     12.0288   9.8543768627e+00   6.1312335339e+01    0.1726321    0.1677234 -29.99 0.0004199104    1.195    0.163
        46  -9.3704    179.8248     10.5130   3.5785303151e+02   3.8987594256e+01    0.1882212    0.1346828 -33.22   0.00115852    1.447    0.309
        47 -13.3914    173.0045      6.1481   3.5716919973e+02   4.0951566232e+01    0.3872201    0.2542903 -25.48  0.001661959    1.724    0.420
        48 -10.2915    108.8371     10.5358   5.3467845090e+00   5.6263712767e+01    0.2794428     0.197029  -3.94  0.001448686    1.950    0.487
        49 -10.0232    144.6366     10.3855   7.3363452549e-01   4.7221311104e+01    0.2963216    0.1371327 -85.98  0.001253677    2.236    0.553
        50  -9.9673    100.5408      7.0066   5.2806146197e+00   5.8746549125e+01    0.5547193    0.2080998 -47.12   0.00217936    2.843    0.648
        51 -10.9312     26.3969      9.6353   3.5225431219e+01   7.5834835944e+01    0.3223952    0.2039542  23.27  0.001099045    1.714    0.416
        52  -9.6444      9.3317     10.0758   5.1292961051e+01   7.8266661512e+01    0.1627271    0.1385302 -27.09 0.0003413409    1.145    0.127
        53 -11.7088    193.8754      8.0886   3.5636927286e+02   3.6213697553e+01    0.2544764     0.207664 -86.32 0.0009894092    1.220    0.180
        54 -11.3125     63.8030      7.1123   1.4134303264e+01   6.8054795951e+01    0.4201627    0.2781054 -82.29  0.001707034    1.952    0.488
        55 -11.5046     65.2677      3.0733   1.1342814647e+01   6.8087909395e+01    0.3252746    0.2488432  76.14 0.0002443315    1.229    0.186
        56  -9.5971     44.6126      8.1857   2.2707569535e+01   7.2398618373e+01     0.243778    0.1761986  13.83  0.001095794    1.667    0.400
        57 -10.9197     48.0907      6.6490   1.9998290218e+01   7.1804859798e+01    0.2532028    0.2007038  39.33 0.0006450133    1.171    0.146
        58 -11.4196     46.1559      2.5397   1.8095486948e+01   7.2689081863e+01    0.2930937    0.2245484  11.19 -1.694826e-05    1.505    0.336
        59 -10.3078    209.7262      6.2128   3.5510858385e+02   3.3187762580e+01    0.2243632    0.1382821  75.49  0.001435218    1.731    0.422
        60 -10.1042    217.5732      2.5131   3.5395075930e+02   3.2040568688e+01    0.1742535    0.1278471 -77.95 0.0005712289    1.235    0.190
        61 -10.2311    214.0804      1.7463   3.5392853435e+02   3.2783989606e+01    0.2323173    0.1614292  65.93   0.00106465    1.787    0.441
        62 -11.6088     87.6617      1.6865   5.2333685013e+00   6.2540779367e+01    0.4483244    0.2107347  52.34  0.000634724    1.989    0.497
        63 -10.4295      3.2602      6.1426   5.5625969545e+01   7.9635989921e+01    0.3448963    0.1750877   0.47  0.001589886    2.387    0.581
        64 -10.4679    133.7201      5.0667   1.1883463443e-01   5.0441496675e+01     0.169775    0.1463487 -61.91 0.0002506013    1.125    0.111
        65 -11.0338     56.3291      3.2238   1.4396232961e+01   7.0246390596e+01    0.4353775    0.2456974  43.69 0.0006722912    1.687    0.407
        66  -9.8799    184.4772      2.8786   3.5561865123e+02   3.8733443400e+01    0.2781287    0.1447833  75.14  0.001418125    1.873    0.466
        67 -11.2776    154.5635      2.2797   3.5739814846e+02   4.5601983010e+01    0.2086623     0.176101 -68.67 0.0005942357    1.075    0.070
        68 -10.4388    126.9276      1.8957   3.5974014146e+02   5.2435001280e+01    0.1947536     0.161222 -83.25 0.0003364276    1.003    0.003
        69 -10.0077    231.0911      1.4088   3.5320289587e+02   2.9655200361e+01    0.1428944   0.09047177 -88.27   0.00062177    1.553    0.356
        70 -12.7038    114.8691     80.9023   2.9004596012e+01   4.3824600999e+01    0.6906653    0.4982271 -55.44  0.002754855    1.414    0.293
        71 -11.2054     11.5712     98.2825   7.5272704487e+01   5.6339020127e+01      0.27094    0.2602077  72.39 0.0006576715    1.042    0.040
        72 -11.0832    250.1926     97.4457   1.0958827572e+01   1.4960006722e+01    0.2437291    0.1329008 -41.79  0.001532435    1.358    0.263
        73 -10.4610    250.5266     93.5330   1.0189223925e+01   1.5439340950e+01    0.2225737    0.1050566 -47.01 0.0007798041    1.721    0.419
        74 -10.8752    205.2969     97.4786   1.6071963110e+01   2.2013399501e+01     0.306631    0.1531995 -36.10  0.001501448    1.746    0.427
        75 -10.6829     16.9905     96.9695   7.2486121879e+01   5.6330224408e+01    0.2158731    0.2081648 -74.96  0.001225234    1.009    0.009
        76  -9.7113    165.6611     96.0545   2.1911766497e+01   2.9774001970e+01     0.196399    0.1685923 -41.93 0.0006170091    1.098    0.090
        77 -10.3920    158.8738     95.6457   2.3073599883e+01   3.1246241517e+01    0.3329178    0.1694901  59.10  0.001395365    2.275    0.560
        78 -14.8714     60.5819     84.6615   4.9172969866e+01   5.4225502713e+01      2.14225     1.617639  46.26   0.01017229    1.319    0.242
        79 -14.5433     42.2301     75.2408   5.5127501554e+01   5.9510273471e+01     2.360401     1.421905  -6.06   0.00898316    2.621    0.619
        80 -10.7859    171.9402    116.5519   2.5602099566e+01   2.4807273999e+01    0.2521889    0.1826788 -43.25  0.001350825    1.251    0.201
        81  -9.9141    172.6443    112.7212   2.4601124452e+01   2.5377176674e+01    0.2281992    0.1672262  23.68 0.0006833173    1.794    0.443
        82 -13.5688    100.3845     71.3541   3.0145593314e+01   4.9091116110e+01     1.638512     1.317822  -3.33  0.007715842    1.754    0.430
        83 -13.7398    118.1410     62.9464   2.2516600850e+01   4.6506610668e+01     1.461657    0.8974134 -64.17  0.005463661    2.004    0.501
        84 -12.9801     88.0193     60.6256   3.0395849102e+01   5.4079093844e+01     1.198011    0.7769562 -30.00  0.000807927    1.928    0.481
        85 -11.6796    100.4493     53.9827   2.4093297994e+01   5.2385444010e+01    0.7948295    0.4127917  44.14  0.003187136    2.079    0.519
        86  -9.2947     50.3286    117.2775   6.1118058656e+01   4.7084348453e+01    0.1571717    0.1182346 -25.52 0.0004825466    1.595    0.373
        87 -11.5007    126.5103    116.0180   3.5451419203e+01   3.3805066546e+01    0.3926628     0.220514  41.22 0.0007054734    1.833    0.454
        88 -10.0177    182.8402    115.3032   2.3390227260e+01   2.3038684932e+01    0.1943433    0.1655584  87.78   0.00048218    1.443    0.307
        89 -10.5999    163.0104    115.3016   2.7018760663e+01   2.6726187456e+01    0.1883111    0.1856893 -87.98 0.0004581317    1.088    0.081
        90  -9.2786    211.0306    112.0000   1.8374539022e+01   1.8763662433e+01    0.1777747   0.07253472  51.40  0.000807279    2.976    0.664
        91 -11.2094    196.2517    108.0139   1.9644863206e+01   2.1898941589e+01    0.3540709    0.1988002 -55.74  0.001716901    2.000    0.500
        92 -11.0589     63.7650    108.7262   5.4000299962e+01   4.7431576683e+01    0.2264626    0.1822811  69.74  0.001064157    1.362    0.266
        93 -12.2841    160.8074    104.6969   2.4935642029e+01   2.9164360627e+01    0.4743604    0.2446231 -44.89 0.0002805125    1.793    0.442
        94 -13.1581     51.5093     44.8131   3.9281756858e+01   6.4995625765e+01     1.166837    0.5792042  27.60  0.002001243    2.729    0.634
        95 -12.8564     57.6806     59.8807   4.2353965330e+01   6.0640916214e+01    0.8991073    0.5382223 -65.68   0.00196577    2.208    0.547
        96 -12.8777     50.5667     55.5290   4.4206356860e+01   6.2904543865e+01    0.7741298    0.6154244 -71.75  0.001654396    1.494    0.331
        97 -10.4806     15.5649    106.8354   7.4436602215e+01   5.3658646718e+01    0.2394585    0.2009207 -10.43 0.0005148413    1.306    0.234
        98 -10.6441    210.6056    104.8916   1.6948422362e+01   1.9947869668e+01    0.3364313    0.2818946  74.55  0.002220741    1.480    0.324
        99 -13.4425     79.0445     49.9468   2.9460501635e+01   5.8176271777e+01     1.239299    0.6844385  42.76  0.001479205    1.825    0.452
       100 -12.6415     75.3441     41.7756   2.7408941228e+01   6.0489749284e+01    0.4659635     0.368679  80.78 0.0008932658    1.450    0.310
       101  99.0000     90.8408     34.3196   1.9142705832e+01   5.7949732392e+01     1.656536     0.318044  57.97   0.00447508    4.492    0.777
       102 -11.9969     44.9215     93.0281   5.8405340357e+01   5.4459542278e+01    0.4734075    0.2664012  16.20  0.001869308    2.095    0.523
       103 -10.4535    227.2830     92.0174   1.2257411817e+01   1.9154648660e+01     0.168528    0.1252212 -40.98  0.000320623    1.062    0.058
       104 -12.1305    213.3425     90.1330   1.3467850775e+01   2.1746336332e+01    0.3475332    0.2446273 -77.46  0.001026577    1.798    0.444
       105 -11.3694    172.7143     90.8253   1.9400362886e+01   2.9263382398e+01    0.3040514    0.2526505  67.27  0.001464435    1.314    0.239
       106 -13.0261    175.2616     86.0859   1.7822542654e+01   2.9555116935e+01     1.194497    0.5901433  32.57  0.003911656    4.945    0.798
       107 -12.4581    179.5661     79.6340   1.5575223964e+01   2.9744673725e+01     0.622344    0.4287342  19.36   0.00291191    2.623    0.619
       108  -9.1808     78.2911     92.2985   4.4198034906e+01   4.9083620206e+01    0.1542524    0.1255497 -13.55 0.0003648413    1.561    0.359
       109 -13.3523     17.9455     63.9949   6.5842431467e+01   6.5197655371e+01     1.620957    0.5410619  46.30  0.004813326    4.063    0.754
       110 -11.8967    231.3759     79.1577   9.2088684014e+00   2.0309342857e+01    0.3510449    0.2902026  26.41  0.001465054    1.752    0.429
       111 -12.5299    223.6569     87.5057   1.1727775205e+01   2.0394721019e+01    0.6650319       0.4094  22.65  0.003146578    3.608    0.723
       112 -12.9972    217.4749     83.5931   1.1590829498e+01   2.2003471717e+01    0.5172029    0.3729893  56.69  0.002396594    1.694    0.410
       113 -11.2667    237.5798     86.7269   1.0120825187e+01   1.8281416344e+01    0.3143186    0.2465853  84.75  0.001489088    1.609    0.379
       114 -11.0396    233.7073     85.3079   1.0223115216e+01   1.9082869217e+01    0.3300573    0.2014641 -67.61  0.001922157    2.049    0.512
       115 -11.6485    147.9556     84.3640   2.2273207493e+01   3.5670963656e+01    0.4430428    0.3659184  85.21  0.001217604    1.294    0.227
       116 -11.3096    147.2302     78.9158   2.0929104010e+01   3.6824477892e+01    0.3912594    0.2786568 -56.97  0.001208293    1.386    0.279
       117 -12.1147    248.9473     83.0384   8.3377289095e+00   1.7065807524e+01    0.2202639    0.1740764 -52.97 0.0003104652    1.158    0.136
       118 -11.4972    215.9537     99.7451   1.5180395186e+01   1.9853860394e+01     0.388371    0.1917487 -30.64   0.00105548    2.006    0.501
       119 -10.9900     18.4512     82.3955   6.9405176921e+01   6.0252975518e+01    0.4022166    0.1813747 -27.63  0.001408085    3.012    0.668
       120  -9.8182    237.9983     81.0044   8.9436834715e+00   1.9000368724e+01    0.1602757    0.1298841 -34.97  0.001154716    1.179    0.152
       121 -10.6389    241.7449     80.6682   8.5280953371e+00   1.8465006261e+01    0.3014312    0.1983352  44.95 0.0005624377    2.151    0.535
       122 -10.8663     83.0592     79.2689   3.8519349372e+01   5.1206136222e+01    0.4975121    0.2184483  45.73  0.001786742    2.225    0.551
       123 -10.9127     86.5229     75.6021   3.6094765234e+01   5.1289392760e+01    0.4314063    0.2569337 -59.88  0.001186427    1.957    0.489
       124 -11.5320     82.9439     72.3526   3.6299035058e+01   5.2771529344e+01    0.5164624    0.3425301  35.18  0.002140298    1.631    0.387
       125 -11.2219     65.9595     70.5748   4.2429093966e+01   5.6645888380e+01    0.6754102    0.2412695  41.01  0.002242102    2.688    0.628
       126 -12.0867     74.0889     75.2108   4.0618950826e+01   5.3975771005e+01    0.7664358    0.4458244  44.90  0.003007943    1.672    0.402
       127 -10.8364     74.3955     70.7652   3.9009816013e+01   5.4920080983e+01    0.3792046    0.2356317 -35.47  0.001558836    1.925    0.481
       128  -9.8664    155.5510     76.8203   1.8784987546e+01   3.5337451929e+01    0.2280794     0.167999  68.96 0.0009228522    1.434    0.303
       129 -10.6659    126.6237     59.1269   1.9325499682e+01   4.5125273987e+01    0.4282226    0.2788072  33.53  0.001852031    2.200    0.545
       130  -9.9675    199.7501    106.0059   1.8693131551e+01   2.1617450631e+01    0.1846859     0.141487 -39.98 0.0003896631    1.108    0.098
       131 -11.9827    173.7493     56.8419   1.0614534581e+01   3.4518375828e+01    0.2839441    0.2524418 -70.32 0.0004382526    1.057    0.054
       132 -10.7431    142.5611     54.4764   1.4738435872e+01   4.2041721386e+01    0.3120713    0.2393618 -42.56 0.0007497682    1.285    0.222
       133 -10.7443    145.7628     52.3669   1.3549957093e+01   4.1603855559e+01    0.2522196    0.2223408  50.37 0.0004412284    1.309    0.236
       134 -11.6343    123.3842     53.6463   1.8249388802e+01   4.6830678696e+01    0.3998498    0.2480786  68.60 0.0006052065    1.630    0.387
       135 -10.4406    131.0261     51.5219   1.5974380444e+01   4.5299367850e+01    0.3271413    0.1525673 -64.26  0.001057274    3.621    0.724
       136 -12.9739     81.5308     40.7528   2.4770126028e+01   5.9210624395e+01    0.6621315    0.3742111  47.74  0.002444456    1.689    0.408
       137 -11.6080    162.4726     20.8855   2.0976545909e+00   4.1813445202e+01     0.312597    0.2502164 -89.38 0.0004710486    1.141    0.124
       138 -11.2148    144.5312    103.0014   2.7883890706e+01   3.2828450515e+01     0.341664    0.3091933  31.68  0.001190069    1.229    0.186
       139 -12.0582    141.4918     96.1468   2.6785987162e+01   3.4832119099e+01    0.7893304     0.295459  50.91  0.002139951    2.791    0.642
       140 -10.6334    143.9303     45.9476   1.1912919518e+01   4.3004143879e+01     0.425994    0.2407779  48.24  0.001184585    2.075    0.518
       141 -11.0573    163.7799     30.3622   4.6406565219e+00   4.0382807090e+01    0.9155498    0.2492019 -46.64  0.003346288    3.124    0.680
       142 -11.2399    155.3269     42.3333   9.1197018869e+00   4.0794889698e+01    0.5412533    0.4126184  10.57  0.002281108    2.101    0.524
       143 -12.3054    150.3579     41.5237   9.5877104645e+00   4.2088275893e+01    0.6223426    0.5406249  12.41  0.003570782    1.598    0.374
       144 -10.7134    146.4553     39.5551   9.5674958421e+00   4.3299502163e+01    0.2136904    0.1974164 -41.70 0.0005562404    1.218    0.179
       145 -12.3572    161.9207     40.0621   7.5943220793e+00   3.9561351867e+01    0.4220236    0.3444668  76.44  0.002063442    1.223    0.183
       146 -11.5320    161.4783     35.5326   6.3679293641e+00   4.0263141513e+01    0.3475042     0.237535  71.80 0.0004930889    1.439    0.305
       147 -10.5579    133.0136     46.3010   1.3915200910e+01   4.5615338902e+01    0.3157354    0.2404169 -68.06 0.0007065298    1.290    0.225
       148 -11.4205    133.1899     40.3158   1.1941338073e+01   4.6445459312e+01    0.4635269    0.2932135 -65.50  0.002203071    1.684    0.406
       149  -9.8409     99.2470     46.6401   2.1699453105e+01   5.3937724999e+01    0.2003026    0.1782895 -79.51 0.0008692015    1.121    0.108
       150  -9.3087     94.2432     47.6161   2.3512977601e+01   5.4996461130e+01     0.151896    0.1094568 -69.30 0.0006935845    1.647    0.393
       151 -11.5426    126.1137     45.6171   1.5010309025e+01   4.7424423277e+01    0.3103882    0.2837965  48.51 0.0005788093    1.245    0.196
       152 -10.2261     87.9557     97.8427   4.2262006437e+01   4.5839771161e+01    0.3626444    0.2905621   4.67  0.001153509    1.632    0.387
       153 -12.0740     95.7632     41.9896   2.0872733113e+01   5.5551838152e+01    0.5649037      0.28077  58.47  0.001481851    1.880    0.468
       154 -10.1896    104.5686     42.5363   1.8735969197e+01   5.3278316966e+01    0.4060899     0.198872  72.91  0.001501665    2.561    0.610
       155  -9.7223    111.8648     38.7077   1.5580291936e+01   5.2024394640e+01    0.2814091    0.1073579  55.61 0.0007210763    2.404    0.584
       156  -9.3055    211.2708     34.2753   1.3205757526e+00   2.9776751986e+01   0.09680077   0.09218936  -2.87 0.0006883107    1.484    0.326
       157 -10.9904    131.8388     33.2200   9.8289517977e+00   4.7754643895e+01    0.3448161    0.1984553 -47.42 0.0004316831    1.673    0.402
       158 -10.0533    247.8030     32.8598   3.5869557703e+02   2.3452520002e+01    0.1615419   0.08496045 -55.11 0.0004722401    1.460    0.315
       159 -12.9097    242.8940     61.1536   4.5781256833e+00   2.0839775579e+01    0.8101221    0.4789033  86.20  0.002194565    2.173    0.540
       160 -10.4309    121.6575     33.0926   1.1561666308e+01   5.0334796080e+01    0.2195053    0.1816025  75.98  0.000687082    1.110    0.099
       161 -10.0046    111.9186     32.6572   1.3324131334e+01   5.2865727833e+01    0.3657053    0.2027572  44.56  0.001578642    2.108    0.526
       162  -9.2937    114.4834     28.4072   1.1221678916e+01   5.2774809031e+01    0.1775138    0.1425524 -13.32  0.000144186    1.592    0.372
       163 -10.0496    239.2890     30.7529   3.5875258454e+02   2.5108092023e+01    0.2589241    0.1198722  75.51  0.001529519    2.468    0.595
       164 -11.4261    103.9237     29.3841   1.3802115120e+01   5.5342318685e+01    0.4079004    0.3007567  80.79  0.001418184    1.308    0.236
       165 -10.1647     80.4543     30.5090   2.0619818925e+01   6.1068295814e+01    0.2012223    0.1727285  68.23 0.0001050598    1.085    0.078
       166 -10.8200     85.1655     28.9019   1.8444441487e+01   6.0138619179e+01     0.578875    0.2117009  56.37  0.001740931    2.388    0.581
       167  -9.8329    138.4476     29.8204   7.6925873112e+00   4.6547811745e+01    0.1631213    0.1360679 -13.14 0.0003149291    1.549    0.354
       168  -9.0741    120.4594     28.4357   1.0121907132e+01   5.1248131128e+01    0.1447668     0.121452 -80.75 0.0001004525    1.092    0.084
       169 -10.1244    130.5109     19.4495   5.3815230273e+00   4.9775069921e+01    0.3203348    0.1278468  79.33   0.00112453    2.612    0.617
       170 -11.9485    137.4566     81.6589   2.3727182259e+01   3.8523945787e+01    0.6725255    0.5623629 -72.10  0.001483014    1.215    0.177
       171 -11.6630    176.1122     24.1515   1.7161700429e+00   3.8315229414e+01    0.3226437    0.1988804 -40.22 0.0007120374    1.455    0.313
       172  -9.6532    180.2870     20.8298   4.8960034898e-01   3.7769279342e+01    0.2081252    0.1337298 -75.12 0.0009746235    1.401    0.286
       173 -11.0450    136.4248     19.4786   4.5986031440e+00   4.8286915347e+01    0.3039761    0.2245167 -76.97  0.000484522    1.226    0.184
       174 -13.2129    120.9822    100.2559   3.2870320936e+01   3.8395420607e+01    0.9230148    0.3836294 -43.15  0.003276804    2.449    0.592
       175 -10.1924    128.5304     24.0677   7.2530696695e+00   4.9739334919e+01    0.2312735    0.1805414  64.02  0.001211604    1.265    0.210
       176 -13.1288    160.5560     64.6020   1.4614076859e+01   3.6254690885e+01     2.996607    0.9954198  70.04  0.008562171    5.289    0.811
       177 -12.7185    121.4995     87.4280   2.9173705822e+01   4.0989357245e+01    0.6369802    0.5130115 -26.86   0.00313343    1.462    0.316
       178  -9.9838    118.3556     17.3631   6.4412365262e+00   5.3100199375e+01     0.335388    0.2318112 -84.09  0.001112468    1.388    0.279
       179 -13.5181    128.2746     95.7602   2.9784083731e+01   3.7772691271e+01    0.9008927    0.5863792  57.83  0.002620797    1.640    0.390
       180 -12.6182    127.3601     90.2119   2.8482832076e+01   3.9113003952e+01    0.6672361    0.3523245  40.70  0.001884323    2.164    0.538
       181 -11.4319     97.4668     22.0177   1.2254770852e+01   5.7929649214e+01    0.3407452    0.2608384  87.20 0.0007518966    1.270    0.212
       182  -9.9573    101.8534     20.1261   1.0513504174e+01   5.7029953744e+01    0.3588434    0.2026607 -31.73  0.001687428    1.916    0.478
       183 -11.6746    132.0707     86.9688   2.6441942809e+01   3.8712328558e+01    0.5620105    0.2945344  63.22  0.001879444    2.352    0.575
       184  -9.6754    170.7318     19.3770   9.1231235802e-01   4.0075409657e+01    0.1674147    0.1067443  68.31 0.0009297084    1.600    0.375
       185  -9.7618     14.4387     19.2479   5.1852092473e+01   7.5914787156e+01    0.1607676    0.1289281 -67.35 0.0006118903    1.570    0.363
       186  -9.9798    194.5148     18.1011   3.5874563533e+02   3.5018827357e+01    0.1801394   0.09685858 -40.17  0.001004611    1.549    0.354
       187 -12.0018    124.7258     82.0297   2.6793711471e+01   4.1348376409e+01    0.7328125    0.3671629  37.05  0.002421405    2.772    0.639
       188 -11.3020    128.0233     76.0094   2.4223369833e+01   4.1755054976e+01    0.3698833    0.3174803  47.04 0.0009407698    1.247    0.198
       189  -9.7581     90.6403    104.2718   4.3065671658e+01   4.3747431608e+01    0.1640262    0.1205638  69.58 0.0004836407    1.650    0.394
       190 -12.7133    199.5634     96.4190   1.6619030322e+01   2.3196488192e+01    0.3387856    0.2304361 -40.88 0.0002265975    1.242    0.195
       191 -10.0897    160.1435     14.0813   3.7238578294e-01   4.3108173396e+01     0.175751    0.1582208  88.99 0.0002737493    1.188    0.158
       192 -12.1090    161.6819     83.8147   1.9535230080e+01   3.2782957311e+01    0.6437905    0.3856075  47.07  0.002231567    1.888    0.470
       193 -12.7451    168.7740     78.6975   1.7014635766e+01   3.2146845550e+01       1.4323    0.4779873 -51.85  0.001816933    3.736    0.732
       194 -12.4533    194.6909     56.1808   7.9286072541e+00   3.0207814630e+01    0.5521236    0.4874565  53.90  0.003126577    1.420    0.296
       195 -11.5457    248.6132     43.4435   7.0445347368e-01   2.2096710907e+01    0.7793169    0.2399311 -42.08   0.00266315    2.117    0.528
       196 -12.1968    233.2207     36.3814   2.6110967626e-01   2.5499763237e+01    0.7783847    0.2574763 -63.47  0.003119505    4.127    0.758
       197 -10.5949     36.4915    249.0079   7.8277158401e+01   1.6400331808e+01    0.1572517    0.0843175 -44.64 0.0008105481    2.666    0.625
       198 -10.7991    180.9928    244.0491   4.6303466275e+01   2.0485922568e+00    0.1784388    0.1318612   1.92  0.001248278    1.015    0.015
       199 -11.7777    160.9232     53.3717   1.1461580712e+01   3.7905008364e+01     1.090897    0.8537551  48.60  0.006093757    1.523    0.343
       200 -12.7955    189.0684     44.6937   5.7275108326e+00   3.2933368864e+01    0.9759206    0.6393287  61.72  0.002659568    1.708    0.415
       201  -9.6568    218.5148    239.5317   3.9213995383e+01  -8.7687939238e-01    0.1053541   0.07506771  -6.67 0.0001436058    1.022    0.021
       202 -11.9659    249.6239     73.2339   6.3979527237e+00   1.8247150160e+01    0.5516468    0.2586551 -35.83  0.003221133    1.646    0.392
       203 -14.1835     76.5255     58.8001   3.3868818334e+01   5.7020787309e+01    0.9106439    0.4555128  48.73   0.00269168    1.923    0.480
       204 -10.2014     16.0300    238.4801   8.2640908405e+01   2.0279782164e+01    0.1772744    0.1464884  59.88 0.0005321671    1.170    0.145
       205  -9.8003    101.1695    176.0224   5.4386164417e+01   2.4406506791e+01    0.1829871    0.1759607  25.57  0.001053117    1.042    0.040
       206  -9.7303    236.7319    146.0056   2.1493431000e+01   9.9363303764e+00     0.158107    0.1155322 -30.51 0.0003853445    1.050    0.048
       207 -12.5278    245.8405     51.8947   2.5363938733e+00   2.1524055105e+01    0.5990672    0.1545854 -44.88  0.001006426    2.581    0.613
       208 -12.1031    137.7652     71.2325   2.0660160331e+01   4.0366671929e+01    0.8217987    0.4067792  61.65  0.002348721    2.145    0.534
       209 -12.4216    146.6049     65.0595   1.7133285213e+01   3.9373100998e+01     1.044844    0.7892396 -65.20  0.005463824    1.314    0.239
       210 -13.6935    219.1028     70.0097   8.5105410947e+00   2.3656834090e+01    0.8276229    0.6803896 -35.23  0.004963324    1.214    0.177
       211 -12.0285    172.3867     44.2765   7.4640760725e+00   3.6605154793e+01    0.3198357    0.2825673 -78.23 0.0003906256    1.090    0.082
       212 -10.2745    222.0607    124.7494   1.9446776252e+01   1.5084339842e+01     0.310361    0.1356892 -36.93 0.0005206208    1.863    0.463
       213 -12.9703    208.8837     68.0656   9.1436147000e+00   2.5778613894e+01    0.6427944    0.3394264 -32.52  0.001350785    1.790    0.441
       214 -13.5449    207.0532     60.1002   7.5399763723e+00   2.7240060524e+01     1.187513    0.6265624  49.28  0.005153997    2.550    0.608
       215 -10.2756    228.7696    118.8854   1.7436827445e+01   1.4986729742e+01    0.2215666    0.1522472  49.18  0.000997229    1.847    0.459
       216 -12.2282    238.1113     51.1671   2.9412100594e+00   2.2875421954e+01     0.395996    0.1970016 -50.13  0.002362737    1.548    0.354
       217 -13.0835    229.6398     47.2466   2.7613391282e+00   2.4807379312e+01    0.7527031    0.4770126  52.45  0.003131837    2.186    0.542
       218 -11.5106     83.0688    101.8262   4.5046431306e+01   4.5814383319e+01    0.3610417    0.2745616  32.63 0.0002463741    1.355    0.262
       219 -11.7212     82.9805     98.1757   4.4104552752e+01   4.6734509786e+01    0.5764337    0.3333905  28.53  0.001496303    2.030    0.507
       220 -12.1777    152.1066     98.2623   2.5073022445e+01   3.2167685702e+01    0.7392306    0.3920193 -61.84  0.002806134    2.685    0.628
       221 -11.2732    169.5029     98.3439   2.1782155787e+01   2.8587225410e+01    0.4161924    0.3143266 -23.56  0.001735862    1.523    0.343
       222 -10.5568    203.8689    116.6407   2.0355577851e+01   1.9190690063e+01     0.349865    0.2394299 -80.96  0.001781944    2.500    0.600
       223 -13.2694    105.9786     87.4118   3.3472720119e+01   4.4447499925e+01     1.098551    0.7372502  85.46  0.004356852    2.296    0.564
       224 -12.9008    102.8018     96.3499   3.7000750305e+01   4.3139582457e+01    0.7560182    0.4465575  37.16 0.0005388071    1.818    0.450
       225 -11.9131     95.2455     89.9725   3.7576030021e+01   4.6195830209e+01    0.6620902    0.4431977  60.65  0.002067721    1.684    0.406
       226 -12.1794    114.8643     86.5119   3.0672563057e+01   4.2665767241e+01    0.3914748    0.3399888  59.27 0.0002393029    1.140    0.123
