#   1 NUMBER                 Running object number                                     
#   2 MAG_AUTO               Kron-like elliptical aperture magnitude                    [mag]
#   3 X_IMAGE                Object position along x                                    [pixel]
#   4 Y_IMAGE                Object position along y                                    [pixel]
#   5 X_WORLD                Barycenter position along world x axis                     [deg]
#   6 Y_WORLD                Barycenter position along world y axis                     [deg]
#   7 A_WORLD                Profile RMS along major axis (world units)                 [deg]
#   8 B_WORLD                Profile RMS along minor axis (world units)                 [deg]
#   9 THETA_WORLD            Position angle (CCW/world-x)                               [deg]
#  10 FWHM_WORLD             FWHM assuming a gaussian core                              [deg]
#  11 ELONGATION             A_IMAGE/B_IMAGE                                           
#  12 ELLIPTICITY            1 - B_IMAGE/A_IMAGE                                       
         1 -14.7668     68.3408    144.2936   1.0371153827e+02   3.7419143539e+01      5.48784      2.78844  68.10    0.0138892    3.904    0.744
         2 -14.2512    207.1807     36.9007   4.2511872984e+01   2.9548024597e+01      1.76076     1.449981  23.58  0.007318322    1.580    0.367
         3 -13.9486    222.1810     21.0094   3.7074557387e+01   2.8042787139e+01    0.9475056    0.8677302  42.10  0.002608262    1.363    0.267
         4 -12.1356    245.0900      2.2822   3.1219679857e+01   2.5173403818e+01    0.5988542    0.2288894  76.89  0.002951057    2.520    0.603
         5 -10.2460     50.8856      3.7457   6.5376699894e+01   6.8074781203e+01    0.2365812    0.1976709  62.18  0.001081871    1.930    0.482
         6 -10.2112     45.7770      1.4972   6.6341685901e+01   6.9126322490e+01    0.2499013     0.177542  55.25  0.001034665    2.116    0.527
         7 -10.2929     59.6587    220.3603   1.1541654812e+02   2.1015938137e+01    0.2916909    0.1769803  30.49  0.001645265    1.792    0.442
         8 -10.5499    140.1161    249.6539   1.0230715577e+02   4.3121555871e+00    0.2436568    0.1788821  61.60  0.001490304    1.625    0.385
         9 -12.9244     65.3604    174.8577   1.0912768516e+02   3.0380548295e+01     1.171182    0.5594235 -32.66  0.003667367    5.343    0.813
        10 -13.9226     86.4024    226.5327   1.1050530002e+02   1.6275716089e+01     1.207779     0.940325  78.58  0.007656117    1.290    0.225
        11 -14.5341      4.8596    183.3918   1.2395887039e+02   3.4574418122e+01     2.736277    0.5807025 -73.30   0.01070953    3.514    0.715
        12 -13.8294     22.0813    223.3464   1.2304071002e+02   2.4575394833e+01       1.3551    0.4779415  69.52  0.005771845    3.477    0.712
        13 -15.9256     53.9376    246.8894   1.1867930697e+02   1.6558918355e+01     9.058798     2.751467  26.65    0.0109127    9.098    0.890
        14 -15.1851      7.1802    141.8735   1.2012779391e+02   4.3998081815e+01     3.704399     1.223163 -81.14   0.01006603    2.898    0.655
        15 -15.2787     44.9841    194.7460   1.1615907978e+02   2.8234521730e+01     2.688273     1.429069  70.36   0.01024153    2.059    0.514
        16 -10.1230    109.8892    201.1635   1.0219099088e+02   1.8003594766e+01    0.1989401    0.1689685  64.33 0.0003018261    1.180    0.152
        17 -10.4680     60.7699    198.4239   1.1301689681e+02   2.5554912060e+01    0.2291344    0.1841543  83.36 0.0006821422    1.133    0.117
        18  -9.2630    152.5821    197.7731   9.1959431114e+01   1.1594736969e+01    0.1879365    0.1372059 -60.98 0.0005494473    1.680    0.405
        19 -11.8774    184.1278    215.8393   8.8358719205e+01   3.0163372114e+00    0.4071644      0.35101 -80.78  0.002386945    1.814    0.449
        20  -9.2110     72.1087    188.4763   1.0925563815e+02   2.6332018832e+01    0.1845439    0.1246522  38.66 0.0004237364    1.465    0.318
        21  -9.3900     80.0620    183.5341   1.0670554333e+02   2.6376222613e+01    0.2192568    0.1753664  75.50 0.0007654891    1.256    0.204
        22  -9.6666     99.3452    180.9603   1.0162906655e+02   2.4106327930e+01    0.2238428    0.1933559  19.29 0.0006641605    1.301    0.231
        23  -9.9419    150.3459    178.8109   8.8986261002e+01   1.5831292302e+01    0.3497916    0.2451609 -77.00  0.001164762    2.249    0.555
        24 -10.1541    144.4714    179.7029   9.0528284903e+01   1.6710480398e+01    0.2755824     0.255091 -88.76  0.000950357    1.245    0.197
        25 -13.5917     64.8465    158.5525   1.0696067975e+02   3.4367091013e+01    0.5856729    0.4357017 -50.01  0.001361599    1.363    0.266
        26 -13.0380     76.8290    160.2024   1.0404804775e+02   3.2360586826e+01     1.165875    0.7506559  83.35  0.003308109    2.023    0.506
        27 -12.7606     84.6147    156.1052   1.0128944377e+02   3.2232839406e+01     1.094198    0.6183882 -50.87  0.001376907    1.719    0.418
        28  -9.9811    134.3586    248.3539   1.0328350092e+02   5.3755409086e+00    0.2539279    0.1213275 -60.59  0.001227701    2.892    0.654
        29  -9.8837    174.8002    148.8773   7.7024528753e+01   1.7342779150e+01    0.2779386    0.2150453 -60.74 0.0008053723    1.578    0.366
        30 -10.5094    134.0000    145.9983   8.6163542540e+01   2.6113096788e+01    0.6578176    0.1937122 -52.02  0.001866077    3.795    0.737
        31 -10.3583    133.0000    140.5063   8.5175225406e+01   2.7559213899e+01    0.6552517     0.163869 -50.56  0.001719922    4.312    0.768
        32 -11.9399     55.0372    145.6623   1.0765674782e+02   3.8736404118e+01    0.5689529    0.2851355 -55.86  0.002599633    1.776    0.437
        33 -13.1733     35.5861    204.6732   1.1905223290e+02   2.7076713852e+01    0.4169931    0.3662669 -41.19   0.00123083    1.539    0.350
        34  -9.9926     47.4053    145.7486   1.0978213472e+02   3.9574305603e+01    0.2013713    0.1067419 -57.06 0.0009511146    1.665    0.399
        35 -10.8870     32.1615    144.0397   1.1372467040e+02   4.1515695449e+01    0.3083944    0.2267523  64.43  0.001680006    1.433    0.302
        36 -10.9354     99.9817    140.6091   9.4104336954e+01   3.3569324147e+01    0.5894707    0.3577398 -23.20  0.002248599    2.655    0.623
        37 -12.3666     86.8227    140.7079   9.7823308235e+01   3.5661929034e+01    0.3043528    0.2517216 -45.55 0.0004101414    1.189    0.159
        38 -10.8296     46.7275    135.5170   1.0842675422e+02   4.2177824223e+01    0.2155284    0.1897519 -75.97   0.00130175    1.039    0.038
        39  -9.2853     73.0181    172.7231   1.0692558554e+02   2.9877992410e+01    0.1805253    0.1679619  71.27 0.0002552514    1.054    0.051
        40 -15.9724      8.6774    239.2613   1.2629220185e+02   2.2782120373e+01     5.390367     2.505598 -74.93   0.02554492    1.987    0.497
        41 -10.9574    107.5468    130.9457   8.9854820959e+01   3.4578694126e+01    0.5960419    0.3413529  36.28  0.002507621    1.822    0.451
        42 -10.6421    135.8042    127.8343   8.1418618879e+01   2.9872336621e+01    0.5382771    0.1967701 -50.10  0.001706266    2.892    0.654
        43 -10.2160    137.5164    169.1333   9.0147260111e+01   2.0257172465e+01    0.2914578    0.2369365  68.80  0.001070596    1.487    0.328
        44 -10.4526     29.2809    128.3692   1.1242861177e+02   4.5614959871e+01    0.2345602    0.1984718  83.89  0.000628133    1.193    0.162
        45 -11.3273     96.8724    127.1140   9.2036450617e+01   3.7352877517e+01    0.3214543    0.2667792 -22.67 0.0006542236    1.330    0.248
        46  -9.6651    160.6555    127.3083   7.5110298872e+01   2.4782012511e+01    0.1569289    0.1270133 -88.36 0.0004721231    1.697    0.411
        47  -8.7686    131.2401    214.3435   9.9352610136e+01   1.1930291094e+01    0.1262239    0.1007188 -15.33 0.0002211135    1.561    0.359
        48 -11.3395     44.0258    123.4521   1.0724360061e+02   4.5448234886e+01    0.2938266    0.1845769 -64.09  0.001245669    1.379    0.275
        49  -9.8288    106.8545    119.4131   8.7296224498e+01   3.7432472674e+01     0.227887    0.2003864 -56.88 0.0003415113    1.147    0.128
        50 -11.2176    192.4358    193.5472   8.2601826371e+01   5.4616942072e+00    0.6117797    0.3498981 -63.75   0.00211773    4.474    0.776
        51 -11.6709     23.1660    118.0598   1.1276335904e+02   4.8631778741e+01    0.3423025    0.2406991 -59.12  0.002008297    1.182    0.154
        52  -9.3437    168.2210    113.0516   6.9705028477e+01   2.6076405141e+01    0.2619371    0.1798486 -65.95   0.00107664    2.038    0.509
        53 -10.0908    205.4723    110.2046   6.1396424414e+01   1.8424645302e+01    0.3064211    0.2114062  39.91 0.0009552813    1.585    0.369
        54 -11.3835    248.5001    106.9959   5.3710651848e+01   1.0298665584e+01    0.2775724    0.1938307  -6.32  0.001409258    1.892    0.472
        55  -9.7132     83.1929    117.7055   9.3964464607e+01   4.1839085912e+01    0.4170841    0.1817226  47.23  0.001503495    2.839    0.648
        56 -10.0567    134.5075    105.4866   7.5902825366e+01   3.5059281310e+01    0.3295219    0.1519191 -43.67  0.001122202    2.121    0.529
        57 -11.9313    241.4528    100.2031   5.3177908097e+01   1.2740928715e+01    0.3729191    0.1589244 -44.77  0.001550943    2.159    0.537
        58  -8.7093     45.3211    101.7020   1.0265283987e+02   5.0631667617e+01    0.1319149    0.1032582  74.40 0.0007021886    1.621    0.383
        59  -9.1117     89.2266     93.4239   8.5794810183e+01   4.6531550825e+01    0.1958324     0.139957  50.16  0.000573871    1.647    0.393
        60 -10.5890     53.0815     90.8158   9.7428118307e+01   5.2350338343e+01    0.3129406    0.1930201 -54.17  0.001153179    1.434    0.302
        61 -10.0906     41.7720     91.9619   1.0173396915e+02   5.3309216924e+01    0.2062484    0.1863667 -19.97 0.0005663744    1.153    0.133
        62  -9.4619     18.4804     90.4376   1.0972565921e+02   5.5597017444e+01     0.127629    0.1054806 -58.62 6.375071e-05    1.043    0.042
        63 -11.6425    249.6970     86.9606   4.9074874441e+01   1.3231876342e+01    0.4259943    0.1644484 -43.71   0.00152328    2.243    0.554
        64  -9.3510    234.3216     85.6719   5.0823882003e+01   1.6500306901e+01    0.1432798   0.09715229 -62.56 0.0003844694    1.690    0.408
        65  -9.5792     72.5258     83.4500   8.8534359607e+01   5.1422471480e+01    0.2930379    0.2138451  74.68 0.0009058596    2.346    0.574
        66  -9.1976    150.8696     82.7763   6.5261480556e+01   3.5935988253e+01    0.2038537    0.1805849 -87.34 0.0004388612    1.324    0.245
        67  -9.3321    160.0018     81.9879   6.2953324052e+01   3.3941773750e+01    0.1829295    0.1805131   8.21 0.0004922791    1.012    0.012
        68 -11.3152    242.9076     77.8349   4.7878435545e+01   1.5967659832e+01    0.1966543    0.1790737 -12.06 0.0006763084    1.252    0.201
        69  -8.8309     92.4965     66.5641   7.6332918784e+01   5.1516131044e+01    0.1440108    0.1347581  -7.05 0.0001316589    1.059    0.055
        70  -9.4934     48.6703     62.8433   9.1167000410e+01   5.9020901105e+01    0.1805091    0.1501186 -40.10 0.0004008619    1.128    0.114
        71 -10.5384     13.5094     60.0227   1.0504210714e+02   6.2770864171e+01    0.2325196    0.1803724 -50.40 0.0004429665    1.090    0.082
        72 -13.5248    198.1213     42.2617   4.5047095517e+01   3.0977938082e+01     1.324073    0.7716591  39.65  0.003013377    2.210    0.548
        73 -10.1036    172.5674    243.3665   9.5043119957e+01   4.3377075312e-01    0.3443528    0.2084614 -65.47  0.001618332    3.394    0.705
        74 -12.5103    215.1426     28.2681   3.9486696318e+01   2.8779612540e+01    0.4866394    0.3945407  55.53   0.00107976    1.357    0.263
        75 -15.1649      9.5912    207.7469   1.2449740524e+02   2.8935651854e+01     2.442386     1.177074 -51.71   0.01303277    2.769    0.639
        76  -9.5688    136.9236     43.1360   5.5957685623e+01   4.5682302682e+01    0.2109396    0.1884214 -81.76  0.000421766    1.292    0.226
        77 -10.0410    139.9688     37.7287   5.3502226203e+01   4.5671660971e+01    0.2374643    0.2110931 -84.06 0.0003853953    1.271    0.213
        78  -9.9130    136.6667     35.0032   5.3284556430e+01   4.6809931667e+01    0.2168257    0.1889874  82.93 0.0004566655    1.271    0.213
        79  -8.6769    115.5116     31.4456   5.6882048028e+01   5.2197881893e+01    0.1391894    0.1253331  32.57  0.000106028    1.008    0.008
        80 -10.0971    189.6506     14.9976   3.8942953675e+01   3.6187661726e+01    0.1785896    0.1601721 -53.15 0.0006671636    1.139    0.122
        81 -11.8276     32.2697    156.1426   1.1515576816e+02   3.8563197264e+01    0.4078404    0.3187617  22.08  0.002020559    1.563    0.360
        82 -10.8469    208.5308    197.4999   8.0118390810e+01   2.0841930862e+00    0.2747513    0.1826283 -26.75 0.0007639405    1.458    0.314
        83  -9.7300    197.6818    222.9565   8.6854936540e+01  -2.6954096182e-01    0.1727882    0.1497692  -3.58 0.0005260163    1.115    0.103
