#   1 NUMBER                 Running object number                                     
#   2 MAG_AUTO               Kron-like elliptical aperture magnitude                    [mag]
#   3 X_IMAGE                Object position along x                                    [pixel]
#   4 Y_IMAGE                Object position along y                                    [pixel]
#   5 X_WORLD                Barycenter position along world x axis                     [deg]
#   6 Y_WORLD                Barycenter position along world y axis                     [deg]
#   7 A_WORLD                Profile RMS along major axis (world units)                 [deg]
#   8 B_WORLD                Profile RMS along minor axis (world units)                 [deg]
#   9 THETA_WORLD            Position angle (CCW/world-x)                               [deg]
#  10 FWHM_WORLD             FWHM assuming a gaussian core                              [deg]
#  11 ELONGATION             A_IMAGE/B_IMAGE                                           
#  12 ELLIPTICITY            1 - B_IMAGE/A_IMAGE                                       
         1 -12.8752    125.2406     28.0917   3.9928805913e+01   5.0134022389e+01    0.9030336    0.8501572  58.87  0.003997888    1.078    0.072
         2 -12.6369    106.3024     42.4123   5.0106416776e+01   5.2632865364e+01     1.172566    0.4491677  44.30   0.00251429    2.463    0.594
         3 -12.1332    127.1250     47.3728   4.6266186272e+01   4.7057317488e+01     1.398534    0.3638062 -35.80  0.004274831    3.794    0.736
         4 -13.0953    119.8550     38.4163   4.4945184142e+01   5.0088927275e+01    0.8072901    0.6083001 -57.24  0.003443786    1.667    0.400
         5 -12.5355    104.6707     12.8972   3.9075966956e+01   5.6695072512e+01    0.5717432    0.3541203 -14.54  0.002914352    1.816    0.449
         6 -12.6833    106.8105      2.6589   3.4472481649e+01   5.7128781381e+01     1.093115    0.4174148  67.95  0.004224793    2.845    0.648
         7 -11.8057    154.2522     19.4675   3.1416686464e+01   4.3855196354e+01     1.072223    0.4340925  77.97  0.003634265    3.407    0.706
         8 -11.7826    117.9712      2.2114   3.1967190804e+01   5.4510049589e+01     0.610975     0.222215  56.23  0.002564812    2.139    0.532
         9 -13.7112    140.7994     23.3677   3.5046337075e+01   4.6828616399e+01      1.34308    0.8723935 -47.64  0.006610871    1.752    0.429
        10 -12.9859    128.0039     13.4948   3.4112845771e+01   5.1052909752e+01    0.9741809    0.4169418 -34.99  0.004144605    2.511    0.602
        11 -13.0725    121.4130      8.8027   3.3729158820e+01   5.3109702271e+01    0.7389175    0.5515664 -13.68  0.003465654    1.517    0.341
        12 -12.0884    164.1300     28.5830   3.2627084258e+01   4.0313303899e+01    0.6582631    0.3476872 -21.80  0.001360776    2.262    0.558
        13 -11.9677    107.0022     21.5903   4.1929993875e+01   5.5226974437e+01    0.4567612    0.3029843 -56.65  0.002183415    2.168    0.539
        14 -10.6118    206.8193     17.4036   2.4068046619e+01   3.1011510670e+01    0.3813966    0.1666661 -46.30  0.001723654    2.155    0.536
        15 -11.0910    210.7547     30.2165   2.6816512956e+01   2.8581342321e+01    0.7143958    0.2320005 -40.29  0.002810445    2.696    0.629
        16 -11.2586    213.9494     25.1956   2.5241649688e+01   2.8435958181e+01    0.4785521    0.3211362 -75.83  0.001893262    1.485    0.326
        17 -11.9243     26.7079     27.8991   7.5952546621e+01   6.8228080947e+01     0.561308    0.3514971 -24.56  0.003207649    1.410    0.291
        18 -11.9834     35.7266     18.5764   6.7220799185e+01   6.8750090119e+01    0.8948455    0.4057208 -32.30  0.004453034    2.047    0.511
        19 -11.6757     29.0695      3.0139   6.2789832685e+01   7.1785507997e+01    0.2860487    0.2559147  43.59  0.001403606    1.816    0.449
        20 -12.6986     48.1161     12.7587   5.8436065005e+01   6.7841102559e+01    0.6558972    0.2896316  44.37  0.003100562    2.467    0.595
        21 -12.2844     35.5720      8.9106   6.2517814811e+01   7.0159221424e+01    0.6523999    0.2745614  46.13  0.002158636    3.684    0.729
        22 -12.3864    235.4223      9.2826   1.9683424179e+01   2.5384435067e+01     1.042376    0.3459475 -57.74  0.004107587    3.315    0.698
        23 -13.0698    244.3853      5.1074   1.8163464207e+01   2.3916086014e+01     1.159407    0.4178998  81.48  0.004559364    2.894    0.654
        24 -12.3002    233.2121     20.8251   2.2396958803e+01   2.4576187669e+01    0.6989264    0.4016611 -31.98  0.003776173    1.762    0.432
        25 -12.4215    246.7469     16.6327   2.0398332468e+01   2.2155685857e+01    0.5252315    0.3922478  41.82  0.003174174    1.905    0.475
        26 -12.6784    223.3672     11.4924   2.1132517075e+01   2.7818469821e+01    0.4816443    0.2851137 -64.82  0.001266353    1.596    0.373
        27 -12.6308     20.0003     21.9947   7.7052424442e+01   6.9889707327e+01    0.5413105     0.229355 -44.03  0.002775969    1.982    0.495
        28 -10.8771     13.6401      8.9617   7.4771281498e+01   7.2597323296e+01    0.2633746    0.1821345 -23.49  0.001791634    1.122    0.108
        29 -12.4603     15.6974     14.5920   7.6214424376e+01   7.1514463071e+01    0.6935945     0.331442 -19.40  0.003501834    2.325    0.570
        30 -12.1467     22.6703     11.5172   7.0772371875e+01   7.1329765912e+01    0.4669026    0.2780118 -15.54  0.001924812    1.567    0.362
        31 -11.2801     90.7916     11.3934   4.2170236227e+01   5.9958477655e+01    0.3918796    0.2201199  64.10  0.001373477    2.039    0.510
        32 -11.3208     87.9792      7.6848   4.1365926553e+01   6.0932237723e+01    0.5814398    0.2639689  40.13  0.002528216    1.976    0.494
        33 -12.5413     89.7467     19.7213   4.6040693665e+01   5.9274711396e+01    0.7835319    0.5516997 -37.55  0.004056065    1.634    0.388
        34 -11.4110     85.9001     13.4657   4.4523465491e+01   6.0790464586e+01    0.3222373    0.2459895  -5.28   0.00123923    1.335    0.251
        35 -12.6962     68.7029     17.9218   5.2395427912e+01   6.3686789562e+01    0.6095505    0.4213498  27.55  0.002342279    1.302    0.232
        36 -13.2709    163.9494     19.0411   2.9783681711e+01   4.1440114419e+01    0.4410282    0.2796309  46.90 0.0009367397    1.601    0.375
        37 -11.2844    201.6988      2.5457   2.0898536837e+01   3.3770505560e+01    0.2756492    0.2281999 -67.36 0.0007358624    1.102    0.092
        38 -13.3318    185.3540      8.4047   2.4025844457e+01   3.7164093243e+01     1.047286     0.508464 -57.82  0.003240473    2.306    0.566
        39 -12.2063    195.3461      4.9009   2.2079622906e+01   3.5066096233e+01    0.6258102    0.3645011  42.58  0.002665873    2.176    0.540
        40 -11.5508    211.3944     11.2691   2.2133094320e+01   3.0597689780e+01    0.4581813    0.3392733  -0.36  0.002298538    1.981    0.495
        41 -10.7313    140.2060     11.0038   3.1010761213e+01   4.8256018992e+01    0.4870177    0.2208009 -42.48  0.002078194    2.507    0.601
        42 -10.9852    157.5081     11.3467   2.8394360488e+01   4.3858285067e+01    0.2553424    0.2276133 -20.94  0.001067221    1.288    0.224
        43 -10.5622      5.3082     10.9897   8.0796894625e+01   7.2920166351e+01    0.3433387    0.1006019 -48.11  0.001604546    2.663    0.624
        44 -10.6404    176.8010     10.6923   2.5639410612e+01   3.9062510312e+01    0.2211118    0.1808337  53.87 0.0006199606    1.248    0.199
        45 -10.2144    161.9764     11.0802   2.7678256714e+01   4.2754289026e+01    0.2304697    0.1441728  37.32  0.001128665    1.865    0.464
        46 -10.5498    145.4391      9.4278   2.9626732962e+01   4.7088503059e+01     0.217161    0.1686993  30.59 0.0005545714    1.419    0.295
        47 -10.9886     65.2368     10.4110   5.0162415349e+01   6.5219572369e+01    0.2833553    0.1874051  52.64 0.0008676587    1.702    0.412
        48 -10.7581     62.4060      6.7767   4.9461618976e+01   6.6138835015e+01    0.3056112    0.1905204   3.96  0.001661199    1.705    0.413
        49 -10.6492    153.6269      7.0767   2.7636858936e+01   4.5240247700e+01    0.2313649    0.1686758  82.50 0.0006665046    1.308    0.236
        50 -12.3457     75.1586      4.5672   4.3875692515e+01   6.3906957911e+01    0.4665647    0.4294465 -51.70   0.00234404    1.487    0.327
        51 -11.1924     68.5376      3.7400   4.5717319382e+01   6.5295408257e+01    0.3582509    0.2141077  -9.66  0.001943537    1.766    0.434
        52 -11.0344    176.8033      5.7523   2.4265005763e+01   3.9539568761e+01    0.3388749    0.1774722  88.48 0.0008893695    2.033    0.508
        53 -12.3543    157.6094      3.6316   2.6026516986e+01   4.4544078896e+01    0.3985823    0.2953728 -57.65   0.00133326    1.450    0.310
        54 -10.8846    142.0032      4.6948   2.8622255559e+01   4.8375542220e+01    0.3467571    0.2592815 -69.09  0.001231724    1.517    0.341
        55 -10.8738    137.5355      4.4934   2.9271635243e+01   4.9510052732e+01    0.2443749    0.2009667  66.24 0.0005492301    1.065    0.061
        56 -11.4940    133.5220      2.5857   2.9286457544e+01   5.0668717504e+01     0.439676    0.2172985  60.53  0.002076976    1.668    0.400
        57 -10.3526     55.4912      5.3415   5.1483093283e+01   6.7524049687e+01    0.1852298     0.146222  57.55 0.0008308001    1.761    0.432
        58 -10.3393     22.3379      4.4315   6.7320372331e+01   7.2398902179e+01    0.1678138       0.1291 -42.34  0.001119926    1.722    0.419
        59 -10.3614     41.9741      3.5995   5.6548628357e+01   6.9914978284e+01    0.2171841    0.1343342  -1.78  0.000687463    1.608    0.378
        60 -11.8812    225.1269      2.1245   1.8885341987e+01   2.8400454834e+01    0.4729667    0.2019489  81.08  0.001605338    2.246    0.555
        61 -11.6533      2.9111      1.8481   7.8005128308e+01   7.4565099761e+01     0.367261    0.1658365   7.70  0.002020958    2.373    0.579
        62  -9.9633     13.9609      2.0000   7.1006621367e+01   7.3614180281e+01    0.1708867   0.05740315  27.03 0.0008044812    2.957    0.662
        63 -10.9898    202.1191    119.9687   5.0739767170e+01   1.6399336582e+01    0.3569959    0.2994509  60.36  0.001867193    1.342    0.255
        64 -10.8012    142.9792    249.9638   8.7520659713e+01   3.7988770974e+00    0.1953618    0.1290304  56.03  0.001136191    1.695    0.410
        65 -11.4072     44.3168    117.7819   9.2794406791e+01   4.6723760671e+01     0.445852    0.2538489 -88.38  0.001950217    2.292    0.564
        66 -10.6843    190.2108    123.6975   5.3999026054e+01   1.8280983149e+01    0.3553772    0.2147294 -32.87 0.0007920117    1.676    0.403
        67 -11.6731     21.4693    114.5109   9.9516858385e+01   4.9595458675e+01    0.3685966     0.233906 -10.13  0.001267372    2.163    0.538
        68 -11.1583     28.0404    113.0932   9.7224516227e+01   4.9416679665e+01    0.2780678    0.2129294  39.80 0.0006857091    1.469    0.319
        69 -11.7497     24.0009    109.1666   9.7927166388e+01   5.0698208830e+01     0.787456    0.2791551 -77.38  0.002844089    3.343    0.701
        70 -12.0995     26.9570    106.5179   9.6540067060e+01   5.1105320713e+01    0.5606767    0.3082827  77.56  0.002479381    2.626    0.619
        71 -10.5068      7.5307    114.8322   1.0386716411e+02   5.0458937552e+01    0.1831017    0.1777111  51.11  0.000619673    1.241    0.194
        72 -12.1960      2.3904    111.7144   1.0508060351e+02   5.1490804762e+01    0.4376902    0.1927052 -76.32 0.0008356515    1.873    0.466
        73 -11.4066      4.1796    105.0645   1.0375562224e+02   5.2974022709e+01    0.3328886    0.2749845  36.69  0.002259195    1.446    0.309
        74 -12.2250    248.3383    107.3995   4.0175707407e+01   9.1532441846e+00    0.6844075    0.3771449 -55.29  0.003092629    2.276    0.561
        75 -11.6228    170.3964    110.4740   5.4901960656e+01   2.5297345884e+01    0.4257636    0.3425501 -30.88  0.001116961    1.262    0.207
        76 -10.1872     93.9575    112.3370   7.5871529372e+01   4.1052032211e+01    0.2104959     0.200598  36.25 0.0006999525    1.079    0.073
        77 -10.2186     48.8267    112.1830   9.0324662417e+01   4.7608994380e+01     0.208644    0.1825405  81.69 0.0009139907    1.223    0.182
        78 -11.0928    211.8051    110.3083   4.6627964310e+01   1.6051981480e+01    0.3995104    0.3085666 -74.13  0.001969381    1.708    0.414
        79 -11.4666    214.9330    107.7991   4.5478975732e+01   1.5820097046e+01    0.3941407    0.3259222 -52.80  0.001618889    1.248    0.198
        80 -10.9600    101.4600    109.9936   7.2990012199e+01   4.0243712201e+01    0.3222888    0.2446149 -24.12  0.001217491    1.534    0.348
        81  -9.7649     65.7069    110.6526   8.4482626169e+01   4.5884474120e+01     0.150597    0.1031446 -31.65 0.0007030083    1.669    0.401
        82 -11.4459     79.9710    107.9639   7.9225479979e+01   4.4430981814e+01    0.4538364    0.2736176  26.73 0.0008284028    1.878    0.468
        83 -10.1562     15.3083    109.0174   1.0071058771e+02   5.1363273265e+01    0.2593955    0.1191139  50.77  0.001174266    2.732    0.634
        84 -10.9821    228.4874    107.6333   4.3201569437e+01   1.3014281149e+01    0.3249679    0.2521385  44.97   0.00145835    1.410    0.291
        85 -12.8321    179.9858    102.9152   5.0862287475e+01   2.4544818199e+01    0.8579517    0.6771953  65.77  0.004152778    1.420    0.296
        86 -11.7014    143.5083    106.0406   6.0138354685e+01   3.2354000846e+01    0.4035748    0.3333085  79.95  0.001080667    1.500    0.333
        87 -12.2458    145.4254    100.7935   5.8214851312e+01   3.3008842746e+01    0.5443003    0.3457134 -27.37  0.002019662    1.857    0.462
        88 -11.6518    240.8914    102.6301   4.0172692502e+01   1.1344596687e+01    0.4976584    0.1860558 -40.13  0.001980658    2.322    0.569
        89 -11.5912    236.4877    100.3984   4.0306003818e+01   1.2579107314e+01    0.3678194    0.3116236 -29.11  0.001644281    1.104    0.095
        90 -10.9038    118.8489    106.0782   6.6827288371e+01   3.7708798355e+01    0.2347646    0.2126103  87.62 0.0004827002    1.266    0.210
        91 -10.7299    189.8033    103.8979   4.9131589851e+01   2.2096005403e+01    0.3870871    0.2004857 -27.29   0.00114686    2.322    0.569
        92 -11.0101    194.6535    102.0251   4.7714979171e+01   2.1330488404e+01    0.2765257    0.2530457 -86.41 0.0008082514    1.210    0.174
        93 -10.4841     35.3791    103.6483   9.3217319601e+01   5.1069117718e+01    0.2148063    0.1295279  19.62    0.0010889    1.947    0.486
        94 -10.3663     50.6052    102.1728   8.7718623650e+01   4.9845968136e+01     0.208165    0.1101448 -50.50 0.0007130229    1.674    0.403
        95 -11.8273     17.4203    100.6840   9.8807707603e+01   5.3222863996e+01    0.2701951    0.2046518 -66.70 0.0009156544    1.099    0.090
        96 -11.8210    225.6624     99.0722   4.1636465005e+01   1.5023268534e+01    0.6915363    0.4342693 -87.76  0.002790168    2.988    0.665
        97  -9.9454    220.4677    101.2430   4.2980246035e+01   1.5760032904e+01      0.20208    0.1241469 -46.20 0.0009211712    1.579    0.367
        98 -11.8947      9.6284     97.4983   1.0096760591e+02   5.4469647033e+01    0.4089417    0.3031176  59.86 0.0007791831    1.572    0.364
        99 -11.6430    211.0147     96.9814   4.3511550366e+01   1.8538678277e+01    0.5354725    0.3344506  33.67  0.002372085    2.028    0.507
       100 -10.1013     80.7857     98.2491   7.6527017043e+01   4.6594788745e+01    0.2024561    0.1665177 -17.51 0.0005442269    1.335    0.251
       101 -10.6450    190.8177     96.6719   4.7070299360e+01   2.3180945757e+01    0.3043986    0.2104932 -42.58  0.001135928    1.408    0.290
       102 -10.3370    183.6832     96.0379   4.8298782487e+01   2.4962071103e+01    0.2210035     0.190799 -35.81 0.0005737731    1.139    0.122
       103 -11.5940     69.0634     95.5704   7.9808245647e+01   4.9022823771e+01    0.2819207    0.2530322  15.30 0.0006186482    1.180    0.153
       104 -10.3658     30.5142     95.9652   9.3475114037e+01   5.3353944619e+01    0.2106147    0.1147722 -65.07  0.001034892    1.601    0.375
       105 -10.7947     19.7347     82.7306   9.4877034682e+01   5.7312585768e+01    0.3240936    0.1444545 -66.92  0.001004645    1.970    0.492
       106 -11.8296     22.5924     94.6316   9.6028326372e+01   5.4303290553e+01    0.3179408    0.2470674 -28.17  0.001354483    1.374    0.272
       107 -12.4107     18.1853     90.6956   9.6909177125e+01   5.5549080863e+01    0.3787253     0.249072 -70.53 0.0004986477    1.344    0.256
       108 -11.0918    199.7801     94.8989   4.4950219487e+01   2.1429918794e+01    0.4697524    0.2380984  50.14  0.001926889    2.031    0.508
       109 -10.7407    115.2580     93.9158   6.4479618575e+01   4.1121905800e+01    0.6757722     0.248249  34.34  0.001953251    3.739    0.733
       110 -11.3596    125.8113     94.3327   6.1582776437e+01   3.8768505754e+01    0.3719857    0.3325378   6.26  0.000708148    1.194    0.162
       111 -11.1710    121.6072     94.1719   6.2719166243e+01   3.9717319475e+01    0.3056614     0.252851 -18.77   0.00147953    1.324    0.245
       112 -10.9061     42.8128     94.2749   8.8758664393e+01   5.2595913554e+01    0.2798661    0.2564964  12.80    0.0016128    1.214    0.176
       113 -11.2953     35.1800     92.4577   9.1118745000e+01   5.3777074493e+01    0.4830844    0.2588283 -73.85   0.00221609    2.055    0.513
       114 -12.8946    236.2069     91.2651   3.8243137386e+01   1.4097219486e+01    0.5988146    0.4325551 -39.45  0.002139615    1.232    0.188
       115 -10.7702     82.5963     93.4449   7.4641603600e+01   4.7405888092e+01    0.3459475    0.1525106  29.22  0.001246058    2.727    0.633
       116 -10.5409     77.4407     93.0000   7.6263410361e+01   4.8347064665e+01    0.4637544    0.3303865  17.32  0.002236818    1.627    0.386
       117 -11.7236     98.5236     91.0943   6.8777033994e+01   4.5087243056e+01    0.2631529    0.2442371  27.87  0.001411146    1.088    0.081
       118 -12.4469     89.0592     89.9941   7.1527475437e+01   4.7073077139e+01    0.3546912    0.2881269 -35.45 0.0004039871    1.200    0.167
       119 -12.3107      7.2224     89.1491   1.0056833932e+02   5.6569721316e+01    0.4983749    0.3619546  22.87  0.002101542    1.661    0.398
       120 -10.8329     49.2409     91.1277   8.5737057957e+01   5.2641240401e+01    0.2673816    0.1684963  55.47  0.001254079    2.155    0.536
       121 -11.6821    183.9592     87.0059   4.5836079603e+01   2.6525417560e+01    0.6664175    0.3196146 -42.82  0.002587477    2.053    0.513
       122 -10.1197    155.5081     90.0274   5.2738801767e+01   3.2790988634e+01    0.2434185    0.1538976 -39.48  0.001031572    1.588    0.370
       123 -10.9983    119.4134     89.2057   6.1896142229e+01   4.1235736324e+01     0.226535    0.1467881 -53.28 0.0009551192    1.719    0.418
       124 -10.9045     24.8727     85.5090   9.3495165285e+01   5.6288996931e+01    0.5335265    0.2577093 -78.11  0.002296807    2.562    0.610
       125 -10.9960     28.9826     84.2105   9.1686962951e+01   5.6264562321e+01    0.3746511    0.2046994 -58.51  0.001668049    1.524    0.344
       126 -12.1628    246.9159     85.8633   3.5569927963e+01   1.2777056353e+01    0.4183153    0.3196808  56.31  0.001840987    1.482    0.325
       127 -10.9237    212.6192     87.6380   4.0933879909e+01   1.9757413943e+01    0.3089992    0.2325362  12.33  0.001430528    1.816    0.449
       128  -9.6363    148.4578     88.4572   5.3969568070e+01   3.4769488618e+01    0.1546782    0.1523219  24.31 -1.672251e-05    1.000    0.000
       129 -11.6330    217.1689     91.0423   4.1043749538e+01   1.8182036048e+01    0.3990416    0.2354236 -57.01  0.001736545    2.027    0.507
       130 -11.3126     44.4935     85.2441   8.6088238934e+01   5.4546396961e+01    0.4593665    0.3355557  -6.07  0.002379719    1.595    0.373
       131 -10.3626     37.3434     85.7795   8.8888032261e+01   5.5149427829e+01    0.2409221    0.1677278  24.58 0.0009362977    1.610    0.379
       132 -10.8795    165.7024     83.7267   4.8658812624e+01   3.1516596051e+01     0.333739    0.2784127 -43.10  0.001072451    1.204    0.170
       133 -11.2153    142.5849     84.6675   5.4310558091e+01   3.6891146658e+01    0.5542672    0.2811081  39.38 0.0009606559    2.146    0.534
       134 -11.0982    113.6674     83.2706   6.1789161691e+01   4.3695096797e+01    0.4454722    0.3116834 -66.60  0.001902187    1.996    0.499
       135 -11.0748     80.3586     84.1271   7.2776505759e+01   4.9874088110e+01     0.365049    0.2640964 -39.38  0.001811007    1.323    0.244
       136 -10.7675    218.1053     83.3814   3.9024223804e+01   1.9230307588e+01    0.2645626    0.1893666 -45.91 0.0005410475    1.311    0.237
       137 -10.8834    250.1849     76.1517   3.3001288642e+01   1.3587065033e+01     0.259479    0.2117169  84.47  0.000794368    1.377    0.274
       138 -12.3550    234.9352     60.7837   3.1339642123e+01   1.8990381968e+01    0.5260127    0.3893377 -63.41  0.002043419    1.331    0.249
       139 -13.3279    242.7625     77.1493   3.4133750679e+01   1.4934354595e+01    0.6077188    0.5113937 -73.68  0.002388273    1.243    0.196
       140 -12.2647    234.5219     77.5532   3.5291878586e+01   1.6586945749e+01    0.6693431    0.4147592 -62.46  0.002975753    1.903    0.475
       141 -12.3759    238.2893     69.0037   3.2830255321e+01   1.7077749952e+01     0.750154     0.630466  63.44  0.004543661    1.302    0.232
       142 -10.3619     66.7695     81.9984   7.6987160893e+01   5.2471118824e+01    0.2615166    0.1906339   3.99  0.001303279    1.628    0.386
       143 -10.0380    200.5257     81.4836   4.1373634669e+01   2.3554127172e+01     0.144607    0.1402338 -43.47 0.0003505178    1.034    0.033
       144 -11.2290     75.9831     79.5150   7.2949552459e+01   5.1604576567e+01    0.3053861    0.2547133   6.74  0.001154715    1.264    0.209
       145 -11.5459     53.3105     76.5617   8.0492668013e+01   5.5505722564e+01    0.5280752    0.2919508 -58.34  0.002444293    1.815    0.449
       146  -9.5042      1.2290     80.6714   1.0143932610e+02   5.8824446302e+01    0.1132662   0.08156057  85.10  0.000685273    1.518    0.341
       147 -10.4825    169.4170     78.1140   4.6282393906e+01   3.1614748571e+01    0.3121523    0.2089034  75.50  0.001320598    1.915    0.478
       148 -10.9664     58.4302     77.7911   7.8887923141e+01   5.4572381765e+01    0.2585388    0.2301931 -19.96 0.0007583001    1.074    0.069
       149 -11.6808     13.6241     74.4023   9.5600570535e+01   5.9625691072e+01    0.4901927    0.2330381 -75.19  0.002296996    2.250    0.556
       150 -10.4994     13.7742     67.5949   9.4127572325e+01   6.1154673848e+01    0.2323378    0.2253906 -66.85  0.001360425    1.221    0.181
       151 -10.1907    140.7634     77.5885   5.2642099240e+01   3.8665933581e+01    0.2134019    0.1490163  61.53  0.000518799    1.575    0.365
       152  -9.8061    135.0039     77.5134   5.4084211277e+01   4.0040802783e+01    0.2208234    0.1400516  75.01 0.0008103797    2.571    0.611
       153 -10.7890     94.8570     76.4987   6.5553327107e+01   4.8901684078e+01     0.439718    0.2438639  48.95  0.001825012    2.010    0.503
       154 -11.2788    199.1085     64.1186   3.7071704242e+01   2.6678767825e+01    0.4736287    0.3222143 -61.92  0.001868755    1.636    0.389
       155 -11.8799    192.6452     66.1374   3.8649667245e+01   2.7923602134e+01    0.5900069    0.3757226 -81.91  0.001878216    2.253    0.556
       156 -11.1904    200.5378     69.8088   3.8336455140e+01   2.5449591266e+01    0.3450971    0.2674706  79.79 0.0005437189    1.403    0.287
       157 -13.5884    217.7287     66.8970   3.5026070266e+01   2.1899973079e+01     1.737558    0.4790021  50.58   0.00545552    3.934    0.746
       158 -11.4450    180.5023     63.4581   4.0002888127e+01   3.1322627803e+01    0.2771717     0.239284 -53.16 0.0006309128    1.160    0.138
       159 -12.0734     87.1511     73.3445   6.7133156644e+01   5.0992376475e+01    0.6573806    0.3922129  30.25  0.002910285    1.804    0.446
       160 -10.5771    197.5279     74.5151   4.0061891793e+01   2.5409867155e+01    0.2656683    0.2099842 -23.20 0.0008260642    1.376    0.273
       161 -10.0914    112.1495     75.3661   5.9773092294e+01   4.5606645451e+01    0.2163133    0.1421198  54.89 0.0009386026    1.699    0.411
       162 -10.0042    104.1493     74.8344   6.2045150253e+01   4.7392505141e+01    0.2137149    0.1764386  10.35 0.0009898414    1.312    0.238
       163 -10.2860     24.5384     74.0937   9.1197417734e+01   5.8951693102e+01    0.1980634    0.1101602 -61.53  0.001018634    1.562    0.360
       164 -12.1094    162.1799     71.2595   4.5812398824e+01   3.4583417500e+01    0.4750015    0.4001387  86.86  0.001580919    1.337    0.252
       165 -11.4536     40.9972     72.0566   8.4091029330e+01   5.7921532077e+01    0.4513294    0.2501684 -61.92  0.001616103    1.834    0.455
       166 -11.5533     35.0232     71.7898   8.6424233081e+01   5.8575608726e+01    0.4477181    0.2205584  22.47  0.002133109    2.267    0.559
       167 -11.2187      2.0240     71.5973   9.9651610751e+01   6.0858847395e+01    0.3225227    0.1570505 -65.43  0.001040061    1.611    0.379
       168 -13.6468    186.1109     69.9684   4.0809025391e+01   2.8901558962e+01     1.495333    0.5961595 -44.43   0.00539081    2.544    0.607
       169 -10.3391    154.1715     72.5923   4.7952880327e+01   3.6324798693e+01     0.233026    0.1359794  42.83 0.0009532602    1.767    0.434
       170 -10.8807    130.5334     72.0351   5.3545145436e+01   4.2108332948e+01     0.646964    0.2307409 -48.97  0.001611084    3.806    0.737
       171 -10.8077    132.5228     69.5166   5.2226637691e+01   4.2099414912e+01    0.4831961    0.3274111 -61.19  0.001586048    1.967    0.492
       172 -11.6152    171.0036     68.2257   4.3134559457e+01   3.2908155168e+01    0.4766579    0.3731199 -37.53  0.001656432    1.290    0.225
       173 -11.9954    122.7837     68.7873   5.4596857912e+01   4.4496010418e+01    0.4921738    0.3248081  44.34  0.001264925    1.474    0.321
       174 -10.4157    110.8624     68.9869   5.8089760631e+01   4.7112469410e+01    0.2277222     0.214012  30.25  0.001233396    1.048    0.046
       175 -11.2170     79.2763     68.2402   6.8235337970e+01   5.3430251953e+01    0.4365124    0.3212965  52.63  0.002176511    1.660    0.398
       176 -11.4557     59.1731     63.7702   7.4355766044e+01   5.7487543159e+01    0.3188575    0.2375455 -50.06  0.001205753    1.345    0.257
       177 -12.4498      4.6053     62.0694   9.6793420342e+01   6.2870940605e+01    0.4957319    0.3355137 -37.74  0.001879673    1.296    0.228
       178  -9.7635     21.0348     65.0042   9.0499057929e+01   6.1250543599e+01    0.1541676    0.1180062 -50.16 0.0004132369    1.082    0.076
       179 -11.4155    104.9909     63.0024   5.7865422972e+01   4.9481869807e+01    0.2938192    0.2422021 -85.47   0.00109578    1.713    0.416
       180 -12.2731    155.0800     41.7759   3.8282130096e+01   4.0924537066e+01    0.8041711    0.4053224 -53.25  0.003064698    2.582    0.613
       181 -11.5417    159.1255     62.3524   4.3801789281e+01   3.6826300649e+01    0.5761465    0.2921619  47.80  0.002287407    1.941    0.485
       182 -13.1578    157.2738     54.6354   4.1835974227e+01   3.8506035073e+01     1.131691     0.648097  85.67  0.004009876    3.078    0.675
       183 -11.4070     91.0299     62.4462   6.2182489304e+01   5.2417379519e+01    0.4543289     0.322838  65.15  0.002075989    2.059    0.514
       184 -11.9127     89.8283     57.6884   6.0921908025e+01   5.3533931466e+01    0.5282634    0.3350636  41.65  0.002505433    1.566    0.362
       185 -10.3169     51.1071     56.8586   7.5356798504e+01   5.9983137421e+01    0.2634033    0.2340546  12.10  0.001610931    1.172    0.147
       186 -11.3210     40.5973     57.0725   7.9885464042e+01   6.1188990397e+01    0.4156423    0.2121083  40.91  0.001938198    2.462    0.594
       187 -10.9937     51.8235     61.5230   7.6588697135e+01   5.8936499767e+01    0.3668706     0.223283  39.47  0.001377457    1.885    0.469
       188 -11.8312     43.5637     62.4339   8.0288446701e+01   5.9736725999e+01    0.2747888    0.2095392 -49.82 0.0003700633    1.232    0.188
       189 -11.5040     46.2026     59.1597   7.8163390852e+01   6.0118474968e+01     0.354244    0.2511987 -52.89  0.001111279    1.402    0.287
       190 -12.5100     75.6133     53.5868   6.4495808289e+01   5.6901139727e+01    0.7503613    0.5012672 -32.09  0.002525899    1.454    0.312
       191 -11.3253     72.9479     47.7602   6.3326716137e+01   5.8411821521e+01    0.3559158    0.2188986 -49.32  0.001094349    1.911    0.477
       192 -10.6491    174.7860    246.9725   8.0879778324e+01  -5.7599584762e-01    0.2379537    0.1484454  32.44  0.001407684    1.275    0.216
       193 -11.5776     92.6298     41.2499   5.3873178159e+01   5.5745682051e+01    0.6808767    0.2885609  41.35  0.002706862    2.271    0.560
       194 -12.2498    127.5001    241.6758   8.9610847289e+01   7.4809859066e+00    0.4192913    0.2454525  33.69  0.002323295    1.472    0.320
       195 -11.4197     68.1556    240.6163   1.0136831209e+02   1.6144592665e+01    0.2039732    0.1765323  10.30  0.001273428    1.651    0.394
       196 -12.2107    119.8591     57.9277   5.1792638307e+01   4.7080732642e+01     0.809208    0.5680465  88.20  0.003377234    2.402    0.584
       197 -12.0465    114.8167     49.7780   5.0357252244e+01   4.9573926318e+01    0.6487437    0.5285047  14.35  0.002940808    1.308    0.235
       198 -10.6575    167.6292    238.2106   8.1051461706e+01   1.8082794650e+00    0.1598575    0.1135345 -26.42 0.0007985084    1.673    0.402
       199 -12.0804    117.8075     43.9987   4.7483281160e+01   4.9769508888e+01     0.605983    0.3401974  67.95  0.002358985    2.443    0.591
       200 -10.5388     29.4453     59.7168   8.5506146843e+01   6.1729663126e+01    0.2605252    0.1933474 -42.32  0.001059528    1.119    0.107
       201 -11.9862     25.3664     57.3425   8.6623879845e+01   6.2582456805e+01    0.6851526    0.2776397 -47.04  0.003202597    1.959    0.490
       202 -10.5538    249.2416     59.1636   2.9353738222e+01   1.6222343956e+01    0.2098641    0.1769004  54.29  0.001317287    1.394    0.283
       203 -11.1833    136.3888     55.8117   4.6830192088e+01   4.3504041998e+01    0.4997375    0.2859935 -18.09  0.001971438    2.359    0.576
       204 -10.3673    139.3064     54.6512   4.5759276006e+01   4.2975114799e+01    0.2783168    0.2361073 -66.35  0.000848189    1.361    0.265
       205 -12.3504    218.7568     57.1182   3.2482900286e+01   2.3112661225e+01    0.6364521    0.3563579  85.30   0.00215959    2.405    0.584
       206 -11.4874    215.5570     52.7564   3.1823382232e+01   2.4472677992e+01    0.4404433    0.2139688 -35.30  0.001822691    1.949    0.487
       207 -10.1973     66.8915     55.1644   6.8388295200e+01   5.8052598425e+01     0.195762    0.1895201 -40.37 0.0005988529    1.241    0.194
       208 -12.2093    204.9945     52.5126   3.3178846857e+01   2.6991511254e+01     0.771162    0.5215479 -79.13   0.00215597    1.728    0.421
       209 -11.3433    203.8306     44.0694   3.1161355059e+01   2.8444811989e+01    0.4358398    0.3571338  43.28  0.002444448    1.402    0.287
       210 -11.3114    194.3722     46.4488   3.3093483242e+01   3.0414633635e+01    0.6137975    0.3151309  89.71  0.002222528    3.165    0.684
       211 -11.7450    197.9546     43.0836   3.1695188867e+01   2.9999174780e+01    0.4483059    0.4083098  16.08  0.001615937    1.333    0.250
       212 -11.8151    205.1115     37.3713   2.9279550805e+01   2.9023439564e+01    0.3889704    0.2593489  74.03  0.001196497    1.468    0.319
       213 -12.0120    198.6297     36.2223   2.9803034349e+01   3.0737225727e+01    0.4649484    0.4147602  49.13   0.00153851    1.246    0.197
       214 -11.9734     60.7382     46.8036   6.7775034255e+01   6.0566134738e+01    0.7908081    0.3132675 -38.10  0.003211617    2.443    0.591
       215 -10.5743     59.0115     41.5055   6.6440737758e+01   6.1773432897e+01    0.2853253     0.206066  27.02  0.001383315    1.362    0.266
       216 -10.4706     33.6507     52.7305   8.1560312073e+01   6.2804231221e+01     0.223485    0.1449062   2.42 0.0009063097    1.707    0.414
       217 -11.4684    245.4721     51.4902   2.8056080697e+01   1.8058282528e+01    0.3670818    0.2137542 -84.76  0.001800861    2.176    0.541
       218 -10.4587    230.3825     51.5611   2.9725058935e+01   2.1285469296e+01    0.2673263     0.122261 -54.43  0.001035721    2.352    0.575
       219 -10.4277    144.6060     52.2660   4.3780203320e+01   4.2036454585e+01    0.2828846    0.2507125  -6.67  0.001507778    1.233    0.189
       220 -11.1061    146.0791     46.8640   4.1720110776e+01   4.2474377283e+01    0.3330849    0.2316945 -26.02  0.001000674    1.568    0.362
       221 -10.8755    113.9133     38.1826   4.6411782454e+01   5.1515362150e+01    0.2474052    0.2012914 -18.12 0.0002869439    1.295    0.228
       222 -11.7912     45.3305     48.0404   7.4783246601e+01   6.2450417876e+01    0.4784733    0.3100119 -41.88   0.00262507    1.386    0.279
       223 -11.1748     44.1380     43.9253   7.3815925827e+01   6.3380619361e+01     0.252123    0.2327774  73.67 0.0009555066    1.608    0.378
       224 -10.8882    176.7562     43.5821   3.4997683993e+01   3.5191356227e+01    0.4426337    0.3783869 -77.78   0.00243793    1.188    0.158
       225 -11.8394    175.4207     48.2239   3.6554171832e+01   3.4879575241e+01    0.4127697    0.3635456  89.94  0.001566357    1.130    0.115
       226 -12.3472    171.9695     47.7173   3.6999051647e+01   3.5820959577e+01    0.5961888    0.4144574  66.78   0.00233618    1.405    0.288
       227 -10.2416     87.5556     49.7707   5.8813003301e+01   5.5376400253e+01    0.1904503    0.1342058 -44.79 0.0004514852    1.561    0.360
       228 -10.3260     51.9372     48.4783   7.2077858910e+01   6.1516447332e+01      0.20462    0.1588128 -32.64 0.0004445855    1.156    0.135
       229 -11.1510     10.0317     62.5176   9.4586259192e+01   6.2497501089e+01    0.3164132    0.1860581 -54.33 0.0006632002    1.324    0.245
       230 -11.4753     20.5375     46.3976   8.5621461684e+01   6.5244262904e+01    0.2530955    0.2023756 -55.80 0.0004526725    1.282    0.220
       231 -10.4314     12.9037     48.0100   8.9703977775e+01   6.5442073995e+01    0.2938877   0.08599205 -41.55 0.0009840146    2.765    0.638
       232 -11.2767    133.1974     45.9780   4.4315816880e+01   4.5793212253e+01    0.3276102    0.2689267  48.04 0.0008989781    1.140    0.123
       233 -10.4486    138.5689     44.2866   4.2514449351e+01   4.4716219481e+01     0.449652     0.194171  37.39  0.001448824    3.096    0.677
       234 -10.7746    248.1320     45.5961   2.6491147732e+01   1.8297715685e+01    0.2435969    0.1744617 -29.05 0.0007912658    1.472    0.321
       235 -10.5372    161.6886     43.8679   3.7687527102e+01   3.8962264252e+01    0.3026637    0.2072265  68.59  0.001450987    1.450    0.311
       236 -10.7201     39.1995     43.9120   7.6049510069e+01   6.3966031109e+01      0.24893    0.1477271  -9.47  0.001228428    2.037    0.509
       237 -11.0039     26.4826     42.9997   8.1690675368e+01   6.5431493035e+01    0.1861105    0.1512024 -14.72 0.0006806544    1.122    0.108
       238 -11.5318    183.9550     38.3436   3.2401987197e+01   3.4085560187e+01    0.3227734     0.231962 -55.11  0.001397667    1.425    0.298
       239 -10.5688    168.4562     40.9740   3.5618305891e+01   3.7642166536e+01    0.2120903    0.1435973 -29.98 0.0005936076    1.578    0.366
       240 -12.7504    226.9142     37.3860   2.6787608925e+01   2.3952596524e+01    0.7131115    0.3496615  87.19  0.003047082    2.644    0.622
       241 -11.8441    153.4523     25.0914   3.3322669536e+01   4.3435034583e+01     0.660152    0.3238156  59.24  0.002889057    1.791    0.442
       242  -9.6094     98.6860    237.7108   9.5016897743e+01   1.2470566873e+01    0.1117384   0.09325475   8.86 0.0004389617    1.588    0.370
       243 -12.0554    147.0295    238.2229   8.5209165332e+01   5.0272936577e+00     0.441026    0.2494154  41.00  0.002388905    1.461    0.315
       244 -11.4441    198.1849    232.9564   7.4240446729e+01  -2.1292900582e+00      0.30388    0.2406091  75.70  0.001688998    2.606    0.616
       245 -10.4224    108.7413    229.2866   9.2012950514e+01   1.2512267161e+01    0.2507068    0.1238638  45.73  0.001241794    1.709    0.415
       246 -11.0553     58.2055    226.1836   1.0216487979e+02   2.0155538324e+01    0.1751203    0.1142173  61.73  0.001061876    1.313    0.238
       247 -10.0437    153.3029    219.3281   8.1221572534e+01   7.1822705393e+00    0.1320144   0.09752344   3.55 0.0005074135    1.646    0.393
       248 -10.0892    164.6573    212.0238   7.7664410705e+01   6.5468795413e+00    0.1791129    0.1649398   6.50 0.0005967854    1.109    0.099
       249 -11.5636     79.2290     33.5828   5.5368745674e+01   5.9569106422e+01    0.4911282    0.2971989   7.97  0.002182374    2.270    0.559
       250 -10.6868    218.0297     39.1712   2.8189308052e+01   2.5746913514e+01    0.2089397    0.1800321 -76.47 0.0008486318    1.058    0.055
       251 -11.0040    142.5807     38.9913   3.9890929942e+01   4.4452130088e+01    0.4417523    0.2482202  70.25  0.001852605    2.014    0.503
       252 -11.1461     21.9625     36.9904   8.1827323463e+01   6.6989906707e+01    0.4324618    0.2043306  38.85  0.002083026    2.905    0.656
       253 -11.0177    176.7594     36.7353   3.3033650931e+01   3.6100943944e+01    0.3592668     0.278566   2.37  0.001850895    1.688    0.408
       254 -11.7186    180.9840     31.9629   3.1050485683e+01   3.5640993596e+01    0.5731055    0.3548671 -60.59  0.002705503    1.810    0.448
       255 -11.2402     60.7074     36.6118   6.3764485576e+01   6.2341721930e+01    0.3458942    0.2301581 -24.04  0.001299939    1.448    0.310
       256 -10.5861    170.2662     30.1225   3.2118008910e+01   3.8570658344e+01    0.3866626    0.2384271  75.96  0.001115353    1.642    0.391
       257 -10.7215    169.0278     33.4948   3.3307330500e+01   3.8468833176e+01    0.3262973    0.2443887 -89.96  0.001334884    1.416    0.294
       258 -10.4547    172.5291    211.5307   7.5922975794e+01   5.3012820268e+00    0.1356949    0.1157747  23.05 5.404079e-05    1.002    0.002
       259 -12.7876    160.0161     29.7942   3.3672832492e+01   4.1213664559e+01    0.5807636    0.5103936  20.90 0.0004124817    1.297    0.229
       260 -12.1728    107.6887     30.8812   4.5352226527e+01   5.3934944118e+01    0.8417935    0.4162355  18.15  0.002604283    4.563    0.781
       261 -12.5140    113.4881     25.1555   4.1650630445e+01   5.3300815462e+01    0.7165232    0.3301862  54.83  0.002010643    1.935    0.483
       262 -11.6628    104.8293     24.1948   4.3530089872e+01   5.5420803231e+01    0.2828177    0.2364283   5.66 0.0004886634    1.222    0.181
       263  -9.5694     61.4767    206.5177   9.9724788795e+01   2.3749065672e+01     0.126777    0.1056932  66.27 0.0008099615    1.002    0.002
       264 -10.5891     94.2257     35.7895   5.1226767369e+01   5.6226881784e+01    0.2355142    0.1863925  56.40 0.0009263687    1.398    0.285
       265 -10.8605      5.1129     36.0350   9.0080353246e+01   6.8322284308e+01    0.2463503    0.1577155  20.84  0.001445681    1.811    0.448
       266 -10.4676    248.6923     33.8075   2.3887126781e+01   1.9698796296e+01    0.3381465     0.124361 -49.84   0.00147699    2.433    0.589
       267 -10.7451    238.3607     33.0978   2.4669095543e+01   2.1974050546e+01    0.3615068    0.1716826  69.85  0.001759454    2.135    0.532
       268 -10.6729    238.4877    204.4904   6.1814455286e+01  -4.1668367162e+00    0.1276225    0.1001897   1.35 0.0008104073    1.020    0.020
       269 -10.4297    233.8501    196.6963   6.1199105563e+01  -2.3646541455e+00    0.2309977    0.1520394 -19.01  0.001309901    1.416    0.294
       270 -11.1813    247.4106    195.2099   5.8532364088e+01  -4.1761445092e+00    0.2877836    0.2195187 -66.78  0.001480923    3.089    0.676
       271 -11.6879    133.3007     24.0496   3.6758913795e+01   4.8625183261e+01    0.4180007    0.3022741 -73.07   0.00180682    1.788    0.441
       272 -11.1899    133.5384     37.7263   4.1427441521e+01   4.6869958960e+01    0.4796948    0.3848596  71.07  0.002485831    1.305    0.234
       273 -10.3147     67.8566     32.0911   5.8994525022e+01   6.1870863418e+01    0.1912102    0.1795207   3.56 0.0006207949    1.202    0.168
       274 -11.9336     57.6413     30.2809   6.2379025586e+01   6.3843591815e+01    0.4228349     0.279185   7.74  0.001207802    1.636    0.389
       275 -12.4321     48.1178     30.0610   6.6462687888e+01   6.5295579751e+01    0.6525939     0.307939  32.90  0.003145858    2.116    0.527
       276 -10.3071     54.2184     26.5618   6.2217700120e+01   6.4949706738e+01    0.2014733    0.1575276  -4.78 0.0003280563    1.124    0.110
       277  -9.8122     83.6341    195.8434   9.3534466134e+01   2.3004111420e+01     0.178911    0.1203532 -82.90 0.0007470709    1.638    0.389
       278 -10.7549    170.4030    191.1447   7.2814212525e+01   9.2782379155e+00    0.4540216    0.1773402  27.08  0.001359603    4.245    0.764
       279  -9.6188     16.4572    191.5106   1.0826465903e+02   3.1964446505e+01     0.118532    0.0933454  78.02 6.257716e-05    1.007    0.007
       280 -10.2302     78.7168    190.4213   9.4014614203e+01   2.4906168020e+01     0.176262    0.1265231  27.17 0.0007134374    1.558    0.358
       281  -9.5361     52.6791    190.6731   1.0013848500e+02   2.8294446989e+01    0.1205991   0.09648361 -38.03 0.0007047576    1.685    0.406
       282 -10.7943      6.9843     30.3450   8.7297869211e+01   6.9329488886e+01    0.2981325    0.1414857 -20.75  0.001554958    2.195    0.544
       283 -10.9856    197.4661     29.0600   2.8077000482e+01   3.1913771336e+01    0.3173648    0.2586144  72.66   0.00118689    1.160    0.138
       284 -10.8518    198.1406     24.8526   2.6901712267e+01   3.2250546073e+01    0.3217396    0.2394847 -73.45  0.001161659    1.312    0.238
       285 -10.7537    189.0600     28.2406   2.8920563837e+01   3.4079556128e+01    0.3904877    0.2479341 -10.30  0.001836245    2.213    0.548
       286 -10.0193     99.2811     30.4338   4.7564579999e+01   5.5877597270e+01    0.1885073    0.1314527  60.51 0.0009412428    1.587    0.370
       287 -11.1195    250.0398     25.9255   2.2096939726e+01   2.0385180260e+01    0.2893198    0.2245921 -38.56  0.001877169    1.281    0.219
       288 -11.6042    240.5076    185.0334   5.7786424980e+01  -1.6778059385e+00    0.2672846    0.2077912  18.81 0.0005759359    1.202    0.168
       289 -11.3264      4.7112    185.8310   1.1041014292e+02   3.4215638568e+01    0.2271702    0.1848933 -63.54   0.00163094    1.414    0.293
       290 -11.4909    229.7739     26.8139   2.4057959695e+01   2.4628709964e+01    0.3710567    0.2202101 -41.48  0.001199602    1.526    0.345
       291 -10.8498    214.5241    185.0266   6.2561653179e+01   2.5456751957e+00    0.1813543    0.1174144 -58.11  0.000810052    2.679    0.627
       292 -11.6840    245.9993     22.6189   2.1722074574e+01   2.1619258625e+01    0.3327715    0.2178673 -62.09  0.001112388    1.340    0.254
       293 -10.8467    250.4856    177.9792   5.4699747652e+01  -2.1711943262e+00    0.1959123     0.109247 -30.31  0.000886997    1.590    0.371
       294 -11.4325    228.6721     15.9160   2.1686216398e+01   2.6140924949e+01    0.2737517    0.1997883  74.12 0.0004706167    1.331    0.249
       295 -11.0506    248.0239    174.0105   5.4329167761e+01  -1.2082705346e+00    0.3490519    0.1593056  26.04  0.001486249    2.830    0.647
       296 -10.1934    239.5812     28.2449   2.3482807740e+01   2.2309341627e+01    0.1685236    0.1180979 -23.21 0.0009581606    1.697    0.411
       297 -10.3315     97.0143     26.1799   4.6530691721e+01   5.6923004483e+01    0.2361722     0.174862 -42.06  0.001073866    1.588    0.370
       298 -10.7768    182.4356     25.6375   2.9082629578e+01   3.6037124309e+01    0.2735482    0.2025435  53.15 0.0009390276    1.361    0.265
       299  -9.6995     51.7134    173.6733   9.8553916964e+01   3.2294365197e+01    0.1258226   0.09629057 -42.73 0.0003326584    1.609    0.379
       300 -10.0058    170.5138    171.9612   6.9098241011e+01   1.2899463268e+01    0.2102881    0.1442708 -41.41 0.0006804424    1.520    0.342
       301  -9.9032    198.1913    167.8453   6.2329830765e+01   8.3986817139e+00     0.200168    0.1579375   3.86 0.0005829086    1.304    0.233
       302 -11.0700      9.3315    167.2668   1.0817731526e+02   3.7977596005e+01    0.2037639    0.1657895 -71.15 0.0008736872    1.229    0.186
       303 -10.4346    177.5322     24.5268   2.9439359368e+01   3.7396041754e+01    0.2379587    0.1784368 -32.14 0.0008755008    1.432    0.302
       304 -10.5491    178.0007     21.4918   2.8517767339e+01   3.7622321901e+01    0.3736291    0.1631585  42.19  0.001412301    3.030    0.670
       305 -10.1458     19.1687    164.8097   1.0564783663e+02   3.7725524099e+01    0.1633102    0.1354598 -56.82  0.001078009    1.349    0.259
       306 -10.3760    205.0185    163.0557   5.9948439335e+01   7.9721930073e+00    0.2186528    0.1954358  -1.00 0.0006154804    1.008    0.008
       307  -9.6230    188.3246    163.3168   6.3429230703e+01   1.1111865915e+01     0.152282     0.109801   2.79  0.000704397    1.670    0.401
       308 -10.5801    223.8720    158.0933   5.5297029069e+01   5.3582378308e+00    0.2904516    0.2209235 -75.55  0.001396285    2.407    0.585
       309 -10.7512    203.2624     23.9587   2.6086777881e+01   3.1116334362e+01    0.2447346    0.1620038 -73.58  0.001071801    1.547    0.354
       310 -10.0429     59.7851     23.7925   5.8608729200e+01   6.4466739972e+01    0.1598974    0.1481301 -22.41 0.0005085737    1.318    0.241
       311 -10.8401     13.8868     23.4353   8.1008313886e+01   7.0146287338e+01    0.2060703    0.1319943 -36.90 0.0003726302    1.237    0.192
       312 -11.9114    223.5539     21.9758   2.3528342089e+01   2.6600362274e+01    0.3853447    0.2311605 -84.39  0.001466229    1.716    0.417
       313 -10.6073    170.0167     23.0588   3.0083509082e+01   3.9460392845e+01    0.2923729    0.1827763  58.68  0.001345154    1.461    0.316
       314 -11.5737    105.0569    154.2473   8.1702347912e+01   2.9094165373e+01    0.3218435    0.2550416 -33.35  0.001611493    1.454    0.312
       315 -10.5610     73.9885     19.5081   5.1176221148e+01   6.2493441628e+01    0.1935492    0.1511224  36.85  0.001140628    1.189    0.159
       316 -10.0401     46.4796    154.8765   9.7648155890e+01   3.7375489058e+01    0.1969064    0.1194286 -71.82 0.0004865754    1.505    0.335
       317  -9.8816    199.4945     20.0065   2.5499635002e+01   3.2478067556e+01    0.1950221    0.0852967 -52.38 0.0008086378    2.409    0.585
       318 -11.1395     46.7336     19.1660   6.2180474540e+01   6.7167959606e+01    0.2893573    0.2171354 -13.37  0.001610353    1.163    0.140
       319 -11.8970    224.9770    150.8580   5.3547018595e+01   6.3738255618e+00    0.3163058    0.2476714  16.26 0.0005161719    1.316    0.240
       320 -10.9908    233.2366    150.7848   5.2070386908e+01   4.8933937211e+00    0.2701643    0.1798485  29.41 0.0009373733    1.606    0.377
       321 -12.1186     22.3809    149.5533   1.0342439429e+02   4.1042194681e+01    0.4976951    0.2611316 -37.39  0.001639487    2.723    0.633
       322 -10.0667     79.5058     19.0610   4.9053732390e+01   6.1467707277e+01    0.1927653    0.1259269 -23.24  0.000881995    1.570    0.363
       323 -11.7811     78.4123     37.7160   5.7352566687e+01   5.9095907516e+01    0.6225636    0.4527541 -89.18   0.00266803    3.230    0.690
       324 -10.7002    186.4671     15.2644   2.5739545414e+01   3.6187489062e+01    0.2448259    0.1637032  74.47 0.0005841717    1.356    0.262
       325  -9.8335    185.3577    150.1806   6.1204775572e+01   1.4201434698e+01    0.2033164    0.1372924 -47.52 0.0008719284    1.587    0.370
       326 -10.9212    215.7743    147.3770   5.4477803039e+01   8.6958496814e+00    0.5149519    0.1136017 -36.36  0.001409849    4.681    0.786
       327 -12.0646    249.8876    143.9275   4.7854418584e+01   3.0981603882e+00    0.7526484    0.2194171 -35.95  0.002753469    3.004    0.667
       328 -10.9564     15.7044    147.9615   1.0501225374e+02   4.1970520146e+01    0.2282195    0.1782991  33.51 0.0007381433    1.464    0.317
       329 -11.2134     49.7150    146.0441   9.5590119558e+01   3.9158594545e+01    0.2216778    0.1921154  35.90 0.0003738647    1.265    0.210
       330  -9.7910     74.3821    145.8394   8.8625977315e+01   3.6017434245e+01    0.2042419    0.1216897 -51.57 0.0005687902    1.657    0.397
       331 -11.3139     33.2913    144.6043   9.9949374653e+01   4.1242919888e+01    0.3178214    0.2230042  50.96  0.001279337    1.462    0.316
       332 -11.5404    234.7849    143.9120   5.0326021009e+01   5.7452794802e+00    0.2400229    0.1895624  87.03  0.001236173    2.130    0.530
       333 -11.8121      2.2284    141.3167   1.0792831728e+02   4.4497472126e+01    0.3541048     0.236937 -89.20   0.00153228    1.242    0.195
       334 -11.4243    217.0110    138.1354   5.2188244542e+01   1.0075094544e+01    0.3479242    0.3206233 -46.48  0.001410049    1.199    0.166
       335 -10.0725     32.2578    137.8002   9.9397529191e+01   4.2998257215e+01    0.1747128    0.1413621 -48.55 0.0008006963    1.305    0.233
       336 -11.3375    189.3233    135.6371   5.7035690026e+01   1.6184466634e+01    0.4027142      0.31765  51.60 0.0009773617    1.365    0.267
       337 -11.2416     22.5230    135.5556   1.0187498039e+02   4.4399492290e+01    0.4274194    0.2585667  43.87  0.002355379    1.751    0.429
       338 -11.4783     30.0245    133.0751   9.9432650358e+01   4.4357662149e+01    0.3746687    0.2182663 -37.35 0.0008566697    2.118    0.528
       339 -10.9790     10.9585    137.2045   1.0524616352e+02   4.4884828402e+01    0.1979013    0.1217748 -37.83  0.001088178    2.001    0.500
       340 -11.8388    245.8243    134.3650   4.6454537005e+01   5.3168327366e+00     0.543813    0.3079416  54.95  0.002618544    2.274    0.560
       341 -13.2255    241.4127    124.1188   4.4907261570e+01   7.7714897188e+00    0.9325266    0.5158001 -49.94  0.004281748    2.041    0.510
       342  -9.7368     39.1635    133.3960   9.6817526555e+01   4.3406586363e+01    0.1726473    0.1171381  44.61 0.0003757287    1.562    0.360
       343 -10.7774    188.1633    128.3045   5.5536041835e+01   1.7842434830e+01    0.3459414    0.3145771 -16.46  0.001446895    1.078    0.072
       344 -11.8552    223.3755    123.7324   4.7775112720e+01   1.1318186041e+01     0.775973    0.3388652 -48.12  0.002942856    2.618    0.618
       345 -11.4200     22.8302    127.0487   1.0076381153e+02   4.6440257044e+01    0.1865584    0.1734848 -79.36 0.0003346712    1.110    0.099
       346 -12.9753    103.7900    122.5215   7.5360905830e+01   3.6866295694e+01    0.3426368     0.325859  -9.30 0.0006585118    1.101    0.092
