#   1 NUMBER                 Running object number                                     
#   2 MAG_AUTO               Kron-like elliptical aperture magnitude                    [mag]
#   3 X_IMAGE                Object position along x                                    [pixel]
#   4 Y_IMAGE                Object position along y                                    [pixel]
#   5 X_WORLD                Barycenter position along world x axis                     [deg]
#   6 Y_WORLD                Barycenter position along world y axis                     [deg]
#   7 A_WORLD                Profile RMS along major axis (world units)                 [deg]
#   8 B_WORLD                Profile RMS along minor axis (world units)                 [deg]
#   9 THETA_WORLD            Position angle (CCW/world-x)                               [deg]
#  10 FWHM_WORLD             FWHM assuming a gaussian core                              [deg]
#  11 ELONGATION             A_IMAGE/B_IMAGE                                           
#  12 ELLIPTICITY            1 - B_IMAGE/A_IMAGE                                       
         1 -13.3533    172.3256     61.8167   7.3156421565e+01   3.4341887548e+01     2.109408     1.299654 -64.43  0.009595443    1.973    0.493
         2 -11.9181     68.3361     59.1214   9.9095854074e+01   5.6644467083e+01     1.566888    0.8917432   0.54  0.006442545    3.058    0.673
         3 -11.2031    215.8143     28.8965   5.9343064128e+01   2.8843703511e+01     0.862482    0.4385472 -68.03  0.004193681    2.130    0.531
         4 -10.8407    201.7449     15.1191   5.7880944825e+01   3.3608178748e+01     1.822679    0.5287666 -57.10  0.005663799    5.691    0.824
         5  -9.8258     26.4240     26.5815   1.0380331455e+02   6.7091870365e+01    0.3742955    0.1630957 -16.85  0.001569872    3.728    0.732
         6 -10.5474    157.9286     20.3073   6.4655900224e+01   4.3147146553e+01    0.3952943    0.2557929   1.02   0.00199489    2.554    0.608
         7 -11.8059    129.8017     11.9238   6.6964902519e+01   5.0405142313e+01    0.4870389    0.2628213 -17.89  0.001305953    2.395    0.583
         8 -10.0196    142.0223     12.2881   6.4974655317e+01   4.7608546705e+01    0.2588499    0.1909616 -22.45 0.0007462854    1.658    0.397
         9 -10.5357    159.8597      6.4201   6.0770061189e+01   4.4055719836e+01    0.4748325    0.1364603  55.25  0.001942527    2.811    0.644
        10  -9.6022    186.1975      3.0501   5.6845089822e+01   3.8354150086e+01     0.691955    0.2800677 -87.96  0.002708479    3.483    0.713
        11  -9.5573    143.4318      2.9138   6.2153231718e+01   4.8106954282e+01    0.2535851    0.2119517  -6.25    0.0014123    1.533    0.348
        12  -9.3593    171.3402      2.8242   5.8441837000e+01   4.1751301783e+01    0.1868155    0.1360884 -64.57 0.0009075118    1.403    0.287
        13  -8.0537    219.6627    188.3103   9.3337242431e+01  -1.1157564773e-01    0.1328014    0.1124465 -85.16 0.0006665376    1.685    0.406
        14 -12.5700    164.2511    240.9454   1.1424839606e+02  -3.9744945864e-01       1.0721    0.8305957  31.12  0.006211092    1.170    0.145
        15  -8.6850    249.1498    173.8642   8.5147567760e+01  -2.3921230742e+00    0.2037766    0.1760103 -51.86  0.001247768    1.262    0.208
        16 -11.1365    189.5288    164.8220   9.4543937663e+01   1.0260065115e+01    0.7628589    0.4524499  46.93  0.003316378    1.767    0.434
        17  -7.4220    250.6692    161.3255   8.2401279719e+01  -3.9211854002e-01    0.1315083    0.1008281 -68.75 0.0003532525    1.706    0.414
        18 -10.7137    188.4677    159.3789   9.3588193376e+01   1.1633659118e+01    0.7100765    0.3807045  30.85  0.002688742    2.476    0.596
        19  -8.1713    236.0311    145.9424   8.1669214760e+01   5.0122304130e+00    0.2157817    0.1867099 -39.34 0.0005543622    1.038    0.037
        20  -8.2563     66.3391    144.6743   1.2154404601e+02   3.8296418582e+01    0.1504441    0.1069057  74.76  0.000699449    1.727    0.421
        21  -7.4953    234.2468    132.3766   7.9106549347e+01   7.9146714964e+00     0.138799    0.1042801 -19.83 0.0004119655    1.638    0.389
        22  -7.3131    249.3472    128.2802   7.5904153670e+01   5.8491557127e+00    0.1273836    0.1043563  -4.35 0.0005603188    1.640    0.390
        23  -8.8236    203.5052    111.6999   7.9781718396e+01   1.8251122904e+01    0.2812086    0.2493497  10.99  0.000658266    1.443    0.307
        24 -12.4586    149.3845     82.6692   8.3364413442e+01   3.6252378333e+01     1.354805    0.8705612 -70.34  0.005598099    2.272    0.560
        25 -12.8758    163.2424     80.8859   7.9898064921e+01   3.3326321461e+01     1.754062       1.2526  29.02  0.008115776    1.856    0.461
        26 -11.4323    157.9455     48.5945   7.2254852235e+01   3.9700736318e+01    0.7339473    0.4920954  89.45  0.002859934    1.819    0.450
        27 -10.4828    184.4986     77.7302   7.5026094474e+01   2.8859324919e+01    0.3687625    0.3164711  37.64 0.0007523244    1.383    0.277
        28 -11.5132     73.9278    249.5495   1.3406755064e+02   1.2475527742e+01     1.412084    0.4204639  34.99  0.005222332    3.628    0.724
        29 -10.6780    133.4771     81.7656   8.6874451529e+01   4.0050284333e+01    0.4972478    0.3473883 -62.17  0.002129603    1.768    0.434
        30  -9.5644    135.0257     67.4842   8.2393779192e+01   4.2185414017e+01    0.2594096    0.2035979 -15.56 0.0007521299    1.534    0.348
        31  -9.8170     11.2940    206.7758   1.4281639646e+02   2.9506845220e+01    0.2945361    0.2099024  29.62  0.001882741    1.790    0.441
        32 -11.1698     79.9886     47.0225   9.1077550458e+01   5.6607421310e+01    0.5839696    0.3287159  28.06  0.002865992    1.886    0.470
        33 -10.8444     75.4466     51.2672   9.4028158481e+01   5.6755682149e+01    0.4524142    0.2487338 -29.45  0.002237913    1.897    0.473
        34 -10.8089     94.9374     53.1000   8.8518918579e+01   5.2943381145e+01    0.4224537    0.3588777  60.35  0.002486014    1.380    0.275
        35 -11.2633    127.7344     47.9153   7.8277058829e+01   4.6791496466e+01    0.3345203    0.2907619  -8.94 0.0007675323    1.297    0.229
        36  -9.1649    123.3789     82.7338   8.9730850444e+01   4.2093775205e+01    0.2546491    0.1858526 -28.88 0.0007091725    1.506    0.336
        37  -7.5886     38.2126     63.9388   1.1173896924e+02   5.9755371970e+01     0.160967   0.08976037 -47.77 0.0005688159    1.644    0.392
        38  -8.5307    206.8702     82.5040   7.2438211523e+01   2.2869096807e+01    0.2433158    0.1889656 -50.16 0.0004534349    1.217    0.178
        39 -10.6252    100.6136     71.2337   9.2634110658e+01   4.8875903720e+01    0.7227477    0.4391576  -5.38  0.002798363    3.022    0.669
        40 -10.4794     96.4132     44.2778   8.5147574686e+01   5.3922938491e+01    0.4506199     0.289113  13.34  0.001764535    2.031    0.508
        41 -11.0896     94.7898     38.9484   8.3801725679e+01   5.4950452942e+01    0.7776725    0.4045019  42.17  0.003368587    1.731    0.422
        42 -10.3399    150.7594     43.4200   7.2168317636e+01   4.2094998655e+01    0.3950877      0.19493  48.56  0.001763237    1.940    0.484
        43 -11.0812    140.7539     39.6760   7.3041914335e+01   4.4910472544e+01     1.001832    0.5180585  63.95  0.003560028    1.865    0.464
        44 -10.6222    219.4130     34.1912   6.0070902996e+01   2.7372643598e+01     0.378439    0.2143013 -64.19  0.001998957    1.712    0.416
        45  -9.8302    112.6065    246.5621   1.2587623631e+02   7.1340397482e+00    0.4700232    0.1873686 -52.02  0.001999725    2.845    0.649
        46 -10.0725    124.0024     67.1284   8.4981147079e+01   4.4707384636e+01    0.3289596    0.2868274 -22.10 0.0006140365    1.229    0.186
        47  -8.0420    197.8830    245.4427   1.0810673029e+02  -6.6211805966e+00    0.1833518    0.1124817  35.46 0.0003957314    1.475    0.322
        48  -9.6136    189.8346     36.4735   6.4135246061e+01   3.3792181780e+01    0.2321598    0.1759274 -48.46 0.0007516434    1.355    0.262
        49 -10.9308    180.8589     34.6014   6.4923767364e+01   3.6128037034e+01    0.3480672    0.3252065 -37.11  0.002255152    1.292    0.226
        50 -10.3454     16.4148     41.9571   1.1375344601e+02   6.5667573107e+01    0.3559889    0.1361171 -36.65  0.001789157    2.222    0.550
        51  -9.9070    139.5953     28.9054   7.0145515433e+01   4.6464521108e+01    0.2555234    0.2157361  62.08 0.0004702768    1.032    0.031
        52  -8.1464    180.7117    242.9164   1.1115799500e+02  -3.4674863604e+00    0.1711523    0.1569021  11.28  0.000310475    1.064    0.060
        53  -9.9246    170.1155     23.5229   6.3696555179e+01   3.9955291912e+01    0.2308893    0.1790657   7.56  0.001329335    1.906    0.475
        54  -8.8130     78.8190     23.5773   8.3019697625e+01   5.9806712909e+01    0.2403988    0.1865502  14.16  0.000726446    1.199    0.166
        55  -9.7147    113.6565    236.5572   1.2436053754e+02   8.9758551453e+00    0.2956909    0.2177454  77.53  0.001448756    1.513    0.339
        56  -8.0791     84.9663     21.3349   8.0383480294e+01   5.8901905526e+01    0.1692935    0.1319539  40.27 0.0004020742    1.115    0.103
        57 -10.0962     98.1454    235.6196   1.2754935061e+02   1.1684091426e+01    0.2624322    0.1700522  26.84  0.001309757    1.894    0.472
        58  -9.9705     74.8107     17.4129   8.1926956538e+01   6.1180957408e+01    0.2020285    0.1792019  15.51  0.000313483    1.132    0.116
        59  -9.5114    174.0191     26.1851   6.3812425598e+01   3.8741478535e+01    0.2261384     0.133287 -81.93  0.001093767    2.018    0.504
        60  -8.8430    190.0088     15.4302   5.9227787198e+01   3.6234267908e+01    0.2194517    0.1809985 -50.98 0.0007170739    1.311    0.237
        61 -11.7583    186.2456    230.4185   1.0794373029e+02  -2.1872167774e+00    0.8368604     0.654684 -69.51  0.004572715    1.824    0.452
        62  -9.9954    249.9346    193.3771   8.8816181053e+01  -5.9122972224e+00    0.5231822    0.2071017 -32.59  0.002138861    2.597    0.615
        63  -7.5568      5.4344    228.5968   1.4545746886e+02   2.5296284960e+01    0.1152262   0.08578643  80.34 9.032947e-05    1.025    0.025
        64 -10.4640     88.3723    231.4335   1.2911995958e+02   1.4108892138e+01    0.3611796    0.2611034 -78.79  0.002027565    1.407    0.289
