#   1 NUMBER                 Running object number                                     
#   2 MAG_AUTO               Kron-like elliptical aperture magnitude                    [mag]
#   3 X_IMAGE                Object position along x                                    [pixel]
#   4 Y_IMAGE                Object position along y                                    [pixel]
#   5 X_WORLD                Barycenter position along world x axis                     [deg]
#   6 Y_WORLD                Barycenter position along world y axis                     [deg]
#   7 A_WORLD                Profile RMS along major axis (world units)                 [deg]
#   8 B_WORLD                Profile RMS along minor axis (world units)                 [deg]
#   9 THETA_WORLD            Position angle (CCW/world-x)                               [deg]
#  10 FWHM_WORLD             FWHM assuming a gaussian core                              [deg]
#  11 ELONGATION             A_IMAGE/B_IMAGE                                           
#  12 ELLIPTICITY            1 - B_IMAGE/A_IMAGE                                       
         1  -8.9148    119.0343     32.6388   7.1095220601e+01   5.1366842208e+01    0.3285248    0.1681217 -36.09  0.001243319    1.942    0.485
         2  -7.8816     83.5206     11.0737   7.2133987826e+01   6.1572156420e+01    0.1748433    0.1001348 -46.52 0.0008063291    2.432    0.589
         3  -8.5406     55.8334     10.0869   8.1434372401e+01   6.6376621411e+01     0.177422    0.1516857 -28.59 0.0006325797    1.313    0.239
         4  -7.8845     47.4629     10.1861   8.4872992368e+01   6.7542051591e+01    0.1646152     0.100578 -41.50 0.0009369936    1.727    0.421
         5  -8.1799     90.9670      9.0607   6.8958755882e+01   6.0353725014e+01    0.1939566      0.15825 -55.41 0.0008534151    1.707    0.414
         6  -7.5937    101.4373      8.4722   6.5785605138e+01   5.8247860733e+01    0.1318018    0.1206248  10.16 8.581042e-05    1.083    0.077
         7  -7.5563     12.6880      8.3600   1.0012758283e+02   7.1476794514e+01   0.09700883   0.08373248 -66.06 0.0007042178    1.746    0.427
         8  -8.6231     33.4025      5.0359   8.8500845926e+01   7.0022021958e+01    0.2880531    0.1701363 -53.98  0.001470636    2.996    0.666
         9  -8.3936     79.1691      3.9404   7.0154126964e+01   6.3204087862e+01    0.1889836    0.1592253 -29.75 0.0009864863    1.350    0.259
        10  -7.5899     44.7089      3.3145   8.2598179908e+01   6.8850812504e+01    0.1043043   0.08925924 -40.54 0.0003070995    1.593    0.372
        11  -7.9737     15.5690      3.5036   9.6431391602e+01   7.2024236127e+01    0.1129122    0.0815424 -26.90 0.0001009407    1.010    0.010
        12  -8.3508     62.2732      1.4892   7.4694602525e+01   6.6446106886e+01    0.1892443    0.1180872  48.54  0.000603897    1.856    0.461
        13  -7.4577     39.2927      1.6371   8.4084589316e+01   6.9780899685e+01    0.1056106   0.08710457 -44.10 0.0007028862    1.704    0.413
        14  -8.5396     67.4179    244.6781   1.2526773927e+02   1.8063077727e+01    0.1766706   0.08873491 -81.05  0.001128337    2.104    0.525
        15  -9.2931    211.3573    247.4306   1.0182802715e+02  -4.0636107383e+00    0.3149962    0.2107779 -52.36  0.001670011    2.498    0.600
        16  -8.6554     93.5507    249.1035   1.2145568393e+02   1.3878840025e+01    0.2410149     0.121801  75.84  0.001196327    2.466    0.594
        17  -7.5740     86.2817    250.6591   1.2273374295e+02   1.4645582887e+01    0.1097079   0.06044893  67.64  0.000474795    1.629    0.386
        18  -9.5581    248.5313    242.5346   9.5120926821e+01  -9.1952649894e+00     0.214507     0.187915 -30.81  0.001036247    1.714    0.417
        19  -8.7864    201.9960    242.8315   1.0273785158e+02  -2.0817241602e+00    0.2476988    0.1697467 -35.29  0.001056387    1.861    0.463
        20  -8.8488    169.0893    243.3820   1.0833862013e+02   3.1494465675e+00    0.1784502    0.1617264  82.56 0.0005002253    1.385    0.278
        21  -7.9571    139.3462    244.6585   1.1350340980e+02   7.7182717712e+00    0.1183675   0.07243607  65.59 0.0007046352    1.790    0.441
        22  -9.4868     77.7637    242.8274   1.2349154452e+02   1.7003606542e+01    0.2792494     0.153189  84.62  0.001743456    1.951    0.488
        23  -8.7439     88.1628    242.5976   1.2179395679e+02   1.5626202413e+01    0.1761799    0.1184853  82.43 0.0007921244    1.430    0.301
        24  -9.3813    183.0961    240.1648   1.0555436576e+02   1.2846262270e+00    0.3839127    0.2424229  69.38  0.001750464    2.737    0.635
        25  -9.4058    160.0615    240.3024   1.0949278839e+02   5.0138484699e+00    0.2749887    0.1993774 -82.06  0.001514511    2.064    0.516
        26  -8.0028    153.5220    242.0422   1.1081378373e+02   5.8323458228e+00    0.1417504    0.1148497 -63.34  0.001021709    1.593    0.372
        27  -7.4451     49.3286    242.6496   1.2794754052e+02   2.0619962495e+01      0.11298    0.0528619  66.68 0.0007048324    1.765    0.433
        28  -7.8880    214.3013    241.6459   1.0052937468e+02  -3.9007799825e+00    0.1024673   0.08418628  61.59 0.0007038283    1.704    0.413
        29  -8.4911    146.9313    240.2846   1.1173050318e+02   7.1303574882e+00    0.2928124     0.156679  70.36  0.001354743    3.369    0.703
        30  -9.0316    241.1580    238.7755   9.5721984192e+01  -7.7427250661e+00     0.328875    0.1656546  -5.58  0.001666882    3.042    0.671
        31  -9.0555    194.3224    239.2953   1.0353692693e+02  -4.3470242198e-01    0.2353736      0.17311 -11.35  0.001054287    1.748    0.428
        32  -8.9982    135.3804    238.9534   1.1355119929e+02   9.1551872338e+00    0.2010456    0.1262642  61.27 0.0007528281    1.509    0.337
        33  -8.0862    129.0578    238.8206   1.1461486640e+02   1.0165834081e+01    0.1906895    0.1018215  62.16  0.001056664    1.970    0.492
        34  -8.3005     40.7816    239.0504   1.2904895535e+02   2.2200720804e+01    0.1251477   0.06761679 -83.60 0.0006500794    1.698    0.411
        35  -8.5337    189.9856    246.4501   1.0522471559e+02  -5.8324455589e-01    0.1744391   0.08663781  41.75 0.0004967547    1.521    0.342
        36  -8.7041    230.8946    237.2926   9.7159454330e+01  -6.0285029961e+00    0.2161339    0.1914138 -84.76  0.001099051    2.117    0.528
        37  -8.2511    209.1773    238.2643   1.0089508282e+02  -2.7115134797e+00     0.147496    0.1198761  48.24  0.000689353    1.346    0.257
        38  -8.7101     13.7968    238.5677   1.3305852753e+02   2.5170385197e+01    0.1385176   0.05766888  54.13 0.0008721498    1.697    0.411
        39  -9.2222    247.7020    234.8553   9.4063769454e+01  -8.3365660841e+00    0.2664444    0.2249335 -40.80  0.001478591    1.869    0.465
        40  -9.4632    246.4871    229.3856   9.3389130079e+01  -7.6077378020e+00    0.3799275    0.2228285 -24.49  0.001795521    1.867    0.464
        41  -8.2574     58.7593    237.1747   1.2612323667e+02   2.0364463899e+01    0.2331643   0.04127871  45.48  0.001003011    3.576    0.720
        42  -8.2708     25.3611    236.5380   1.3125581944e+02   2.4312490907e+01    0.1928777   0.06408193  86.49 0.0009479274    3.495    0.714
        43  -9.7079    214.7715    233.2325   9.9219224143e+01  -3.0399950162e+00    0.4443441     0.325004 -87.08  0.002276909    3.754    0.734
        44  -9.0970    203.2964    234.1988   1.0129807520e+02  -1.2893717317e+00    0.3342758    0.1991381 -38.24  0.001470349    2.110    0.526
        45  -9.7291    175.7636    233.4308   1.0591303717e+02   3.3532455175e+00    0.3762984    0.2106985 -57.96  0.002044874    2.790    0.642
        46  -7.7796    170.1995    235.9363   1.0720481167e+02   3.9414818242e+00    0.1253701     0.095169 -47.58 0.0004678553    1.699    0.411
        47  -8.3877    122.8650    234.4851   1.1521354432e+02   1.1781793901e+01    0.2084901    0.1357668  87.02 0.0008973602    1.942    0.485
        48  -9.3492    108.7847    234.5166   1.1763062188e+02   1.3924485880e+01    0.3738351    0.1696544  56.99  0.001074491    1.983    0.496
        49  -8.5234     99.6408    234.6096   1.1919312717e+02   1.5259509884e+01    0.2276486    0.1199099  68.04  0.001288983    2.014    0.503
        50  -9.0956     78.8922    234.5836   1.2266344009e+02   1.8178377415e+01    0.2417214    0.1253161  66.45 0.0009550804    1.764    0.433
        51  -9.8138     68.3510    232.3542   1.2422719484e+02   1.9944118789e+01    0.4422814    0.1763491  67.91  0.002138374    3.009    0.668
        52  -8.5509    194.5330    232.5094   1.0254952078e+02   3.5604681164e-01    0.2291414    0.1698714 -35.23  0.001543712    1.684    0.406
        53  -8.4101    145.1810    233.4169   1.1122707060e+02   8.3931781776e+00    0.2723543     0.126046  60.97  0.001229255    2.923    0.658
        54  -9.1992    139.9804    230.6511   1.1180713212e+02   9.6453503749e+00    0.2174907    0.1871558 -77.67 0.0007459088    1.377    0.274
        55  -8.5619    132.6753    233.0481   1.1335923345e+02   1.0458247034e+01    0.1742224    0.1289815  77.90  0.001115522    1.486    0.327
        56  -9.3444    186.5654    230.9441   1.0370060808e+02   1.8781091790e+00    0.2742652    0.2038299  83.30  0.001229822    2.298    0.565
        57  -7.9803    157.8257    232.0233   1.0885034953e+02   6.5210444109e+00    0.1714947    0.1236223  80.54 0.0007222494    1.908    0.476
        58  -8.2871     92.1213    231.5665   1.2018910724e+02   1.6834979744e+01    0.2360249     0.117512  63.31  0.001332784    1.913    0.477
        59  -9.2257    236.0672    230.3601   9.5240592533e+01  -6.1050461975e+00    0.2566789    0.1714476 -28.37  0.001213474    1.741    0.426
        60  -8.8514      1.8287    231.1305   1.3449923599e+02   2.7548866458e+01    0.1549613   0.08278231  69.28 0.0007085346    1.273    0.214
        61 -10.0162    149.6302    226.1208   1.0954684145e+02   8.7374534608e+00    0.5300087    0.3107739 -86.14  0.002355246    3.883    0.742
        62  -7.8364    229.9657    228.9701   9.6028191528e+01  -4.9969211304e+00    0.1595188    0.1397783  62.32 0.0007762825    1.723    0.420
        63  -8.6837    162.4694    228.3023   1.0755430252e+02   6.2749673238e+00    0.2900047    0.1551511  63.74  0.001009108    2.764    0.638
        64  -8.7380    127.9401    227.3776   1.1354610769e+02   1.2084421742e+01    0.2694952    0.1655622  68.99  0.001105113    1.827    0.453
        65  -8.2958    119.9703    227.7339   1.1499033282e+02   1.3287033328e+01    0.1969457    0.1370558  87.36 0.0009821419    1.655    0.396
        66  -8.0885    223.4589    226.5171   9.6729288670e+01  -3.6811986018e+00    0.2841192    0.1508975  -4.18  0.001305594    3.343    0.701
        67  -9.0233    225.7565    221.8316   9.5596166184e+01  -3.5190079918e+00    0.2553889    0.1801515  48.48  0.001037951    1.530    0.346
        68  -8.0146    214.8178    227.4006   9.8326740043e+01  -2.3747281944e+00    0.1657516    0.1192228  17.69 0.0005995224    1.323    0.244
        69  -8.6714    216.4594    223.8034   9.7488063255e+01  -2.2211643144e+00    0.2082516    0.1754202  56.89 0.0008976905    1.532    0.347
        70  -8.4858    200.3174    225.9890   1.0059843703e+02   2.0345726518e-01    0.2322847    0.1482343 -40.64 0.0008501034    1.964    0.491
        71  -8.2382     49.6433    227.2905   1.2692557662e+02   2.3134335976e+01    0.1796519   0.08648861  67.24  0.001100889    1.778    0.437
        72  -9.1839     94.1901    224.0853   1.1913715927e+02   1.7780789689e+01    0.3729815    0.1828568  72.07   0.00172589    2.639    0.621
        73  -8.7382    180.7015    224.3651   1.0379182961e+02   3.7373884753e+00    0.2073746    0.1665166  65.19 0.0005973693    1.470    0.320
        74  -8.9131    104.7586    223.6962   1.1724261849e+02   1.6282331121e+01    0.3082193     0.179245  84.17   0.00172091    2.175    0.540
        75  -7.8465     38.4406    224.9456   1.2858681259e+02   2.4839721188e+01    0.1492367   0.06232775  77.02 0.0008065356    2.449    0.592
        76  -8.4554    173.1212    223.5583   1.0502108776e+02   5.1418730397e+00    0.1784194    0.1636292  88.54 0.0006241031    1.356    0.262
        77  -7.7227    114.1078    224.1572   1.1563696274e+02   1.4777076451e+01      0.16242    0.1131299  67.92 0.0005541981    1.325    0.245
        78  -7.9152     53.7181    234.3569   1.2673814857e+02   2.1449649042e+01    0.1119227   0.05705247  69.31 0.0007016399    1.666    0.400
        79  -9.3617    192.3519    221.3131   1.0128689525e+02   2.1553927210e+00    0.2876612    0.2282059  85.08  0.001082896    2.004    0.501
        80  -7.9426    192.7912    216.3983   1.0045883147e+02   2.7365475894e+00    0.1953623    0.1345716  14.90 0.0004575545    1.727    0.421
        81  -8.1112    140.4256    223.1822   1.1082284698e+02   1.0711009409e+01    0.1483912    0.1102575 -81.75 0.0005435846    1.680    0.405
        82  -8.9348    239.0716    221.6534   9.3342428416e+01  -5.6427793228e+00    0.1900416     0.182681 -89.76 0.0008705772    1.725    0.420
        83  -8.9589    159.8451    221.0432   1.0704995945e+02   7.7714428388e+00    0.4019414    0.1852808  57.74   0.00169575    2.694    0.629
        84  -9.2677      7.6172    222.1433   1.3326843978e+02   2.8524154820e+01    0.2318346   0.05371603  50.49  0.001256027    2.791    0.642
        85  -9.4318    120.4167    219.3381   1.1396857671e+02   1.4578749922e+01    0.4321925    0.2095337  65.30  0.001741942    2.764    0.638
        86  -8.7928     82.6101    220.6633   1.2084055846e+02   2.0014665612e+01     0.288853    0.1538424  69.53  0.001476875    1.883    0.469
        87  -8.3322     72.9232    220.8458   1.2253820231e+02   2.1305310475e+01    0.2197004     0.112445  76.61  0.001098178    2.123    0.529
        88  -8.3333     27.6570    220.9099   1.3007889845e+02   2.6723698460e+01    0.1841964   0.07040796 -69.05  0.001083124    2.491    0.599
        89  -8.2520    202.6438    220.2206   9.9313427039e+01   5.3920141036e-01    0.1450938    0.1103333 -15.64 0.0004449136    1.539    0.350
        90  -7.3641     16.3009    220.6570   1.3185964877e+02   2.7936868232e+01    0.1094039   0.05039613  68.39 0.0004358588    1.676    0.403
        91  -8.6025    249.4681    218.6310   9.1133312774e+01  -6.9490779555e+00    0.2561378    0.1723515  61.44  0.001373897    2.905    0.656
        92  -8.9842    206.3365    225.6885   9.9514246614e+01  -7.6657813503e-01    0.2904445     0.209334 -42.72  0.001202208    1.806    0.446
        93  -8.2539    210.3610    219.3073   9.7826785832e+01  -6.5560246486e-01    0.1874189    0.1338953  54.17 0.0005587872    1.607    0.378
        94  -8.7097    179.1424    217.4743   1.0306561339e+02   4.9611629611e+00    0.1722009    0.1465107 -51.99 0.0006290334    1.479    0.324
        95  -9.2706    133.0589    216.1215   1.1127836110e+02   1.3053819623e+01    0.4673256    0.2604828  75.89   0.00211104    3.100    0.677
        96  -8.8110     62.1219    217.4001   1.2411700314e+02   2.3322438787e+01    0.2698264    0.1357111  73.59  0.001179779    1.979    0.495
        97  -9.1206     51.5279    217.1466   1.2590683591e+02   2.4681579163e+01    0.2593982    0.1358979  81.93  0.001008287    1.800    0.444
        98  -8.7245    142.9186    216.5097   1.0952062799e+02   1.1343035130e+01    0.2157201    0.1611164  88.09 0.0009362968    1.659    0.397
        99  -8.2067    111.7709    217.2052   1.1529229286e+02   1.6298856761e+01    0.1994975    0.1029408  70.87 0.0009361514    2.679    0.627
       100  -8.3916     18.4996    216.0742   1.3127955719e+02   2.8521320661e+01    0.1487384   0.07807808 -84.49  0.001029261    1.579    0.367
       101  -8.6936    232.1897    214.6674   9.3329065072e+01  -3.7443966898e+00    0.2026937    0.1903604 -80.18 0.0009688475    1.722    0.419
       102  -8.4059    185.6749    214.5885   1.0145450560e+02   4.2271694682e+00    0.1800595    0.1522712 -83.41 0.0008074557    1.676    0.403
       103  -8.2542    154.0903    215.0593   1.0727635878e+02   9.6659675816e+00    0.1892554    0.1346873  70.08 0.0006406668    1.653    0.395
       104  -9.2451     93.0835    213.7914   1.1831537727e+02   1.9720581053e+01    0.3467301    0.2092717  86.32  0.001451836    1.847    0.459
       105  -7.8271     41.3425    215.6449   1.2751733837e+02   2.6147138522e+01    0.1197887   0.05695834  67.89 0.0007038942    1.819    0.450
       106  -9.5806    214.0622    212.2732   9.6043030429e+01  -4.0299814521e-01    0.3433565     0.257971  58.76  0.001409716    1.714    0.417
       107  -9.5702     73.5305    212.1972   1.2167759522e+02   2.2760045412e+01    0.6238976     0.218255  61.34  0.002562839    3.593    0.722
       108  -8.2518    224.8846    212.8692   9.4269616872e+01  -2.3162255423e+00    0.1656016    0.1489545  71.88  0.001110363    1.678    0.404
       109  -8.6503    161.7345    212.6415   1.0552931871e+02   8.7125336724e+00    0.2105653    0.1711437 -74.97 0.0008478059    1.568    0.362
       110  -8.0860    106.1950    212.8523   1.1582432464e+02   1.7912579686e+01    0.1851238    0.1311132  67.87 0.0006243525    1.263    0.208
       111  -7.8688    242.6000    212.2007   9.1165629099e+01  -5.1582663294e+00    0.1520583    0.1012981  -8.30 0.0005537188    1.549    0.354
       112  -9.0237    204.3080    211.1068   9.7568761402e+01   1.4383041458e+00      0.24887    0.2099401 -65.89 0.0009465712    1.762    0.432
       113  -9.4522    175.7372    210.2753   1.0260156290e+02   6.6015026513e+00    0.3635158    0.2556747  78.33  0.001202798    2.263    0.558
       114  -9.3852      6.4766    208.9772   1.3284574572e+02   3.0945200040e+01    0.2746554   0.09371002  79.83  0.001413353    2.862    0.651
       115  -8.2339    192.3069    210.6138   9.9637280884e+01   3.6152289155e+00    0.1941735    0.1508859 -54.12  0.000884941    1.712    0.416
       116  -8.7347    148.0860    210.6290   1.0777433056e+02   1.1402773722e+01    0.2549823    0.1775117  77.34  0.001431534    1.860    0.462
       117  -8.9597    116.1716    210.2024   1.1367362485e+02   1.6805334984e+01    0.2755433    0.1842985  84.55 0.0008214797    1.739    0.425
       118  -8.5953     85.3867    209.2005   1.1925173770e+02   2.1657026499e+01    0.3101512    0.1575933  80.23  0.001516817    2.620    0.618
       119  -8.7156    169.1332    216.2766   1.0470007852e+02   6.8754548618e+00    0.2340019    0.1906708 -76.76 0.0008801004    1.638    0.390
       120  -8.2373     32.1881    209.8577   1.2867636495e+02   2.8212143235e+01    0.2208319   0.06869209 -82.26  0.001014038    3.404    0.706
       121  -9.0582    236.4450    208.3373   9.1527410011e+01  -3.7058068928e+00    0.2544089    0.2283727 -69.86  0.001047601    1.880    0.468
       122  -9.4448    246.4775    207.2345   8.9656904465e+01  -5.2222470389e+00    0.2581437    0.1954931  -9.32 0.0007407845    1.279    0.218
       123  -9.8069    249.7351    201.8884   8.8163647922e+01  -5.1389077867e+00    0.3166055     0.214904 -19.75  0.001343701    1.476    0.322
       124  -7.8958    156.4466    208.1829   1.0586649538e+02   1.0336920813e+01    0.1539686    0.1199471 -74.67 0.0008709268    1.632    0.387
       125  -8.3079    139.2315    208.1273   1.0908900057e+02   1.3335252364e+01    0.2297405    0.1369966  64.58 0.0007889488    1.925    0.481
       126  -8.4059    126.3894    208.2878   1.1152502800e+02   1.5470856223e+01    0.1567428    0.1122043 -78.94 0.0008244503    1.627    0.385
       127  -9.2569     99.3427    205.9894   1.1632848406e+02   2.0182841036e+01    0.3456297    0.1923444  79.04  0.001598919    2.322    0.569
       128  -8.5726     56.4678    205.4947   1.2414582932e+02   2.6201713853e+01    0.2653906    0.1179949  69.22  0.001080671    2.402    0.584
       129  -9.4002    194.6860    203.6127   9.8065830386e+01   4.1775974983e+00    0.3206141    0.3007105 -32.51  0.001149594    1.276    0.217
       130  -9.1176    192.3274    197.3838   9.7449750885e+01   5.5124108213e+00    0.3071116    0.2467917 -68.03  0.001248698    1.781    0.438
       131  -8.9495    183.9508    204.2410   1.0014025025e+02   6.0243610448e+00    0.2926606    0.1871145  62.70 0.0008176435    2.046    0.511
       132  -8.9557    131.2905    204.2778   1.1007273364e+02   1.5340796124e+01    0.3456021     0.191151  68.96  0.001268788    2.528    0.605
       133  -8.2090    109.3682    205.2538   1.1435793099e+02   1.8761439860e+01    0.1609873    0.1069893 -80.61 0.0006329355    1.683    0.406
       134  -7.9095     92.5015    205.5448   1.1755829921e+02   2.1289514932e+01     0.122712   0.09422893  67.66 0.0001567259    1.063    0.059
       135  -8.2697     24.8231    205.5885   1.2965182739e+02   2.9772584574e+01    0.1432449   0.07187598  54.53 0.0008065653    1.600    0.375
       136  -9.6056    163.6978    202.9967   1.0372932139e+02   9.8731002344e+00     0.354611    0.2426659  66.75 0.0009430224    1.780    0.438
       137  -8.1910    211.0784    202.2112   9.4868766127e+01   1.4340563811e+00    0.2032926    0.1653678 -72.38 0.0006416093    2.024    0.506
       138  -8.0846     41.3226    203.0089   1.2663791440e+02   2.8466158297e+01    0.1797573   0.06565457  83.47 0.0007040427    4.218    0.763
       139  -9.3430    243.0597    200.6654   8.9053133963e+01  -3.8963388048e+00    0.2864046    0.1714191 -29.25 0.0009482343    1.771    0.435
       140  -8.0626    222.1657    201.5364   9.2791281242e+01  -4.3278853812e-01    0.1925853    0.1436639 -58.47 0.0007236139    2.211    0.548
       141  -8.6721    140.4578    201.1885   1.0789172943e+02   1.4297513477e+01    0.2862321     0.191522  84.48  0.001052917    2.099    0.524
       142  -8.6127     80.0323    201.4980   1.1946495227e+02   2.3837506297e+01    0.2770406     0.139842  71.80  0.001385578    2.310    0.567
       143  -8.4654     48.2391    201.7197   1.2531312373e+02   2.7906787421e+01    0.2702176    0.1202465  75.98  0.001371325    2.496    0.599
       144  -8.3992     10.5540    202.6760   1.3186971966e+02   3.1711155214e+01    0.1628027   0.07992039  41.62  0.001084753    1.996    0.499
       145  -9.2566    236.9762    198.7471   8.9734021664e+01  -2.6389955052e+00    0.2775126    0.1692226 -35.33  0.001072293    1.858    0.462
       146  -9.4711    149.6701    198.7711   1.0576534396e+02   1.3083774087e+01    0.3903347    0.2564154  82.08  0.001364062    2.357    0.576
       147  -8.9366    124.0332    199.4376   1.1081729975e+02   1.7416120691e+01    0.2816902     0.182588  87.79  0.001294818    2.029    0.507
       148  -9.3491    112.9442    198.5924   1.1285344731e+02   1.9397498464e+01    0.4335954    0.2478433  74.93  0.001793182    2.342    0.573
       149  -9.2474     88.7811    198.8801   1.1753486873e+02   2.3075424326e+01    0.3396059    0.1928834  77.78  0.001784008    2.030    0.507
       150  -8.4932    176.9153    199.1310   1.0062310009e+02   8.0799150498e+00    0.1910583    0.1636939  62.68 0.0005508165    1.268    0.211
       151  -8.2317    202.4226    198.2577   9.5744731277e+01   3.5382682326e+00    0.2003865    0.1511546  60.74 0.0008007451    1.639    0.390
       152  -9.2222     61.5210    197.1286   1.2249914903e+02   2.7149122028e+01    0.3820809    0.1835903  68.88  0.001518653    2.178    0.541
       153  -8.1313     12.6056    197.3902   1.3124117015e+02   3.2499581269e+01    0.2676553   0.09329719  84.64  0.001314024    2.946    0.661
       154  -8.6425    215.8754    195.6268   9.2852211591e+01   1.4672749106e+00    0.2168567    0.1671905 -54.38 0.0007504688    1.861    0.463
       155  -8.3107    132.9908    195.7809   1.0856823598e+02   1.6542585713e+01    0.2133161    0.1575415 -84.15 0.0006425808    1.602    0.376
       156  -7.9969     53.3274    196.6363   1.2397248876e+02   2.8264877387e+01    0.1260998   0.06596878  70.38 0.0002629526    1.799    0.444
       157  -9.3759    245.8444    193.8295   8.7332210098e+01  -3.5407831074e+00    0.2901573      0.24872  75.71  0.001572232    2.018    0.504
       158  -8.7006    224.3992    194.1366   9.1071426469e+01   1.4115768422e-01    0.2496796    0.1772631 -41.47  0.001031224    1.729    0.422
       159  -8.9595    185.2993    194.6181   9.8290248109e+01   7.2294017723e+00    0.2776128    0.2190356 -71.59  0.001091211    1.811    0.448
       160  -9.0068    161.0601    194.5015   1.0290285419e+02   1.1737917473e+01    0.2835597    0.1972634  68.31 0.0009181937    1.759    0.431
       161  -8.9117     43.8542    193.5310   1.2545718907e+02   2.9984343761e+01    0.3696726    0.1634369  70.12  0.001877381    2.358    0.576
       162  -8.1551    230.9188    194.1588   8.9937070460e+01  -1.0136240523e+00    0.1785337    0.1654137  33.98 0.0006885257    1.288    0.224
       163  -8.5852     76.9310    193.7481   1.1925132779e+02   2.5748824401e+01    0.2194946     0.147936 -89.35 0.0006841859    1.397    0.284
       164  -7.9294    198.9748    191.9241   9.5264767172e+01   5.0903444847e+00    0.1845667    0.1584688  81.26 0.0006340149    1.613    0.380
       165  -8.4189    179.0290    191.5220   9.8950452556e+01   8.8848667910e+00    0.1849156    0.1775437 -34.57  0.000551926    1.197    0.165
       166  -8.5379    172.2315    191.7063   1.0028631069e+02   1.0128070320e+01    0.2568059    0.1974405  85.27  0.001064422    1.830    0.454
       167  -9.0717    139.5371    190.8036   1.0654576495e+02   1.6282429268e+01    0.3491009    0.2144069  72.55  0.001088881    2.279    0.561
       168  -9.0204     22.2578    191.8822   1.2923563864e+02   3.2612407595e+01    0.3602786   0.06979646  52.19  0.001496456    4.074    0.755
       169  -8.7383      6.5512    191.2563   1.3193728938e+02   3.4208368393e+01    0.2011979   0.07735129 -86.17  0.001140429    2.143    0.533
       170  -7.4512    205.3084    191.7078   9.4058934786e+01   3.9465254124e+00    0.1200698    0.1019039  70.96 0.0002510436    1.582    0.368
       171 -10.4129     91.9550    188.6955   1.1574289781e+02   2.4559065951e+01    0.8568774    0.2358279  52.10  0.003019028    3.929    0.745
       172  -8.2077     90.3158    182.3029   1.1528636056e+02   2.6069183963e+01    0.2344736    0.1583467 -37.95  0.001237545    2.379    0.580
       173  -8.3132    148.5235    189.5076   1.0456346797e+02   1.4891486904e+01     0.223345    0.1650564  78.79 0.0008262602    1.667    0.400
       174  -8.4190    237.2330    188.4556   8.7783305676e+01  -1.3865251728e+00    0.2159718    0.1637188 -19.36 0.0005531812    1.328    0.247
       175  -8.7512    216.6592    188.2044   9.1354732892e+01   2.3500949335e+00    0.2344994         0.21  82.54 0.0008517711    1.610    0.379
       176  -8.9244    191.8643    187.8689   9.5869861897e+01   7.0381557882e+00    0.3430514    0.2483827 -81.65  0.001327311    2.538    0.606
       177  -9.4458    156.0589    187.5932   1.0276251506e+02   1.3839187536e+01    0.3529938     0.224894 -63.88 0.0009533487    2.051    0.512
       178  -8.9721    129.1842    188.6831   1.0829300874e+02   1.8495050657e+01     0.266151    0.1955602  74.81 0.0008967798    1.470    0.320
       179  -9.7848    120.9030    186.8523   1.0969228907e+02   2.0264708042e+01    0.4939103    0.2695657 -78.24   0.00215449    2.852    0.649
       180  -8.9461     34.3030    188.5163   1.2682200715e+02   3.2022195263e+01    0.2516341    0.1260152  70.78 0.0009890988    1.811    0.448
       181  -9.3294    248.7027    185.4099   8.5260018912e+01  -2.9902986942e+00    0.3251048    0.2562908 -23.36  0.001585903    1.321    0.243
       182  -8.0924    230.5139    187.4887   8.8763459933e+01  -6.8482889040e-02    0.1992386    0.1169323 -43.18 0.0009243491    2.137    0.532
       183  -9.1284     54.6848    186.9296   1.2285212545e+02   2.9997262369e+01    0.3693243    0.1760847  76.23  0.001623695    2.402    0.584
       184  -8.7442    165.0046    186.8075   1.0086635854e+02   1.2300025781e+01    0.2510487    0.2095359  84.02 0.0009920178    1.449    0.310
       185  -9.1245    109.5870    186.1377   1.1187838421e+02   2.2289458384e+01    0.3428299    0.2094453  74.19  0.001119231    1.968    0.492
       186  -8.8954    182.8863    184.9578   9.7060897413e+01   9.2070126743e+00    0.2730162    0.1967891 -43.66 0.0007820192    1.577    0.366
       187  -8.8693    210.1844    184.1799   9.1778315991e+01   4.1308635902e+00    0.2687534    0.1841044 -32.81 0.0006758997    1.587    0.370
       188  -9.1253     66.8502    184.5565   1.2024998338e+02   2.8925860265e+01    0.3564935    0.1818563  61.59  0.001276772    1.892    0.471
       189  -8.5592    224.0428    183.5241   8.9149509321e+01   1.6445918081e+00    0.2206895    0.1775201 -45.54 0.0006325126    1.580    0.367
       190  -8.2165    197.3365    183.8740   9.4109655990e+01   6.6135304315e+00    0.2379208    0.1200828 -47.67 0.0009079229    2.482    0.597
       191  -8.9287    174.2111    183.6353   9.8510639224e+01   1.1085450407e+01    0.2641474    0.2089322  81.65 0.0007914928    1.683    0.406
       192  -8.9576     44.5474    182.4868   1.2439965777e+02   3.2084436751e+01    0.3213536      0.16003  68.10  0.001098981    1.943    0.485
       193  -8.0096      1.7421    183.6055   1.3235868171e+02   3.6084798159e+01    0.1377545   0.07219486  53.62 0.0009431603    1.638    0.390
       194  -9.1637    147.5826    180.7219   1.0332688458e+02   1.6643108048e+01    0.3235451    0.2241372  76.35  0.001122458    1.895    0.472
       195  -9.5597     25.8490    179.3239   1.2770500957e+02   3.4717628386e+01    0.5619704    0.1994108  78.08  0.002244601    4.108    0.757
       196  -8.8972    235.0991    179.3854   8.6403962933e+01   1.9059692392e-01    0.3305337    0.1663805 -37.36  0.001591362    2.152    0.535
       197  -8.5586    231.2287    177.2222   8.6653607070e+01   1.1938783448e+00    0.2135273    0.2074441  74.24 0.0006631897    1.405    0.288
       198  -8.5880    137.5449    179.3448   1.0515260381e+02   1.8749035280e+01    0.2790127    0.1901597  78.92 0.0009243326    1.919    0.479
       199  -9.3915    191.4862    178.3106   9.4183667760e+01   8.6168278150e+00    0.3065581    0.2506888  75.44 0.0005735463    1.617    0.382
       200  -9.2352    240.9752    181.3915   8.5785280276e+01  -1.1300470478e+00    0.3090729    0.2003417 -49.90  0.001579856    2.347    0.574
       201  -9.1078     35.8151    176.8399   1.2560163911e+02   3.4190063634e+01    0.4764963    0.1796935  82.42  0.001871506    4.036    0.752
       202  -9.5633    248.4032    176.5680   8.3579633777e+01  -1.8152651689e+00    0.4118069    0.2661595 -42.95  0.002016395    1.961    0.490
       203  -8.6016    250.4984    172.9060   8.2497008243e+01  -1.7094201122e+00    0.2306895     0.173637 -26.25 0.0007057327    1.338    0.252
       204  -8.6853    217.5985    177.2612   8.9096052431e+01   3.7402621464e+00    0.2615029    0.1921933 -52.66 0.0008318757    1.853    0.460
       205  -8.7470    205.0775    177.6699   9.1484218820e+01   6.0784028918e+00    0.2545519    0.2196238 -58.99  0.001007966    1.506    0.336
       206  -8.7291    129.2847    177.5431   1.0657050974e+02   2.0583015252e+01    0.2797058    0.1930651  79.99 0.0008486859    1.793    0.442
       207  -8.2337     97.5310    177.6040   1.1319057483e+02   2.5906926231e+01    0.2064103    0.1591589   9.53   0.00111301    2.238    0.553
       208  -9.2709    183.2311    176.3856   9.5422831479e+01   1.0546376126e+01    0.2595379    0.2233797  86.30 0.0004847313    1.482    0.325
       209  -9.2393    158.9475    175.1736   1.0005574850e+02   1.5496731089e+01    0.4151323    0.2782298  82.95  0.001621644    2.445    0.591
       210  -8.7127     89.0041    176.9971   1.1488106399e+02   2.7337163748e+01    0.2615897    0.1596414  72.75 0.0008879969    1.776    0.437
       211 -10.0043     57.3700    173.3796   1.2097777534e+02   3.2418063182e+01    0.7453623    0.3147343  80.07  0.002734425    4.325    0.769
       212  -8.7061     12.8607    176.8307   1.2995579096e+02   3.6444267115e+01    0.2583468    0.1138077  68.57  0.001101406    2.055    0.513
       213  -8.8410    202.7895    184.6974   9.3241479627e+01   5.4508567835e+00    0.2325262    0.1853871 -53.07 0.0006810156    1.610    0.379
       214  -9.4322    104.3487    174.7711   1.1136947503e+02   2.5392234820e+01    0.4764249    0.2486044  70.65  0.001880366    2.870    0.652
       215 -10.6543     76.0540    169.5084   1.1664213240e+02   3.0763788407e+01     1.258479    0.4345093 -69.60  0.004962199    3.241    0.691
       216  -8.2115    224.3949    174.2360   8.7272522744e+01   2.8906996789e+00    0.1771942     0.122816 -41.38 0.0009457401    1.667    0.400
       217  -8.1929    193.7951    173.0018   9.2722940250e+01   9.0209669686e+00    0.2126697    0.1428244  25.39  0.001053032    1.624    0.384
       218  -9.3388    175.9168    172.5342   9.6144332197e+01   1.2642558842e+01    0.2834079    0.2651219  75.02 0.0008570551    1.184    0.155
       219  -8.4219    142.9975    172.5820   1.0289150637e+02   1.9019910548e+01    0.2495575    0.1859445 -76.18 0.0007989099    1.619    0.382
       220  -8.5068    134.7563    171.6585   1.0446301951e+02   2.0730810072e+01       0.2625    0.1845504 -72.34 0.0008585499    1.676    0.404
       221  -9.5446    121.5669    170.6444   1.0709197887e+02   2.3307512078e+01    0.3781843    0.2505674  86.68   0.00114925    1.981    0.495
       222  -9.0583     44.9696    170.9020   1.2324919976e+02   3.4402616802e+01    0.3449622    0.1708002  88.39  0.001192434    2.079    0.519
       223  -8.2890    205.7276    170.3526   8.9925847324e+01   7.0847582766e+00    0.2224736    0.1927627 -47.74 0.0007341481    1.370    0.270
       224 -10.1854    204.1409    165.7334   8.9293792354e+01   8.1321408804e+00    0.4422396    0.2680824 -28.07  0.000956779    1.832    0.454
       225  -8.9238    236.8353    169.4337   8.4111796704e+01   1.2358360552e+00    0.2232542    0.2093651 -63.20 0.0007297581    1.488    0.328
       226  -8.8677    230.6278    170.2015   8.5353082726e+01   2.2905043997e+00    0.2788959     0.170917  40.83  0.001103471    1.518    0.341
       227  -8.4060    198.4956    170.1380   9.1256909350e+01   8.5519461056e+00    0.2076132    0.1876113  66.23 0.0006238671    1.304    0.233
       228  -9.2520    167.3058    168.8502   9.7187205226e+01   1.5001480534e+01    0.3670407    0.2533607  73.01  0.001008688    2.027    0.507
       229  -8.5231    149.7402    169.5817   1.0095402959e+02   1.8306128441e+01    0.2658365    0.1981482 -89.61 0.0008388753    1.757    0.431
       230  -8.7163     89.3385    169.3188   1.1378877834e+02   2.8869610506e+01    0.3337687     0.179818  78.03  0.001447367    2.685    0.628
       231  -8.5173    244.6312    169.2052   8.2730295419e+01  -1.6707515947e-01    0.1885817    0.1581671 -32.65 0.0005786879    1.353    0.261
       232  -8.1026    156.9755    169.2480   9.9387287341e+01   1.6965024011e+01    0.1910557    0.1650971  50.20 0.0002106746    1.060    0.057
       233  -8.3826    218.8546    168.2424   8.7066103670e+01   4.8336446511e+00    0.1909594    0.1824112  34.18  0.000621778    1.193    0.161
       234  -7.7840    211.4088    168.1608   8.8421135801e+01   6.3050032786e+00    0.1793847    0.1277245 -47.36  0.000528073    1.690    0.408
       235  -8.9602    184.9926    166.9008   9.3247512553e+01   1.1797368999e+01    0.3245731    0.1846064 -54.15  0.000943067    2.312    0.567
       236  -8.7908    111.7358    167.5457   1.0870832689e+02   2.5636871231e+01    0.3259543    0.1971229  75.50  0.001388216    2.223    0.550
       237  -8.2118     13.4842    167.9750   1.2923615481e+02   3.8167952035e+01    0.1571829   0.06626063  78.12 0.0006744943    2.342    0.573
       238  -8.9225    191.9265    166.6974   9.1842232075e+01   1.0432461267e+01    0.2537146     0.202509 -48.25 0.0006722453    1.431    0.301
       239 -10.1063     94.8399    162.4676   1.1161466814e+02   2.9461298771e+01    0.8279582    0.4576866  89.70  0.003135617    2.728    0.633
       240  -9.0640     20.3271    165.9198   1.2774814796e+02   3.7970033937e+01    0.3708003    0.1352412  62.24  0.001763272    2.921    0.658
       241  -9.9385    136.7739    164.4785   1.0278925347e+02   2.1763955017e+01    0.6294743    0.2928575  59.57  0.002198732    2.956    0.662
       242  -7.9371    250.5923    165.2555   8.0919316428e+01  -7.1659009822e-01    0.1772514    0.1138054 -15.06 0.0003513232    1.556    0.357
       243  -8.1996    233.8949    165.0692   8.3725926220e+01   2.4039861856e+00      0.19038     0.179786 -40.85 0.0007565527    1.331    0.249
       244  -8.8036    159.5304    164.1659   9.7902917656e+01   1.7407811421e+01    0.2971855    0.2428936 -74.13 0.0008620785    1.453    0.312
       245  -9.3674     33.7258    163.5408   1.2484732977e+02   3.7155510057e+01    0.4887311    0.1612201  57.48  0.002085159    3.423    0.708
       246  -8.6006    212.9537    163.5012   8.7178417237e+01   6.7218917888e+00    0.2369538    0.1890009 -49.07 0.0006548374    1.516    0.340
       247  -9.0771     60.5418    161.0060   1.1892022116e+02   3.4631250944e+01    0.3643638    0.2696359 -73.59  0.002027733    1.216    0.177
       248  -8.8873    246.0438    163.0303   8.1217027187e+01   4.1475443158e-01    0.2012736    0.1769522   5.69 0.0005452741    1.058    0.055
       249  -9.2256      3.2720    162.4156   1.3082795098e+02   4.0151094012e+01    0.3334644    0.1306717  61.33  0.001805619    2.383    0.580
       250  -9.0478    177.3927    160.8250   9.3559337536e+01   1.4406190470e+01    0.2897369    0.2421525 -82.17 0.0008320736    1.531    0.347
       251  -8.9118    151.7190    161.0987   9.8965570955e+01   1.9539564342e+01    0.3090826    0.2256966 -72.59 0.0009380271    1.723    0.419
       252  -8.8600    243.2477    159.5140   8.0951011679e+01   1.4231565442e+00    0.3911467    0.1976064  28.13  0.001251949    2.314    0.568
       253  -8.7011    227.4736    159.1918   8.3628071847e+01   4.5032105655e+00    0.2873048     0.210748 -57.34  0.000972452    1.985    0.496
       254  -9.7060    105.8190    158.0613   1.0848856504e+02   2.8613019995e+01    0.4665426    0.2925899  82.34  0.001208727    2.126    0.530
       255  -9.7167    250.1733    157.8103   7.9429561655e+01   3.6915000418e-01    0.3345429    0.1756434 -29.22 0.0007763382    1.830    0.454
       256  -8.1463    236.9530    158.9536   8.1911142262e+01   2.6979808985e+00    0.1922871     0.169987 -69.40 0.0005905869    1.639    0.390
       257  -8.7288    196.4935    158.1288   8.9193552515e+01   1.0938350792e+01    0.2986583    0.2206078 -63.02   0.00084429    1.877    0.467
       258  -9.1402    167.6115    157.4121   9.4886064044e+01   1.7035242270e+01    0.3374024    0.2585983 -80.30  0.001088721    1.774    0.436
       259  -8.0478    128.0312    158.9626   1.0370676167e+02   2.4505300796e+01     0.222354    0.1596363  79.73 0.0005465323    1.683    0.406
       260  -8.4229    188.2616    157.8224   9.0753338748e+01   1.2694102846e+01    0.2384481    0.1775129 -43.05 0.0005588498    1.448    0.310
       261  -8.3012    218.0448    156.6105   8.4785985947e+01   6.7754144129e+00    0.2550245    0.1833149 -47.85 0.0007092295    1.667    0.400
       262  -8.9498    157.4831    156.0033   9.6742067444e+01   1.9367643504e+01      0.32085    0.2278381 -65.57 0.0008555737    1.732    0.423
       263  -9.3058    119.6399    155.4326   1.0494262162e+02   2.6765909589e+01    0.4046547    0.2613152 -88.68  0.001832348    2.176    0.540
       264  -9.1123     49.7267    155.3595   1.2061153456e+02   3.7154137017e+01    0.3655933    0.1864803  69.93  0.001643551    2.227    0.551
       265  -9.3999     81.4514    154.7800   1.1346463184e+02   3.3139776258e+01    0.4448013    0.2455028  71.05  0.001442472    2.323    0.570
       266  -8.3556    239.9229    164.1766   8.2496169149e+01   1.3934097739e+00    0.1859857    0.1790407  -4.88 0.0005645257    1.246    0.198
       267  -8.5777    242.7037    155.0071   8.0083390424e+01   2.1635608563e+00    0.1888212    0.1549904 -14.52 0.0004312042    1.137    0.120
       268  -7.9648    204.7833    155.5533   8.7046379210e+01   9.6550670014e+00    0.1871813    0.1331617  56.58 0.0005666642    1.570    0.363
       269  -8.5348    144.6745    155.0363   9.9318679544e+01   2.2118383512e+01    0.3102841    0.1895783  60.07  0.000984784    1.842    0.457
       270  -9.7452    132.8425    153.1168   1.0156278364e+02   2.4800951262e+01    0.4631585    0.3311291  79.14  0.001340586    1.752    0.429
       271  -9.1891    133.3130    148.3633   1.0054094232e+02   2.5691945179e+01    0.3246859    0.2105551 -33.38  0.001478801    2.020    0.505
       272  -9.4790     68.0506    153.6528   1.1632952227e+02   3.5251194828e+01    0.4277813    0.2377598  75.47  0.001504141    2.194    0.544
       273  -8.2216    232.8431    154.0776   8.1583719604e+01   4.2094687704e+00    0.1974211    0.1837672 -41.98 0.0004880455    1.296    0.229
       274  -8.2068    151.9154    152.9941   9.7338607105e+01   2.1078798042e+01    0.2275724    0.1730708  86.54 0.0007208352    1.700    0.412
       275  -8.3293      8.9912    153.2358   1.2904973284e+02   4.1583017904e+01    0.1238728   0.08651233  42.11 0.0008838046    1.635    0.388
       276  -7.4649    228.2727    152.6685   8.2085686563e+01   5.3271198054e+00    0.1287196    0.1106035 -63.73 0.0002902215    1.592    0.372
       277  -8.1744    182.4554    151.4517   9.0579597093e+01   1.5035706920e+01     0.234532    0.1363028 -52.00 0.0006634873    2.061    0.515
       278  -8.7271     98.4431    150.8931   1.0897956202e+02   3.1367587524e+01    0.3158396    0.2031564  80.41  0.001017074    1.942    0.485
       279  -9.4891     29.3749    150.7330   1.2454755598e+02   4.0310393097e+01    0.3994286    0.1752799  71.87  0.001871068    2.757    0.637
       280  -8.2768     19.8847    152.6145   1.2674324818e+02   4.0789591653e+01    0.1501032   0.08518919  52.89 0.0009355457    1.700    0.412
       281  -8.8448      2.7015    150.7179   1.3014675739e+02   4.2597109324e+01    0.2924764   0.09975234 -76.73  0.001516786    2.213    0.548
       282  -9.8065    248.7926    149.5165   7.7876061990e+01   1.7839687875e+00    0.3501119    0.2143779 -28.31 0.0007966558    1.550    0.355
       283  -9.0830    247.0046    143.8463   7.6926033798e+01   2.9380525975e+00    0.2774008    0.1799032 -22.82 0.0005152043    1.478    0.324
       284  -8.3777    250.4881    140.9434   7.5708588559e+01   2.6808883883e+00    0.1941227    0.1641853 -11.62 0.0003884531    1.063    0.059
       285  -9.6986    242.6637    149.9183   7.8988722422e+01   2.9019625578e+00    0.3602918    0.2818249  45.87  0.001947667    1.367    0.269
       286  -7.8013    237.4348    150.4872   8.0005653513e+01   3.8381989237e+00    0.1382174    0.1217027   3.79 7.229048e-05    1.009    0.009
       287  -8.8146    189.4053    150.4157   8.8951909358e+01   1.3750989481e+01     0.276471     0.235926 -70.14 0.0007390568    1.461    0.315
       288  -8.3942    162.8051    150.7369   9.4531839020e+01   1.9288376790e+01    0.2623001    0.1889851 -77.32 0.0008277743    1.977    0.494
       289  -8.4254    212.9704    149.9754   8.4289152280e+01   8.8699329895e+00    0.2088479    0.2018351   9.38 0.0004756947    1.104    0.094
       290 -10.1860     89.1756    146.3027   1.1037353596e+02   3.3838520642e+01    0.6813272    0.3607542  89.64  0.002554063    3.408    0.707
       291  -9.6420     39.8793    147.9601   1.2195025725e+02   3.9850214298e+01    0.4743595    0.2121583  67.24  0.001962493    2.815    0.645
       292  -9.4664    223.5378    148.3384   8.1985882104e+01   6.9512315464e+00    0.3076789    0.2304464 -37.64 0.0008440767    1.397    0.284
       293  -8.4533    198.8244    148.8831   8.6753766165e+01   1.2021594028e+01    0.2404039    0.1914719 -43.66 0.0005016908    1.357    0.263
       294 -10.2334    149.1727    145.0475   9.6313106408e+01   2.3217447651e+01    0.6117312    0.4055518  89.52  0.001977986    2.557    0.609
       295  -9.2350    233.5984    147.7227   8.0063747648e+01   5.0100695828e+00    0.2623152    0.1988722 -33.58 0.0007794153    1.337    0.252
       296 -10.3916     54.4942    143.8950   1.1812898287e+02   3.9106662568e+01    0.8616084    0.4068731  83.51  0.002913917    3.338    0.700
       297 -10.0450    139.1727    144.9039   9.8524264006e+01   2.5261254119e+01    0.4987946    0.3107783 -71.47  0.001143563    2.260    0.557
       298  -9.3098    139.9308    137.5225   9.6806591255e+01   2.6638641450e+01    0.3549116     0.245008  17.32   0.00153452    2.221    0.550
       299  -9.3256     13.1122    145.9522   1.2760527319e+02   4.2781964554e+01     0.348594    0.1594393  69.87  0.001349643    2.258    0.557
       300  -8.0405    206.7081    146.5639   8.4718548792e+01   1.0744297088e+01    0.1884522    0.1371851  55.51  0.000675122    1.498    0.332
       301  -8.1847    175.5941    146.3170   9.0887644251e+01   1.7432164632e+01    0.2146223     0.173346 -83.76 0.0007494732    1.628    0.386
       302 -10.9063     69.6904    141.0209   1.1414706608e+02   3.7823983733e+01    0.6768071    0.4053868 -77.13  0.002263043    1.644    0.392
       303 -10.0765    241.5899    137.2639   7.6351442383e+01   4.9763868751e+00    0.4942307    0.2907212 -59.78  0.001887809    3.439    0.709
       304  -9.2367    242.6779    143.3138   7.7529692247e+01   3.8624074327e+00    0.3280299    0.1838993 -22.64  0.001515416    1.832    0.454
       305  -9.8358    124.9491    142.1319   1.0122757382e+02   2.8598272727e+01    0.6519642    0.3599638 -65.54   0.00227302    2.259    0.557
       306  -8.9221    165.5058    143.9375   9.2506648500e+01   2.0030285566e+01    0.2720743    0.2234416  78.70  0.000668506    1.453    0.312
       307  -7.6688    194.2663    143.6862   8.6499024471e+01   1.3897264908e+01    0.1383905    0.1167581 -77.26 0.0002563157    1.546    0.353
       308  -9.3445      2.4894    141.6528   1.2952101688e+02   4.4509282238e+01    0.3464606    0.1492476  77.84  0.001835408    2.310    0.567
       309  -8.9185     77.9641    147.2575   1.1314399196e+02   3.5291351577e+01    0.2916094    0.1684015 -82.71 0.0009178703    1.978    0.494
       310  -8.3345    181.9916    141.7648   8.8553257612e+01   1.6898915912e+01    0.2521852    0.1923688 -60.33 0.0006607376    1.586    0.370
       311  -8.2878    238.5092    140.5117   7.7607406871e+01   5.1095743144e+00    0.1393033     0.126434  -1.15 6.995942e-05    1.035    0.034
       312 -10.3185    106.7344    144.0274   1.0585333473e+02   3.1475937796e+01     0.727603    0.4660268 -79.52   0.00217043    1.921    0.479
       313  -9.8408     23.5652    138.3715   1.2459352166e+02   4.3525231401e+01    0.4648056    0.2095012  69.51  0.001950084    2.643    0.622
       314  -7.9172    218.9282    139.0061   8.0724949381e+01   9.3978865094e+00    0.2118371    0.1780663 -77.12 0.0005879691    1.659    0.397
       315  -8.7247    172.3133    138.5614   8.9859260020e+01   1.9600206020e+01    0.2984071    0.2346435 -85.11 0.0009345867    1.711    0.415
       316  -8.4994    207.2559    137.6242   8.2588381967e+01   1.2132787764e+01    0.2664046    0.1978428 -35.38 0.0006585946    1.361    0.265
       317  -8.6997    197.4314    137.5169   8.4469049482e+01   1.4294011866e+01    0.2863163    0.2359168 -64.97 0.0007775307    1.516    0.341
       318  -8.7476    150.9861    136.0303   9.3963931312e+01   2.4665869345e+01    0.3685951    0.2353787  26.69  0.001557072    2.091    0.522
       319  -9.2137     39.2599    136.2153   1.2071601589e+02   4.2500871857e+01     0.292851    0.1606067  63.70  0.001039224    1.977    0.494
       320  -9.1478    250.7212    130.2004   7.3241526234e+01   4.1939631747e+00    0.4543209    0.1213723 -31.37  0.001461944    3.588    0.721
       321  -9.2370    248.2918    135.2386   7.4783210093e+01   3.9381390552e+00    0.3091542    0.2028309 -36.42 0.0006644468    1.502    0.334
       322  -8.4760    246.8773    130.2016   7.3861871478e+01   4.9638170212e+00     0.267851    0.1777538 -42.74  0.000714078    1.617    0.381
       323  -7.8863    187.6667    135.8199   8.6033571528e+01   1.6745706761e+01    0.2028283    0.1351565 -47.03   0.00044046    1.615    0.381
       324  -8.1312    162.6873    136.4171   9.1451681399e+01   2.2098376187e+01    0.2231108    0.1751412  83.16 0.0007063561    1.630    0.387
       325  -8.6663    179.5106    134.1328   8.7325318719e+01   1.8860042070e+01    0.3021718     0.204218 -53.20  0.000780642    1.690    0.408
       326 -10.3474     83.4908    132.8726   1.0945634587e+02   3.7697137043e+01    0.5610124    0.3129421 -73.97  0.001305958    2.008    0.502
       327  -8.7956     84.7702    123.0254   1.0731092591e+02   3.9731625748e+01    0.4759357    0.3141836   0.80    0.0019645    3.317    0.698
       328  -8.3162     57.0526    135.5123   1.1636669661e+02   4.0671544376e+01    0.1749163    0.1236278  39.62  0.001030777    1.587    0.370
       329  -8.9826    240.4324    145.4928   7.8393590090e+01   3.9845246599e+00    0.2156565    0.1893321   0.22  0.000489609    1.016    0.016
       330  -7.9283    231.3739    134.1810   7.7391027922e+01   7.5435751701e+00    0.1940782    0.1261158 -40.00 0.0004775685    1.581    0.368
       331  -9.2516    112.8379    133.3182   1.0233299005e+02   3.2744471313e+01    0.3638523    0.2425063  77.27  0.001402824    2.022    0.506
       332  -9.1680    143.1379    131.9315   9.4841179970e+01   2.7145339618e+01    0.3505776    0.2459205 -68.38 0.0008068227    1.745    0.427
       333  -9.9726    132.0063    131.3072   9.7308410299e+01   2.9537670783e+01    0.4675994    0.3043323 -73.60  0.001116705    2.101    0.524
       334 -10.3916     98.0648    130.1242   1.0532606783e+02   3.6015285572e+01    0.7039725    0.2561645 -57.82  0.001831471    2.728    0.633
       335  -8.9556     98.8167    120.7881   1.0324127766e+02   3.7983555183e+01    0.4837186    0.2926532  12.93  0.001749955    3.816    0.738
       336  -9.1956    168.3545    129.6113   8.8644290911e+01   2.2194113499e+01    0.3242492    0.2480456 -66.99 0.0007624152    1.608    0.378
       337  -9.4064    153.0993    129.4335   9.1990180397e+01   2.5557967400e+01    0.4193383    0.2623853 -56.37 0.0008757701    1.806    0.446
       338  -8.1992    153.5420    123.9327   9.0594104876e+01   2.6581327162e+01    0.2494751    0.1908525  -3.62  0.001132607    1.817    0.450
       339 -10.0136     73.2705    129.3600   1.1139315012e+02   3.9962813638e+01    0.4512759    0.2611769 -88.79  0.001366828    2.296    0.564
       340 -10.0764     12.7579    128.7391   1.2610576718e+02   4.6516256289e+01    0.5432789    0.2317612  86.68  0.002626513    2.529    0.605
       341  -8.2531    221.0890    130.1557   7.8274010853e+01   1.0374799813e+01    0.1920192    0.1762132 -71.43 0.0006573672    1.340    0.254
       342  -7.7328    204.5378    130.5106   8.1443503982e+01   1.3948417097e+01    0.1453343    0.1426755   1.16 0.0002372702    1.071    0.066
       343  -8.0990    192.7215    130.1431   8.3677554361e+01   1.6650434087e+01    0.2337389    0.1838817 -54.82 0.0006273032    1.454    0.312
       344 -10.7437     44.9192    123.6541   1.1764912217e+02   4.4726653266e+01     1.055511    0.4907586  78.94  0.003880757    4.053    0.753
       345  -8.0526      1.6676    130.3349   1.2878977278e+02   4.6970040290e+01    0.1787561   0.09710765  71.29  0.001097355    1.751    0.429
       346  -8.2262    211.4534    129.2292   7.9826231481e+01   1.2636126964e+01     0.204869    0.1353934 -46.19 0.0009062068    1.654    0.395
       347  -8.0348     25.9892    130.0000   1.2312383568e+02   4.5148708403e+01     0.162909   0.06702568  29.61  0.000805186    2.962    0.662
       348 -10.0161    118.1929    124.9980   9.9264840647e+01   3.3580767030e+01    0.6768129    0.4544788 -63.59  0.001618532    1.585    0.369
       349 -10.4553     59.7859    124.8980   1.1406164078e+02   4.2739047739e+01    0.6600088    0.3553334  84.26  0.002417645    2.763    0.638
       350  -8.8906     59.4299    115.2865   1.1252626670e+02   4.4973711889e+01    0.3822131    0.2369429 -19.90  0.001673917    3.264    0.694
       351  -8.4838    228.4862    125.9390   7.5961934537e+01   9.4579537336e+00    0.2168262    0.1361147 -33.60 0.0005977476    1.536    0.349
       352  -8.8196    179.3126    124.8218   8.5151913520e+01   2.0658052262e+01    0.2763597    0.2337272  87.93 0.0006156689    1.452    0.312
       353 -10.1952     28.3334    122.3773   1.2164064542e+02   4.6634123448e+01    0.7007889    0.3048695  81.22  0.002798746    3.675    0.728
       354  -8.6269     26.9683    114.0000   1.2089782419e+02   4.8627823921e+01    0.1812842    0.1410329 -56.95 0.0006380381    1.272    0.214
       355  -8.4426    243.7812    124.5496   7.3052476088e+01   6.4437327312e+00    0.1764369    0.1400547  63.68 0.0005364688    1.565    0.361
       356  -8.1225    188.4907    124.0750   8.3069060730e+01   1.8710603226e+01    0.2287928    0.1480676 -40.03 0.0006070753    1.561    0.359
       357  -7.8844    203.1446    122.1178   7.9685152275e+01   1.5722270971e+01    0.2050154    0.1727626 -55.23 0.0003942059    1.342    0.255
       358  -7.8905    195.3477    122.2161   8.1233866505e+01   1.7482997876e+01     0.214228    0.1358155 -45.56 0.0004599942    1.664    0.399
       359  -8.6206    171.9754    121.7992   8.5976743568e+01   2.2900227598e+01      0.25673    0.2154648 -45.71 0.0004827997    1.219    0.179
       360  -9.0842    158.5793    120.8973   8.8715072701e+01   2.6087666662e+01    0.4984227    0.2773596 -40.49  0.001491816    1.836    0.455
       361  -9.7726     71.1581    119.6092   1.1020413948e+02   4.2471434547e+01    0.4458836    0.2186024 -67.69  0.001684251    2.033    0.508
       362 -10.0024    141.5997    118.3654   9.2035872609e+01   3.0301973816e+01    0.5649165    0.3246154 -57.38  0.001192995    2.013    0.503
       363  -9.7705    130.6649    118.5233   9.4714239450e+01   3.2541321287e+01    0.4237622    0.2895464 -80.48  0.001227455    2.131    0.531
       364  -9.6857      2.8081    117.1947   1.2733287556e+02   4.9725940360e+01    0.4575562    0.1996929  81.42   0.00224583    2.519    0.603
       365  -7.5429    231.7149    117.4030   7.3355304033e+01   1.0117873621e+01    0.1500577    0.1095406 -59.02 0.0001822771    1.788    0.441
       366  -7.6040    219.4894    116.5056   7.5265759079e+01   1.2975240553e+01    0.1491669    0.1387651  -0.24 -6.807984e-05    1.027    0.026
       367  -8.1900    185.5418    115.9968   8.1663409601e+01   2.0880973526e+01    0.2260274    0.1492133 -39.76 0.0005083918    1.519    0.341
       368  -9.8331    109.2067    114.1663   9.9096099967e+01   3.7637971025e+01    0.4896337    0.3199258 -79.30  0.001382046    2.158    0.537
       369  -8.7264    250.1207    115.2853   6.9855262056e+01   6.5250835258e+00      0.22484    0.1630723  29.92 0.0008959853    1.476    0.322
       370  -8.1029    193.1506    115.2003   7.9919630156e+01   1.9255640543e+01     0.204541    0.1788874 -65.39 0.0004225319    1.313    0.238
       371  -7.8961    153.3192    115.6710   8.8620997692e+01   2.8312195426e+01    0.1571342    0.1219509 -84.76 0.0007047498    1.686    0.407
       372 -10.0911     92.6705    112.6446   1.0309816409e+02   4.0838198982e+01    0.5015785    0.2958313 -69.53  0.001277545    1.968    0.492
       373  -8.8132     92.8377    105.4184   1.0141963769e+02   4.2437534097e+01    0.5159263    0.3250829   5.79  0.001940944    3.555    0.719
       374  -9.9886     78.9788    112.4161   1.0672297833e+02   4.3008084617e+01    0.5837755    0.3560832 -86.36  0.001722913    2.338    0.572
       375  -8.7279     78.7291    105.0408   1.0522760636e+02   4.4721014035e+01    0.3086964    0.2292596   1.32  0.001564224    2.051    0.512
       376  -7.9358    167.0126    114.5251   8.5239461040e+01   2.5449075915e+01    0.2350589    0.1509965  50.31 0.0005266941    1.556    0.357
       377 -10.0441    133.7608    109.3178   9.1689989770e+01   3.3864684840e+01    0.6926098    0.3018309 -50.39  0.002071655    2.379    0.580
       378  -9.7014    121.9489    112.5882   9.5458865384e+01   3.5566434791e+01     0.317912    0.2654427  81.44 0.0005357303    1.354    0.261
       379 -10.0498     14.3089    111.3158   1.2382674560e+02   5.0228246638e+01    0.4343207    0.2164045  73.08  0.001687713    2.431    0.589
       380  -8.5682    174.7937    111.7427   8.2833039804e+01   2.4187669978e+01    0.3100476    0.2023691 -48.88  0.000695069    1.626    0.385
       381  -8.5175    159.1544    111.9273   8.6333739908e+01   2.7757171550e+01    0.2352348    0.2048801 -78.04 0.0005303248    1.307    0.235
       382 -10.1956     66.4129    109.9143   1.0963950322e+02   4.5318340277e+01    0.5875358    0.2936931 -63.16  0.002280363    1.810    0.448
       383  -7.9018    182.8711    109.7830   8.0620982462e+01   2.2662368219e+01    0.2100164    0.1783602 -61.64 0.0006473023    1.321    0.243
       384 -10.9487    248.3089    104.3340   6.7503128076e+01   8.5514948680e+00    0.6359978    0.3058817 -28.53  0.002666245    1.978    0.494
       385  -8.9357    109.4875    107.4936   9.7441360280e+01   3.9062288245e+01    0.3156531    0.2229868 -10.75 0.0009395171    2.342    0.573
       386  -9.6921    119.0417    106.6910   9.4748175568e+01   3.7418324635e+01    0.3874851    0.2520487 -63.48  0.001534242    1.768    0.434
       387 -10.7358    109.2130     99.1092   9.5412243857e+01   4.0952361842e+01     0.924767    0.4863791  65.27  0.002564957    3.717    0.731
       388  -8.7842    107.6257     92.7150   9.4155210833e+01   4.2635674749e+01    0.3446869    0.2444257  20.63    0.0011965    1.876    0.467
       389  -9.6768    139.9499    104.1111   8.8819163775e+01   3.3633324094e+01    0.5417939    0.3167031 -50.40  0.001157837    1.759    0.432
       390 -10.5383     45.4280    102.2058   1.1403708089e+02   4.9543188865e+01    0.7251809    0.3888086  78.90  0.003080157    3.149    0.682
       391  -8.8265     45.6554     92.8047   1.1219246963e+02   5.1647027386e+01    0.3454981     0.219404   6.88  0.001803004    2.460    0.593
       392 -10.6652     22.9206    102.6766   1.2039781059e+02   5.1497942965e+01    0.7252317    0.3561227  77.24  0.003137228    2.978    0.664
       393  -8.5125    166.5454    104.4547   8.2715109748e+01   2.7523869013e+01    0.2918448    0.2456826 -74.17 0.0007994241    1.398    0.285
       394  -9.4729    150.6585    103.3206   8.6039924548e+01   3.1415990199e+01    0.4535105    0.3089801 -69.37   0.00136161    2.051    0.512
       395  -9.3684      6.5645    103.0140   1.2485643966e+02   5.2583219664e+01    0.2772116    0.1506815  81.02  0.001150201    1.934    0.483
       396  -9.5520    128.4488    102.1299   9.1161842091e+01   3.6497464798e+01    0.3559404    0.2747628 -80.03 0.0009160893    1.640    0.390
       397  -7.5497    175.6532    102.2954   8.0157440849e+01   2.5781087129e+01    0.1586357    0.1246204 -81.75 0.0007032568    1.672    0.402
       398  -8.2503    159.8768    101.1076   8.3309309025e+01   2.9738197118e+01    0.2413775     0.206929 -72.62 0.0005241497    1.333    0.250
       399  -9.3433     81.9228     99.9544   1.0318352224e+02   4.5394040905e+01    0.3652108    0.2483552 -80.88  0.001005553    1.859    0.462
       400 -10.3038     63.9440     96.5612   1.0758704413e+02   4.8674930169e+01    0.7393311    0.3594381 -71.07     0.002158    2.557    0.609
       401  -9.2803     64.8429     87.8572   1.0533937715e+02   5.0514524776e+01    0.6938094    0.3056914  16.80  0.001945076    7.269    0.862
       402  -9.2369     94.9739     97.0375   9.8799136601e+01   4.3949224373e+01    0.3159932    0.2252615 -67.87 0.0007068962    1.532    0.347
       403  -8.5575      4.5875    109.0103   1.2605002742e+02   5.1394780109e+01    0.2107793    0.1170955  -3.90  0.001162144    3.313    0.698
       404  -8.1395    123.3097     97.6700   9.1295121813e+01   3.8501921813e+01    0.1532053    0.1188121 -84.18 0.0005139352    1.666    0.400
       405  -8.6761    151.5554     95.4137   8.3665673194e+01   3.2795087671e+01    0.3052585    0.2150419   7.78  0.001007541    2.161    0.537
       406  -9.4359    222.2729     94.3532   6.9156493204e+01   1.5977828679e+01    0.2571749    0.2383261 -44.55 0.0002528185    1.098    0.089
       407  -8.1463    164.8471     94.1425   8.0269055906e+01   2.9915283508e+01    0.2392085    0.2088774 -67.83 0.0004998722    1.273    0.215
       408  -9.2636    139.0132     92.2474   8.5803332112e+01   3.6275107247e+01    0.3891894    0.2886315 -76.85 0.0006236857    1.842    0.457
       409 -10.1791    123.9059     91.3855   8.9411841027e+01   3.9701893288e+01    0.5989203    0.4820977  28.19  0.001572527    1.396    0.283
       410  -7.6863    188.5228     93.5418   7.5120017057e+01   2.4274288311e+01    0.1539717    0.1514278  -6.47 0.0002815285    1.003    0.003
       411  -8.2051    176.3909     93.2317   7.7516521930e+01   2.7297401117e+01    0.2242778     0.141793 -47.17 0.0004715982    1.653    0.395
       412  -9.7220      4.9434     91.9302   1.2391714481e+02   5.5110876493e+01    0.3297006    0.1707106  80.00  0.001258484    2.273    0.560
       413  -8.1109    157.9573     91.9531   8.1205113101e+01   3.1976158506e+01    0.2382277    0.1895274 -74.55 0.0003952105    1.565    0.361
       414  -9.8478     34.8065     89.8953   1.1487200108e+02   5.3357640302e+01    0.4794716    0.2377558 -80.82  0.001685728    2.503    0.601
       415  -8.2455    189.2877    107.8918   7.8815193391e+01   2.1492990400e+01    0.2976721    0.1271416 -42.87 0.0007360466    2.377    0.579
       416  -9.1660     22.8341     90.2699   1.1850251982e+02   5.4274082523e+01    0.2407923    0.1990545 -29.68 0.0009576735    1.461    0.316
       417  -7.9182    151.3559     89.2550   8.1965752370e+01   3.4053439205e+01    0.2249275    0.1396743 -48.70 0.0004344517    1.680    0.405
       418 -10.0981     86.4316     85.8493   9.8353786321e+01   4.7819560191e+01    0.6515793    0.3727089 -56.41  0.001573185    1.703    0.413
       419  -9.9447     48.7310     84.5889   1.0953381200e+02   5.3162355416e+01    0.5071337    0.3031061  76.68     0.002022    2.892    0.654
       420  -7.6507    179.2897     85.6467   7.4770895765e+01   2.7967169868e+01    0.1624978    0.1215756 -66.89 0.0007026677    1.675    0.403
       421  -9.8098    104.9525     83.3097   9.2279775458e+01   4.5140573393e+01    0.4439591    0.3182967 -76.11  0.001161456    1.951    0.488
       422  -8.7951    106.1870     76.8923   9.0036672513e+01   4.6240473936e+01    0.4130576    0.2399928  26.55  0.001681847    2.395    0.582
       423  -8.3089    157.7957     84.0987   7.8972459373e+01   3.3516097527e+01    0.2332201    0.2086903 -57.57 0.0003992316    1.176    0.150
       424  -9.1634    140.8867     82.8073   8.2597493778e+01   3.7733133262e+01    0.3806617    0.2090865 -47.86 0.0009082686    1.893    0.472
       425  -9.6096      9.8954     81.1292   1.2090597854e+02   5.7178581459e+01    0.3229386    0.1755186  69.95  0.001336582    2.547    0.607
       426  -7.3815    185.4713     82.5008   7.2626686667e+01   2.6984180615e+01    0.1567748    0.1501196 -61.90 0.0008086629    1.082    0.076
       427  -9.6569     24.6632     80.4930   1.1622059361e+02   5.6299818637e+01    0.4083162    0.2262557 -88.84  0.001428161    2.345    0.574
       428  -8.3102    150.1647     80.8689   7.9781496064e+01   3.5948220496e+01    0.2368702    0.2119562 -73.00 0.0006177895    1.247    0.198
       429  -8.6734    119.2076     80.4668   8.7496287574e+01   4.2922341319e+01    0.2780825    0.2281738 -74.46 0.0006267233    1.480    0.324
       430  -8.9348     74.4852     80.3472   1.0048759480e+02   5.0844216614e+01    0.3104779    0.2031245 -68.86  0.001042881    1.801    0.445
       431  -8.1540    166.7349     79.7046   7.5687087319e+01   3.2150025670e+01    0.2600495    0.1879093 -32.06 0.0003111094    1.394    0.283
       432  -7.5479    184.2714     78.3473   7.1666523204e+01   2.8007084306e+01    0.1589716    0.1220272  10.44 0.0002903373    1.622    0.384
       433  -9.9713     63.6223     74.5096   1.0234294372e+02   5.3604109961e+01    0.6509384    0.2803388 -64.43  0.002406632    3.210    0.688
       434  -9.2877    128.1843     75.3998   8.3564802281e+01   4.2021061678e+01    0.3748856    0.2420264 -55.43   0.00067428    1.793    0.442
       435  -7.5801    157.2665     76.6518   7.6867478532e+01   3.5029138236e+01    0.1587706    0.1207772 -65.68 0.0004235642    1.615    0.381
       436  -8.7560    140.5368     75.5435   8.0478423668e+01   3.9212113148e+01    0.2933493    0.2422544 -72.83 0.0007140368    1.467    0.318
       437  -8.2954    163.5366     73.2462   7.4438788800e+01   3.4101508953e+01     0.291205    0.1461028 -40.15 0.0008709375    1.965    0.491
       438  -9.7647     82.3266     72.6884   9.5896859026e+01   5.1290296596e+01    0.3754221     0.276038 -77.09  0.001013743    1.869    0.465
       439  -8.7402    115.7148     72.9405   8.6144149224e+01   4.5148065199e+01    0.2736944    0.1975772 -55.43  0.000868384    1.516    0.340
       440  -9.1949    105.9294     71.5384   8.8462814025e+01   4.7374174885e+01    0.4101487    0.2038846 -49.24  0.001308031    2.042    0.510
       441  -9.3286     95.0980     71.1062   9.1512301956e+01   4.9469106060e+01    0.4090114    0.2126137 -55.30  0.001079482    2.193    0.544
       442  -8.2249     42.5318     72.5942   1.0875259853e+02   5.6450382361e+01    0.2217265    0.1103594 -69.18 0.0009327664    2.232    0.552
       443  -7.6002    175.5351     72.5623   7.1707389964e+01   3.1211215076e+01    0.1548975    0.1511797  15.92 0.0002162135    1.029    0.029
       444  -9.4698     51.5417     69.9731   1.0509461801e+02   5.6053603372e+01    0.4434229    0.2326024 -70.24  0.001480273    2.537    0.606
       445  -8.9765     28.7091     70.6737   1.1291324038e+02   5.8126763957e+01    0.2981015    0.1510764 -32.75   0.00139257    2.441    0.590
       446  -9.3655     16.5615     68.9515   1.1661525796e+02   5.9400942853e+01     0.587068    0.1708324 -64.22   0.00247499    2.583    0.613
       447  -8.4045    156.9909     69.9923   7.4881341420e+01   3.6297231541e+01    0.1896611    0.1800152 -27.68 0.0004409026    1.044    0.042
       448  -8.8621    147.0378     68.3650   7.6658805726e+01   3.9006808317e+01    0.2937658    0.2166127 -44.98 0.0005843754    1.381    0.276
       449  -8.7324    138.7264     66.1772   7.7960826266e+01   4.1368498094e+01    0.3211523    0.1908814 -46.94 0.0009570535    1.777    0.437
       450  -7.5914    151.3023     73.6687   7.7321949954e+01   3.7019572391e+01    0.1588783    0.1225741 -70.97 0.0007034679    1.652    0.395
       451  -7.3826    203.2911     66.6979   6.4823037837e+01   2.5096892977e+01    0.1554089    0.1157069 -64.24  0.000205566    1.568    0.362
       452  -8.8187    121.5737     65.9698   8.2311971042e+01   4.5260333091e+01     0.435213      0.22874 -41.32   0.00124802    1.838    0.456
       453  -9.2916    123.3255     59.3290   7.9631012588e+01   4.6098159935e+01    0.2933683    0.2481135 -32.39 0.0002789148    1.144    0.126
       454  -9.3153    119.0484     55.7595   7.9555982329e+01   4.7666161728e+01    0.2902256    0.2365647 -70.96  0.000708692    1.594    0.373
       455  -8.8632     64.4576     63.7948   9.9021926595e+01   5.5759719676e+01    0.4768139    0.2651553 -16.78  0.001840613    3.529    0.717
       456  -8.8685     37.2624     64.1511   1.0845157047e+02   5.8778533920e+01    0.3014898    0.1945539 -76.41   0.00096296    1.860    0.462
       457  -9.1655    109.9821     63.1455   8.4589430138e+01   4.8210255802e+01    0.4375083      0.20372 -41.02   0.00151534    2.039    0.509
       458  -7.9995    158.1365     62.0942   7.2134543854e+01   3.7380537227e+01    0.2140555    0.1777242 -57.49 0.0004261008    1.327    0.246
       459  -9.4334     97.6068     60.6827   8.7396819153e+01   5.1076222972e+01     0.316446    0.2628602  58.77   0.00110017    1.440    0.306
       460  -9.6876     73.3114     59.5650   9.4744630040e+01   5.5366126972e+01    0.3968939    0.2243948 -55.25  0.001000596    1.872    0.466
       461  -8.4758     88.5016     59.5467   8.9822740485e+01   5.2925306892e+01    0.2224069    0.2187985  10.97 0.0007634127    1.136    0.120
       462  -7.9397    147.1285     59.1710   7.3662790076e+01   4.0591978619e+01     0.213936    0.1798687 -59.61 0.0005698472    1.339    0.253
       463  -9.9005     23.3769     56.4669   1.1146163125e+02   6.1574482153e+01    0.4483551    0.2585585 -88.68  0.002142853    3.015    0.668
       464  -9.5230      7.2768     57.1443   1.1743234277e+02   6.2476948764e+01    0.2787928    0.1932365  82.14  0.001119029    1.822    0.451
       465  -8.2265    130.9032     57.9717   7.7201140559e+01   4.4636557130e+01    0.2331295    0.1820133 -68.07 0.0005534305    1.656    0.396
       466  -9.4789     54.3486     55.6703   1.0002831385e+02   5.8712313519e+01    0.3361267    0.2082688 -62.90  0.001304569    1.852    0.460
       467  -8.3365    139.9242     56.1513   7.4355876490e+01   4.2839207162e+01    0.2287519    0.2026946 -59.85 0.0005026322    1.256    0.204
       468  -8.4759     44.1027     55.5435   1.0366364847e+02   5.9897883501e+01    0.2271555    0.1583438 -65.09 0.0008656995    1.533    0.348
       469  -8.7713    105.8036     53.3799   8.2445808471e+01   5.0849351246e+01    0.2655335    0.2190399 -62.65 0.0007164134    1.491    0.329
       470  -9.4674     92.4003     50.6055   8.5500575083e+01   5.3912351880e+01     0.416737    0.2240567 -47.11   0.00118892    1.919    0.479
       471  -8.0234     74.2999     52.3306   9.1999527214e+01   5.6631830853e+01    0.1390768   0.09718296 -16.15 0.0005276921    1.645    0.392
       472  -8.7127    145.0206     49.2876   7.0830108867e+01   4.2727099792e+01    0.2075309     0.198591  36.57 0.0004584992    1.036    0.034
       473  -8.1960    129.8287     49.3384   7.4489796298e+01   4.6343076503e+01    0.2043876    0.1814248 -41.38 0.0004970087    1.167    0.143
       474  -8.6818    120.8399     47.5067   7.6159040458e+01   4.8680515182e+01     0.254427    0.1953222 -28.79 0.0004476101    1.268    0.211
       475  -8.3906    218.7050     44.3466   5.6151098732e+01   2.4446714338e+01    0.2639405    0.0942669 -38.56 0.0006074362    2.534    0.605
       476  -8.4477    112.1933     46.9434   7.8308443749e+01   5.0648027801e+01     0.218285    0.1895527 -56.45 0.0006020007    1.342    0.255
       477  -9.1189     82.0074     46.0092   8.7167107483e+01   5.6563356516e+01    0.4521407    0.1764097 -40.19  0.001642232    2.335    0.572
       478  -8.4971     44.9972     44.8055   9.9963375395e+01   6.1946327864e+01    0.2220744    0.1512691 -48.21 0.0006932435    1.257    0.204
       479  -8.9226     16.6581     44.7263   1.1096148551e+02   6.4467370305e+01    0.2236531    0.1496814 -69.84 0.0007458044    1.534    0.348
       480  -8.6750    132.9896     43.5391   7.1648759205e+01   4.6524458151e+01    0.2847262    0.1958709 -47.36 0.0006958348    1.614    0.380
       481  -8.6042     92.7759     43.0766   8.2610517804e+01   5.5165891074e+01    0.2770076    0.1832454 -15.87  0.001335696    1.709    0.415
       482  -8.0429     32.6503     44.6591   1.0467394237e+02   6.3215488984e+01    0.1315354   0.07435783 -30.70 0.0007044432    1.798    0.444
       483  -9.3140     69.6148     41.6407   8.9771537572e+01   5.9326857490e+01    0.3430886     0.237861 -58.98  0.001043344    1.907    0.476
       484  -8.9401     58.2219     42.5088   9.4202501273e+01   6.0781599611e+01    0.2919237     0.205601 -65.76  0.001335368    2.037    0.509
       485  -9.5822      5.2092     42.2884   1.1485251394e+02   6.5645365853e+01    0.2687378    0.1638639 -80.92  0.001054794    1.977    0.494
       486  -8.2905    105.9954     41.4749   7.8035176487e+01   5.2839642321e+01    0.2643388    0.1874747 -48.00  0.000692643    1.588    0.370
       487  -7.8779    140.4543     41.5343   6.9176294449e+01   4.5033772115e+01     0.147611    0.1431921  12.63 9.163799e-05    1.023    0.022
       488  -8.5335     36.8239     41.0104   1.0186389911e+02   6.3533595850e+01    0.1799442    0.1489194 -58.01 0.0005910161    1.309    0.236
       489  -8.6140     95.3841     38.0133   7.9860001054e+01   5.5510825504e+01    0.2827708    0.1919955 -48.33 0.0008407932    1.695    0.410
       490  -8.1595     80.5380     36.9529   8.4206447990e+01   5.8381590288e+01     0.203768    0.1208895 -38.55 0.0005195734    1.563    0.360
       491  -9.4782     26.2683     35.6440   1.0434472195e+02   6.5528345725e+01    0.2727316    0.1789187 -62.01 0.0007565185    1.622    0.383
       492  -8.0840    125.7941     35.9496   7.0639743664e+01   4.9345279396e+01    0.1990617    0.1831131  -6.72 0.0004084564    1.050    0.048
       493  -8.3350    111.9630     34.9251   7.3852840058e+01   5.2596792952e+01    0.2132611    0.1724712 -63.59 0.0005358612    1.641    0.391
       494  -8.0040     88.5270     34.4802   8.0610139866e+01   5.7366823786e+01    0.1370565    0.1221325 -11.28 0.0002302083    1.026    0.026
       495  -8.9611     48.4999     33.4994   9.4551508091e+01   6.3652943814e+01    0.2285575    0.1947755 -48.45 0.0006055472    1.313    0.238
       496  -8.5912    218.5409    247.8205   1.0071089522e+02  -5.2153211955e+00    0.2084003    0.1082837 -36.52 0.0009495251    2.471    0.595
       497  -8.4321     72.3438     31.3487   8.4769024101e+01   6.0661637403e+01    0.2278353    0.1833743 -68.17 0.0006886971    1.945    0.486
       498  -7.6815    139.2753     31.6480   6.5891022531e+01   4.6722519976e+01    0.1485394    0.1117181 -58.69 0.0004698124    1.640    0.390
       499  -8.9864     12.8739     30.1746   1.0824511241e+02   6.7573229836e+01    0.3007959    0.1435846 -62.67   0.00123206    2.084    0.520
       500  -8.5354    101.4906     29.4763   7.4642709595e+01   5.5600342685e+01    0.2239939    0.1826599 -59.76 0.0006779433    1.636    0.389
       501  -7.5775    166.2202     27.9446   5.9271379209e+01   4.0330736415e+01    0.1844284    0.1208117 -27.55 0.0003532635    1.567    0.362
       502  -8.9116     81.4856     27.3892   7.9992885945e+01   5.9735916049e+01    0.2935895    0.1929723 -47.85 0.0008087467    1.847    0.459
       503  -8.6611      3.6060     27.8112   1.1157846832e+02   6.8571469669e+01     0.188558    0.1436056 -78.09 0.0008607924    1.628    0.386
       504  -8.9195     91.8428     26.4509   7.6282583478e+01   5.7955667755e+01    0.2943558    0.1799599 -39.18 0.0009195987    1.685    0.407
       505  -7.1971    145.6973     25.3844   6.2260638695e+01   4.5930866729e+01    0.1542217    0.1089011 -59.56 0.0007019851    1.787    0.440
       506  -8.2593    104.4941     22.9394   7.1116141356e+01   5.5875143726e+01    0.2017464    0.1300654 -25.09 0.0005544871    1.507    0.336
       507  -7.9420     34.7606     23.5483   9.6281823244e+01   6.6938747180e+01    0.1426382     0.111202  37.17 0.0009432276    1.690    0.408
       508  -8.8642     63.5635     21.1863   8.3621117351e+01   6.3627350655e+01    0.2846552    0.1946903 -47.96 0.0009997694    1.800    0.444
       509  -8.9575     48.2659     21.7857   8.9863571796e+01   6.5675687761e+01    0.2209516    0.1847543 -40.86 0.0006745987    1.338    0.253
       510  -8.6512     60.6240     32.5701   8.9524331147e+01   6.2227756820e+01    0.2367234    0.1717519 -47.92  0.000666748    1.483    0.326
       511  -8.2321     19.7588     21.5624   1.0215620014e+02   6.8661868666e+01    0.1302879    0.1058809  29.56 0.0004010745    1.614    0.380
       512  -8.8809     74.0185     19.5258   7.9118640463e+01   6.2180014401e+01    0.2372092     0.165142 -41.29 0.0006715697    1.588    0.370
       513  -8.0998     87.7894     17.7721   7.3813830277e+01   5.9922679598e+01    0.1687752    0.1489144 -34.95 0.0004046351    1.302    0.232
       514  -8.0090     38.7537     18.2019   9.2295067447e+01   6.7399573179e+01    0.1805938    0.1326225 -46.41 0.0007407162    1.481    0.325
       515  -7.9624    112.7769     16.9775   6.6463701711e+01   5.4811783483e+01    0.1756479    0.1102782 -21.88  0.000386899    1.589    0.371
       516  -8.2383     30.0070     16.0164   9.5211973701e+01   6.8690871932e+01    0.1633143    0.1388277 -62.93 0.0008267216    1.754    0.430
       517  -8.0639      7.5922     15.7433   1.0565873243e+02   7.0566308424e+01    0.1478439   0.08878703 -58.19 0.0005042187    1.637    0.389
       518  -7.8982     17.0308     14.2815   1.0052781997e+02   7.0147048298e+01    0.1513363    0.1216017 -22.96 0.0008001967    1.125    0.111
       519  -9.1999    175.7722    247.8697   1.0777334057e+02   1.5144937426e+00    0.2705651    0.1887519  66.71  0.001197965    1.858    0.462
       520  -8.6260    156.4206    248.4458   1.1106891633e+02   4.5177383227e+00    0.2331362    0.1398205  67.80 0.0009732671    2.278    0.561
       521  -8.6577    132.3702    248.1937   1.1503999049e+02   8.3049716534e+00    0.2289171    0.1381152  69.06 0.0006317762    1.914    0.478
       522  -8.2588    113.1222    248.7049   1.1825631604e+02   1.1129332589e+01    0.1765178    0.1277803  85.99 0.0008299314    1.495    0.331
       523  -9.2786    103.8490    246.8348   1.1960025335e+02   1.2758152719e+01    0.3614072    0.1870901 -87.63  0.001979353    2.890    0.654
       524  -8.8630    242.7553    246.4294   9.6621109729e+01  -8.7169203109e+00    0.2481028    0.1351476 -21.79  0.001580873    2.115    0.527
       525  -8.5200    232.6693    247.1625   9.8336299770e+01  -7.2932924216e+00    0.1418366    0.1321122  16.89 0.0006784317    1.435    0.303
       526  -9.9655    224.0980    244.1330   9.9281298461e+01  -5.6887502363e+00    0.3825434    0.2422122 -39.45  0.002346123    2.153    0.536
       527  -9.0955    146.7574    246.1013   1.1241886997e+02   6.3553433750e+00    0.2643718    0.1595083  67.53  0.001210796    2.053    0.513
       528  -9.1949    120.2153    245.5806   1.1679244073e+02   1.0528158571e+01    0.3305691    0.1778862  72.26  0.001741791    2.513    0.602
       529  -9.9747     10.5114    245.1097   1.3379681139e+02   2.4444912940e+01    0.4110578    0.1214915  68.25   0.00222166    3.008    0.668
