#   1 NUMBER                 Running object number                                     
#   2 MAG_AUTO               Kron-like elliptical aperture magnitude                    [mag]
#   3 X_IMAGE                Object position along x                                    [pixel]
#   4 Y_IMAGE                Object position along y                                    [pixel]
#   5 X_WORLD                Barycenter position along world x axis                     [deg]
#   6 Y_WORLD                Barycenter position along world y axis                     [deg]
#   7 A_WORLD                Profile RMS along major axis (world units)                 [deg]
#   8 B_WORLD                Profile RMS along minor axis (world units)                 [deg]
#   9 THETA_WORLD            Position angle (CCW/world-x)                               [deg]
#  10 FWHM_WORLD             FWHM assuming a gaussian core                              [deg]
#  11 ELONGATION             A_IMAGE/B_IMAGE                                           
#  12 ELLIPTICITY            1 - B_IMAGE/A_IMAGE                                       
         1 -16.0796    192.8733     75.3770   1.2675905930e+01   2.6254328246e+01     1.607205     1.049251 -24.65  0.007848779    1.884    0.469
         2 -15.5293    186.1691     48.7161   7.0118530741e+00   3.1787199218e+01     1.500072    0.8182732 -68.44  0.006719615    2.161    0.537
         3 -15.6151    217.7112      9.5284   3.5490525529e+02   2.9624425522e+01      1.91274    0.9991001 -69.80   0.01075851    1.690    0.408
         4 -14.5209     38.0021      8.1717   3.0383559165e+01   7.2022264081e+01    0.7184051    0.4014034  31.37  0.003542677    1.670    0.401
         5 -15.3398     24.1711      3.0160   3.5811939313e+01   7.4966451669e+01     2.461612    0.4088263  39.18  0.007479076    5.427    0.816
         6 -13.4232     64.9047      2.8073   1.5357262173e+01   6.7143331785e+01    0.4072622    0.2527001  57.67  0.002201278    1.394    0.283
         7 -14.2904    217.8642    214.1163   3.6628729188e+01  -9.7480843728e-01      0.68573    0.4587225  26.07  0.003947697    1.426    0.299
         8 -14.2561    231.1970    247.3887   3.9449626124e+01  -6.8003713853e+00    0.6185794    0.3855839   9.91  0.003112578    1.280    0.219
         9 -15.8470     11.9340    215.4257   8.3831692643e+01   2.6324253142e+01     1.536398    0.5600058  38.82  0.005409719    2.035    0.509
        10 -16.1021     10.3859    193.9663   8.3191508808e+01   3.1315086719e+01     2.069903     1.672377  21.43   0.01304907    1.387    0.279
        11 -15.0508    216.6455    201.1111   3.4682909148e+01   1.0678011051e+00    0.6984221    0.5462201 -35.07  0.003661499    1.371    0.271
        12 -13.7713    244.0486    212.2041   3.1950320371e+01  -3.7699565750e+00    0.5264242    0.3655075 -19.20  0.003037879    1.144    0.126
        13 -13.8356     92.7783    207.8005   6.3020244951e+01   1.8247334101e+01    0.8670998    0.3897216  45.77  0.003646388    2.083    0.520
        14 -13.8746     94.5412    201.4453   6.1761355087e+01   1.9365768235e+01    0.5825204    0.5266452  47.52  0.002480905    1.060    0.057
        15 -15.6637     11.9550    247.6664   8.5106068141e+01   1.9717257831e+01      2.22507    0.3939908  27.67  0.008111063    4.298    0.767
        16 -14.7605     61.0069    198.1570   7.0190849110e+01   2.4816304491e+01    0.9026788    0.4824916  88.78  0.003905794    2.425    0.588
        17 -15.4936     54.1980    191.3371   7.1330328903e+01   2.7291005081e+01     1.584424    0.9712933 -89.62  0.007669794    1.827    0.453
        18 -15.6903    194.4489    165.9968   3.2391282869e+01   1.0033842373e+01     1.323826     1.001856  36.75  0.007567129    1.376    0.273
        19 -14.7425    203.1373    189.1871   3.5057583429e+01   4.7731896540e+00    0.5707036    0.4563002  41.53  0.002697692    1.504    0.335
        20 -15.6880    191.4288    184.6193   3.6473248891e+01   7.2769503992e+00     1.762775     1.348453  40.18    0.0083005    1.439    0.305
        21 -15.2770    205.1767    146.5152   2.6547748315e+01   1.1646789508e+01    0.9913096    0.8254352 -28.80  0.003822717    1.082    0.076
        22 -15.3150    204.8961    158.9672   2.9082069445e+01   9.5494756689e+00    0.8014173    0.7262673  46.20  0.003657561    1.320    0.242
        23 -12.4929    202.4681    204.4653   3.7827324149e+01   2.4478864663e+00    0.2400649    0.2215363  21.11  0.001654309    1.347    0.258
        24 -12.9882    105.7378    174.3265   5.4766218149e+01   2.3738883145e+01    0.9708495    0.2027876  41.47  0.002601873    4.269    0.766
        25 -12.8232     30.2228    167.1240   7.5831852830e+01   3.6032098823e+01    0.4168208    0.2296207  62.23  0.001910341    1.838    0.456
        26 -12.5921     92.8662    160.7648   5.6102719848e+01   2.9145323990e+01    0.4805467    0.3541119  66.10  0.002249277    1.553    0.356
        27 -15.8609    185.8513    139.5537   2.8664656178e+01   1.6348217588e+01     3.480462     1.075879 -35.51   0.01067039    3.983    0.749
        28 -15.3769    178.4524    119.1268   2.5568705678e+01   2.1641550076e+01      1.48551    0.9213793 -28.54  0.006689684    1.849    0.459
        29 -13.7911    100.0479    152.0338   5.2413535759e+01   3.0055678445e+01    0.6366307     0.353838  38.00  0.002623693    1.688    0.407
        30 -16.2707      6.0345    233.5528   8.5872905794e+01   2.3054000951e+01     1.326034    0.7925491  59.48  0.005197381    1.320    0.242
        31 -13.4512     50.1819    141.0217   6.6372561410e+01   4.0596937920e+01    0.6257257    0.5290214  88.72  0.002521396    1.177    0.151
        32 -14.0864     41.4422    138.0705   6.8929354732e+01   4.2430811112e+01    0.8628384    0.6066948 -88.51  0.003575545    1.476    0.322
        33 -15.0075    105.0889    135.9254   4.7653703193e+01   3.3072941576e+01     1.605873     0.990848  66.91  0.006035271    2.414    0.586
        34 -14.8204     89.5368    126.2979   5.0397962685e+01   3.8355423128e+01     1.698537    0.8909026 -65.70  0.006256381    2.323    0.569
        35 -13.5760     26.4185    136.4997   7.3913280269e+01   4.4400567891e+01    0.5254297    0.3772942  58.56   0.00272567    1.387    0.279
        36 -12.5179     78.5400    135.6501   5.5939984035e+01   3.7876316406e+01    0.4393196    0.3288443 -46.71  0.002071902    1.413    0.292
        37 -14.1432      7.7226    124.4890   7.9248095934e+01   4.9036062395e+01    0.6608222    0.3193912 -58.02  0.003018487    1.901    0.474
        38 -13.9923     41.9874    118.8133   6.5769045734e+01   4.7501379021e+01    0.5902737    0.4079122 -45.08  0.002009719    1.504    0.335
        39 -14.1443     37.0586    114.3197   6.6897822683e+01   4.9247757660e+01    0.9060083    0.6904848  11.25  0.003913657    1.453    0.312
        40 -13.0807     54.9169    117.2457   6.0616741449e+01   4.6276651999e+01      0.49537    0.3807428 -59.87  0.001981824    1.278    0.218
        41 -14.2791      2.7397    114.1708   8.0129865277e+01   5.2026367064e+01    0.8844945    0.3585897 -80.56  0.003680672    2.268    0.559
        42 -14.7130    216.2761    108.5338   1.6790912511e+01   1.6109977427e+01     0.722469    0.4645119 -66.27  0.003593152    2.074    0.518
        43 -15.0494     15.5874     97.1334   7.2925368180e+01   5.5690561140e+01     1.116427    0.4875372 -53.36  0.004785819    2.027    0.507
        44 -13.3723     50.0271     99.0587   5.8708459878e+01   5.1671472119e+01    0.6895943    0.4500813 -43.21  0.002939057    1.576    0.366
        45 -13.6664     42.2489     94.6567   6.0975992403e+01   5.3791930114e+01    0.9784581    0.4420728 -65.06  0.003817433    2.242    0.554
        46 -15.4648    211.5026     77.3727   1.0586580153e+01   2.2011624678e+01     1.407775    0.6536122 -48.68  0.005117755    1.970    0.492
        47 -15.6920     80.6635    232.2090   6.8659841143e+01   1.4894316742e+01     1.398598     0.644132  52.17  0.006338947    2.230    0.552
        48 -12.0293    193.6535    236.1710   4.4509936748e+01  -1.1115835498e+00    0.2776093    0.1665625  22.19  0.001497234    1.405    0.288
        49 -14.2340     13.3744     75.8679   7.0366516977e+01   6.1251261921e+01     0.692578    0.2684854 -60.79  0.002914698    2.148    0.534
        50 -13.7176     25.5802     82.6988   6.5852322244e+01   5.8590993690e+01    0.3970944    0.3213384 -56.97  0.001571392    1.153    0.133
        51 -13.7184     98.1346     66.1062   3.0784005526e+01   5.0338078444e+01    0.6881828      0.58166  77.69   0.00333031    1.331    0.249
        52 -14.0954     93.7652     56.4024   2.8826844532e+01   5.3143823974e+01    0.7817293    0.6139224 -53.10  0.003833822    1.414    0.293
        53 -13.0721      1.6870     53.6429   7.2209982827e+01   6.7236941964e+01    0.3699066   0.09573494 -67.92  0.001359871    3.250    0.692
        54 -12.8820     56.6133     52.7531   4.2015580778e+01   6.1405854333e+01     0.281214    0.1734577  25.76  0.001288766    1.718    0.418
        55 -12.9875     15.9289     43.3579   6.0809520616e+01   6.8665111362e+01    0.3727409    0.1831642 -31.73  0.001713941    2.111    0.526
        56 -13.0625    232.2928     40.7846   4.5099371443e-01   2.2996285088e+01    0.3426278    0.1715376 -44.47   0.00188539    1.600    0.375
        57 -14.2959     11.5313     32.9493   6.0105847648e+01   7.1214844496e+01    0.6296128    0.3112404 -36.19  0.003118447    1.887    0.470
        58 -13.4337    186.3007     36.0391   3.7991025375e+00   3.3466226870e+01    0.3648033    0.2104696 -65.56  0.001802405    1.753    0.430
        59 -14.0945    196.1027     28.0822   8.1571842330e-01   3.2211357582e+01    0.8342761    0.4420816 -89.52  0.004113375    1.961    0.490
        60 -12.4678     60.8153     28.5592   2.9852880281e+01   6.4873233149e+01    0.2797951    0.2100219  11.44  0.001499279    1.492    0.330
        61 -13.3655    237.3134    234.3608   3.6503715652e+01  -5.8563401744e+00    0.4369211    0.2791864  11.75  0.002082114    1.311    0.237
        62 -12.3251    146.7352     11.4279   1.7450801738e+00   4.6016386522e+01    0.2736434    0.1182856  78.18  0.001150046    2.165    0.538
        63 -13.3845    201.8174    226.0941   4.1444655883e+01  -6.9163903451e-01    0.6822232    0.2708108  30.57  0.003334008    2.278    0.561
        64 -12.9964     37.9076    227.2864   7.8365356628e+01   2.1134866403e+01     0.313677     0.168728  48.59  0.001462501    1.494    0.331
