#   1 NUMBER                 Running object number                                     
#   2 MAG_AUTO               Kron-like elliptical aperture magnitude                    [mag]
#   3 X_IMAGE                Object position along x                                    [pixel]
#   4 Y_IMAGE                Object position along y                                    [pixel]
#   5 X_WORLD                Barycenter position along world x axis                     [deg]
#   6 Y_WORLD                Barycenter position along world y axis                     [deg]
#   7 A_WORLD                Profile RMS along major axis (world units)                 [deg]
#   8 B_WORLD                Profile RMS along minor axis (world units)                 [deg]
#   9 THETA_WORLD            Position angle (CCW/world-x)                               [deg]
#  10 FWHM_WORLD             FWHM assuming a gaussian core                              [deg]
#  11 ELONGATION             A_IMAGE/B_IMAGE                                           
#  12 ELLIPTICITY            1 - B_IMAGE/A_IMAGE                                       
         1 -11.4503     67.8485     47.3729   7.7316153995e+01   5.9701711049e+01    0.6815574    0.4142508 -23.19  0.001285665    1.734    0.423
         2 -11.2569      4.9260     35.9600   1.0183615807e+02   6.8672958400e+01    0.6639478    0.4329499 -57.54  0.004247862    1.458    0.314
         3  -9.9580     75.4609     27.2630   6.6277238674e+01   6.1423860043e+01    0.3620207    0.2902164  42.12  0.002176559    1.284    0.221
         4 -12.2480    107.3951     29.1670   5.7299317969e+01   5.4613463643e+01    0.4947705    0.4090811 -20.59  0.002759648    1.272    0.214
         5  -9.8868     53.5908      9.6770   6.6455108060e+01   6.7395400006e+01    0.6217535    0.3458431  59.79  0.002798168    3.456    0.711
         6  99.0000     43.8882     15.9820   7.3787765605e+01   6.8125207205e+01     1.932927     0.591101  26.93  0.005126599    7.907    0.874
         7 -11.1559     16.7404     17.3994   8.8299374350e+01   7.1106254626e+01    0.5637784    0.3835432   4.55  0.003048904    1.351    0.260
         8 -11.1299     25.2332     22.3434   8.5964871295e+01   6.9500175861e+01    0.6332876    0.3227141   1.68  0.003030065    2.554    0.608
         9 -11.3773     18.7276     28.1905   9.1848748218e+01   6.9136320801e+01    0.4922124    0.3441748 -46.30 0.0007624878    1.416    0.294
        10 -11.5738      5.7125     14.7628   9.3437495535e+01   7.2414871238e+01    0.6399695    0.3626677 -53.12  0.002589861    1.936    0.484
        11  -9.9262     23.5349      1.3879   7.6364442778e+01   7.2656226787e+01    0.1784302     0.130284  13.27  0.000164635    1.182    0.154
        12 -11.1005     13.7207     11.4763   8.7225610101e+01   7.2295999140e+01     0.513522    0.2412469 -22.79  0.002190263    2.112    0.526
        13 -11.5605     24.9368      6.9214   7.8609172163e+01   7.1786239613e+01    0.2151111    0.1617818 -20.38 0.0002960681    1.207    0.171
        14 -12.1538     20.9492      6.1649   8.0401050541e+01   7.2337861266e+01    0.3835791    0.2352217  -1.82  0.002406417    1.508    0.337
        15 -12.1923    166.4402     17.1082   4.1799908451e+01   4.1788170953e+01    0.6278694    0.3785668  21.59  0.002871013    2.557    0.609
        16 -11.1226    221.8541     26.9352   3.7923348072e+01   2.7559834796e+01    0.5029119    0.3480641 -38.17  0.002051704    1.413    0.292
        17  -9.4521    225.8959     16.6873   3.5222964138e+01   2.7846500999e+01    0.2292787    0.2109361 -25.12 0.0007151543    1.363    0.266
        18 -10.7813    218.6798     18.9483   3.6377160456e+01   2.9197388260e+01    0.6633141    0.2652325  83.79  0.002706321    2.983    0.665
        19 -10.1210    212.0448      8.8760   3.4634794559e+01   3.1780054285e+01    0.4620114    0.2385396  60.95  0.002409776    1.899    0.473
        20 -10.7000    208.5839      4.1656   3.3832400045e+01   3.3039434206e+01     0.388654    0.2797182 -50.32   0.00158245    1.307    0.235
        21 -12.0228      2.0866     25.1127   9.9660368974e+01   7.0853055306e+01    0.2698301    0.1493512 -50.22  0.000603284    1.494    0.331
        22 -10.4879    182.8107     17.6497   3.9837994723e+01   3.7740527585e+01    0.5155834    0.3452431  23.43  0.001234723    2.196    0.545
        23 -10.7820    174.8075     11.9298   3.9247500480e+01   4.0263291128e+01    0.6461064    0.3876168  33.91   0.00315417    2.239    0.553
        24  -9.4503    179.7273     13.3815   3.9054116372e+01   3.8926398895e+01    0.2691408    0.1906904  66.68 0.0007520918    1.277    0.217
        25 -10.8629    133.1335     12.7741   4.5692443380e+01   5.0344770808e+01    0.2344227    0.2301228  59.83  0.000302372    1.108    0.097
        26  -9.0606    128.2480      8.9726   4.5271243281e+01   5.1857961414e+01    0.3775935     0.325322 -13.61   0.00235598    1.308    0.235
        27 -10.0700    208.9391     15.5153   3.6485271122e+01   3.1790878588e+01    0.4220594    0.2868629   7.58   0.00155614    2.496    0.599
        28 -12.0892    116.9479     22.1263   5.2309229798e+01   5.3244600366e+01    0.2994978    0.2778533  26.29 0.0004438483    1.069    0.064
        29 -10.1208    116.7976     15.2924   4.9819843414e+01   5.3978553830e+01    0.6243733    0.2922568  59.14  0.002504851    1.881    0.468
        30  -8.6445     67.5175     11.3131   6.1925409934e+01   6.4784497200e+01    0.3293517    0.2000823  59.18  0.001712241    2.144    0.534
        31 -10.3547     60.8497     18.3022   6.7698398877e+01   6.5166405940e+01    0.4127504    0.2502653 -18.78  0.001598604    1.633    0.388
        32 -10.7196     67.1622     15.5680   6.4039036438e+01   6.4382153650e+01    0.5143642    0.4117864  69.69  0.001638612    1.937    0.484
        33 -10.7805     16.2243      2.9822   8.1392704265e+01   7.3267250865e+01    0.4749615    0.2530912  -3.72  0.001163944    2.041    0.510
        34 -10.1437    199.0355     18.1131   3.8120749849e+01   3.3814846288e+01    0.3618955    0.2492794 -45.69  0.001625636    1.406    0.289
        35 -10.4261    144.7638     17.2477   4.5147479510e+01   4.7091741889e+01    0.4683467     0.303529  46.03  0.001458311    1.488    0.328
        36 -10.0179    147.0557     12.5551   4.3276008924e+01   4.6986475140e+01    0.3721416    0.2114194  57.00 0.0007836125    1.529    0.346
        37  -9.9208    143.0791     10.8779   4.3371979975e+01   4.8110990036e+01    0.3382232     0.296211  -9.12  0.001577448    1.311    0.237
        38  -9.7567    230.0184     14.4802   3.4392121459e+01   2.7191171606e+01     0.299234    0.1845702 -27.18  0.001691027    1.848    0.459
        39 -10.4299    243.6897     14.0879   3.3256336448e+01   2.4336338029e+01    0.3483611    0.1904679 -77.42  0.001697895    1.806    0.446
        40  -9.5503     98.8955     12.8234   5.3084730326e+01   5.8266359312e+01    0.3390049    0.2364774 -75.10  0.001691154    2.387    0.581
        41  -9.5571     32.3670     12.7177   7.7714039980e+01   7.0111444368e+01    0.2629271    0.2039615   0.24  0.001475232    1.042    0.040
        42  -9.6450    219.3568     12.0000   3.4724218268e+01   2.9806521844e+01    0.2833499    0.2049936 -58.91  0.001736675    1.223    0.182
        43  -9.5842     88.9934     13.0422   5.5851350818e+01   6.0369165312e+01    0.2133015     0.169463  14.41 0.0004415066    1.197    0.164
        44  -9.6073     91.7776      8.3986   5.3115808413e+01   6.0217619992e+01    0.3719223    0.1645459  37.60  0.001179086    2.164    0.538
        45  -8.9202     86.8589      6.3909   5.3594575123e+01   6.1436739407e+01     0.293345    0.1845251  64.67  0.001571135    1.769    0.435
        46  -8.9476     75.2376     12.4826   5.9823062130e+01   6.3202663299e+01    0.2131461    0.1644732 -14.12 0.0008971157    1.307    0.235
        47 -10.5890    192.0266      8.0174   3.6301141644e+01   3.6512132362e+01    0.3809659    0.3614152 -51.86  0.001123354    1.196    0.164
        48 -10.8465    193.7980      3.9337   3.5100616605e+01   3.6485565972e+01    0.7239515    0.2088615  62.11  0.002918811    2.868    0.651
        49  -9.7461     78.8421     11.0004   5.7996051588e+01   6.2645096919e+01    0.3302933    0.1632608 -26.96  0.001645434    2.113    0.527
        50  -9.7250     49.7665      2.1208   6.4168251712e+01   6.8823575780e+01    0.3204652    0.1439602  35.81  0.001103239    1.953    0.488
        51 -10.1017     42.5656     10.3138   7.1569339535e+01   6.9036481636e+01    0.4282465    0.1946888  27.41  0.001630656    2.241    0.554
        52  -8.7670     37.5153      9.5702   7.3566449675e+01   6.9844960549e+01    0.1426782     0.102969 -30.34 0.0001238454    1.467    0.318
        53  -8.9310     44.9909      5.7002   6.8091415240e+01   6.9209110434e+01    0.2040841    0.1418196   4.14 0.0004208842    1.258    0.205
        54  -9.8243    224.6272      9.1669   3.3655427240e+01   2.8939592528e+01    0.2221964     0.178326 -73.16 8.466573e-05    1.031    0.030
        55  -9.8621    120.0613      8.9778   4.6828592169e+01   5.3795866980e+01    0.2810728    0.2258102 -12.82 0.0008582218    1.392    0.282
        56 -10.7251    202.4124      8.4659   3.5404838523e+01   3.4033235822e+01    0.2959646      0.22491 -74.18  0.001831662    1.179    0.152
        57  -9.5252    165.2467      8.1935   3.9382887553e+01   4.2944719984e+01    0.3171153    0.1837899 -47.87  0.001577654    1.836    0.455
        58 -11.0978    109.5194      5.3639   4.7648978147e+01   5.6544047946e+01    0.6885573    0.4333935  52.95   0.00182627    1.335    0.251
        59 -10.5761    115.7238      1.9892   4.5117123013e+01   5.5380346809e+01    0.2279101    0.1633685  59.08 0.0003323012    1.197    0.165
        60  -8.6503     74.2537      7.7706   5.7988663233e+01   6.3862390736e+01    0.1910405    0.1402423  -0.78 0.0007612077    1.335    0.251
        61  -8.6126     80.5083      1.6286   5.3277009260e+01   6.3153771366e+01    0.3773101    0.1364655  58.12  0.001608351    2.615    0.618
        62 -10.0984     73.9901      2.1813   5.5476374146e+01   6.4417382086e+01      0.27158    0.2536977  20.53  0.001204418    1.217    0.178
        63  -9.8946     69.2023      1.9572   5.6900259959e+01   6.5367217972e+01     0.319093    0.1697693  31.30  0.001691261    1.719    0.418
        64 -10.3366    237.5349      7.1663   3.2258007753e+01   2.6373838976e+01    0.2519341    0.1282248 -80.73  0.001323581    1.974    0.493
        65 -10.4506    119.4621      2.4229   4.4566795054e+01   5.4474563916e+01    0.2465154    0.1943675  51.41 0.0006099324    1.083    0.077
        66 -10.7354    248.4186      4.6036   3.1004727088e+01   2.4394834345e+01    0.3010757     0.267925  -1.85 6.626548e-05    1.676    0.403
        67  -9.4905    172.3662      5.6593   3.7803320676e+01   4.1445799150e+01    0.4941109    0.2119318  57.31  0.002265475    2.069    0.517
        68  -8.5201    174.2788      1.3097   3.6396636039e+01   4.1368499208e+01    0.2163504    0.1350958  48.00 0.0004248898    1.699    0.411
        69 -10.0497     61.3822      4.7495   6.0978620831e+01   6.6564487402e+01    0.3042495    0.2549416 -53.80  0.001137359    1.873    0.466
        70 -10.9161    179.8643      2.1330   3.6023571358e+01   3.9956242041e+01    0.3349067    0.2096741  81.22  0.001848203    1.431    0.301
        71  -9.7751    152.9798      4.2276   3.9824187483e+01   4.6282911728e+01    0.2499639    0.1883179 -26.30  0.001477923    1.509    0.338
        72 -10.3189     30.8904      3.4740   7.3620057140e+01   7.1480589200e+01    0.2708161    0.1877982 -36.75 0.0008052732    1.764    0.433
        73  -9.9619    218.4030      2.8912   3.2747134232e+01   3.0954743559e+01    0.2715096    0.2285914  65.86  0.001220559    1.313    0.239
        74 -11.0199    160.3152      2.7164   3.8417941960e+01   4.4626487202e+01    0.5487337    0.2553782  67.40  0.001733414    1.815    0.449
        75  -8.5557    168.0228      1.4727   3.7139424373e+01   4.2863344136e+01     0.307944    0.1540375  58.79  0.001106324    1.756    0.431
        76  -9.8336     90.3431      1.9211   5.0741329109e+01   6.1070851933e+01    0.4619654    0.2170511  64.28  0.001599583    2.226    0.551
        77 -10.2701    238.0884      2.7096   3.1293712484e+01   2.6721364143e+01    0.2411233    0.1487695 -89.70 0.0009954066    1.456    0.313
        78  -9.6763      3.2753      2.5414   8.9103182019e+01   7.4494110934e+01    0.2979575    0.1478347 -12.12  0.001706627    2.055    0.513
        79  -9.0499     40.0042      5.1256   7.0056759758e+01   7.0022506782e+01    0.2803892    0.1767386 -35.18  0.001700062    1.821    0.451
        80  -9.5310    144.5787      3.1532   4.0673792453e+01   4.8412620964e+01    0.4137727    0.1681102  69.54  0.001787782    2.179    0.541
        81  -8.7545    186.1429      1.2582   3.5161051998e+01   3.8538130235e+01    0.1764296     0.096098  82.88 0.0002793948    1.697    0.411
        82  -8.3755    128.8407      1.0000   4.2413437905e+01   5.2366870703e+01    0.2056938   0.06437052  66.71 0.0005102291    2.752    0.637
        83  -8.7751     83.5221    117.0903   9.2923649485e+01   4.2321823637e+01    0.2251685    0.1401822 -55.30 0.0007368544    1.519    0.342
        84  -9.2235    201.5272    249.6301   8.9419895185e+01  -4.8954230083e+00    0.2188296    0.1504708  22.46 0.0006359312    1.185    0.156
        85  -8.7516     47.9398    115.4029   1.0392066704e+02   4.7497151296e+01    0.2667238    0.1116065  37.86   0.00109783    2.590    0.614
        86  -8.7343    122.1376    112.2101   8.0214082386e+01   3.6416189756e+01    0.2120973    0.1877749  88.03   0.00043609    1.325    0.245
        87  -9.8335     62.9143    110.8969   9.8101637811e+01   4.6810243883e+01    0.2334324    0.1855928 -54.07 0.0002860438    1.133    0.117
        88  -9.4243    231.6145    109.8068   5.6117192880e+01   1.3084771242e+01    0.2128494    0.1142533 -45.33 0.0009539711    1.728    0.421
        89  -9.5573    129.7056    109.4525   7.7393902785e+01   3.5455063288e+01     0.284944    0.1535531  48.20 0.0008438023    1.946    0.486
        90  -9.4582     41.2441     95.0320   1.0199941367e+02   5.3135895231e+01    0.4682672    0.1800073  33.82  0.001938317    2.825    0.646
        91  -9.3700     36.9876    108.2713   1.0616813934e+02   5.0358273908e+01    0.3451178     0.308659  82.13  0.002095452    1.226    0.185
        92  -9.6688     35.8482    104.1768   1.0577491190e+02   5.1459664821e+01    0.3643643    0.1788653  26.88  0.001325327    2.298    0.565
        93  -9.1080     39.6416    102.7199   1.0418927137e+02   5.1452823256e+01    0.2700924    0.1818404 -31.05  0.001304543    1.607    0.378
        94  -9.0352     42.6995     99.5382   1.0246712284e+02   5.1913812914e+01    0.2763492    0.1588993  36.09  0.001066201    1.963    0.490
        95 -10.3642    117.9512    105.9439   7.9705991589e+01   3.8673446015e+01    0.4493808    0.2922094 -31.13 0.0009562683    1.724    0.420
        96 -10.2780     95.0628    106.6661   8.6735115285e+01   4.2870253819e+01    0.6689212    0.3736734  56.76  0.002540863    2.574    0.612
        97  -9.6581      1.9259     92.9140   1.1552542044e+02   5.6473241358e+01    0.5037145    0.1626752  26.50  0.002257551    3.477    0.712
        98  -9.6124     69.4926    103.4973   9.4193019497e+01   4.7699169237e+01     0.547225    0.1285277  40.64  0.001572654    4.682    0.786
        99  -9.1593     62.7360    104.8361   9.6780334800e+01   4.8301211273e+01    0.2331777    0.1925668  -1.03 0.0007334693    1.379    0.275
       100 -10.3881    100.4072    103.7538   8.4306229613e+01   4.2576268596e+01    0.6142857    0.3970266 -13.06  0.002393406    2.477    0.596
       101  -9.8399    101.3547     98.7656   8.2638183622e+01   4.3527771891e+01    0.3907209    0.3011377  18.02  0.001511369    1.481    0.325
       102 -10.2450     49.4674    101.2592   1.0049072465e+02   5.0776310054e+01    0.5376195     0.319548 -48.20     0.001953    1.479    0.324
       103 -10.0551     84.9511    102.3987   8.8819672431e+01   4.5590003567e+01    0.2799022    0.2108701 -50.62 0.0003180389    1.258    0.205
       104  -8.2173    174.7014    102.7229   6.4706206366e+01   2.6762161165e+01     0.150404     0.121061  10.00 0.0006951467    1.536    0.349
       105 -10.1365    139.0612    101.9995   7.2867173714e+01   3.5027605523e+01    0.2314347    0.2265794 -52.43 0.0003064966    1.046    0.044
       106  -9.7693    104.7516     90.9260   7.9333750981e+01   4.4596022271e+01    0.4105665    0.2405277  45.91 0.0007917304    1.801    0.445
       107 -10.5247    109.5220     99.0597   8.0246513289e+01   4.1889091310e+01    0.6188431    0.3601901  44.99  0.001907551    1.790    0.441
       108 -10.0204    108.9862     95.3234   7.9337760665e+01   4.2813061906e+01      0.46068    0.3183188  49.97  0.002085137    1.574    0.365
       109 -10.6249     57.4267     99.7311   9.7387658070e+01   5.0201702988e+01    0.3287846     0.249458 -29.47 0.0003769276    1.365    0.267
       110 -10.8823     16.2948     98.2345   1.1140808013e+02   5.4420671354e+01    0.2755572    0.2072189 -52.65 0.0002422894    1.124    0.110
       111  -9.4733     12.8226     94.7720   1.1203556553e+02   5.5459205938e+01    0.4386904    0.1402245 -64.64  0.001851569    2.341    0.573
       112 -10.2186    124.6106     98.2066   7.5662242107e+01   3.8974377611e+01    0.4700733    0.2992671  29.12  0.001766014    1.859    0.462
       113  -8.9593    117.1064     98.4731   7.7859236291e+01   4.0488292684e+01    0.2339563    0.2002695 -39.81 0.0006092066    1.141    0.123
       114  -9.5871     77.8264     98.6166   9.0162484238e+01   4.7609802237e+01    0.4326413    0.2139445 -51.84  0.001783058    1.887    0.470
       115  -8.7267     72.4609     99.5167   9.2196624844e+01   4.8211524161e+01    0.1452225    0.1337099 -43.81 0.0006697112    1.023    0.023
       116  -8.5279    156.8817     98.5997   6.7544236592e+01   3.1682110514e+01    0.2091914    0.1495085  63.65  0.000378614    1.618    0.382
       117  -8.9337     27.7292     91.7656   1.0617141154e+02   5.5127935708e+01    0.1905089    0.1727166  59.12  0.001226007    1.324    0.244
       118 -11.2441     30.4860     85.2413   1.0376214156e+02   5.6426373178e+01    0.7279276    0.4205606 -21.83  0.002066466    2.093    0.522
       119  -9.9075     33.9884     97.9120   1.0518224707e+02   5.3136791225e+01    0.2258038    0.1712053 -64.57            0    1.181    0.153
       120 -10.1426     33.4380     91.4989   1.0404256428e+02   5.4708559266e+01    0.5430826    0.2052961 -43.77  0.001649022    2.442    0.590
       121  -9.7324    130.5517     96.1758   7.3456077960e+01   3.8120296970e+01    0.3654792    0.2584356   1.42  0.001139826    2.090    0.522
       122  -9.3815    135.4910     96.4700   7.2229990703e+01   3.6970824370e+01    0.1548029    0.1515313 -11.08 7.971105e-05    1.003    0.003
       123  -8.7149     62.9594     96.4403   9.4664522520e+01   5.0266878076e+01    0.2016001     0.139792  31.34 0.0007963667    1.569    0.363
       124  -9.6801     23.4910     95.4245   1.0840117481e+02   5.4588796308e+01     0.236381    0.2155447 -76.84 0.0008480908    1.160    0.138
       125  -9.0041     73.5258     94.9897   9.0647227604e+01   4.9106036065e+01    0.2028151    0.1924252 -17.25 0.0003335747    1.060    0.057
       126  -9.0346     51.9174     93.8868   9.7920921032e+01   5.2248645891e+01    0.2072826     0.161709  77.16 0.0006571604    1.716    0.417
       127  -9.7000     58.3453     88.4431   9.4232782414e+01   5.2725364919e+01    0.5026128    0.2186002 -65.30 0.0005695301    3.270    0.694
       128 -10.8982     48.3986     89.0765   9.8013516408e+01   5.3774709918e+01    0.5916577    0.4154415 -48.11  0.003204233    1.232    0.188
       129 -10.4205     43.6718     88.2877   9.9556725345e+01   5.4470676502e+01    0.4344352    0.2252258  25.38 0.0004459442    2.165    0.538
       130  -9.8290     48.0396     82.5218   9.6470705047e+01   5.5317814599e+01    0.8384516    0.2730731  44.52  0.002584315    5.120    0.805
       131 -12.5557     52.9543     74.8575   9.2466083415e+01   5.6438214624e+01    0.6081211    0.3386205 -58.57 0.0004788942    1.888    0.470
       132 -10.6677     45.4532     68.7898   9.3626642768e+01   5.8631089114e+01    0.6674638    0.3633089 -19.98  0.001917712    2.462    0.594
       133  -9.4942    116.8089     91.6992   7.5977154965e+01   4.1995876882e+01    0.2753096    0.2541594  -2.50 0.0002648367    1.101    0.092
       134 -10.2421    124.1814     88.0961   7.2818627467e+01   4.1171126130e+01    0.5305989     0.276199 -46.70  0.002085062    1.972    0.493
       135 -10.7720    129.2895     85.4474   7.0629142728e+01   4.0579229006e+01    0.4772419    0.3740481   1.77  0.001612159    1.574    0.365
       136  -9.5575    132.9733     81.9834   6.8604058010e+01   4.0427443186e+01    0.2261082    0.2143606 -71.30 0.0005369309    1.147    0.128
       137  -9.2473     94.4378     87.2639   8.1482908224e+01   4.7337004827e+01    0.4996232    0.3118947  -6.17  0.001846162    2.830    0.647
       138 -10.2465     87.3042     86.8012   8.3678855854e+01   4.8711277027e+01     0.590269    0.3062555 -46.13  0.002213212    1.829    0.453
       139  -8.9896      7.2573     89.1505   1.1307246433e+02   5.7090553881e+01    0.2103083    0.1335699  50.52 0.0009267837    2.024    0.506
       140  -9.5494     16.0876     86.8082   1.0945396291e+02   5.7126931449e+01    0.3182757    0.1943126 -33.05  0.001183281    1.651    0.394
       141  -9.1296     70.4788     86.8601   8.9463679030e+01   5.1407789876e+01    0.2750762    0.1975721 -52.05 0.0006899756    1.335    0.251
       142 -10.2872     80.2604     84.2385   8.5295203619e+01   5.0458649547e+01      0.51176    0.3586262  -0.48  0.001886321    1.854    0.461
       143 -10.9013     73.6459     80.6827   8.6538181275e+01   5.2286322077e+01    0.7336469    0.3699971 -45.67   0.00316335    1.830    0.453
       144 -10.5845     80.3691     76.2720   8.2811278670e+01   5.2134800343e+01    0.4604264    0.3164068  13.47  0.001890342    1.749    0.428
       145 -11.9080     79.7170     69.9994   8.1011797693e+01   5.3523281062e+01    0.3361746    0.2659185  23.76 0.0002624709    1.287    0.223
       146  -9.2849     64.7245     86.1485   9.1311114671e+01   5.2393856732e+01    0.4570852    0.2366964 -22.27  0.001610802    3.391    0.705
       147  -8.4647     11.3954     85.7642   1.1098867286e+02   5.7652620746e+01    0.1855897   0.08651725 -56.30 0.0006987493    1.617    0.382
       148 -10.4564    155.2470     84.0996   6.3805455780e+01   3.4854396836e+01    0.4032202    0.2183205 -40.26   0.00129436    1.827    0.453
       149 -11.1388    149.4131     80.2737   6.4027255962e+01   3.6939192025e+01    0.6301593    0.2601607  54.24  0.002203941    2.527    0.604
       150 -10.5118    142.9590     80.8675   6.5746110724e+01   3.8342851182e+01    0.2615724    0.2505485 -40.04  0.001404367    1.052    0.049
       151  -9.3356    118.2160     84.0164   7.3257464143e+01   4.3278159349e+01    0.2876699    0.1999863  27.49  0.001286304    1.633    0.388
       152  -8.1821     60.3454     83.2641   9.2094076036e+01   5.3636800491e+01    0.1423468     0.100287 -18.39  0.000697867    1.604    0.377
       153 -10.3835     20.2386     79.1457   1.0633402841e+02   5.8617922498e+01    0.5139003    0.2913175 -75.82   0.00133131    1.979    0.495
       154  -9.6987     17.3567     73.7823   1.0628970931e+02   6.0026328336e+01    0.2577277    0.1787649 -44.27 0.0006109816    1.184    0.156
       155  -9.4855     42.2813     81.0925   9.8283927753e+01   5.6266435919e+01     0.325731    0.2435058 -33.36  0.001856802    1.238    0.192
       156  -8.8178     38.3088     79.6497   9.9441765973e+01   5.6993844159e+01    0.1899505    0.1310561 -75.04 0.0009854861    1.756    0.431
       157 -10.6504    180.0049     80.7441   5.7691748968e+01   2.9563681111e+01    0.4039369    0.3421077 -62.98  0.002099962    1.233    0.189
       158  -9.9755    181.3799     72.7901   5.5249994357e+01   3.0585511219e+01    0.3159176    0.1900413 -10.15  0.001175899    2.885    0.653
       159 -10.1241    167.2507     79.5538   5.9893022483e+01   3.2819180958e+01    0.3265665    0.1972975 -20.64  0.001306377    2.181    0.541
       160  -9.2204      2.3341     79.8007   1.1330650221e+02   5.9484231051e+01    0.2897442    0.1617468 -66.55  0.001369454    1.428    0.300
       161  -8.5650     12.8600     79.0016   1.0915534546e+02   5.9124135507e+01    0.1997893    0.1331066  81.74  0.001086586    2.020    0.505
       162  -8.5565     97.7956     88.6013   8.0809929018e+01   4.6426728812e+01    0.2036221    0.1797798 -73.69 7.236187e-05    1.352    0.260
       163 -11.1281     89.4051     73.9493   7.8980874335e+01   5.1027094100e+01    0.4795341    0.3680252 -61.12 0.0007444869    1.614    0.380
       164 -10.8969     95.0404     72.2651   7.6573880696e+01   5.0309093570e+01    0.6484802     0.409062 -41.69  0.002313718    1.553    0.356
       165  -9.8920     68.9754     74.1876   8.6229003680e+01   5.4384728497e+01    0.4823957    0.2186178 -39.20  0.001456173    2.156    0.536
       166  -9.2407     61.5210     76.9887   8.9845496245e+01   5.4859316901e+01    0.2359484    0.1716912 -51.15 0.0008262197    1.322    0.243
       167  -9.6794     64.7860     75.6000   8.8211371744e+01   5.4700533023e+01    0.4603249    0.2960801  58.73  0.001607663    2.524    0.604
       168  -9.8561    110.5747     76.6624   7.3178118597e+01   4.6344479738e+01    0.3298514    0.2577898 -38.69  0.001095064    1.267    0.211
       169  -9.0410     28.3283     75.8476   1.0240254178e+02   5.8750639219e+01    0.2324186    0.1304716 -49.57 0.0006776241    1.440    0.306
       170 -10.9147    170.8769     73.2916   5.7379725953e+01   3.3030112330e+01    0.4258204    0.2968741  67.03  0.001988514    1.550    0.355
       171  -9.9685    173.3427     69.1309   5.5721666722e+01   3.3126881572e+01    0.3754279    0.2295315  34.74  0.001024011    2.092    0.522
       172  -9.3357    160.4458     74.4921   5.9860011656e+01   3.5339931140e+01    0.1475438    0.1473118 -76.33 0.0008080936    1.013    0.013
       173 -10.0741    152.2003     72.9056   6.1188901291e+01   3.7595643816e+01      0.31567    0.2512625 -53.27 0.0007390294    1.338    0.252
       174 -10.5510    145.0557     71.4843   6.2393559351e+01   3.9547053781e+01    0.5232394    0.3442686  18.71  0.002135794    2.249    0.555
       175 -10.6243    143.9282     66.3868   6.1080019705e+01   4.0690518734e+01     0.346809    0.2960067  45.23  0.000680641    1.149    0.130
       176  -9.9780    147.5270     64.4763   5.9666152642e+01   4.0147657029e+01    0.2462774    0.2366893   3.84 0.0007106235    1.074    0.069
       177 -10.9286    199.6575     71.7697   5.1856747912e+01   2.6420595318e+01    0.3038449    0.2669703  83.68  0.000332007    1.163    0.140
       178  -8.7604    137.6096     71.2058   6.4096542731e+01   4.1349869742e+01    0.2145729    0.1447119 -23.68 0.0009468604    1.686    0.407
       179  -9.2615    101.9174     69.9406   7.3617851609e+01   4.9408620024e+01    0.2636868    0.2066788  37.63  0.001074685    1.271    0.213
       180  -9.9820     10.5666     69.3178   1.0804844516e+02   6.1434050776e+01    0.2393835    0.1493658 -45.38 0.0002109643    1.282    0.220
       181 -10.1827    120.5700     66.3706   6.6971827111e+01   4.6099467197e+01     0.546283    0.3933763 -25.89  0.002520418    1.470    0.320
       182  -8.8455     63.8058     69.3319   8.6616616111e+01   5.6157274825e+01    0.2885902    0.1686752  24.27  0.001356968    1.891    0.471
       183 -11.5229     32.5913     64.5375   9.7669396262e+01   6.0857169916e+01    0.6371068    0.3509909 -10.36 0.0001548502    2.386    0.581
       184 -10.5245     32.2139     59.9754   9.6490195454e+01   6.1852816342e+01    0.3370295    0.2070896 -51.85  0.001741318    1.434    0.303
       185 -10.6249      1.8906     67.5331   1.1121769752e+02   6.2257637605e+01    0.4787567    0.1789359 -55.68  0.001757139    1.861    0.463
       186 -10.2184      8.3180     62.0195   1.0734636577e+02   6.3154555968e+01    0.4651091    0.2549191 -24.38  0.002580554    1.880    0.468
       187 -10.7254      4.2851     59.8266   1.0857585619e+02   6.3829430264e+01    0.4317526    0.2214612 -22.02  0.002342411    2.081    0.519
       188  -9.8199    157.3970     67.6242   5.8475664419e+01   3.7243398377e+01    0.2763157    0.2524393   5.35 0.0006955951    1.200    0.167
       189  -9.9069    133.5679     66.5250   6.3618750246e+01   4.3109246791e+01    0.4050385    0.2575461 -36.15  0.001378844    1.597    0.374
       190 -10.4591    136.6803     65.2825   6.2454100269e+01   4.2593333484e+01    0.3726768    0.2991333 -78.46  0.001327318    1.593    0.372
       191  -9.6240    106.5425     66.0998   7.0913336164e+01   4.9174819430e+01       0.3196    0.2012764  38.95 0.0002635198    1.584    0.369
       192  -9.6209     75.0588     66.0062   8.1342406228e+01   5.5091765486e+01    0.2116687    0.1861941 -18.42 0.0003050881    1.030    0.029
       193 -10.2943    204.1412     63.7258   4.9093495685e+01   2.6632890045e+01    0.4681861    0.2982124  79.35  0.001591014    1.838    0.456
       194 -10.2403     82.6632     63.2654   7.7696746611e+01   5.4320419684e+01    0.4309347    0.2453541 -50.54  0.001907082    2.005    0.501
       195  -9.6270     25.0521     54.3451   9.7930251765e+01   6.3644769716e+01     0.402641    0.2199831 -62.62 0.0005206884    2.011    0.503
       196 -10.4874     22.6578     63.7644   1.0165656844e+02   6.1856688627e+01     0.594009    0.2563555 -24.41  0.002180229    3.126    0.680
       197 -10.5561     22.0352     59.5898   1.0078977652e+02   6.2793550289e+01    0.3616734    0.2083591 -49.93 0.0007488452    1.395    0.283
       198  -9.5775     15.6391     64.4120   1.0480211990e+02   6.2207250139e+01     0.322212    0.2177137 -18.27  0.001944381    1.525    0.344
       199  -9.5921     97.1352     63.8607   7.3067334561e+01   5.1492933763e+01    0.2018835    0.2005797  87.58 0.0003503931    1.182    0.154
       200  -9.5034     66.4954     63.3719   8.3627137934e+01   5.6961629399e+01    0.3058105     0.293645  84.18  0.001196886    1.365    0.267
       201 -10.5830     70.6491     60.1155   8.0937064290e+01   5.6944884232e+01    0.3047881    0.2934905  51.67 0.0009312667    1.305    0.234
       202  -9.9681    164.5267     51.4538   5.2240114317e+01   3.8018178545e+01    0.4317031    0.3202005   3.65  0.001774303    1.824    0.452
       203  -9.6246    160.2603     60.6331   5.5796035083e+01   3.7677702866e+01    0.4353928    0.1886802 -38.80   0.00138143    2.285    0.562
       204  -9.8851    162.7144     57.9873   5.4523662551e+01   3.7488272090e+01    0.3417336    0.2519656 -25.66 0.0009080908    1.477    0.323
       205 -10.1134    135.3086     56.9540   6.0098755738e+01   4.4280553543e+01    0.8347301    0.4077212  33.12  0.002949656    2.934    0.659
       206  -9.0161    127.4243     57.5906   6.2247533591e+01   4.6024895285e+01    0.3694854    0.1346289  49.87  0.001297323    2.586    0.613
       207  -9.5240     53.8006     60.8029   8.7730548294e+01   5.9264311496e+01    0.2507021    0.2445198  33.17 0.0004713874    1.291    0.226
       208  -9.4290     54.0099     54.0092   8.5297653617e+01   6.0560124862e+01    0.4531593    0.2748487  -2.74  0.002124652    2.184    0.542
       209  -9.4662    194.0072     60.0417   4.9667699329e+01   2.9578118531e+01    0.2070975    0.1969043 -74.48            0    1.025    0.024
       210 -10.5039    150.2961     59.8560   5.7627742935e+01   4.0226155080e+01    0.3458332    0.2435981  71.92  0.001093447    1.616    0.381
       211  -9.2765     15.7862     59.8368   1.0358170080e+02   6.3181926121e+01    0.1862226    0.1321141 -36.53 0.0006692826    1.174    0.149
       212  -9.3820    140.8724     60.1449   5.9821300064e+01   4.2448606192e+01    0.2097648    0.1751283  22.91   0.00107566    1.306    0.234
       213  -9.6585    105.0935     57.5131   6.8390107489e+01   5.0985908848e+01     0.293016    0.1985429 -33.75 0.0005128418    1.485    0.327
       214 -10.5389     39.7232     57.9325   9.2632848223e+01   6.1519503692e+01    0.2616476    0.2168824 -51.50  0.001071264    1.275    0.216
       215  -8.7000    180.4916     58.4866   5.1439960947e+01   3.3067653654e+01    0.1417954    0.1378758  82.17 0.0008100747    1.045    0.043
       216 -10.2799    167.9105     56.6912   5.3157799162e+01   3.6412159748e+01    0.5362935    0.3048106  75.01  0.001510017    2.218    0.549
       217  -9.9834    172.0088     53.4822   5.1487305559e+01   3.5884390170e+01    0.2790107     0.248934 -16.44 0.0003614634    1.248    0.199
       218 -10.0102    175.1637     50.4706   5.0081196810e+01   3.5546300261e+01    0.3110109    0.2843592 -30.99 0.0009007002    1.163    0.140
       219  -9.0087     48.6691     57.8471   8.8836277378e+01   6.0504607993e+01    0.2265159    0.1601963 -13.75 0.0008858552    1.450    0.310
       220  -9.6691     65.0483     56.5282   8.1795817363e+01   5.8497685522e+01    0.2535146    0.2104951  12.08 0.0003262624    1.170    0.146
       221  -9.6506     61.4181     52.1607   8.1633517086e+01   5.9853938539e+01    0.2835307    0.2627544 -65.57  0.001645037    1.458    0.314
       222 -10.1731     71.6395     51.4689   7.7431799567e+01   5.8366851801e+01    0.4011538    0.2744184 -26.04 0.0009104969    1.419    0.295
       223  -9.7431    115.8875    248.6800   1.0612453132e+02   7.9634917010e+00     0.210647    0.1944785  23.94 0.0007263166    1.215    0.177
       224 -12.7683     61.8899     43.9511   7.8320269129e+01   6.1229271329e+01    0.4579501    0.2661481 -36.93  0.001372541    1.626    0.385
       225 -10.4972    127.1680     39.3107   5.6085999117e+01   4.8779606062e+01    0.5165504    0.3775468 -72.81  0.002511567    1.909    0.476
       226 -11.5996    119.2605     52.4892   6.2632770152e+01   4.8703820592e+01     1.002201    0.4531891  42.12 0.0007290489    2.230    0.551
       227 -11.1112    124.9639     31.1127   5.3725438800e+01   5.0341800044e+01      1.35309    0.5428497  58.86  0.005344368    2.341    0.573
       228 -10.1289    135.4988     36.4406   5.3247353599e+01   4.7167271104e+01    0.2763723    0.2624995 -52.27 0.0005290741    1.141    0.124
       229 -10.4907    131.8949     36.0820   5.3905483800e+01   4.8077975240e+01    0.3872131    0.2798198 -16.43            0    1.561    0.359
       230  -9.8381    127.7338     48.0135   5.8941594411e+01   4.7427802904e+01    0.2223873    0.2134066 -32.50 0.0003041349    1.105    0.095
       231 -10.5099    125.7591     45.0181   5.8395434585e+01   4.8323043600e+01    0.4471307    0.2895908  42.64   0.00114703    1.486    0.327
       232  -8.9791    111.1473     56.3528   6.6211593332e+01   4.9885160725e+01     0.198183    0.1718372  45.93 0.0004824729    1.154    0.134
       233  -9.8317     45.0966     55.0510   8.9386249940e+01   6.1487649887e+01    0.3437073    0.2589816  17.59  0.001289158    1.372    0.271
       234  -9.9754     46.7220     47.6116   8.6043484433e+01   6.2706484361e+01    0.3013926    0.2169701  -8.32 0.0005808352    1.372    0.271
       235  -9.1289     42.4576     44.6663   8.6814230586e+01   6.3769548202e+01    0.2794745    0.1889916 -31.58  0.001147174    1.280    0.219
       236 -10.4328     42.4097     49.2888   8.8529319736e+01   6.2914676822e+01    0.4401823    0.1810056 -41.15  0.001868958    2.124    0.529
       237 -10.0513     38.1462     46.4000   8.9380625897e+01   6.3943900286e+01    0.3216051    0.2732674  47.98  0.002023464    1.661    0.398
       238  -9.0464     14.3126     55.1203   1.0297768459e+02   6.4272374665e+01     0.447663    0.2468279 -35.22  0.001508656    1.563    0.360
       239 -10.2848     18.3747     46.8254   9.8671948925e+01   6.5684099274e+01    0.4773529    0.3424219 -27.40   0.00306417    1.182    0.154
       240  -9.4507     25.0965     47.7316   9.5816667007e+01   6.4967790302e+01    0.2127439    0.1383203 -43.59 0.0001728526    1.267    0.211
       241  -9.1586     27.0398     44.2953   9.3744554669e+01   6.5462422933e+01    0.2066016    0.1329448 -36.27 0.0003193973    1.272    0.214
       242  -8.8813      8.4398     43.5624   1.0242768651e+02   6.6987954263e+01    0.1744047    0.1488636 -32.51 8.011771e-05    1.135    0.119
       243  -8.9087     30.4786    247.5089   1.2235678509e+02   1.9232766417e+01    0.1123912   0.08242217  65.70 0.0001282868    1.016    0.016
       244 -10.5506      6.9631     51.2099   1.0527103339e+02   6.5515716704e+01    0.3565685    0.2472752 -65.37  0.001381396    1.438    0.305
       245  -9.7292     10.8144     50.4150   1.0327693754e+02   6.5463115105e+01    0.2348837    0.1784525 -51.03 0.0004985029    1.150    0.130
       246 -10.5221     12.1500     44.4608   1.0090512901e+02   6.6583362685e+01    0.4226398    0.1500494 -52.73  0.001263261    2.130    0.531
       247 -11.7294     14.3142     39.1725   9.8148627878e+01   6.7469689020e+01     0.559954    0.3918008 -56.30  0.002760104    1.461    0.316
       248 -10.0114    191.5120     54.0293   4.8448203652e+01   3.1063652075e+01    0.3144096    0.2513426 -27.73  0.001102098    1.350    0.259
       249 -10.4176    148.8306     54.4048   5.6243045949e+01   4.1426013090e+01    0.4687404    0.3106668  65.69 0.0004163102    1.585    0.369
       250  -9.5046     90.6232     40.9111   6.6748058317e+01   5.6591271780e+01    0.3562624    0.3026546 -85.32   0.00119435    1.759    0.431
       251  -9.3658     90.8059     37.1516   6.5217785661e+01   5.7098668435e+01    0.2064898     0.174106  15.21 0.0003151673    1.095    0.087
       252 -10.9042     94.0112     45.0200   6.7243976392e+01   5.5290492378e+01     0.387491    0.3314847 -54.48  0.002179257    1.465    0.317
       253 -10.7980     93.6855     49.3404   6.8969858949e+01   5.4676278064e+01    0.8680232     0.335646 -36.34  0.003019101    2.601    0.616
       254 -10.7035     90.7170     47.6785   6.9308022073e+01   5.5531290379e+01    0.7001336    0.2788808  42.75  0.002591568    2.427    0.588
       255 -10.4156     31.3904     52.8960   9.4639923706e+01   6.3375403823e+01    0.4956356     0.256274  33.92   0.00232804    2.251    0.556
       256  -9.0688      1.7301     55.3926   1.0867548562e+02   6.4891827319e+01    0.2149464    0.1111212   2.81  0.001196477    2.257    0.557
       257  -8.5160    106.6816     52.9680   6.6309603217e+01   5.1400616153e+01    0.1915675    0.1790353   1.68 0.0002297259    1.036    0.035
       258  -9.3536     82.9600     52.1105   7.3584896591e+01   5.6274127268e+01     0.330931    0.2140922 -47.48 0.0008584964    1.768    0.434
       259  -9.1707     79.3565     47.7499   7.3207425290e+01   5.7663688705e+01    0.2732752    0.1523288 -41.27 0.0006202026    1.847    0.459
       260  -8.6697    212.3080     51.8818   4.4983059213e+01   2.6481180544e+01    0.1781755    0.1599154 -49.79  0.000252089    1.092    0.084
       261 -10.5369    153.5117     49.0827   5.3624688426e+01   4.1066753407e+01    0.5245794    0.3064852  68.67  0.001311121    1.870    0.465
       262 -10.0668    181.4088     49.1802   4.8696001121e+01   3.4202018517e+01    0.3633774    0.2220406 -49.70 0.0009227414    1.683    0.406
       263  -9.8176    180.2742     45.6494   4.7890871585e+01   3.4968893755e+01    0.2580159    0.1841852 -64.52   0.00071389    1.524    0.344
       264  -8.7103     53.7859     50.1744   8.3999813809e+01   6.1308095842e+01    0.1830546    0.1348062 -12.21 0.0003662906    1.320    0.243
       265  -8.8981    224.7596     48.6604   4.2690368757e+01   2.4121056544e+01      0.18704    0.1552123  58.91 0.0006918815    1.333    0.250
       266  -9.7954    203.9870     46.5783   4.4735209940e+01   2.9149360899e+01    0.3419412    0.2104758  44.83  0.000947735    1.941    0.485
       267  -9.9100     31.8148     47.8314   9.2756109763e+01   6.4330960238e+01    0.1935035     0.158067 -18.57 0.0005512217    1.068    0.064
       268 -10.2915    114.5554     46.0047   6.1608927115e+01   5.0748220488e+01    0.3576841    0.2452507 -31.96 0.0008041795    1.509    0.337
       269  -8.6721    112.8344     41.2328   6.0349546436e+01   5.1819763996e+01    0.1917228    0.1522266  18.51  0.000263015    1.313    0.238
       270  -9.1230      1.9906     46.4974   1.0634858987e+02   6.6730364177e+01    0.2918223    0.0707767 -49.37  0.001280577    2.514    0.602
       271  -8.9448    165.0925     45.9535   5.0505783276e+01   3.8657390321e+01    0.2830991    0.1620703  39.49  0.001214775    2.061    0.515
       272  -9.5137    244.7009     43.7212   3.9472356955e+01   2.0513921323e+01    0.2625723    0.2247479  66.61  0.001389156    1.327    0.246
       273  -9.3307    185.3849     43.8284   4.6608649579e+01   3.3970649722e+01    0.2660924    0.2272187  64.38 0.0008604735    1.146    0.127
       274  -9.1192    175.0585     43.3355   4.8064468145e+01   3.6560449025e+01    0.3608759    0.1459941 -42.93  0.001402894    2.485    0.598
       275  -9.1563    149.8886     43.9214   5.2728575571e+01   4.2677994208e+01    0.2106672    0.1823383  33.89  0.000361704    1.205    0.170
       276  -9.0101    133.1811     44.1022   5.6335200384e+01   4.6699453275e+01    0.2214869    0.1864918  27.83 0.0007327056    1.222    0.182
       277 -10.0556    103.9444     42.9981   6.3473386227e+01   5.3520370591e+01    0.5892727    0.2849573  55.09   0.00245107    2.204    0.546
       278 -11.8850    103.7357     38.6400   6.1899749373e+01   5.4185678244e+01    0.4681543      0.28226  57.08 0.0003366437    1.766    0.434
       279  -7.8247     82.0000     43.9719   7.0821608039e+01   5.7789545889e+01    0.2209988   0.07512072 -36.53 0.0005169052    2.933    0.659
       280  -9.1437    200.2116     42.9748   4.4309539441e+01   3.0526003881e+01    0.2575318    0.1876411  59.20 0.0007340736    1.384    0.277
       281  -9.3574     31.8240     41.8742   9.0629826550e+01   6.5457662728e+01    0.2919814    0.2726765 -42.50  0.001962246    1.357    0.263
       282 -11.5270     40.9749     38.5617   8.5126445969e+01   6.5037167768e+01    0.4896344    0.2684886 -10.06 0.0006543742    2.455    0.593
       283  -8.9788    143.2286     42.4179   5.3595835850e+01   4.4509121316e+01    0.2862381    0.1210601  53.23  0.001123605    2.140    0.533
       284 -10.9903    228.3132     38.3679   3.9910117910e+01   2.4707707358e+01    0.4145184    0.2411675 -45.05 0.0007948324    1.524    0.344
       285  -9.5687    190.9792     40.2839   4.4849686488e+01   3.3087128995e+01    0.2585454    0.2007787 -16.84  0.001025225    1.554    0.356
       286  -9.1108    222.3398     40.0729   4.0940248946e+01   2.5809331223e+01    0.1855727    0.1565009 -54.08  0.000979468    1.087    0.080
       287  -9.9246    186.0645     36.7052   4.4569852182e+01   3.4736510708e+01    0.2961155     0.235102 -76.51  0.000850125    1.261    0.207
       288 -10.3581    181.9577     39.3573   4.5885955177e+01   3.5395981951e+01    0.3479882    0.2220077 -49.00 0.0008144231    1.586    0.370
       289 -10.5172    177.2811     36.9003   4.5895721476e+01   3.6855081746e+01    0.4513716     0.278186  86.66  0.001692309    1.891    0.471
       290  -9.6167    238.2228     38.1079   3.8865529577e+01   2.2603179165e+01    0.2151575    0.1962908 -30.80 0.0009390924    1.300    0.231
       291  -8.5612    165.7776     39.4489   4.8460060068e+01   3.9359824578e+01    0.1891388    0.1229907  52.37 0.0003274375    1.482    0.325
       292  -9.0833    158.0328     38.7006   4.9576274225e+01   4.1368231054e+01    0.2407648    0.1867062 -45.92 0.0006931619    1.349    0.259
       293  -8.5072    120.5842     38.8459   5.7502143387e+01   5.0380164374e+01    0.1978691    0.1259585 -43.64 0.0009374955    1.769    0.435
       294  -9.4020     24.9801     38.8035   9.2767971013e+01   6.6682383100e+01    0.2229563    0.1502818 -26.72 0.0006657523    1.247    0.198
       295  -8.5517     82.4206     38.5164   6.8523427995e+01   5.8544201264e+01    0.1341879    0.1215084   5.67 0.0002344742    1.063    0.059
       296  -9.5864     86.5329     35.3119   6.5862234322e+01   5.8209844162e+01    0.4510684    0.2786995 -33.67  0.002294441    1.664    0.399
       297  -9.4682     71.1605     29.8685   6.8941434276e+01   6.1856105580e+01    0.2382955    0.1887199  22.31 0.0004931963    1.131    0.115
       298 -10.5086     77.7421     33.8545   6.8249662116e+01   6.0098787636e+01    0.5087767    0.3427607  32.88  0.001786547    1.388    0.279
       299  -9.5119    163.1688    246.6386   9.6418480450e+01   1.1909606057e+00    0.1811584   0.09919789  28.18 0.0004968581    1.676    0.403
       300 -10.4042    209.1234     33.9197   4.0935030337e+01   2.9606014728e+01    0.4235238    0.3406362   9.53  0.001955382    1.766    0.434
       301  -8.7281    162.7898     36.3329   4.8035387213e+01   4.0495990476e+01    0.2072864    0.1129413  54.25 0.0003865535    1.709    0.415
       302 -10.0654    143.4906     34.2682   5.0895866725e+01   4.5501445815e+01    0.4992034    0.3607133 -55.76  0.001604709    1.600    0.375
       303  -9.7579    145.7184     29.1144   4.8803227104e+01   4.5575304971e+01    0.4872164     0.240147  63.82  0.001760631    1.904    0.475
       304  -9.3377     99.7093     26.9051   5.8505623047e+01   5.6573030369e+01    0.4568999    0.1417881  46.09   0.00148769    2.824    0.646
       305  -8.9114      1.4576    244.0692   1.2723117914e+02   2.2772228733e+01    0.1483176   0.08215725 -89.02 0.0003833353    1.525    0.344
       306 -10.4501    117.4331     32.5660   5.6018096715e+01   5.1919882363e+01    0.3631345    0.2529312  -7.11 8.590454e-05    1.683    0.406
       307 -11.2382    113.8484     32.1551   5.6757794255e+01   5.2792136365e+01    0.3229869    0.2458138 -30.53  0.000282451    1.401    0.286
       308  -8.9182     47.1869     34.4853   8.0669563711e+01   6.4931052407e+01    0.2048693    0.1144525  24.66   0.00105933    1.819    0.450
       309  -9.9041     41.8206     22.5201   7.7849168331e+01   6.7503380320e+01    0.2936501    0.2177246 -29.06  0.001597687    1.293    0.226
       310 -11.0252     55.7733     33.6061   7.6597988013e+01   6.3843769317e+01    0.5919332    0.2987323  41.75  0.001165887    2.154    0.536
       311  -8.9176     55.5440     29.4603   7.4908011781e+01   6.4508282255e+01    0.1656271    0.1088045 -20.88 0.0005094379    1.436    0.304
       312 -10.3884     51.9569     28.9914   7.6225715785e+01   6.5117753092e+01    0.2081163    0.1667491  29.02 0.0003167569    1.305    0.234
       313  -9.8716     48.3519     25.2888   7.6148906144e+01   6.6190645661e+01    0.4415644    0.2253488  32.77  0.001339522    1.904    0.475
       314  -8.4201    215.2947     33.3350   4.0106212965e+01   2.8260013284e+01    0.1230181    0.1007174  30.78 0.0002322683    1.644    0.392
       315  -9.2536    153.8188     31.5267   4.8109850090e+01   4.3300042455e+01    0.4797036    0.2043515  46.95  0.001912024    2.373    0.579
       316  -9.3421    233.2421     31.3968   3.7848792488e+01   2.4515358288e+01    0.2835589    0.1708205  69.29  0.001569151    1.661    0.398
       317 -10.9799    185.7276     30.0490   4.2813169265e+01   3.5637946590e+01    0.6247332    0.3861938  75.28  0.001594492    1.573    0.364
       318  -8.6111     43.9827     31.9745   8.1048040548e+01   6.5764059217e+01    0.1507502    0.1201177 -16.14 0.0003669524    1.055    0.052
       319  -9.7238    202.8740    242.2415   8.8025545152e+01  -4.0661667826e+00    0.1771801    0.1403019  25.66 0.0004388952    1.148    0.129
       320  -9.0831    246.8322    238.8375   7.9472201178e+01  -9.5924032466e+00     0.149105    0.1273688   9.64  0.001089428    1.341    0.254
       321  -8.9285    221.7119    237.4364   8.3725688874e+01  -6.0756650586e+00    0.1669705   0.09622044  21.92 0.0004847326    1.553    0.356
       322  -8.7656    168.3138    237.6538   9.4099901859e+01   1.8208755045e+00    0.1221282   0.09566948  61.96 0.0006654343    1.715    0.417
       323 -11.1932     24.8913     30.9245   8.9782420794e+01   6.8103685884e+01    0.3262281    0.2676168  21.54  0.001057017    1.420    0.296
       324  -8.6465     32.2863    232.6716   1.2113288132e+02   2.1885124603e+01    0.1217713   0.06541533  65.40 0.0002301695    1.612    0.380
       325  -9.6896    186.8213    231.1814   8.9393367626e+01  -2.4872726198e-02    0.1874953    0.1359754   9.22  0.001090432    1.369    0.269
       326  -8.9222    177.1581    231.3902   9.1362287782e+01   1.4469723069e+00    0.1890056    0.1051452  43.33 0.0009506043    1.746    0.427
       327  -8.7853    161.9541    225.0557   9.3495182155e+01   4.9273802943e+00     0.262219    0.1835628 -87.53  0.001222875    2.868    0.651
       328  -8.8343    223.5789    225.0302   8.1289757486e+01  -4.6158671609e+00    0.1944916    0.1390236  22.08 0.0006103006    1.219    0.180
       329  -8.3790    132.1981    225.5900   9.9865599546e+01   9.6232098724e+00    0.1774432    0.1149129  28.94 0.0003424462    1.511    0.338
       330  -9.4829    248.0270     30.6589   3.6378168756e+01   2.1497317554e+01    0.2177681    0.1429778 -52.52  0.001312101    1.274    0.215
       331 -10.5425    163.1630     27.0879   4.5214342926e+01   4.1514147229e+01    0.7935477    0.3220896  52.28  0.002990849    2.288    0.563
       332  -8.1876      1.7162    224.2993   1.2634479349e+02   2.6552514814e+01    0.1142481   0.05871278  65.18 0.0002109634    1.549    0.354
       333  -9.1344     88.6408    220.9521   1.0864844330e+02   1.7171430592e+01    0.2081869    0.1683537  32.37 0.0005715993    1.300    0.231
       334  -9.1840    203.0450    217.8966   8.3963197507e+01  -4.6580992242e-01    0.1924991    0.1584783   8.44  0.000312261    1.036    0.034
       335  -9.0000    230.9294    209.2905   7.7134547324e+01  -3.3948586583e+00    0.1771161    0.1380573   8.62 0.0003803461    1.102    0.093
       336  -8.3748    193.6869    209.6795   8.4376490838e+01   2.3662592232e+00    0.1387267    0.0954347   0.84 0.0007038425    1.652    0.395
       337  -9.0206     35.5167    201.4597   1.1821791207e+02   2.8072932781e+01    0.1225183    0.1010648  78.39 -1.722359e-06    1.023    0.023
       338  -8.3944     94.3379     30.2816   6.1400117946e+01   5.7297186263e+01    0.1426187    0.0934695  23.65 0.0005248061    1.623    0.384
       339  -8.6002    196.0837     29.1656   4.1269013245e+01   3.3253526172e+01    0.1803726    0.1377535 -63.57 0.0005529196    1.260    0.206
       340  -8.2100     65.5275     29.4472   7.0884314464e+01   6.2895801069e+01    0.1352815      0.10709   6.61 -7.418626e-06    1.124    0.111
       341  -9.6689    212.1287     27.4463   3.9029037809e+01   2.9702420469e+01    0.2471939    0.2017699  17.40  0.001448223    1.738    0.425
       342  -8.9512    208.0125     26.7100   3.9288774007e+01   3.0739716755e+01    0.1838613    0.1566866 -89.77 0.0006702385    1.068    0.064
       343  -8.7446    140.1728     26.1224   4.8864570728e+01   4.7271347441e+01    0.1771497    0.1511967 -86.75 0.0002956323    1.272    0.214
       344  -8.5284    120.4040    199.2577   9.8626160873e+01   1.6795026231e+01    0.1783345    0.1338212 -74.43 0.0005803634    1.554    0.357
       345  -8.9794      6.5121    194.5197   1.2385090282e+02   3.2366434012e+01    0.1165987   0.09105702  83.44 0.0008099866    1.035    0.034
       346  -8.6618      5.8202    182.8195   1.2325994095e+02   3.5019560994e+01    0.1622363    0.1072465  70.76 0.0002411814    1.292    0.226
       347  -9.1745     55.3318    181.2846   1.1169697121e+02   3.0426942992e+01     0.204088    0.1833767 -66.09 0.0003878459    1.191    0.160
       348  -9.6991    132.4369     21.3873   4.8763298619e+01   4.9658873937e+01     0.411304    0.3217445  14.61  0.002305264    1.454    0.312
       349 -10.0678      7.3651    174.8538   1.2237223774e+02   3.6706912424e+01    0.1974402    0.1419778  59.55 0.0008652308    1.302    0.232
       350  -9.6289     17.7072    174.5594   1.1998119101e+02   3.5922465735e+01    0.1966783    0.1247314  19.37 0.0008831285    2.063    0.515
       351  -9.6068    127.9234     19.2285   4.8911999570e+01   5.0964436079e+01    0.2803237    0.1903331 -52.10 0.0009522624    1.790    0.441
       352  -8.7770    125.8220     15.4123   4.7990103195e+01   5.1844332077e+01    0.3012371    0.1770015  43.61  0.001159048    1.591    0.372
       353 -10.5699      7.1738    166.9280   1.2183113878e+02   3.8552364527e+01    0.3249651    0.2035151  -0.80  0.001809336    2.585    0.613
       354  -9.5096    188.9240     22.1736   4.0307466913e+01   3.5775011795e+01    0.3753428    0.2502016  21.61  0.001843568    2.322    0.569
       355 -10.7593    153.7441     22.9793   4.5468990730e+01   4.4292457653e+01    0.2518375    0.2307975  53.10  0.000334088    1.080    0.074
       356 -10.7956     16.6997    165.1762   1.1942105513e+02   3.8208951470e+01    0.4559623    0.2536796 -18.14    0.0020575    3.621    0.724
       357 -10.6261     24.2677    162.7181   1.1733411480e+02   3.8141958272e+01    0.3396069    0.1893554  40.23  0.001836125    1.845    0.458
       358 -11.7271     37.6720    159.4891   1.1357515675e+02   3.7643391981e+01    0.6377277    0.3801097  61.80   0.00298763    1.789    0.441
       359  -9.6587     61.5984     23.6070   6.9836656642e+01   6.4359780788e+01    0.2212487    0.1698895  18.95 0.0006620923    1.144    0.126
       360 -12.0746     30.5949    154.9342   1.1489451500e+02   3.9444952942e+01    0.5926604    0.4441856  71.55  0.002509143    1.299    0.230
       361  -9.3636      5.7026    141.4431   1.2004735393e+02   4.4683111311e+01    0.2269734    0.1761689 -53.66 0.0009342081    1.326    0.246
       362  -9.5064    205.4766     23.0148   3.8653584321e+01   3.1758790759e+01    0.2513417    0.1930229 -24.42  0.001190389    1.517    0.341
       363  -9.0222    208.3188     22.6944   3.8277408999e+01   3.1135706801e+01    0.2050517    0.1484856  82.81 0.0005771345    1.282    0.220
       364  -8.7026    124.1360     23.0929   5.1064163236e+01   5.1456865574e+01    0.2122144    0.1600996 -77.32  0.000867329    1.731    0.422
       365  -9.5078    109.3753     21.7990   5.3983756667e+01   5.5015336247e+01     0.247508    0.2035623  -0.93 0.0009433128    1.281    0.219
       366 -11.3088    105.0523     20.8418   5.4697424652e+01   5.6089665044e+01    0.2492139    0.2290035  46.36 0.0002824136    1.104    0.094
       367  -9.5365    248.0205     35.5703   3.7416466604e+01   2.0885334408e+01    0.2272998    0.1567029 -44.46 0.0003261515    1.266    0.210
       368 -10.9221      4.3542    147.2955   1.2092412696e+02   4.3374917325e+01    0.4576865    0.2495367 -84.60  0.001555634    1.537    0.349
       369 -10.1446      1.6941    158.5702   1.2249454668e+02   4.0894018864e+01     0.289605    0.1512245 -79.29  0.001610619    1.526    0.345
       370 -10.7688    172.1552     23.4690   4.2833951718e+01   3.9708436418e+01    0.5980412    0.3005249  60.74   0.00275474    1.781    0.438
       371  -9.0156    150.9535     19.2510   4.4761949809e+01   4.5372440609e+01    0.3803971    0.1686497  38.99  0.001485126    2.867    0.651
       372  -8.6375    139.8733     19.3561   4.6684837499e+01   4.8070579449e+01    0.1955123    0.1061579  53.99 0.0001888177    1.615    0.381
       373 -10.0420      2.0474    153.4365   1.2201159133e+02   4.2074349701e+01    0.3570409    0.1615798 -84.08 0.0008442792    1.868    0.465
       374  -8.9509    139.5074     13.5903   4.4847537202e+01   4.8727356362e+01     0.237978    0.1654228  56.91 0.0007280395    1.260    0.206
       375  -9.8972    249.1669    153.8488   6.3002731324e+01   2.4740032184e+00    0.1987126    0.1732522 -36.97 0.0006362958    1.205    0.170
       376 -10.7331     12.1366    151.7556   1.1934004720e+02   4.1763721175e+01    0.3358034    0.2567593  68.52   0.00215995    1.262    0.208
       377  -9.8730     93.3990     20.0030   5.7505901308e+01   5.8715095869e+01    0.2883127     0.186424  49.34  0.001100413    1.402    0.287
       378  -9.8098    233.2181     18.1223   3.4925998501e+01   2.6093285682e+01    0.3415819    0.1774391  89.08  0.001751768    1.996    0.499
       379  -9.6637     45.9487    151.3535   1.1034061418e+02   3.8769814225e+01    0.2297978    0.1682919 -65.86 0.0003328014    1.214    0.176
       380  -8.6559    103.4792     16.4428   5.3369974802e+01   5.6898682788e+01    0.1366966    0.1117487  34.49 0.0001465582    1.087    0.080
       381 -10.1480     20.9455    150.5720   1.1694537070e+02   4.1356215565e+01    0.4082316    0.1269656 -54.29   0.00163276    2.924    0.658
       382  -9.2510    230.1440    147.8361   6.4907806156e+01   6.7721506528e+00    0.1921919    0.1539741  -1.88  0.000451213    1.307    0.235
       383  -9.9634     54.2809    145.9905   1.0725255021e+02   3.9155178049e+01    0.2203285    0.2005485  40.88 0.0002090995    1.211    0.174
       384 -11.3122     13.8579    143.4776   1.1808206245e+02   4.3628481052e+01    0.4952608    0.2744472 -40.29  0.002560776    2.188    0.543
       385  -8.6812    154.5690     13.5503   4.2438534826e+01   4.5053455975e+01    0.1320263    0.1175857  70.20 0.0001302903    1.007    0.007
       386  -8.9565     41.8987    139.4994   1.0980262543e+02   4.2143528818e+01    0.1803861    0.1348681  30.07 0.0005367525    1.519    0.342
       387 -11.1161      2.5556    134.2848   1.2021411319e+02   4.6592446666e+01    0.8653439    0.1551997 -68.60  0.003121632    3.448    0.710
       388 -10.8981      6.7450    124.0678   1.1798092065e+02   4.8796913851e+01    0.3911341    0.2063157 -39.40   0.00155925    2.138    0.532
       389 -10.4780      8.0388    132.9787   1.1857822659e+02   4.6566868910e+01    0.3356629    0.1768946 -38.38  0.001674964    2.290    0.563
       390 -10.0894     12.5327    127.4594   1.1669279239e+02   4.7607740834e+01    0.2336534    0.1337184 -48.14  0.001261934    1.702    0.413
       391  -9.9180     34.4703    136.8506   1.1156063787e+02   4.3533651242e+01     0.285881    0.2262915  47.63  0.001030492    1.377    0.274
       392  -9.3619    236.0586    136.9853   6.1528037549e+01   7.5693697817e+00    0.2114548     0.186382 -29.22 0.0004501964    1.035    0.034
       393 -10.6395     34.3170     28.8495   8.4249257685e+01   6.7460378201e+01    0.7503362    0.4168313  17.56  0.004091027    1.871    0.465
       394  -8.9418    230.5120    137.4290   6.2555400473e+01   8.5165892073e+00    0.1398594    0.1239536 -24.07 0.0001095363    1.011    0.011
       395  -9.4808     15.2246    135.3320   1.1683295255e+02   4.5505283763e+01    0.1807104    0.1357941 -65.58 0.0007541313    1.140    0.122
       396  -8.6018    248.7635    134.0000   5.8855786903e+01   5.7988158558e+00     0.182892   0.09814639 -36.25 0.0004414946    1.591    0.372
       397 -11.0813     43.0463    130.9377   1.0816220689e+02   4.4158130105e+01    0.5330262    0.3521726 -46.99  0.001336229    1.487    0.328
       398 -11.6461     28.6987    131.9996   1.1256627605e+02   4.5254820341e+01     0.240511    0.2101214 -80.80 0.0003170659    1.055    0.052
       399 -10.0243     20.3951    130.9426   1.1484160261e+02   4.6191936483e+01    0.3568065    0.2065753  65.83   0.00144548    2.023    0.506
       400  -9.4764     61.5866    131.2807   1.0264396348e+02   4.1937134154e+01      0.23622    0.2162524  79.74 0.0006715614    1.130    0.115
       401 -10.4750     34.1996    128.0084   1.1036364899e+02   4.5751731701e+01    0.3306776    0.1870659 -64.54  0.001110724    1.482    0.325
       402  -8.5396     88.5021    127.5694   9.3786542023e+01   3.8968310852e+01    0.1480345    0.1414617 -54.63 9.461973e-05    1.011    0.011
       403  -8.9362    217.7198    124.9937   6.1941729902e+01   1.3207669219e+01    0.2107969    0.1760673 -34.40 0.0009066379    1.089    0.081
       404  -8.9663     59.7978    125.4371   1.0209329472e+02   4.3620216502e+01    0.1736676    0.1400388   5.17 0.0004528652    1.505    0.336
       405  -9.4392     71.9318    123.8198   9.8015711176e+01   4.2406780634e+01    0.2533731    0.1985805 -66.13 0.0004215011    1.233    0.189
       406  -9.4606     72.4531    118.6216   9.6739220578e+01   4.3614365001e+01    0.5535047    0.3268383  83.22  0.001943517    3.488    0.713
       407  -8.7001     64.9961    123.0000   9.9999931507e+01   4.3558083515e+01    0.2181087   0.08311468  30.45 0.0003783104    2.884    0.653
       408  -9.9479     32.4930    122.0904   1.0997732696e+02   4.7371365242e+01    0.2116162    0.1127054 -65.55  0.001025904    1.574    0.365
       409  -9.1006    123.5766    120.9890   8.2091267845e+01   3.4126542689e+01    0.2244075    0.2087506  38.55 0.0003190962    1.097    0.089
       410 -10.0481     19.7610    109.3414   1.1203062790e+02   5.1514535734e+01    0.3128003    0.2078588 -44.06  0.001247376    1.437    0.304
       411 -11.0781     20.9683    119.6633   1.1317136097e+02   4.8911826639e+01    0.6193047    0.3299139  64.08   0.00287609    2.494    0.599
       412  -9.8267     20.9469    113.6852   1.1230991146e+02   5.0373099006e+01    0.2395096    0.1891799  53.39 0.0009681605    1.455    0.313
       413 -10.2119     13.9205    113.4318   1.1449157722e+02   5.0920565373e+01    0.3395658    0.1821927  31.86  0.001561927    2.150    0.535
       414  -8.6199     13.9725    109.9621   1.1398879684e+02   5.1755940725e+01      0.23273    0.1318459 -76.85 0.0006022453    1.572    0.364
       415  -9.5816     93.4882    119.1291   9.0346093894e+01   4.0190897236e+01    0.2735688    0.2493434   8.48 0.0006872049    1.187    0.158
       416 -10.1561     43.0376    119.2515   1.0620077228e+02   4.7064184265e+01    0.3132476    0.2308316  40.10 0.0006490196    1.519    0.341
       417  -8.9464     54.5300    117.9642   1.0229890152e+02   4.6115724831e+01    0.1907424    0.1891288 -15.65 0.0003306513    1.123    0.109
       418 -11.1437     28.5224    116.2549   1.1030163041e+02   4.9151102353e+01    0.4605946    0.2942604 -69.32 0.0009543496    1.343    0.255
       419  -9.7405     32.8475    112.8309   1.0834821203e+02   4.9619900837e+01    0.4424232    0.2230677  76.29  0.001529397    3.839    0.739
       420 -10.3580      2.5018    115.3901   1.1825051563e+02   5.1120556944e+01    0.4647328    0.2396668  86.45  0.002333969    2.053    0.513
       421  -9.2414      3.4608    103.0153   1.1641898453e+02   5.4020139603e+01     0.312841    0.1502086 -71.58  0.001147661    1.659    0.397
       422 -10.5376      4.1673    109.8742   1.1707833783e+02   5.2350855686e+01    0.4415801    0.3023825 -77.66  0.002707304    1.224    0.183
       423  -9.5846      7.7182    106.6459   1.1553201150e+02   5.2928934020e+01    0.2789905    0.1478307 -46.19  0.001350944    1.733    0.423
       424  -9.2342      8.5129     98.5522   1.1411301632e+02   5.4812360624e+01    0.2355518    0.1430555 -70.85 0.0007955126    1.359    0.264
       425  -9.3843      4.6419     98.1050   1.1535144201e+02   5.5122673563e+01    0.3814424    0.2358924 -47.89  0.001741405    1.417    0.294
