#   1 NUMBER                 Running object number                                     
#   2 MAG_AUTO               Kron-like elliptical aperture magnitude                    [mag]
#   3 X_IMAGE                Object position along x                                    [pixel]
#   4 Y_IMAGE                Object position along y                                    [pixel]
#   5 X_WORLD                Barycenter position along world x axis                     [deg]
#   6 Y_WORLD                Barycenter position along world y axis                     [deg]
#   7 A_WORLD                Profile RMS along major axis (world units)                 [deg]
#   8 B_WORLD                Profile RMS along minor axis (world units)                 [deg]
#   9 THETA_WORLD            Position angle (CCW/world-x)                               [deg]
#  10 FWHM_WORLD             FWHM assuming a gaussian core                              [deg]
#  11 ELONGATION             A_IMAGE/B_IMAGE                                           
#  12 ELLIPTICITY            1 - B_IMAGE/A_IMAGE                                       
         1  -8.9445     63.5555     20.3655   4.5984140231e+01   6.2694828865e+01    0.2864429    0.1810251 -39.80  0.001555636    2.071    0.517
         2  -7.4201    120.0000     10.9937   2.7469298898e+01   5.2117185488e+01    0.1721629   0.07386072 -23.32 0.0005114368    2.811    0.644
         3  -8.5896     55.7643      9.8970   4.4424750296e+01   6.5075636609e+01    0.1781561    0.1537769 -26.01 0.0005383922    1.519    0.342
         4  -8.0177     47.5759      9.7810   4.7447932151e+01   6.6391692887e+01    0.1398114    0.1017649 -27.46 0.0006680825    1.597    0.374
         5  -8.1295     90.8367      8.8004   3.3266992419e+01   5.8625645576e+01    0.1572465    0.1380947  69.31 0.0005735761    1.353    0.261
         6  -8.5822      6.1586      8.1647   6.5822931040e+01   7.1576587812e+01    0.1335368    0.1089932  -4.36 0.0004974182    1.350    0.259
         7  -7.8517     70.3743      6.1369   3.7983888113e+01   6.2849887808e+01    0.1457482    0.1047163 -30.09 0.0005817493    1.705    0.413
         8  -8.5417     33.5003      4.9924   5.1094103482e+01   6.8904661134e+01    0.2395145    0.1626621 -43.60  0.001480349    2.539    0.606
         9  -8.4058     79.4306      3.7699   3.4410017111e+01   6.1316903537e+01    0.1921358    0.1104222 -24.76  0.001077839    1.998    0.500
        10  -7.7161     44.6668      3.2789   4.5696402696e+01   6.7458052937e+01   0.09553589   0.08756367  39.52 0.0004799755    1.607    0.378
        11  -8.0886     62.8492      1.4408   3.8423103884e+01   6.4597171277e+01    0.1687854   0.09622101  48.35  0.000996578    1.528    0.346
        12  -9.2772    210.9343    246.3988   6.5346796577e+01  -9.5769897824e+00    0.2115213    0.1761006 -47.06 0.0007254109    1.618    0.382
        13 -10.0850    248.7222    242.5651   5.7459747054e+01  -1.4235968471e+01    0.4698564    0.2140823 -42.94  0.002316316    2.561    0.610
        14  -9.2488    232.8826    247.2649   6.1226869689e+01  -1.2818889631e+01     0.341475    0.1748217 -42.50  0.001576441    2.257    0.557
        15  -7.6830     86.2919    250.6309   9.2044867846e+01   9.7538507742e+00    0.1371544   0.08418868  68.14 0.0007025872    1.718    0.418
        16  -7.9139     40.5114    247.5382   1.0080826070e+02   1.6765502264e+01    0.1229207   0.09406835  69.94 0.0001124525    1.009    0.009
        17  -8.4504     13.6719    247.3163   1.0571142252e+02   1.9953506909e+01    0.1248821   0.06212896  65.89 0.0004460067    1.677    0.404
        18  -9.1883    146.9936    245.6459   7.8563359667e+01   8.4498139238e-01    0.2888979     0.202373  63.10  0.001131609    1.796    0.443
        19  -8.6271    147.1120    240.3960   7.7749030855e+01   1.7987138318e+00    0.4005818    0.2533945  82.35   0.00158257    3.497    0.714
        20  -8.9237    120.1019    245.2061   8.4284760545e+01   5.4355903810e+00    0.3260658    0.2188352  84.10  0.001450942    2.102    0.524
        21  -9.1228     78.5047    243.3776   9.2872254872e+01   1.2396073581e+01    0.4633003    0.1929076  64.40  0.001635335    3.852    0.740
        22  -8.1998     67.5446    244.9826   9.5281787399e+01   1.3662958839e+01    0.1809244    0.1169935 -74.26 0.0009709036    1.578    0.366
        23  -8.8895    201.8662    243.0156   6.6593920708e+01  -7.6766972665e+00     0.269758    0.1816733 -50.96  0.001059869    1.988    0.497
        24  -8.6311    169.0159    243.2690   7.3482930040e+01  -2.4250325003e+00    0.2143947    0.1859891  72.99 0.0005881824    1.539    0.350
        25  -8.2714    139.4104    244.2682   7.9993892124e+01   2.3795206786e+00     0.168321    0.1323037 -73.76 0.0005428381    1.610    0.379
        26  -9.3882    194.0108    239.2834   6.7567098438e+01  -5.8345604460e+00    0.2482112    0.2175414  -0.22 0.0009393809    1.084    0.077
        27  -9.1365    183.1141    239.9860   6.9960303152e+01  -4.1882268332e+00    0.4264668    0.3042556  69.34  0.001910154    2.557    0.609
        28  -9.2753    160.1866    240.2305   7.4890438648e+01  -3.9791035778e-01    0.3422156    0.2534716 -81.81  0.001215468    2.174    0.540
        29  -8.4294    153.4396    241.7301   7.6582054939e+01   4.7340008682e-01    0.2254079    0.1377695 -56.32  0.001053726    2.023    0.506
        30  -8.0015     87.9977    242.0110   9.0735757028e+01   1.1238019696e+01     0.203627    0.1361576  71.59 0.0005695602    1.564    0.361
        31  -8.9689    241.7794    237.7021   5.7877417327e+01  -1.2636472440e+01    0.4924936    0.2200149 -17.67  0.001961809    3.456    0.711
        32  -9.4345    135.3046    238.6437   8.0064170366e+01   4.1520058449e+00    0.2330841    0.1914056  61.35 0.0006466478    1.278    0.218
        33  -9.5012    231.0516    236.3345   5.9656318688e+01  -1.0960120033e+01    0.3626177     0.269923 -50.36  0.001664635    1.929    0.482
        34  -8.3566    209.1701    238.2097   6.4285825605e+01  -8.0321579487e+00    0.1592448    0.1546924 -13.80 0.0005479515    1.363    0.266
        35  -8.3578     25.9762    236.7035   1.0275149622e+02   2.0770122865e+01    0.3105846    0.1158396  64.08  0.001330539    2.922    0.658
        36  -7.5406     13.6655    237.6893   1.0511552079e+02   2.1927203813e+01    0.1028713   0.08453037 -55.83 0.0007043917    1.679    0.404
        37  -9.1865    247.5844    234.2467   5.6190117505e+01  -1.2902379876e+01    0.2787837    0.1794788 -47.23  0.001432746    2.114    0.527
        38  -9.4626    246.5804    229.0159   5.5428651295e+01  -1.1997550451e+01     0.464225    0.2259414 -38.98  0.001838872    1.993    0.498
        39  -9.9862    214.9250    233.0620   6.2221638568e+01  -8.0849324546e+00    0.5334235    0.4013466 -82.95  0.002455517    3.440    0.709
        40  -9.2121    203.0552    234.2055   6.4822756841e+01  -6.4298308214e+00    0.3420228    0.1853137 -49.82  0.001209767    2.379    0.580
        41  -9.8387    175.6687    233.1692   7.0392735130e+01  -1.7491143866e+00    0.5053246    0.2798046 -58.00  0.002204537    2.655    0.623
        42  -7.9992     57.7407    236.7800   9.6482617687e+01   1.6755955262e+01    0.2065806   0.07222274  46.07 0.0008759219    2.397    0.583
        43  -8.2546    170.0327    235.3187   7.1967433183e+01  -1.1797237718e+00    0.1878609    0.1672437  27.62 0.0006506083    1.050    0.048
        44  -8.9100    108.7299    234.1680   8.5282793678e+01   9.5443549501e+00    0.3690499    0.2099801  64.08   0.00101012    2.202    0.546
        45  -8.7968     78.6484    234.1182   9.1826008359e+01   1.4323946796e+01    0.2850139    0.1544045 -82.26  0.001158004    2.247    0.555
        46  -8.3908    122.8620    233.7680   8.2098948022e+01   7.2491340192e+00    0.2562306    0.1734576  80.44 0.0009509816    2.072    0.517
        47  -9.4516     68.4014    231.7598   9.3751662066e+01   1.6341976211e+01    0.5711554    0.2794782  77.19  0.002289126    3.032    0.670
        48  -8.2979      8.2939    234.3517   1.0588760585e+02   2.3185972189e+01    0.1057993   0.07937672 -59.50 0.0007031467    1.680    0.405
        49  -8.3811    194.1768    232.4818   6.6353015067e+01  -4.7131298510e+00    0.1919632    0.1905315  58.61 0.0005379871    1.331    0.248
        50  -9.4853    186.3024    230.4149   6.7646497437e+01  -3.0508455109e+00    0.3434584    0.2470036 -65.80  0.001237727    2.197    0.545
        51  -8.4177    157.8309    231.9935   7.4075577039e+01   1.5389306581e+00    0.2120477    0.1628748  87.28 0.0009057719    1.975    0.494
        52  -8.6649    132.4303    232.2458   7.9746455000e+01   5.9128970935e+00     0.180939    0.1357891 -75.36 0.0006570657    1.663    0.399
        53  -8.2059     92.5753    231.4490   8.8487463045e+01   1.2743610986e+01    0.2868741    0.1555619  62.63  0.001043488    2.137    0.532
        54  -9.0633    236.0456    230.4981   5.7656677906e+01  -1.0775262678e+01    0.2942669    0.1832456 -39.01 0.0009152594    1.659    0.397
        55  -8.8058      1.7774    230.5293   1.0684321582e+02   2.4638018213e+01    0.2717123    0.1114401  80.77  0.001243152    2.352    0.575
        56  -9.2762    151.4667    228.9572   7.4986391392e+01   3.2382772182e+00    0.3515846    0.2506451  84.46  0.001248009    2.301    0.565
        57  -9.4516    148.7953    224.4708   7.4846368503e+01   4.6006176595e+00    0.3514839    0.2634515  77.38  0.001727494    1.880    0.468
        58  -8.4754    139.9782    229.9715   7.7711874168e+01   5.0549837986e+00    0.2203127    0.1598178  64.49 0.0005292666    1.654    0.395
        59  -8.7210    229.8580    228.5995   5.8489829770e+01  -9.5973008175e+00    0.2312108    0.1665287 -49.80  0.001130481    1.881    0.468
        60  -8.8336    161.9971    227.7793   7.2456690922e+01   1.6152296670e+00    0.3780776    0.2000213  51.07  0.001598975    2.193    0.544
        61  -8.7763    127.9882    227.1537   7.9972412718e+01   7.7259838708e+00    0.3521724    0.2199286  68.36  0.001195567    2.269    0.559
        62  -8.8038    206.1143    225.6233   6.2657228150e+01  -5.4737849844e+00    0.3005608    0.1845398 -50.26  0.001226983    2.049    0.512
        63  -8.3189     99.7465    234.1299   8.7253314495e+01   1.1023805449e+01    0.2223712     0.157402  78.74  0.001165056    1.593    0.372
        64  -8.1506    223.5320    226.2952   5.9294713642e+01  -8.2955957283e+00    0.1854948    0.1112743 -25.10 0.0009541031    1.651    0.394
        65  -8.5787    200.1734    226.1306   6.3972591494e+01  -4.5977998730e+00    0.1669632    0.1628565 -47.73 0.0004872193    1.339    0.253
        66  -7.9655    177.9594    227.0000   6.8834370171e+01  -1.0168071373e+00    0.2306462   0.07288738  37.99 0.0007952918    2.893    0.654
        67  -8.3368     49.0088    226.2477   9.7280041227e+01   2.0215403963e+01    0.1928599    0.1167203  78.73 0.0007822874    1.628    0.386
        68  -8.8264     94.0645    224.0746   8.7209381782e+01   1.4109805960e+01    0.4029766    0.2051266  62.60  0.001547683    2.524    0.604
        69  -7.7541     72.2001    225.6050   9.2253881306e+01   1.7142394243e+01    0.1795017    0.1250246  28.70 0.0009467019    1.687    0.407
        70  -8.2469     38.3855    224.6255   9.9330167211e+01   2.1915278486e+01    0.2882785     0.131497  72.57  0.001235331    2.602    0.616
        71  -8.9555    216.3920    223.3166   6.0156932750e+01  -6.7124823953e+00    0.2703764    0.2180409 -50.00 0.0009192277    1.598    0.374
        72  -8.7114    180.5260    224.1222   6.7771487644e+01  -9.2846561146e-01    0.2902337    0.1873107  45.73  0.000846194    1.612    0.380
        73  -8.5763    173.3052    223.0124   6.9145253119e+01   5.3783830568e-01     0.268943     0.219563 -75.25 0.0008205536    1.730    0.422
        74  -7.9482    113.8057    223.7980   8.2692238038e+01   1.0887345086e+01    0.1943927    0.1522054  65.35 0.0004277042    1.303    0.233
        75  -8.8686    104.8512    223.5450   8.4695099695e+01   1.2455788712e+01     0.331428    0.2164692 -88.44  0.001552481    1.989    0.497
        76  -9.4459    192.6164    221.2789   6.4671928089e+01  -2.4798457625e+00    0.3837076      0.31006 -82.17  0.001028552    2.052    0.513
        77  -8.6644    163.4791    222.9693   7.1305709905e+01   2.2827798428e+00    0.3860648    0.2117063  55.11  0.001571101    2.454    0.592
        78  -8.5419    159.0112    220.1073   7.1807375364e+01   3.6453952267e+00    0.2984057    0.2217351  78.90  0.001110495    2.067    0.516
        79  -7.8494     60.2959    223.6663   9.4624191500e+01   1.9274617935e+01    0.1404355   0.08564973  69.52 0.0003580512    1.644    0.392
        80  -9.3737    239.4417    221.3574   5.5340451858e+01  -9.8360852212e+00    0.3614001    0.2995602 -28.41  0.002145339    1.253    0.202
        81  -9.3800    225.6341    221.2843   5.7958685908e+01  -7.7967534611e+00    0.3093694    0.2485131 -29.43  0.001379117    1.236    0.191
        82  -8.6072     82.7723    220.1771   8.9253328009e+01   1.6763678627e+01    0.2992781     0.174203  86.30   0.00126894    2.254    0.556
        83  -8.2756     73.6736    220.8868   9.1380085419e+01   1.7981961316e+01    0.2907927    0.1497824  80.99  0.001137733    2.929    0.659
        84  -7.8156     27.5349    220.9588   1.0123013597e+02   2.4006803084e+01    0.1645154   0.08342041 -53.22  0.000807816    2.412    0.585
        85  -8.2052    202.8115    220.0302   6.2308271845e+01  -3.9648699932e+00    0.1902443    0.1884185  20.95  0.000589547    1.298    0.230
        86  -9.0676    120.3877    219.0154   8.0462926457e+01   1.0783845007e+01    0.5036253    0.2643726  63.69  0.001837795    3.028    0.670
        87  -9.0908    248.0064    216.6476   5.2887603821e+01  -1.0299380581e+01    0.4332336    0.3088267 -65.58  0.002106406    3.147    0.682
        88  -9.3316    132.8692    215.8385   7.7062606513e+01   9.2531074790e+00    0.5352879    0.3304147  78.14  0.002032006    3.032    0.670
        89  -8.4447     62.3347    217.2886   9.3482725173e+01   2.0435276299e+01    0.3693835    0.1586785  61.65  0.001408062    2.983    0.665
        90  -8.6396     51.6680    217.1898   9.5812549588e+01   2.1905877816e+01    0.2935759    0.1824895  75.53  0.001195429    1.601    0.375
        91  -7.8864    179.3192    217.6467   6.6866256325e+01   4.9886534312e-01    0.1386367    0.1141948  75.46 0.0007046906    1.748    0.428
        92  -8.6341    169.5285    216.1901   6.8760094447e+01   2.5285470961e+00    0.3033236    0.2310583 -80.44 0.0009451358    2.029    0.507
        93  -8.5949    143.0687    216.3691   7.4792416275e+01   7.2952138335e+00    0.3011077    0.2155398  76.65  0.001222842    2.013    0.503
        94  -8.2862    210.3412    219.0083   6.0574596716e+01  -5.0178704362e+00    0.2203874    0.1890129  55.08 0.0009745769    1.577    0.366
        95  -8.2334    243.4830    215.4817   5.3494035844e+01  -9.4802505525e+00     0.129714    0.1059319  -9.77 0.0002306754    1.008    0.008
        96  -8.9357    232.2307    214.2315   5.5363296652e+01  -7.6305037463e+00    0.2641807    0.1998106 -46.71  0.001081285    1.591    0.372
        97  -8.5013    185.5554    214.3024   6.4894171919e+01   3.4234854575e-02     0.228097    0.2084775 -76.86 0.0009881414    1.437    0.304
        98  -8.7507    153.7075    214.3407   7.2000192441e+01   5.7778270658e+00    0.3078607    0.2326427  74.22  0.001277375    1.832    0.454
        99  -7.9372     41.4773    214.9995   9.7792821286e+01   2.3704784726e+01    0.1902305   0.09185998  80.41 0.0008094061    2.516    0.603
       100  -8.7525     92.9389    213.6202   8.6049074704e+01   1.6642947588e+01    0.3076516    0.1931276  76.29  0.001205724    2.013    0.503
       101  -7.9727     77.6465    214.3143   8.9676052342e+01   1.8886445954e+01    0.2027796      0.12355  53.56 0.0009871059    1.550    0.355
       102  -9.1485     72.4546    211.2829   9.0485242705e+01   2.0367107507e+01    0.5630603     0.257229  66.15  0.001983059    3.430    0.708
       103  -9.3953    213.9444    211.8452   5.8491979332e+01  -4.3519780326e+00    0.3758959    0.3114302  61.99   0.00179356    1.771    0.435
       104  -8.0408    224.9742    212.2027   5.6375259249e+01  -6.1770975714e+00    0.1799683    0.1430255 -50.31 0.0005747096    1.588    0.370
       105  -8.4861    161.7743    212.1414   6.9769865727e+01   4.7507617766e+00    0.2196762    0.1953819  71.52 0.0008915258    1.340    0.254
       106  -8.9848    204.2089    210.7000   6.0261128015e+01  -2.5258882732e+00    0.2616521    0.2250002 -46.56 0.0008499019    1.352    0.260
       107  -8.3340    192.3399    210.2443   6.2670896372e+01  -3.9154156550e-01    0.2292437    0.1779962 -50.16 0.0004987866    1.480    0.324
       108  -9.2885    175.4200    209.7103   6.6257182617e+01   2.7430690591e+00    0.4358945    0.2933932  69.82  0.001564268    2.653    0.623
       109  -8.8545    147.8787    210.2338   7.2616955733e+01   7.7106354003e+00      0.35786    0.2552775  73.09  0.001192158    2.007    0.502
       110  -8.7984    116.4402    210.1117   7.9990226782e+01   1.3450688661e+01    0.3845932    0.2431139  75.69  0.001318246    2.338    0.572
       111  -9.1603      6.4054    208.5243   1.0453263998e+02   2.8979851547e+01    0.5721952    0.1869627  83.63  0.001898633    4.856    0.794
       112  -8.6603     85.6595    209.0219   8.7115113866e+01   1.8874326348e+01    0.3794706    0.1913859 -78.62  0.001081018    2.687    0.628
       113  -8.5835     32.5388    210.0356   9.9238420376e+01   2.5909594722e+01    0.2711927    0.1373763  85.90  0.001025403    2.077    0.519
       114  -8.7174     46.2070    209.1959   9.6178761997e+01   2.4456076460e+01    0.1924341    0.1310408  74.17  0.001060248    1.372    0.271
       115  -9.8612    246.0863    193.8055   4.8858175185e+01  -6.2881272648e+00    0.4624309    0.3360855 -76.78  0.002126474    3.192    0.687
       116  -9.3388    250.1770    201.9010   4.9701422675e+01  -8.2419696739e+00    0.3939348    0.1624984 -38.82  0.001175173    2.145    0.534
       117  -8.1841    139.2458    207.9767   7.4237040221e+01   9.7933413809e+00    0.2342715    0.1684381  87.19 0.0009521886    2.033    0.508
       118  -7.8634    126.4170    208.2182   7.7312378546e+01   1.2090395432e+01    0.1971982    0.1418492 -74.13 0.0005111336    1.682    0.405
       119  -7.6388    156.4645    207.5298   7.0143951171e+01   6.6882096688e+00    0.1474943    0.1378786  43.19  0.000165521    1.074    0.069
       120  -9.1856     99.4028    205.9397   8.3404407317e+01   1.7351368003e+01     0.390249    0.2395852  79.26  0.001251457    2.324    0.570
       121  -8.7271     56.5868    205.3790   9.3417128527e+01   2.3999739687e+01    0.3629159     0.190015  71.17  0.001551796    2.356    0.576
       122  -9.3414    194.6746    203.4693   6.0866371919e+01   4.8591792677e-01    0.3327391    0.2820584 -52.65  0.001101357    1.380    0.275
       123  -9.3284    192.4514    197.1363   6.0093441387e+01   2.1202392465e+00    0.4938913     0.371222 -74.20   0.00163264    2.108    0.526
       124  -9.0160    183.7602    203.7957   6.3289440495e+01   2.3939456103e+00    0.3301031    0.2615056  71.14  0.001138816    1.819    0.450
       125  -7.9300    109.1132    205.1214   8.0945011606e+01   1.5877961356e+01    0.2067883    0.1657139  74.87 0.0005079767    1.332    0.249
       126  -9.5947    163.9701    202.8846   6.7553356597e+01   6.2574209772e+00    0.5008073    0.3034815  59.38  0.001191248    2.326    0.570
       127  -8.4751    131.2753    203.6942   7.5380263453e+01   1.2215449714e+01    0.3155057    0.2270913  69.51   0.00106248    1.735    0.424
       128  -7.8267     35.3183    204.6412   9.8121467833e+01   2.6841604396e+01    0.1422597   0.08124838  70.10 0.0003174788    1.760    0.432
       129  -9.3162    236.4863    207.5146   5.3277385390e+01  -7.1539018082e+00    0.4311762     0.236028 -45.27  0.001626108    1.959    0.490
       130  -9.1310    243.1366    200.3009   5.0656264257e+01  -6.9430768247e+00    0.3344688    0.1726457 -42.87 0.0009657962    1.882    0.469
       131  -8.5373    211.0004    201.6081   5.7101315737e+01  -2.0155102599e+00    0.2514624    0.1914516 -54.15 0.0007632226    1.625    0.385
       132  -8.7401    140.8073    201.1264   7.2645490712e+01   1.1011276901e+01    0.4042852    0.2611928  68.19  0.001344833    2.285    0.562
       133  -8.6089     80.2391    201.1841   8.7313895551e+01   2.1577439008e+01    0.3760252    0.2043549  73.57  0.001399163    2.725    0.633
       134  -7.9239     48.3166    201.9569   9.4921482134e+01   2.5895014196e+01    0.2273818   0.09526725  87.87 0.0003925746    4.413    0.773
       135  -8.3614     10.5071    202.4724   1.0324299048e+02   2.9963453931e+01    0.1244173   0.09553228  84.16 8.852209e-05    1.021    0.021
       136  -8.1317    222.1875    201.1692   5.4782369934e+01  -3.8072500017e+00    0.1790221    0.1571098 -48.46 0.0004356494    1.373    0.272
       137  -9.3028    237.1704    198.4863   5.1397810615e+01  -5.7258210622e+00    0.3170484      0.17031 -45.00  0.001120447    1.909    0.476
       138  -9.4168    149.5564    198.3637   7.0055965333e+01   9.9632740019e+00    0.4825457    0.3282391  89.24  0.001339143    2.581    0.613
       139  -8.7571    124.1211    198.9722   7.6282060598e+01   1.4610273294e+01    0.3480829    0.2488858  88.84  0.001137835    1.884    0.469
       140  -9.3260    113.0335    198.3605   7.8886060430e+01   1.6763717815e+01    0.5034226    0.2911083  69.89   0.00186251    2.767    0.639
       141  -8.2926    177.0800    198.8451   6.3804415603e+01   4.6286536347e+00    0.2159713    0.1974187  68.19 0.0005300458    1.307    0.235
       142  -9.0544     88.5990    198.0531   8.4830840258e+01   2.1006322757e+01    0.4116561    0.2504498  86.79   0.00130585    2.243    0.554
       143  -8.3624    202.4367    197.5868   5.8067957877e+01   2.3121275373e-01    0.2590459     0.201011 -77.22  0.001241794    2.110    0.526
       144  -9.2740     61.4093    196.9202   9.1257084797e+01   2.5368211417e+01    0.4549832    0.2322419  69.83  0.001805672    2.672    0.626
       145  -8.1923     29.3995    197.2719   9.8711066238e+01   2.9245988429e+01    0.1864357    0.1052061 -86.55 0.0009475365    1.646    0.392
       146  -8.5355     12.6729    197.1295   1.0235616254e+02   3.0988775656e+01    0.2652122    0.1291201  81.60  0.001288655    2.073    0.518
       147  -8.7760    216.0217    195.3996   5.4857360242e+01  -1.7272294348e+00    0.3002219    0.2136188 -60.38 0.0009130114    1.995    0.499
       148  -8.3810    133.0326    195.9308   7.3569891558e+01   1.3649618230e+01    0.2396798     0.181083  74.83 0.0006416383    1.663    0.399
       149  -7.8557     36.3458    196.6817   9.7083816117e+01   2.8605504447e+01     0.142392   0.08380573  68.08 0.0007048897    1.725    0.420
       150  -8.8329    224.7591    194.0497   5.2870796525e+01  -2.9521374033e+00    0.3300563    0.1675219 -48.69  0.001182765    2.221    0.550
       151  -7.2753    209.3208    195.6277   5.6255494581e+01  -6.1089338212e-01     0.137565    0.1159907 -83.25 0.0007032589    1.804    0.446
       152  -8.8384    185.1304    194.6360   6.1185086493e+01   3.9762973561e+00    0.2698657    0.2243718 -73.13 0.0006681051    1.606    0.377
       153  -8.0703    230.6456    194.1916   5.1772841458e+01  -3.9419300477e+00    0.1939603    0.1134801 -30.85 0.0004754245    1.609    0.378
       154  -8.8338    160.8299    193.9403   6.6555794807e+01   8.7628423277e+00    0.3123091    0.2326023  68.64  0.001183294    1.801    0.445
       155  -8.5959     76.9842    193.8039   8.7054868443e+01   2.3862514311e+01    0.2405645    0.1937073 -83.50 0.0005584942    1.195    0.163
       156  -9.0740     44.0639    193.3016   9.4927862240e+01   2.8502863261e+01    0.4343691    0.2111806  67.25  0.001802635    2.589    0.614
       157  -8.5008    172.6087    191.5996   6.3376380325e+01   6.9883625272e+00    0.2759616    0.2139868  88.33 0.0008927041    1.946    0.486
       158  -9.4371    246.4719    206.8657   5.1316209500e+01  -8.5197517704e+00    0.3277972    0.1970398 -28.42 0.0007167241    1.482    0.325
       159  -7.8433    205.4243    191.5083   5.6225156624e+01   8.6518959376e-01    0.1427996    0.1315038 -13.21 0.0004837974    1.042    0.040
       160  -8.1241    198.8336    191.3897   5.7577269648e+01   2.0835973879e+00    0.1910826    0.1783516 -39.46 0.0004150057    1.162    0.140
       161  -8.2244    179.2254    191.2512   6.1813331536e+01   5.7899869679e+00    0.1964169    0.1789453 -84.47 0.0005618953    1.354    0.261
       162  -9.1529    139.4040    190.2603   7.0957612737e+01   1.3734694099e+01    0.3878933    0.2858732  84.50  0.001338918    1.902    0.474
       163 -10.4508     92.7985    188.9027   8.2356148719e+01   2.2540083507e+01     1.065649    0.2940794  46.87  0.003078952    4.005    0.750
       164  -8.6667     22.4964    191.7557   9.9724255169e+01   3.1284271518e+01    0.2643435   0.04400662  41.58 0.0008882557    4.441    0.775
       165  -8.8110      6.4864    190.5101   1.0313996082e+02   3.3094050507e+01    0.2281803   0.09569728 -88.91  0.001016932    2.337    0.572
       166  -8.4916    148.6473    189.1172   6.8496531552e+01   1.2199520964e+01    0.2423844    0.1959506 -80.59  0.001156055    1.542    0.352
       167  -8.7680    129.2800    188.4277   7.3101349541e+01   1.6101355279e+01     0.317834    0.2477969  82.43   0.00082493    1.588    0.370
       168  -9.0533     34.3309    188.0380   9.6624063493e+01   3.0914884089e+01    0.3661497    0.1797629  76.97  0.001535922    2.592    0.614
       169  -8.1979    237.2264    188.2482   4.9361227924e+01  -3.9468730015e+00    0.1779405    0.1486217 -46.98 0.0006788348    1.347    0.258
       170  -8.2903    230.6929    187.3202   5.0388198753e+01  -2.7174763275e+00    0.2436246    0.1554279 -47.44 0.0008249459    1.652    0.395
       171  -8.8714    216.4223    187.5688   5.3195819161e+01  -3.3370692432e-01    0.2806835    0.2354028 -61.68 0.0008475158    1.526    0.345
       172  -8.9048    191.4680    187.1566   5.8284897101e+01   4.3009717601e+00    0.3208178    0.2344139 -67.61 0.0009002389    1.952    0.488
       173  -9.1943    155.9949    187.2600   6.6371094648e+01   1.1174698874e+01     0.355689    0.2484199 -60.59 0.0007584324    1.662    0.398
       174  -9.4916    120.6418    185.8799   7.4785768886e+01   1.8335773330e+01    0.5645792     0.306859 -70.24   0.00204106    2.625    0.619
       175  -9.2118     54.9858    186.7421   9.1498294919e+01   2.8725052487e+01      0.44915    0.2302964  72.23  0.001580608    2.753    0.637
       176  -9.1414    249.4953    185.3091   4.6585215060e+01  -5.3516891335e+00    0.3308156    0.2094259 -46.14  0.001223868    1.606    0.378
       177  -8.7044    164.9246    186.4949   6.4114929593e+01   9.5842988912e+00    0.2774673     0.216893 -67.84 0.0006702802    1.576    0.365
       178  -9.2041    109.6336    185.9360   7.7581876817e+01   2.0343982127e+01    0.4296454    0.2841105  80.01  0.001280057    2.154    0.536
       179  -8.6926    202.7880    184.2794   5.5289865732e+01   2.7583201657e+00     0.296736    0.1984601 -55.54 0.0008964871    1.804    0.446
       180  -8.7046    182.9336    184.6905   5.9644918700e+01   6.4441972576e+00    0.2816203     0.218999 -52.98  0.000771468    1.402    0.287
       181  -9.1431     66.7404    184.3145   8.8236397396e+01   2.7716102978e+01    0.4230253    0.2405062  61.07  0.001289332    2.026    0.506
       182  -8.5696    224.2444    183.4919   5.0835831498e+01  -9.2725287625e-01    0.2564865    0.1716402 -38.61 0.0005076422    1.380    0.275
       183  -8.6916    210.1097    183.9319   5.3714931648e+01   1.4856279775e+00    0.2452196    0.1920364 -38.03 0.0005209765    1.222    0.182
       184  -8.8643    174.1507    183.3230   6.1337065207e+01   8.4522591268e+00    0.3176993    0.2372849 -59.60 0.0005200725    1.563    0.360
       185  -9.2478    141.1625    181.6698   6.8845268709e+01   1.5377762878e+01    0.2943802    0.2657247 -59.27 0.0004585087    1.149    0.130
       186  -8.4587    137.4818    178.9583   6.9214914453e+01   1.6739437986e+01    0.3461631    0.2550671  79.54  0.001145979    1.861    0.463
       187  -8.9963     44.6169    182.1960   9.3467551197e+01   3.1153144719e+01    0.3896828    0.2109216  70.96   0.00101879    2.271    0.560
       188  -8.1012      1.7820    183.5596   1.0359681705e+02   3.5113690175e+01     0.160271    0.0968461  50.60 0.0009412774    1.666    0.400
       189  -9.1146    147.4708    180.4693   6.7053726022e+01   1.4403718207e+01    0.3755065    0.2866943 -84.31 0.0008605891    1.765    0.433
       190  -8.0428     90.3223    181.3463   8.1737827268e+01   2.4818119922e+01    0.1520606    0.1164891 -26.02 0.0007049748    1.737    0.424
       191  -9.7450     25.7208    178.6949   9.7648002329e+01   3.4102067115e+01    0.6389414    0.2644873  83.93  0.002203189    3.928    0.745
       192  -8.6508    250.5303    172.4729   4.3849496085e+01  -3.2760677495e+00    0.2465853    0.1556977 -37.33  0.000605915    1.354    0.262
       193  -9.2973    249.0110    177.2255   4.5060885418e+01  -3.8722136113e+00    0.3911485      0.24156 -52.11  0.001015659    1.882    0.469
       194  -8.2994    247.2981    173.6773   4.4642525341e+01  -2.9748220343e+00    0.1789137    0.1372245  39.77 0.0003346913    1.503    0.334
       195  -7.8057    240.5504    179.5286   4.7006554810e+01  -2.9302004619e+00     0.137096    0.1167491 -22.77 0.0006851197    1.006    0.006
       196  -9.4271    191.4513    178.0416   5.6386677639e+01   6.1732655056e+00    0.3297387    0.2817729 -80.85 0.0006260409    1.536    0.349
       197  -8.4195    205.2132    177.3765   5.3346311421e+01   3.6768989500e+00    0.2329257    0.1687415 -46.43 0.0005004487    1.391    0.281
       198  -8.0117    169.3919    178.2999   6.1381180554e+01   1.0490307782e+01    0.2100747    0.1472912 -56.28 0.0004984922    1.588    0.370
       199  -8.6917    129.4632    177.3111   7.0903982047e+01   1.8704352542e+01    0.3373159    0.2395254  83.76 0.0009745978    2.021    0.505
       200  -9.1239     36.0077    176.3212   9.4870329654e+01   3.3598673330e+01    0.5778254    0.2562583  80.21  0.001940785    4.022    0.751
       201  -8.5567    231.1684    176.7601   4.8149178375e+01  -8.6489600332e-01    0.2449775     0.169029 -45.28  0.000699656    1.421    0.296
       202  -8.4480    217.4204    177.0921   5.0837088863e+01   1.4857492672e+00    0.2089162    0.1955214 -64.91 0.0004131486    1.288    0.224
       203  -9.1220    182.9735    175.9886   5.7808009514e+01   8.2716142376e+00    0.3025261    0.2675209  79.04 0.0007559508    1.396    0.284
       204  -7.7597     97.3543    177.2908   7.9204336237e+01   2.4640091651e+01    0.1512871    0.1208504 -15.43 0.0007027957    1.679    0.405
       205  -9.0249     89.2695    176.7085   8.1220957493e+01   2.6150663705e+01    0.3288846    0.2253388  71.71  0.000907525    1.764    0.433
       206  -9.4976     58.4892    175.0009   8.8993427583e+01   3.1188304698e+01    0.5352693    0.2804063  73.45  0.002008568    2.949    0.661
       207  -9.4323     56.0038    171.0038   8.9055040904e+01   3.2523552739e+01    0.5991048    0.3093004  75.08  0.002179995    3.175    0.685
       208  -8.7782     13.3056    176.7636   1.0038573034e+02   3.5745593738e+01    0.2892115    0.1324549  57.09  0.001040905    2.392    0.582
       209  -8.1124    211.5227    175.9873   5.1773871028e+01   2.7764872582e+00    0.2228415    0.1353971 -43.19 0.0009171147    1.573    0.364
       210  -9.2737    159.1188    175.0184   6.3105506458e+01   1.3299992163e+01    0.4259807    0.3099904  81.81  0.001267388    2.103    0.525
       211  -9.4931    104.1618    174.4081   7.6891181022e+01   2.4161762716e+01    0.5674002    0.3275149  69.32  0.001621441    2.834    0.647
       212 -10.7869     75.8247    169.8341   8.3612541870e+01   3.0019536854e+01     1.414072    0.5336836 -72.75   0.00384532    4.798    0.792
       213  -8.1896    224.4626    174.0607   4.8847225300e+01   8.0641494131e-01    0.2163865    0.1285975 -41.90 0.0004538861    1.556    0.357
       214  -7.6746    241.3198    173.6880   4.5685535662e+01  -2.0061348833e+00    0.1284318    0.1065172 -68.60 0.0003526769    1.648    0.393
       215  -9.6210    175.9725    171.8817   5.8501126229e+01   1.0563556989e+01    0.4795124      0.32066 -49.16   0.00141332    1.529    0.346
       216  -8.3668    143.1274    172.5025   6.6479628508e+01   1.7129934654e+01    0.2574579    0.2189725 -84.02 0.0007317881    1.373    0.272
       217  -8.5386    134.6652    171.5085   6.8402366217e+01   1.9066912555e+01    0.2884094    0.2016142 -58.41 0.0006417477    1.514    0.339
       218  -9.5294    121.4210    170.2164   7.1548065261e+01   2.1982782554e+01    0.4385648    0.3004587 -76.70  0.001053756    1.898    0.473
       219  -9.2659     45.0674    170.9504   9.1890948527e+01   3.3899049818e+01    0.3266087    0.1978643  83.71  0.001460897    1.898    0.473
       220  -8.3907    237.1699    169.5865   4.5581522188e+01  -5.6420153139e-01    0.2364062    0.1697146 -45.95 0.0006177829    1.353    0.261
       221  -9.0718    230.1198    169.0639   4.6749313337e+01   7.5154502273e-01    0.4186747    0.1792191 -47.26  0.001651585    2.353    0.575
       222  -8.5155    205.8555    169.9519   5.1637030930e+01   5.0418891365e+00    0.2669951     0.199425 -59.19 0.0008104793    1.594    0.373
       223  -8.3746    198.6654    170.0991   5.3154264581e+01   6.4039322744e+00    0.2354576    0.1858127 -60.52 0.0009027895    1.487    0.328
       224  -8.4352    149.9254    169.4644   6.4151459336e+01   1.6454052743e+01    0.2933507    0.2243797 -73.93 0.0009872305    1.635    0.388
       225  -7.5847     68.3360    170.6640   8.5746827074e+01   3.0917380158e+01    0.1560371    0.1049067  72.12 0.0007051867    1.746    0.427
       226  -8.5759    244.6284    169.0395   4.4162184167e+01  -1.7122683412e+00    0.2192065    0.1898097 -74.65 0.0006822293    1.565    0.361
       227  -9.1726    167.0491    168.4449   5.9815598989e+01   1.3152103660e+01    0.3775745    0.2666162  69.76  0.001257831    2.012    0.503
       228  -8.5204    218.8309    168.1611   4.8683631824e+01   2.9561493807e+00    0.2113135    0.1899404 -51.59  0.000510326    1.204    0.169
       229  -8.0809    211.3411    168.1231   5.0141356872e+01   4.3626644332e+00    0.2150907    0.1269065 -50.97 0.0009302484    1.817    0.449
       230  -8.8475    111.5323    167.1655   7.3538820058e+01   2.4614226127e+01    0.3599165    0.2483547 -85.44  0.001209693    1.976    0.494
       231  -8.2072     88.6796    168.3640   7.9899843539e+01   2.8349770502e+01    0.2433326    0.1720689  72.78   0.00109144    1.710    0.415
       232  -8.8800    191.9039    166.4410   5.3794078553e+01   8.5039350289e+00    0.3122655    0.2092127 -46.87 0.0006650123    1.481    0.325
       233  -8.5301    185.0073    166.4370   5.5292492161e+01   9.9001301636e+00    0.2834305    0.2124878 -60.13 0.0006704891    1.546    0.353
       234  -9.3103     20.5373    166.1927   9.7529523238e+01   3.7659163900e+01    0.3393663    0.1597828  58.56  0.001509925    2.538    0.606
       235  -9.6192    137.2706    164.3872   6.6232087279e+01   2.0244359382e+01    0.8126702    0.3708965  57.62   0.00234798    3.692    0.729
       236  -9.9236     94.8091    161.9633   7.7030319946e+01   2.8931355932e+01    0.9450181    0.5878491 -87.33  0.003185774    2.465    0.594
       237  -7.8634    250.6587    164.8067   4.2282773365e+01  -1.9381140480e+00    0.1920458    0.1079422 -45.93  0.000496116    1.650    0.394
       238  -8.2158    233.9986    164.9304   4.5183396783e+01   8.4601129322e-01    0.2087578    0.1653802 -66.73 0.0006537944    1.649    0.394
       239  -8.7555    159.6236    164.1236   6.0629127560e+01   1.5673379759e+01    0.3419692    0.2610125 -78.06  0.000898068    1.744    0.427
       240  -9.5695     33.6639    163.2830   9.3824389380e+01   3.7090464389e+01    0.5777048    0.2512992  56.72  0.002271679    3.038    0.671
       241  -8.6256    246.0438    163.0768   4.2703767369e+01  -8.6983751862e-01     0.239449    0.1705277 -39.06 0.0005192024    1.216    0.178
       242  -8.8269    212.9031    163.4788   4.8834999516e+01   4.9883213276e+00    0.2789054    0.1969346 -47.35 0.0004643768    1.392    0.282
       243  -8.1189     55.3317    164.3313   8.8228670566e+01   3.4298359137e+01    0.1460677    0.1029399 -36.15 0.0007052067    1.723    0.419
       244  -8.8875     60.5885    159.6073   8.6044672521e+01   3.4805772653e+01    0.3800396    0.2503094  88.72   0.00120294    1.803    0.445
       245  -8.0890    239.8631    163.6152   4.3874393949e+01   7.5146993835e-02    0.1700902    0.1324878  58.53 0.0003906054    1.667    0.400
       246  -8.6003    204.8973    162.4739   5.0214658102e+01   6.7408904230e+00    0.2770675    0.1977245 -55.37 0.0005841494    1.551    0.355
       247  -9.5399      3.5508    162.2287   1.0128909295e+02   4.0030760254e+01     0.411217    0.2020292  57.88  0.001953342    2.287    0.563
       248  -8.7999    151.8766    161.0120   6.1824361606e+01   1.8014772733e+01    0.3576229    0.2639334  87.21  0.001009842    1.983    0.496
       249  -9.0079    177.3565    160.4687   5.5677268592e+01   1.2773332622e+01     0.309643    0.2568089 -72.66   0.00074745    1.451    0.311
       250  -8.6767    227.4908    159.0021   4.5112688944e+01   3.1323101490e+00     0.357419    0.2006746 -58.56  0.001224982    2.486    0.598
       251  -7.9938    242.2675    159.6776   4.2646050428e+01   3.8718358447e-01    0.1720726    0.1293453  25.75 0.0003027755    1.548    0.354
       252 -10.0907    249.6514    157.1652   4.0895783159e+01  -4.0324340809e-01    0.4102263    0.3124774 -66.98  0.001363814    1.733    0.423
       253  -8.3524    245.4363    158.4694   4.1861137460e+01   6.8472617020e-02    0.2007129    0.1571713 -59.78 0.0005285615    1.490    0.329
       254  -8.4355    237.1712    158.8285   4.3348719302e+01   1.4282850820e+00    0.2072034    0.1786795 -53.44 0.0006784627    1.236    0.191
       255  -8.1603    128.2892    158.8467   6.7357456174e+01   2.3403033756e+01    0.2512007    0.1969822 -78.12 0.0007046928    1.524    0.344
       256  -9.5436    105.6719    157.5399   7.3160844983e+01   2.8104471295e+01    0.5416931    0.3855431  85.02  0.001544349    1.918    0.479
       257  -8.5927    196.3418    157.7090   5.0927130917e+01   9.4352522181e+00    0.2755108    0.2177786 -64.74 0.0009403911    1.498    0.332
       258  -8.2389    188.2743    157.4043   5.2574965981e+01   1.1158982402e+01    0.2582792    0.1802458 -61.41 0.0007106461    1.732    0.423
       259  -9.1804    167.4476    156.9751   5.7170693907e+01   1.5641699336e+01    0.3657486     0.276038 -68.40 0.0007999914    1.629    0.386
       260  -9.7316     81.2282    155.3532   7.9528633490e+01   3.2862922051e+01    0.5757437    0.4255926 -52.68  0.001699706    1.295    0.228
       261  -8.6572    217.9795    156.4933   4.6344429125e+01   5.4001656440e+00    0.2858443    0.1856207 -53.90  0.000700123    1.676    0.403
       262  -8.6371    157.6134    155.7129   5.9228421552e+01   1.8025717741e+01    0.3420468    0.1980314 -53.72  0.001158553    1.848    0.459
       263  -9.2487    119.4583    154.9544   6.8858085379e+01   2.6116309180e+01    0.4351214    0.3094911 -77.44  0.001357527    1.813    0.448
       264  -9.3177     49.8608    155.2584   8.8305502215e+01   3.7283045265e+01    0.4306231    0.2330183  58.80  0.001824872    2.362    0.577
       265  -8.4354     22.9882    156.0031   9.5684822570e+01   3.9943676860e+01    0.2180418    0.1282053 -24.10  0.001009896    2.669    0.625
       266  -9.7091    241.5492    153.9115   4.1571923540e+01   1.5732640791e+00    0.3991175    0.2711547  71.13  0.001885218    2.422    0.587
       267  -8.4929    144.4775    154.6608   6.2244700597e+01   2.1061929290e+01    0.3028332    0.2626836 -81.73 0.0008484509    1.313    0.238
       268  -9.9151     68.0462    153.3490   8.2879343626e+01   3.5364438995e+01    0.5046964    0.3102611  85.58  0.001440465    2.360    0.576
       269  -9.6919    132.8851    152.7144   6.4789187217e+01   2.3949883937e+01    0.5082731    0.3594324  76.75  0.001150595    2.041    0.510
       270  -8.7897    133.7928    148.1402   6.3505355375e+01   2.4861077548e+01    0.3153397    0.2526881 -24.11  0.001019783    1.446    0.309
       271  -7.8679     60.2685    152.6416   8.4955970722e+01   3.6620976468e+01    0.1482067     0.106092  81.01 0.0003304763    1.641    0.390
       272  -9.7453     29.6094    150.6713   9.3202507826e+01   4.0644436783e+01    0.4769741    0.2416738  77.77  0.001884675    3.026    0.670
       273  -8.3056     20.3934    152.2632   9.5899200434e+01   4.1097933364e+01    0.1903947     0.108024 -82.25 0.0007611312    1.678    0.404
       274 -10.0823    242.8249    149.8043   4.0503130577e+01   2.1077960958e+00      0.32792    0.2966481 -67.24  0.001982941    1.262    0.207
       275  -8.8381    189.5762    150.0837   5.0638928163e+01   1.2446187122e+01    0.3322448    0.2423117 -66.16 0.0008892942    1.709    0.415
       276  -8.0066    182.6560    151.3028   5.2417978405e+01   1.3651661593e+01    0.2379817    0.1857103 -85.99  0.001033829    1.756    0.430
       277  -8.2291    162.7577    150.7402   5.6849213974e+01   1.8056224886e+01     0.221298    0.1902378  83.87  0.001050025    1.377    0.274
       278  -8.6515     98.3085    150.5943   7.3753961680e+01   3.1185241716e+01    0.3301095    0.2420138  81.76 0.0008766593    1.787    0.440
       279  -8.6285      2.8439    150.1015   1.0022613311e+02   4.2991835898e+01    0.2419081     0.125041 -81.43  0.001000006    1.689    0.408
       280  -9.4873    248.8190    149.1207   3.9382525565e+01   1.1925231086e+00    0.3153258     0.191786 -39.31 0.0007975769    1.408    0.290
       281  -8.0045    204.8315    155.1736   4.8623241694e+01   8.2423112599e+00     0.202819    0.1697675 -16.05 0.0004519375    1.272    0.214
       282  -8.2582    213.0143    149.6871   4.5802744485e+01   7.7188207484e+00    0.1934498    0.1890333  37.18  0.000383558    1.111    0.100
       283  -8.5998    198.8282    148.7521   4.8403202561e+01   1.0789692860e+01     0.269127    0.1901763 -68.26 0.0006821617    1.890    0.471
       284 -10.0182     89.4036    146.2232   7.5369574199e+01   3.3836248489e+01     0.732796     0.429071 -88.29  0.002426186    3.403    0.706
       285  -9.9998     39.9628    147.7763   8.9898267039e+01   4.0307784677e+01    0.5089138    0.2838496  67.10  0.001735991    2.512    0.602
       286  -9.1576    233.5193    147.3699   4.1565626905e+01   4.2395907968e+00    0.3300636    0.1263526 -39.80   0.00061814    2.353    0.575
       287 -10.5384     54.8793    144.9433   8.5151564006e+01   3.9274717689e+01    0.7521327    0.5098747  75.00  0.002685428    1.874    0.466
       288  -9.8668     56.5506    135.4122   8.2895625185e+01   4.1462526576e+01    0.5401072    0.2901081   2.03  0.001879695    3.841    0.740
       289  -8.3980    223.1685    146.6817   4.3249481254e+01   6.3250349009e+00    0.2462793    0.1799021 -49.55 0.0005274726    1.318    0.241
       290  -9.8804    139.1428    144.9229   6.1359120285e+01   2.4498378652e+01    0.4974712     0.331252 -74.21  0.001244022    2.198    0.545
       291 -10.1750    106.6597    144.3647   7.0041973694e+01   3.1208077395e+01    0.7432123    0.4587923  76.81  0.002525874    3.110    0.678
       292  -8.1783    105.9882    138.4720   6.8889902449e+01   3.2791154692e+01    0.2301822    0.1548803  25.52 0.0009670449    1.739    0.425
       293  -9.5133     13.3600    146.0896   9.7006176950e+01   4.3192275287e+01    0.3004694    0.2107234  75.61  0.001336819    1.510    0.338
       294  -8.1020    206.9585    146.0735   4.6172137920e+01   9.6662626102e+00    0.2269011     0.178894 -75.25 0.0006239181    1.618    0.382
       295  -8.1498    175.6610    146.0659   5.2766438987e+01   1.6299269003e+01    0.2516919      0.19342 -65.49 0.0008106987    1.517    0.341
       296  -9.9568    241.2669    144.4056   3.9632084221e+01   3.3834052368e+00    0.3772999    0.2551208   7.90  0.001522303    2.423    0.587
       297  -9.7517    125.1160    142.5337   6.4513231868e+01   2.8011137137e+01      0.58782    0.3969164 -85.42  0.001536469    2.411    0.585
       298  -8.6982    247.1392    143.5564   3.8503204561e+01   2.4967111377e+00    0.2451871    0.1654974 -42.30 0.0005310524    1.271    0.213
       299  -8.6803    165.6416    143.9671   5.4580791437e+01   1.8956055404e+01    0.2875397    0.2225149  66.79 0.0006251307    1.531    0.347
       300 -11.1011     69.4910    139.5668   7.9833394964e+01   3.8652105577e+01    0.9854737    0.4091808 -61.31  0.002948711    2.379    0.580
       301 -10.3231    148.8982    144.9314   5.8875368612e+01   2.2397247290e+01     0.640704    0.4303909  86.36  0.001535884    2.652    0.623
       302  -7.5418    194.3089    143.6900   4.8179270908e+01   1.2794207168e+01    0.1532866    0.1217732 -80.45 0.0003746096    1.620    0.383
       303  -9.3261      2.7963    141.8456   9.9325469272e+01   4.4977051782e+01    0.3890781    0.1954468  78.28  0.001447106    2.495    0.599
       304  -7.6384    230.6691    142.3182   4.0976653112e+01   5.7322535524e+00    0.1427779    0.1085663 -72.27 0.0007047667    1.688    0.408
       305  -8.3187    182.1535    141.4600   5.0246294768e+01   1.5886711458e+01    0.2519492    0.2084042 -67.34 0.0005327349    1.354    0.262
       306  -8.0050    250.5833    140.7648   3.7385034637e+01   2.4025317887e+00    0.1930014    0.1111553 -48.66 0.0004954746    1.587    0.370
       307  -7.7809    238.6666    140.2989   3.9195314591e+01   4.6203604489e+00    0.1377809    0.1051808 -71.66 0.0006632478    1.649    0.394
       308  -9.9421     23.3530    137.8826   9.3125636757e+01   4.4384546507e+01    0.5421841     0.297184  77.65   0.00201686    2.583    0.613
       309  -9.2846    139.7697    137.3914   5.9395433481e+01   2.6137222283e+01    0.4219738    0.2513536 -21.17  0.001403217    2.949    0.661
       310  -7.6315    218.5321    138.4714   4.2288354758e+01   8.8426435068e+00    0.1472988    0.1335334 -50.00 0.0008085078    1.055    0.052
       311  -8.3044    207.5009    137.5261   4.4137795399e+01   1.1285515116e+01    0.2643335    0.1317118 -51.75 0.0008663479    2.137    0.532
       312  -8.8277    197.5987    137.2499   4.6022101520e+01   1.3433331665e+01    0.3327523     0.209681 -58.05 0.0008942193    1.825    0.452
       313  -8.3613    172.1698    137.9198   5.1631764482e+01   1.8855820355e+01    0.2460854    0.2112746 -81.01 0.0007208505    1.344    0.256
       314 -10.3632     83.5213    132.9090   7.4215706602e+01   3.8150472432e+01    0.5740397    0.3435811 -67.28  0.001308823    1.943    0.485
       315  -8.6677    246.9686    129.8480   3.5682917723e+01   5.0263409136e+00    0.3182445    0.1671434 -47.73 0.0005985128    1.693    0.409
       316  -9.0832    248.6157    134.8870   3.6476480664e+01   3.8142903124e+00    0.3145412    0.1853572 -51.56 0.0008702854    1.624    0.384
       317  -8.2246    162.4805    136.0797   5.3437386180e+01   2.1422677855e+01    0.2406262    0.1563786 -47.35 0.0005236279    1.527    0.345
       318  -9.6045     39.0924    135.6904   8.8182293122e+01   4.3423856090e+01    0.3088129    0.2224064  87.45 0.0009958734    1.578    0.366
       319  -8.0517    187.5846    135.4917   4.7675936316e+01   1.5971534620e+01      0.15508    0.1467481 -50.69  9.23717e-05    1.024    0.024
       320  -8.7987    151.0853    135.2862   5.6008694996e+01   2.4140818071e+01    0.3251308    0.1416206  38.43  0.001061221    2.537    0.606
       321  -8.4875    179.5638    133.7240   4.8977812465e+01   1.8121193366e+01    0.2986819    0.2240977 -70.37 0.0008446926    1.640    0.390
       322  -8.9517    113.0157    133.2322   6.5650777056e+01   3.2706271862e+01    0.4217743    0.2788635  69.50  0.001254911    2.261    0.558
       323  -8.8120    250.8413    130.6147   3.5256348891e+01   4.1899406811e+00    0.5183947    0.1073761 -39.77  0.001496892    4.428    0.774
       324  -9.3136     78.3121    146.9656   7.8724828614e+01   3.5453051572e+01    0.3254242    0.2310015  81.33 0.0008160389    1.837    0.456
       325 -10.2397    132.2271    130.7939   5.9758983603e+01   2.9308447784e+01     0.695353    0.3991594 -64.49  0.001622238    2.453    0.592
       326 -10.3900    131.8289    119.4525   5.6980571195e+01   3.2003345591e+01    0.8697629    0.5250024 -78.16  0.002653217    3.817    0.738
       327 -10.6942     60.5583    125.8398   7.9729539786e+01   4.3317848820e+01    0.9161839      0.53747 -87.59  0.003428682    3.055    0.673
       328  -9.1847    143.0364    131.6212   5.7136027975e+01   2.6761587329e+01    0.3280778    0.2578936 -71.10 0.0008959182    1.507    0.336
       329  -9.8000     97.8137    128.9857   6.9034941727e+01   3.6635464958e+01    0.7163114    0.2460788 -49.86  0.001975592    2.766    0.638
       330  -8.8147    100.2058    119.8884   6.6081877700e+01   3.8373321279e+01    0.6124625    0.3294583  14.12  0.001772586    4.348    0.770
       331 -10.0370     12.9033    128.6769   9.4815650911e+01   4.7452639863e+01    0.5790958     0.289149  87.07  0.002093817    2.794    0.642
       332  -7.8899    204.4594    130.2313   4.3052336409e+01   1.3398507585e+01    0.2079875    0.1360386 -52.74  0.000455501    1.540    0.350
       333  -8.1933    192.9857    130.0261   4.5268011723e+01   1.5927924416e+01     0.235201    0.1843887 -78.70 0.0004143945    1.577    0.366
       334  -9.2167    168.3183    129.2651   5.0412510487e+01   2.1612941133e+01    0.3397762    0.2595228 -73.74  0.000439915    1.628    0.386
       335  -8.5995    161.6404    129.8226   5.2104266447e+01   2.3002221400e+01    0.2308949    0.1466455 -54.23 0.0004789046    1.682    0.405
       336  -9.5030    152.8310    128.9712   5.4016835010e+01   2.5180055269e+01      0.54752    0.2762869 -54.69  0.001036939    2.290    0.563
       337  -9.9195     73.1113    129.1652   7.6551402370e+01   4.0715645027e+01    0.4103885    0.2946171 -82.88  0.001039478    1.774    0.436
       338  -7.6795    220.4948    129.5892   3.9964164142e+01   1.0180141895e+01    0.1447675    0.1322096 -54.60 7.927766e-05    1.045    0.043
       339  -8.1057    211.5737    128.8267   4.1395782304e+01   1.2172341000e+01    0.2166652    0.1294124 -52.83 0.0006787243    1.706    0.414
       340 -10.7374     45.3797    123.7937   8.4080774494e+01   4.5681046432e+01     1.065631    0.5885472  77.74  0.003705235    4.015    0.751
       341  -9.9243    117.9739    125.0403   6.2225467962e+01   3.3657655288e+01    0.5792438    0.3999864  81.88  0.001405407    2.385    0.581
       342  -7.5756    228.5119    125.4814   3.7688453329e+01   9.3538128720e+00    0.1444974    0.1273917 -53.56 0.0001489482    1.048    0.046
       343  -8.8297    179.2641    124.5257   4.6817952783e+01   2.0144518991e+01     0.307439    0.2470557 -72.25 0.0005390919    1.431    0.301
       344 -10.6320     28.2827    121.0806   8.8946492510e+01   4.8055643112e+01    0.9476774    0.4632107 -84.65  0.003617237    3.251    0.692
       345  -7.7620    188.4987    123.5662   4.4645145006e+01   1.8258825876e+01    0.1543758    0.1463393 -69.39 0.0002165641    1.045    0.043
       346  -8.7288     85.0154    122.4588   7.1337328505e+01   4.0461699466e+01    0.4654967    0.2599171  10.17  0.001540478    3.518    0.716
       347  -7.8177    195.2184    121.9556   4.2910469050e+01   1.7086292516e+01    0.2044424    0.1197278 -43.51  0.000480489    1.626    0.385
       348  -8.6597    171.9676    121.2711   4.7612105849e+01   2.2498386277e+01    0.2674201    0.2202937 -47.23 0.0004324097    1.193    0.162
       349  -9.1459    158.6514    121.4063   5.0706301313e+01   2.5528608553e+01     0.370193    0.2753337 -76.63 0.0009634023    1.767    0.434
       350  -9.5060     71.2392    119.7958   7.5017300608e+01   4.3286689602e+01    0.3906385    0.2526757 -82.68  0.001202343    2.405    0.584
       351 -10.0849    141.6376    117.8064   5.3980838493e+01   3.0192948686e+01    0.6945961    0.3624628 -50.82  0.001458997    2.025    0.506
       352  -9.6531      3.1633    117.2374   9.6072572552e+01   5.0804483428e+01     0.518046    0.2740545  71.52  0.002397419    2.862    0.651
       353  -9.0422      3.6296    109.5340   9.4784741503e+01   5.2572371768e+01    0.3787406    0.1730505 -26.80  0.001763498    2.781    0.640
       354  -7.8238    231.5004    117.4781   3.5458094262e+01   1.0256676805e+01    0.1434818    0.1245032 -56.93 0.0008096396    1.057    0.054
       355  -9.9633    109.5301    114.2930   6.1873815224e+01   3.7864579083e+01    0.5377584    0.3763533 -72.88   0.00180373    2.000    0.500
       356  -8.0424    185.9575    115.9640   4.3322551578e+01   2.0390354511e+01    0.2437514    0.1821167 -74.41  0.000550551    1.640    0.390
       357  -8.8791     59.1605    115.1502   7.7829260817e+01   4.6098963362e+01    0.4036541    0.2361992 -13.79  0.001591639    2.790    0.642
       358  -8.0482    193.1866    115.1481   4.1682046771e+01   1.8911095438e+01    0.2125049    0.1711655 -67.79 0.0004438148    1.330    0.248
       359 -10.1522     92.7855    112.3741   6.6409677779e+01   4.1496352795e+01     0.646836    0.3863425 -66.20  0.001261346    2.307    0.567
       360  -8.7561     93.3251    104.3486   6.4104785171e+01   4.3223224747e+01     0.412511    0.2293874  12.77  0.001334073    3.595    0.722
       361  -9.9974     79.0280    112.4214   7.0750118585e+01   4.3835702468e+01    0.5529658    0.3873109 -88.27  0.001709151    2.310    0.567
       362  -7.9249    250.2625    114.5906   3.2038621277e+01   7.1604501633e+00    0.1628267    0.1294943  43.03 0.0009386673    1.546    0.353
       363  -8.1787    167.4197    114.2323   4.6857727052e+01   2.5031252130e+01    0.2221325    0.1466565 -53.82 0.0006961552    1.598    0.374
       364  -9.9939    133.6835    108.7587   5.3653394519e+01   3.3957154105e+01     0.630946    0.3516572 -48.05  0.002436619    1.841    0.457
       365 -10.3521    121.6414    111.2751   5.7605371053e+01   3.6039032957e+01    0.5808252    0.4536902 -49.85  0.001705679    1.301    0.231
       366  -9.9163     14.4968    111.1186   9.1586872125e+01   5.1518541075e+01     0.416926    0.2260938  88.21  0.001631192    2.755    0.637
       367  -8.6312    174.6590    111.6239   4.4608759362e+01   2.3884211349e+01    0.3086993    0.2250578 -62.23 0.0006653786    1.529    0.346
       368  -8.7533    159.1403    111.6418   4.8087181685e+01   2.7502516521e+01    0.2685204    0.2128716 -56.90 0.0004269706    1.317    0.241
       369 -10.2583     66.4521    109.6221   7.4134978221e+01   4.6406067398e+01    0.5906965    0.3497933 -57.44  0.002138062    1.670    0.401
       370 -10.3349    248.5780    107.6436   3.0841249405e+01   8.7014451780e+00    0.3856468    0.2589258 -37.85  0.001495894    1.401    0.286
       371  -8.0463    182.6828    108.9109   4.2252936725e+01   2.2565059442e+01    0.2261271    0.1315919 -51.32 0.0005086781    1.766    0.434
       372  -8.9837     42.9828    109.1479   8.1832529252e+01   4.9465338086e+01    0.3180318    0.1602921   5.72  0.001246504    3.180    0.686
       373  -8.2146    189.1570    107.6523   4.0651267292e+01   2.1316299841e+01    0.2699723    0.1934577 -53.27  0.000732086    1.388    0.280
       374  -9.2149    109.3122    107.3366   6.0072661954e+01   3.9476094947e+01    0.4135286    0.2702455   6.37  0.001559706    2.538    0.606
       375  -9.6399    119.1007    105.7752   5.6824838383e+01   3.7788861729e+01    0.2872132    0.2401191 -23.96 0.0009653856    1.282    0.220
       376 -10.6967     22.9869    102.5452   8.7203567312e+01   5.2879742850e+01    0.7012936    0.4253349  72.04  0.002037996    2.871    0.652
       377  -9.4658    150.6875    103.1194   4.7841983617e+01   3.1245865584e+01    0.4797211    0.2952175 -63.26  0.001337489    2.211    0.548
       378  -9.3708    139.8004    104.4065   5.0886054109e+01   3.3499213288e+01    0.3634362    0.2929772 -88.79 0.0009206887    1.565    0.361
       379  -8.8969     78.4755    104.8423   6.8977830695e+01   4.5675348792e+01    0.3437081    0.2084094   9.26  0.001364775    2.487    0.598
       380 -10.4904     45.6346    101.9929   7.9316249902e+01   5.0837926287e+01    0.7213443    0.4536538  73.93  0.002957788    3.209    0.688
       381  -9.2553     45.8251     92.4538   7.6923170422e+01   5.2965853398e+01    0.4542598    0.2481615  -2.61  0.001881841    2.835    0.647
       382  -8.4135    166.7937    104.1302   4.4403506602e+01   2.7249256865e+01    0.2410238    0.2040697 -75.37 0.0005663658    1.292    0.226
       383 -10.6553    108.6964     98.5274   5.7806875595e+01   4.1514352900e+01    0.8672263    0.5480103  65.91  0.001211804    2.486    0.598
       384  -8.9197    107.4048     92.7458   5.6532042954e+01   4.2985813820e+01    0.4363357    0.3364997  -2.98  0.002063367    1.579    0.367
       385  -8.9971      6.5821    102.8738   9.2756013827e+01   5.3934701254e+01    0.2207317    0.1794365  76.80 0.0008937952    1.498    0.332
       386  -7.8004    175.5087    102.0078   4.1993487943e+01   2.5612512366e+01    0.2117615    0.1273945 -64.30 0.0004387946    2.246    0.555
       387  -9.6122    128.3989    101.7496   5.3147164138e+01   3.6628139020e+01     0.333841     0.284075  83.62 0.0008341494    1.413    0.292
       388  -8.4426    159.9055    100.9322   4.5105989876e+01   2.9519017890e+01    0.2451366    0.1875602 -79.64 0.0004779493    1.640    0.390
       389  -9.1664     82.1616     99.9066   6.6451129485e+01   4.6173517743e+01    0.3385555    0.2552446 -75.77  0.001043714    1.852    0.460
       390 -10.2406     63.9800     96.1533   7.1521749298e+01   4.9827237189e+01    0.6317559    0.4103065 -70.10  0.001832419    2.173    0.540
       391  -9.1711     95.1285     96.9627   6.1487716718e+01   4.4505394155e+01    0.3170052    0.2530102 -61.99  0.000549991    1.465    0.317
       392  -8.2619    130.2070     97.1958   5.1393027232e+01   3.7168707577e+01    0.2661416    0.1733274   6.80 0.0009502575    2.817    0.645
       393  -7.2764    183.6487     96.3111   3.8916732323e+01   2.4789607971e+01    0.1599369    0.1158292 -80.37 0.0007045018    1.721    0.419
       394  -8.1886    151.0542     95.2230   4.5621725617e+01   3.2745285134e+01    0.3188941    0.2071826 -10.64   0.00117841    2.692    0.629
       395  -8.1120    164.9643     93.9631   4.2142988919e+01   2.9680983249e+01    0.2372332    0.1822816 -77.21 0.0004778028    1.566    0.361
       396  -8.2266    176.4915     93.0202   3.9496289260e+01   2.7107275640e+01    0.2306278    0.1467404 -44.16 0.0005030365    1.562    0.360
       397  -9.3442    139.0639     92.0542   4.7661146399e+01   3.6175995012e+01      0.41146    0.3043355 -81.50 0.0008761681    1.907    0.476
       398  -9.1180    120.3035     92.9578   5.2882773183e+01   4.0221217003e+01    0.3023898    0.2243262  41.03  0.001177654    1.324    0.245
       399 -10.1908    124.6379     90.7999   5.1069943189e+01   3.9700861306e+01    0.6798908    0.4283217 -40.75 0.0008483761    1.625    0.385
       400  -9.5526     34.8711     89.6487   8.0171096044e+01   5.4739392733e+01    0.4512678    0.2789555 -78.59  0.001425312    2.520    0.603
       401  -9.2863      5.1240     91.6682   9.1256646704e+01   5.6540445201e+01     0.295071    0.1888905  64.08  0.001169012    2.396    0.583
       402  -7.6808    157.5890     91.4692   4.3101320323e+01   3.1920135893e+01    0.1526718    0.1462928 -87.51 0.0001641857    1.037    0.036
       403  -8.2794    151.0061     88.7931   4.3872970892e+01   3.3997697438e+01    0.2779718    0.1928786 -56.79 0.0006700794    1.624    0.384
       404 -10.0851     86.4895     85.8800   6.1024050664e+01   4.8399514054e+01    0.6088048    0.3903013 -55.47  0.001695157    1.850    0.460
       405  -7.9563    164.3547     87.1070   4.0455171019e+01   3.1117516222e+01    0.2186319    0.1343876 -51.61 0.0004588526    1.737    0.424
       406  -9.1535     65.3950     86.9452   6.8487348267e+01   5.1611474228e+01    0.3708192    0.1909889  20.01  0.001521124    2.459    0.593
       407  -9.7790     48.4740     84.0964   7.3758560670e+01   5.4462496480e+01    0.4714384    0.3422545  75.71  0.001915585    2.545    0.607
       408  -9.7412    104.8867     83.1373   5.4439109015e+01   4.5417586239e+01    0.4214403    0.3205777 -67.64 0.0009185116    1.799    0.444
       409  -8.3925    158.0872     83.6819   4.0881029130e+01   3.3252838071e+01    0.2555193     0.199181 -53.48 0.0005375628    1.341    0.254
       410  -9.1048     22.3978     90.3246   8.4846304157e+01   5.5686001107e+01    0.3820378    0.2089283 -31.48   0.00170689    1.825    0.452
       411  -9.6906     24.8232     80.3760   8.1620564305e+01   5.7644303902e+01    0.4403114    0.3062895 -89.03  0.001635579    2.376    0.579
       412  -9.3211      9.9907     80.8418   8.7314906022e+01   5.8614082169e+01    0.3003671    0.1981475  65.27   0.00122624    2.570    0.611
       413  -8.7841    249.7590     80.9848   2.5246747753e+01   1.2993451872e+01    0.1751962   0.09594022 -43.39 0.0005987013    1.599    0.375
       414  -8.7182    119.6118     80.1108   4.9302943713e+01   4.2864266211e+01    0.3142258    0.1767283 -50.39    0.0010081    2.068    0.516
       415  -8.8469     74.7874     80.2851   6.3259244767e+01   5.1522722523e+01     0.295094    0.2175257 -64.98 0.0008725307    1.881    0.468
       416  -8.3119    150.0908     80.0759   4.1665679557e+01   3.5822502078e+01    0.2419259    0.1830227 -79.00 0.0008564658    1.683    0.406
       417  -8.2697    166.9431     79.3546   3.7854392334e+01   3.1889606469e+01    0.2090012     0.184629  62.00 0.0004570852    1.087    0.080
       418  -8.2022    184.3316     78.1709   3.4231031478e+01   2.7906116741e+01    0.2113443    0.1257225 -49.03 0.0005848195    1.689    0.408
       419  -7.6875    174.7739     77.9633   3.5948074225e+01   3.0239462000e+01    0.1877863    0.1223173 -39.22 0.0004596607    1.587    0.370
       420  -7.5531     92.6658     78.6934   5.6850001783e+01   4.8677160241e+01    0.1514823    0.1100239   2.22 0.0003368782    1.669    0.401
       421  -9.3565    140.9163     82.6297   4.4538567028e+01   3.7535217502e+01    0.2870345    0.2203354 -52.28 0.0007088213    1.404    0.288
       422  -8.6901    140.5344     75.3095   4.2531550459e+01   3.8938053977e+01    0.2604119     0.207555 -61.09 0.0007085066    1.431    0.301
       423  -9.2782    128.1007     75.1090   4.5549988602e+01   4.1864188591e+01    0.3445083    0.2525774 -63.13  0.000643463    1.745    0.427
       424  -9.9538     63.2359     73.2710   6.5180630120e+01   5.4687317176e+01    0.4774956    0.2678696 -54.12  0.001223238    2.130    0.530
       425  -9.6601     82.4403     72.2533   5.8160192807e+01   5.1762623450e+01    0.3943897    0.2823876 -63.81  0.001181189    2.089    0.521
       426  -8.4679    163.4445     72.8502   3.6819472092e+01   3.3856321105e+01    0.2705103    0.1394026 -43.16  0.001113015    1.995    0.499
       427  -8.0664    151.4189     73.2204   3.9451343598e+01   3.6701652292e+01    0.2049958     0.137999 -50.98 0.0006189976    1.616    0.381
       428  -8.7189    115.6606     72.6245   4.8120790684e+01   4.5082828964e+01    0.2630289    0.1810802 -40.60 0.0004626844    1.527    0.345
       429  -8.2456     42.8125     72.7269   7.2658197179e+01   5.7455550966e+01    0.2309542    0.1725846 -75.45  0.001082083    2.105    0.525
       430  -7.6773    175.5203     72.4980   3.4390437738e+01   3.0987799453e+01    0.1465902    0.1366647  82.34 0.0001987129    1.016    0.016
       431  -9.5007    105.6636     71.5321   5.0633763990e+01   4.7406855428e+01    0.2590092    0.2546672 -71.72 0.0006750525    1.175    0.149
       432  -9.1066     95.2527     71.1653   5.3671746376e+01   4.9572409846e+01    0.3235895    0.2384333 -57.54 0.0008624798    1.762    0.433
       433  -9.3097     29.3592     70.1988   7.7183088249e+01   5.9344063735e+01    0.5645801    0.2537294 -14.63  0.002080822    4.002    0.750
       434  -9.3657     51.6178     69.4628   6.8307224600e+01   5.7025067943e+01    0.4234128    0.2638025 -65.55  0.001482727    2.690    0.628
       435  -8.9359     16.6079     69.5736   8.2082457270e+01   6.0518239875e+01    0.2606012    0.1723051 -67.05 0.0009380042    1.775    0.437
       436  -7.4267    157.2767     69.6789   3.7216812588e+01   3.5881052727e+01    0.1480415    0.1121094 -75.39 0.0002790366    1.578    0.366
       437  -8.7344    147.1319     67.9695   3.8911231955e+01   3.8609646145e+01    0.2881444    0.2078144 -48.01 0.0007569633    1.488    0.328
       438  -8.6483    138.7940     66.0885   4.0258596761e+01   4.0903642019e+01    0.2793059    0.1932409 -52.25 0.0006029158    1.648    0.393
       439  -8.7888    121.5706     65.6209   4.4370508075e+01   4.4963073607e+01    0.2882529    0.2197983 -64.10 0.0005244514    1.707    0.414
       440  -7.8334    130.6982     64.3379   4.1669718542e+01   4.3084280089e+01    0.1461153    0.1149068 -79.14 0.0006343424    1.666    0.400
       441  -8.9782    109.9746     63.4191   4.6825709850e+01   4.7875245898e+01    0.2940238    0.2041414 -42.20 0.0006614114    1.568    0.362
       442  -8.7667     37.3002     63.8540   7.2154991573e+01   5.9788756889e+01    0.2145633    0.1946321 -71.61  0.001194801    1.564    0.361
       443  -8.6303     65.2622     62.4207   6.0948137565e+01   5.6387935268e+01    0.3818536    0.2026902   5.49  0.001368976    3.681    0.728
       444  -8.0867     17.3199     63.3357   8.0130200117e+01   6.1706232549e+01     0.133742   0.07118654 -29.70  0.000704959    1.704    0.413
       445  -7.8699    158.2009     61.4610   3.4764813207e+01   3.6972112007e+01    0.1967658     0.133546  72.98 0.0004792743    1.573    0.364
       446  -9.1026     97.4231     60.3074   4.9481914119e+01   5.0993445433e+01     0.256047    0.2321045  50.41 0.0007277479    1.217    0.178
       447  -9.6251     73.4298     59.2072   5.6947694986e+01   5.5623518403e+01    0.3778196    0.2351954 -50.17  0.001114225    2.020    0.505
       448  -7.9547    147.2238     58.9442   3.6311023825e+01   4.0013935183e+01     0.181044    0.1201091 -37.27 0.0003903532    1.623    0.384
       449  -8.0879     88.9958     59.2163   5.1741405160e+01   5.2822908076e+01      0.18921    0.1526202 -55.33 0.0006605221    1.613    0.380
       450  -9.8164     23.4768     56.1742   7.5475047598e+01   6.2570885485e+01    0.3752947    0.2855896 -86.56  0.002013619    2.569    0.611
       451  -9.5919      7.6870     56.6023   8.2303892276e+01   6.3663098260e+01    0.3720081    0.2088106 -65.86  0.002024596    2.194    0.544
       452  -8.1452    130.6840     57.2147   3.9519174500e+01   4.4198124583e+01    0.2080554    0.1742726 -53.11 0.0006719101    1.348    0.258
       453  -8.3172    140.1086     55.7421   3.6920485555e+01   4.2197572815e+01    0.2392183    0.1893355 -51.68 0.0005787284    1.405    0.288
       454  -9.2951    119.1499     55.0744   4.1706696153e+01   4.7160481334e+01    0.4083207    0.2250079 -47.24  0.001381668    2.192    0.544
       455  -8.6128     44.2200     55.5048   6.6685044380e+01   6.0518462431e+01    0.2081041    0.1994002 -47.40 0.0007863838    1.447    0.309
       456  -9.0212     62.8798     54.5329   5.9136931671e+01   5.8103465369e+01    0.2679354    0.1826356 -45.08 0.0006475882    1.663    0.399
       457  -9.1313     54.1476     53.6069   6.2119631615e+01   5.9540978171e+01    0.3720833    0.2121875 -54.09  0.001486788    2.556    0.609
       458  -8.3247    105.8276     53.1244   4.4655707368e+01   5.0367120413e+01    0.2004392    0.1903643 -87.09 0.0005197474    1.286    0.222
       459  -9.3526     92.5269     50.5373   4.7690128745e+01   5.3483795199e+01    0.3284498    0.2322791 -50.25  0.000926358    1.835    0.455
       460  -8.3183     74.9879     51.4858   5.3734952197e+01   5.6607014196e+01    0.1982944    0.1031429  20.88 0.0008098026    2.562    0.610
       461  -8.0102    144.7297     48.5356   3.3833763612e+01   4.2123472866e+01    0.2309953    0.1254494 -33.83  0.000653801    2.033    0.508
       462  -8.6059    129.7364     48.9918   3.7233110578e+01   4.5610609953e+01    0.1904071    0.1807387  32.57 0.0004130313    1.077    0.071
       463  -8.3709    120.8195     47.1655   3.8785172234e+01   4.7914600210e+01    0.1966647    0.1869872  89.88 0.0006004361    1.195    0.163
       464  -8.3131    112.1849     46.6720   4.0813103319e+01   4.9913268224e+01    0.2186127    0.1841396 -45.28 0.0005711855    1.381    0.276
       465  -8.8780     82.0816     46.1682   4.9470109332e+01   5.6127223758e+01    0.2489194    0.1864229 -36.22 0.0006140197    1.473    0.321
       466  -8.5622     45.0399     44.5203   6.2502489676e+01   6.2248806217e+01    0.2088997    0.1659247 -44.24 0.0006670941    1.553    0.356
       467  -8.8935     16.8319     44.5638   7.4664060254e+01   6.5206558763e+01    0.1979385    0.1485242 -59.28 0.0006727753    1.797    0.444
       468  -8.3554    132.8509     43.0951   3.4735787349e+01   4.5676642810e+01    0.2056082    0.1817366 -84.71 0.0005276479    1.273    0.214
       469  -8.8516     58.3112     42.2866   5.6445101404e+01   6.0721702124e+01    0.2735328    0.1869545 -47.88  0.001150494    1.954    0.488
       470  -9.6714      5.0608     41.4672   7.9014194778e+01   6.6590096093e+01    0.3428675    0.2043363 -64.04  0.001704251    2.348    0.574
       471  -8.9440    149.3261     41.9917   3.1050119077e+01   4.1893626732e+01    0.1878939    0.1792751  69.24 0.0005461608    1.081    0.075
       472  -8.5676     92.8402     42.1705   4.4697379420e+01   5.4601699681e+01    0.1962979    0.1439523  20.49 0.0007593357    1.357    0.263
       473  -9.1135     69.6582     41.4426   5.1974746783e+01   5.9013737073e+01    0.2605003    0.2429148 -66.88  0.001150523    1.608    0.378
       474  -8.7692    105.9338     41.1090   4.0626084036e+01   5.2016356205e+01    0.1946684    0.1821472  81.18 0.0004446651    1.292    0.226
       475  -8.3736     36.8615     40.3596   6.4384042708e+01   6.3912862720e+01    0.1936794    0.1513004 -34.85 0.0005937238    1.356    0.263
       476  -7.6760    160.5212     39.5241   2.8343391987e+01   3.9504275821e+01    0.1388334    0.1210892  77.82 4.688506e-05    1.044    0.042
       477  -8.6363     95.7723     37.9242   4.2354354384e+01   5.4560921668e+01    0.2232017    0.1798418 -50.34 0.0006626628    1.613    0.380
       478  -8.1399     80.6618     36.3628   4.6389033344e+01   5.7730056673e+01    0.1746424    0.1586483 -87.99 0.0007234924    1.646    0.392
       479  -9.3448     26.1700     35.1379   6.7123884274e+01   6.5899393494e+01    0.2627692    0.1827364 -46.78 0.0008433355    1.737    0.424
       480  -8.0658    126.0313     35.3591   3.3855637494e+01   4.8233898349e+01    0.1916401    0.1545585  54.73 0.0002942669    1.089    0.082
       481  -8.5666    111.8391     34.3299   3.6843308084e+01   5.1569720864e+01    0.2068065    0.1817439 -42.66 0.0004289046    1.343    0.255
       482  -8.0096     88.6459     34.2367   4.3136048328e+01   5.6457877006e+01    0.1730882    0.1181015 -12.64 0.0005245281    1.616    0.381
       483  -8.6306    119.3278     32.8572   3.4576535477e+01   5.0064290489e+01    0.2339014    0.1924086 -61.35 0.0007491866    1.519    0.342
       484  -8.7242     60.8629     32.3395   5.1702200175e+01   6.1706922168e+01    0.2358322    0.1702724 -42.11 0.0008093449    1.786    0.440
       485  -8.9129     48.6208     32.9945   5.6684248384e+01   6.3473311973e+01    0.1920631    0.1736358  -7.28 0.0006529308    1.314    0.239
       486  -8.7668     72.3463     31.0115   4.7128580025e+01   5.9924315644e+01    0.2692659    0.2035807 -55.42 0.0009187853    2.149    0.535
       487  -8.9312     12.7753     29.7382   7.1331926933e+01   6.7968790488e+01    0.2775084    0.1698146 -55.57  0.001378255    2.369    0.578
       488  -8.9399    101.6465     29.1853   3.7700838076e+01   5.4375971446e+01    0.1839352     0.162116 -46.15 0.0006179284    1.408    0.290
       489  -7.9285     42.3094     29.6774   5.7958344091e+01   6.4794851752e+01    0.1004909   0.09851852  24.55 0.0003289003    1.649    0.393
       490  -8.9010     81.5241     27.2490   4.2739448640e+01   5.8670793190e+01    0.2526219    0.1948053 -54.13 0.0009546131    1.956    0.489
       491  -8.8973      3.7568     27.6533   7.4958045604e+01   6.8969723998e+01    0.1927712    0.1340379 -47.40 0.0007743837    1.575    0.365
       492  -8.7875     91.9802     26.3912   3.9340995540e+01   5.6699042647e+01    0.2086731     0.179333 -46.42 0.0006019431    1.508    0.337
       493  -7.9394     34.4423     23.1676   5.8675234060e+01   6.6674896870e+01      0.14559    0.1029561 -37.43 0.0006376076    1.680    0.405
       494  -8.7999     48.4913     21.6148   5.2136830015e+01   6.4956355574e+01    0.2017175    0.1760908  -9.48 0.0008296965    1.312    0.238
       495  -7.6637    120.5236     21.0059   3.0529158318e+01   5.1069396736e+01    0.1686323    0.1011444 -55.09 0.0008073769    2.377    0.579
       496  -8.2849    113.1275    248.5918   8.6211614158e+01   5.9237834017e+00    0.2195862    0.1723318 -86.25  0.001281186    1.468    0.319
       497  -7.9955     19.5106     21.4375   6.4823042559e+01   6.8576727989e+01    0.1146628    0.0851224  -7.11 0.0001389267    1.021    0.020
       498  -8.0485    186.0067     20.2858   1.9790520584e+01   3.5684332571e+01    0.1814538    0.1395575  78.13 0.0002458714    1.088    0.081
       499  -9.0418     74.2110     19.3437   4.2016529780e+01   6.0905462793e+01    0.2439432    0.1838014 -40.87 0.0008652246    1.770    0.435
       500  -8.0537     38.9577     18.0234   5.4544930066e+01   6.6732970737e+01    0.1493523    0.1428879  -6.38 0.0005941601    1.637    0.389
       501  -8.1522    112.6384     16.7799   3.0862770676e+01   5.3251158666e+01    0.1578854    0.1168336 -37.57 0.0003776219    1.622    0.383
       502  -8.1598     87.9019     17.1853   3.7125223072e+01   5.8471430134e+01    0.1750095    0.1641455  55.37 0.0006458818    1.283    0.221
       503  -8.2097     30.0479     15.9331   5.7554499915e+01   6.8127997107e+01    0.1461247    0.1383634   7.99 0.0006599923    1.689    0.408
       504  -8.1284     97.0479     14.9610   3.3906250203e+01   5.6796307870e+01    0.1762078    0.1499818 -77.01 0.0005789488    1.630    0.386
       505  -8.5993      7.6827     15.3648   6.8158303857e+01   7.0492004177e+01    0.1381153    0.1276137  10.99  0.001095546    1.727    0.421
       506  -7.7796     17.2878     13.6908   6.2602403173e+01   6.9830026892e+01   0.09189303   0.08264958  -1.19 0.0002318353    1.575    0.365
       507  -8.4446     93.9694    249.0639   9.0289019645e+01   8.8847485711e+00    0.2223888    0.1332991  65.53 0.0008775024    1.808    0.447
       508  -9.4027    243.1688    246.0990   5.9097484145e+01  -1.4016161835e+01    0.4103339    0.1728843 -27.00  0.001933082    2.483    0.597
       509  -8.8524    218.5332    246.7917   6.3912973163e+01  -1.0746237224e+01    0.3459207    0.1154016 -38.77  0.001438766    3.087    0.676
       510  -9.1453    175.5345    247.3836   7.2763848834e+01  -4.2051730390e+00    0.2979559    0.2312391  69.16  0.001269384    1.962    0.490
       511  -8.5640    156.0287    247.9973   7.6983725750e+01  -1.0925493084e+00    0.2024834    0.1540841  63.72 0.0006477534    1.660    0.397
       512  -8.7541    132.1019    247.6309   8.2042158368e+01   2.9754317255e+00    0.2091606    0.1785476  84.06 0.0005388742    1.371    0.271
       513  -9.1659    103.6965    246.2284   8.7914910536e+01   7.9112161057e+00    0.4420796    0.2405727 -81.20  0.001931471    2.801    0.643
       514  -9.4837    224.5074    245.5024   6.2527258828e+01  -1.1406168087e+01    0.2785966    0.1952718 -24.07  0.001167782    1.356    0.263
       515  -9.7136    223.6602    242.3391   6.2141924788e+01  -1.0815365377e+01    0.2495984    0.2368084 -34.13  0.001111252    1.499    0.333
