#   1 NUMBER                 Running object number                                     
#   2 MAG_AUTO               Kron-like elliptical aperture magnitude                    [mag]
#   3 X_IMAGE                Object position along x                                    [pixel]
#   4 Y_IMAGE                Object position along y                                    [pixel]
#   5 X_WORLD                Barycenter position along world x axis                     [deg]
#   6 Y_WORLD                Barycenter position along world y axis                     [deg]
#   7 A_WORLD                Profile RMS along major axis (world units)                 [deg]
#   8 B_WORLD                Profile RMS along minor axis (world units)                 [deg]
#   9 THETA_WORLD            Position angle (CCW/world-x)                               [deg]
#  10 FWHM_WORLD             FWHM assuming a gaussian core                              [deg]
#  11 ELONGATION             A_IMAGE/B_IMAGE                                           
#  12 ELLIPTICITY            1 - B_IMAGE/A_IMAGE                                       
         1 -13.2305    204.4120     34.3577   5.4322141853e+01   2.9800227219e+01     1.320246     1.063939 -32.39  0.006069809    1.246    0.197
         2 -13.1962      4.5315     10.3022   1.0329115353e+02   7.0978374409e+01     1.527275    0.3197537 -49.95   0.00695554    2.912    0.657
         3 -13.7531    224.0254     16.0277   4.6617789561e+01   2.6926506316e+01     1.225152    0.9590351  28.31   0.00170149    1.545    0.353
         4 -10.9987     73.9960    244.1630   1.2206422401e+02   1.7898209611e+01    0.2859838    0.2089035 -89.40  0.002300709    1.323    0.244
         5 -12.0412    176.8167    249.1842   1.0626643989e+02   1.8312865624e+00     0.543774    0.2434309  34.05  0.002802057    2.376    0.579
         6 -11.4357    141.0052    248.2297   1.1191494934e+02   7.6328217592e+00    0.3526005    0.1580197  50.81  0.002016746    1.713    0.416
         7 -11.6152    132.0663    248.7856   1.1339775918e+02   8.9366751628e+00    0.6159416    0.1514873  49.79  0.002599282    3.227    0.690
         8 -11.5175    116.7116    249.2576   1.1586908302e+02   1.1181249025e+01    0.4944271    0.3506235  65.87  0.002983661    1.176    0.150
         9 -11.8252    123.7581    248.0296   1.1464295190e+02   1.0303034463e+01    0.4705156    0.3400837  62.52  0.003508528    1.122    0.109
        10 -10.8719    110.3800    247.6442   1.1671719266e+02   1.2341992436e+01    0.2976598    0.2050305  56.76  0.001659224    1.064    0.060
        11 -10.2770    100.0454    250.2254   1.1854414183e+02   1.3450564658e+01     0.511046    0.1370409  40.88  0.002183347    3.774    0.735
        12 -11.0147     98.8769    247.1189   1.1846777486e+02   1.4070706946e+01    0.4796566     0.156356  47.73   0.00252054    2.264    0.558
        13 -10.1664     81.6301    248.2032   1.2119924129e+02   1.6277431815e+01    0.2823482    0.1253097 -73.69  0.001474713    2.548    0.608
        14 -11.5721     87.7449    248.3850   1.2028312568e+02   1.5426633671e+01    0.4986565    0.3041425  58.09  0.002000606    1.188    0.158
        15 -11.9662     88.9321    238.5409   1.1931598879e+02   1.6763617405e+01    0.6758514    0.3240901  76.16  0.003663469    2.636    0.621
        16 -11.0140     82.7495    240.0536   1.2040847620e+02   1.7373657521e+01    0.4167961    0.1705229  57.46 0.0009357095    1.996    0.499
        17 -10.6377     84.2046    230.0597   1.1936647312e+02   1.8764333740e+01    0.2036972    0.1857801  67.36  0.001658787    1.424    0.298
        18 -11.5115     90.5300    223.4846   1.1774838947e+02   1.8960643270e+01    0.4581302    0.3212509 -62.48  0.002513208    1.698    0.411
        19 -11.1615     68.3273    245.5255   1.2301526085e+02   1.8417909103e+01     0.261783    0.1691337  66.55 0.0008882548    1.112    0.101
        20 -11.4628     59.1935    245.8726   1.2439773479e+02   1.9505192612e+01    0.4951331    0.2263673  65.75   0.00320224    1.813    0.448
        21 -15.1965     22.0585    218.5731   1.2837348407e+02   2.8157776520e+01      2.42415     1.235494  69.94   0.01727007    1.480    0.324
        22 -12.8419    103.0589    238.2136   1.1703496858e+02   1.4810642771e+01    0.7819788     0.553588 -59.20  0.004310957    1.806    0.446
        23 -10.9116    102.4784    231.0149   1.1646606442e+02   1.6015306788e+01    0.2335022    0.1893198  78.53  0.001134541    1.163    0.141
        24 -10.5472     98.5595    231.1914   1.1712644631e+02   1.6557775194e+01    0.2060267    0.1827445  62.00 0.0009994028    1.320    0.242
        25 -10.6438    145.2391    240.7507   1.1042443300e+02   7.9850940658e+00    0.1908682    0.1141567  57.27  0.000909903    1.441    0.306
        26 -11.9737    125.1633    240.3748   1.1366560255e+02   1.1183034836e+01    0.4743808    0.1800271  45.28   0.00244656    2.057    0.514
        27 -12.0639    119.3414    237.4119   1.1431793994e+02   1.2509501656e+01    0.4675843    0.3371977  27.74  0.003056563    2.012    0.503
        28 -10.6767     68.5360    238.2265   1.2247539515e+02   1.9531795263e+01      0.26292    0.2072434 -32.27  0.001385107    3.044    0.671
        29 -10.2859     73.7858    237.1374   1.2158301964e+02   1.9024924023e+01    0.2301329     0.148654  84.78 0.0009838514    1.390    0.281
        30 -10.4096     76.7207    233.4750   1.2084227504e+02   1.9223495066e+01    0.3478348     0.195468  67.76  0.002321926    1.494    0.331
        31  -8.8644     60.6731    238.6187   1.2370486600e+02   2.0459964610e+01    0.1430511   0.06857858  54.12  0.000695091    1.551    0.355
        32 -10.8287    197.7615    245.6454   1.0244293398e+02  -1.1305174799e+00    0.2026109    0.1405581  30.22  0.001054767    1.288    0.223
        33  -9.9261    129.6272    236.2184   1.1250427495e+02   1.1098438053e+01    0.1282232    0.1064505 -56.15 0.0009466807    1.575    0.365
        34  -9.4322     55.0553    235.8318   1.2437462170e+02   2.1594331492e+01    0.2382244   0.09723952  67.00  0.001352922    2.303    0.566
        35 -12.0584    135.1261    235.0985   1.1147202264e+02   1.0395959208e+01    0.4115464    0.2833236 -72.69  0.002768092    1.792    0.442
        36 -10.1518    153.8223    229.8810   1.0772114267e+02   8.1127421443e+00    0.1864264    0.1520711  50.36 0.0003368996    1.053    0.050
        37 -10.0618     56.5447    228.3410   1.2364277119e+02   2.2639227200e+01    0.1972868    0.1349516  81.15 0.0001547384    1.170    0.145
        38 -10.7920     79.1322    225.4867   1.1980809865e+02   2.0207286745e+01    0.2949001    0.2166592 -87.41  0.002210042    1.291    0.225
        39  -9.3465     65.2671    223.8174   1.2192744887e+02   2.2308292296e+01    0.2691763    0.1195419 -56.25  0.001507882    2.992    0.666
        40  -8.9942     53.6857    241.0344   1.2491137886e+02   2.0929207668e+01    0.1376782    0.1001828  79.47 0.0007708948    1.156    0.135
        41 -10.0238     98.9898    224.0033   1.1637904788e+02   1.7655836713e+01     0.146109    0.1374025  25.19 0.0005778607    1.641    0.391
        42  -9.9885    246.0000    220.5160   9.0869867953e+01  -6.2191868934e+00    0.2230924   0.06377912 -31.54 0.0009404764    3.981    0.749
        43 -10.3226     70.8667    219.0985   1.2063806665e+02   2.2387364476e+01    0.3837765    0.2226487  75.87   0.00249697    1.558    0.358
        44 -10.2338     60.3098    220.2503   1.2245928184e+02   2.3539712533e+01    0.1792608    0.1349525  69.51 0.0003538419    1.081    0.075
        45 -10.4827    107.8143    216.9780   1.1415868798e+02   1.7500391043e+01    0.3698265     0.162381  60.45  0.001377382    2.384    0.580
        46 -10.0391     50.7860    218.5931   1.2387699772e+02   2.4984804931e+01    0.2659567    0.1338661  74.74 0.0007914895    1.791    0.442
        47  -9.8292     45.9736    214.2368   1.2434949529e+02   2.6307864546e+01    0.3114432    0.1023156  57.27  0.001603066    2.612    0.617
        48  -9.2826    116.0456    216.2473   1.1264279843e+02   1.6348004830e+01      0.16759    0.1415799  44.84 0.0005962939    1.315    0.239
        49  -9.6805     87.6996    211.8423   1.1713173196e+02   2.1345923361e+01    0.3321445     0.181971 -75.72  0.001768654    1.917    0.478
        50 -10.8016     63.1074    208.7519   1.2108476667e+02   2.5201987461e+01    0.3673723    0.2736131  28.95  0.002496392    2.085    0.520
        51  -9.6178     58.5348    212.5116   1.2215794801e+02   2.5106430164e+01    0.2072728    0.1160237  45.76 0.0009282808    1.657    0.396
        52 -10.1045     55.9048    208.9415   1.2231878613e+02   2.6064355663e+01    0.3722289    0.1446824 -75.81  0.001988842    2.539    0.606
        53  -9.7941    111.0068    211.3690   1.1298508066e+02   1.7954750794e+01    0.1988645    0.1491139  85.33 0.0004111759    1.307    0.235
        54  -9.7225     99.4378    209.7847   1.1486369869e+02   1.9993474701e+01     0.261088    0.1324709  75.84 0.0007550314    2.721    0.633
        55  -8.2240     74.3094    208.6655   1.1915484647e+02   2.3756542519e+01    0.1201381   0.06697813  71.13 0.0007042852    1.676    0.403
        56 -10.0904    246.8097    206.4406   8.8351568622e+01  -4.8245987533e+00    0.3013853   0.08190924  38.09  0.001153122    3.323    0.699
        57  -9.0765    113.8822    204.4888   1.1167129593e+02   1.8688949549e+01    0.1920749     0.138536  78.35 0.0005995291    1.361    0.265
        58  -9.4508     91.4838    204.8405   1.1575878571e+02   2.2040448396e+01    0.2908168    0.1210578  40.02  0.001429526    2.429    0.588
        59  -9.2694    106.6979    203.5591   1.1287074643e+02   1.9981167235e+01    0.1796384    0.1033056 -65.89 0.0005377483    1.871    0.466
        60  -8.5587     72.5324    203.4468   1.1898679036e+02   2.4934871490e+01    0.1161742   0.08568383  72.30 0.0001517084    1.055    0.052
        61 -13.7687      6.2806    245.4430   1.3183276478e+02   2.5350482279e+01     1.025749    0.5715404  68.68  0.008683219    1.158    0.137
        62  -9.6077    250.6022    200.2272   8.6628479497e+01  -4.7565898660e+00    0.1611345    0.1043161 -10.08 0.0005546039    1.619    0.382
        63 -13.5734     26.7838    247.2624   1.2911670352e+02   2.2996646885e+01     1.465689    0.5964033  37.83  0.009018995    2.969    0.663
        64  -8.5209     96.6493    199.2238   1.1421443015e+02   2.2292639415e+01     0.143417    0.1034115 -61.84 0.0003001512    1.543    0.352
        65 -11.8878     51.1697    192.0254   1.2175849090e+02   2.9752581953e+01    0.3849137    0.2640135 -84.32  0.001340178    1.240    0.194
        66 -12.6277     37.6627    206.5346   1.2517751393e+02   2.8615683442e+01    0.6846395    0.4584588  58.75  0.005184238    1.257    0.204
        67  -9.1274     21.9525    193.0598   1.2690198725e+02   3.2721322469e+01    0.1498903    0.1123742  89.12 0.0003908834    1.168    0.144
        68 -10.1006     19.0695    188.4439   1.2709486549e+02   3.3863333280e+01     0.253246     0.114027 -87.37 5.336246e-06    1.846    0.458
        69  -9.0580    191.6008    191.6693   9.5376308627e+01   7.0105663824e+00    0.1506201    0.1267534 -51.76 0.0005382394    1.440    0.305
        70 -10.9351    161.4571    250.1060   1.0884101110e+02   4.1704750759e+00     0.332462    0.1130535  38.10  0.001478342    2.999    0.667
        71 -10.2340    250.6272    187.8788   8.4346885805e+01  -3.3141763635e+00    0.2407202    0.1108685 -20.57  0.001098387    2.573    0.611
        72 -10.1924     30.8562    193.3264   1.2541001079e+02   3.1768693619e+01    0.1410053    0.1043121  70.14 0.0002587103    1.123    0.109
        73 -10.3016      9.9007    187.1264   1.2856364762e+02   3.4959640630e+01    0.2408942    0.1164528 -84.90  0.001289009    1.602    0.376
        74 -10.0198     70.8495    187.0201   1.1768728465e+02   2.8241421481e+01    0.2107853    0.1397202  51.49            0    1.382    0.277
        75 -11.7733     58.0207    184.8420   1.1986558501e+02   3.0304842274e+01    0.2720881    0.1981796  58.99    0.0004912    1.233    0.189
        76 -11.5723    113.2323    230.5222   1.1463682105e+02   1.4488968552e+01    0.3569376    0.2303863  37.91  0.001715822    1.692    0.409
        77  -9.7440     36.8751    180.3246   1.2336417521e+02   3.3616450975e+01    0.2295465    0.1308957 -70.39 0.0006402355    1.571    0.363
        78 -10.9706     97.2671    239.3205   1.1805939072e+02   1.5473297759e+01    0.3027357    0.1804904  69.61  0.001595409    1.515    0.340
        79  -8.7080    110.8165    178.1957   1.0885058911e+02   2.4028942476e+01    0.1943093   0.09487785  35.17 0.0008594861    2.522    0.604
        80  -9.1573     81.2831    178.2230   1.1471348609e+02   2.8533954447e+01    0.1974844    0.1692554   6.71  0.000881766    1.960    0.490
        81  -8.6730     12.3003    178.3436   1.2761703940e+02   3.6406204424e+01   0.09559638   0.06745208 -62.73 0.0007037169    1.676    0.403
        82  -8.7108     61.7253    177.7054   1.1845936190e+02   3.1247129430e+01    0.1005714   0.08591849 -57.60            0    1.524    0.344
        83 -11.2270      2.1132    172.0490   1.2901381944e+02   3.8481337193e+01    0.4580943    0.1950179  74.95   0.00272725    2.070    0.517
        84 -11.2933     11.5913    171.2132   1.2727610700e+02   3.7846718393e+01    0.3736053    0.1981559  82.36  0.002281174    1.512    0.339
        85 -11.3982     12.5002    167.0333   1.2682429282e+02   3.8586855355e+01    0.3080049    0.1773158  43.16  0.002148866    1.837    0.456
        86 -12.9543      8.7275    164.4914   1.2734291670e+02   3.9408878498e+01    0.7960519    0.4640521 -65.55  0.005554827    1.646    0.393
        87 -11.2573    248.8479    171.9881   8.1547325992e+01  -1.0091467453e+00    0.3744542    0.2966828  -1.49  0.002293096    1.171    0.146
        88 -10.8897     54.2649    171.8137   1.1930136837e+02   3.3341620988e+01    0.3218604    0.1937751  57.19  0.001195676    1.507    0.336
        89 -10.3241     27.3641    171.3839   1.2439794332e+02   3.6351775827e+01    0.2658255    0.1833093 -51.53 0.0009294667    1.982    0.495
        90  -9.3668     91.7312    168.3920   1.1136535064e+02   2.8982772853e+01    0.2098273    0.1573412  71.96 0.0005773952    1.216    0.178
        91 -10.7159     39.4409    167.8299   1.2179796324e+02   3.5824165045e+01    0.2111996    0.1776798  40.43 0.0002528568    1.547    0.354
        92  -9.4356     19.5236    168.4836   1.2563190326e+02   3.7672815401e+01    0.1091613   0.07899536  85.46 -2.16436e-06    1.004    0.004
        93 -11.8545     78.1716    164.8026   1.1368856780e+02   3.1685252381e+01     0.469827     0.407237  85.21  0.002521687    1.088    0.081
        94  -9.3460     18.1567    172.2449   1.2615884242e+02   3.7057653480e+01    0.1967763    0.1077412  62.22  0.001309047    1.577    0.366
        95  -9.8820     68.0888    166.3084   1.1594200961e+02   3.2736242816e+01    0.1649926    0.1310191  75.80 0.0003627949    1.069    0.065
        96 -11.0030    245.6830    162.0186   8.0041680566e+01   9.0527193323e-01    0.2911378    0.2267231  12.56  0.001284394    1.205    0.170
        97 -10.7618    249.5704    161.2769   7.9236031949e+01   2.7151332881e-01    0.3317838    0.2006861 -36.89  0.001711902    1.762    0.432
        98 -10.9227    248.2761    157.5494   7.8669904204e+01   1.0220060904e+00    0.8401608    0.4144942  63.99  0.002774343    4.992    0.800
        99 -10.6992     70.0262    172.8672   1.1631331165e+02   3.1145806086e+01     0.222427    0.1874971  88.47  0.000381864    1.105    0.095
       100  -9.0117     37.2244    162.5806   1.2174263349e+02   3.7125428085e+01    0.1228666    0.1080096  44.27 0.0004272836    1.485    0.327
       101 -10.1963     23.8717    162.0082   1.2429892061e+02   3.8564139003e+01    0.1666737    0.1329878  75.04 0.0004344794    1.161    0.139
       102  -8.6064     42.9353    161.0006   1.2045126583e+02   3.6841091746e+01     0.137368    0.1049308  88.67 0.0003329498    1.017    0.016
       103 -10.4151     82.1175    157.2426   1.1184773100e+02   3.2701197804e+01    0.3581336    0.1730547  52.65  0.001747519    2.052    0.513
       104  -8.7956     91.6877    156.2784   1.0965215535e+02   3.1490487257e+01    0.1312675   0.08838841  74.78 0.0001415254    1.564    0.361
       105  -8.3344    228.4326    155.4626   8.1644696408e+01   5.2169653308e+00    0.1370372    0.1240727  14.45 0.0001385234    1.023    0.023
       106 -10.3564     26.2581    155.1261   1.2323663338e+02   3.9742546904e+01    0.2198597     0.103517  62.63  0.001002634    2.113    0.527
       107 -10.0143     32.1934    153.6823   1.2190372206e+02   3.9468905865e+01    0.2000042    0.1440573 -79.83 0.0003699898    1.129    0.114
       108 -10.6020     12.1329    153.4098   1.2588695040e+02   4.1342275171e+01    0.2224517    0.1216886 -86.53  0.001428469    1.412    0.292
       109 -10.7993    249.6999    150.9084   7.7015019262e+01   1.6638898227e+00    0.3343005    0.2522723 -34.11  0.001887011    1.385    0.278
       110 -10.7171     92.7871    149.8566   1.0842915435e+02   3.2678112644e+01     0.269997    0.2528898 -88.08 0.0008420777    1.151    0.131
       111  -8.7756     54.6237    151.0493   1.1693001874e+02   3.7600015882e+01    0.2021836   0.06116812 -50.38 0.0007025161    4.682    0.786
       112 -11.5086     23.1942    150.1254   1.2340331074e+02   4.1056792335e+01     0.287407    0.2099402  56.97  0.001989477    1.380    0.275
       113  -8.8592     47.6733    150.3251   1.1832685320e+02   3.8549351061e+01    0.1256342   0.07432669  74.55 0.0004448804    1.695    0.410
       114 -10.3449     80.7967    148.4535   1.1087180627e+02   3.4753903419e+01    0.2264309    0.1940611 -87.07 0.0005662092    1.026    0.026
       115 -11.7017     68.3152    143.9442   1.1300051688e+02   3.7425814868e+01     0.602275    0.3484753  77.12  0.002336718    2.069    0.517
       116 -11.9347      8.6511    132.4904   1.2484870614e+02   4.5924460010e+01    0.2631301    0.2014486  88.37  0.001396375    1.080    0.074
       117 -11.9289      2.9429    143.8125   1.2696683313e+02   4.4010912927e+01    0.5418569    0.2270064  88.08  0.002999479    2.129    0.530
       118 -12.3661      9.0925    143.0914   1.2566773779e+02   4.3694018251e+01    0.4925355    0.1879584 -71.51  0.002751559    1.959    0.489
       119 -11.5120      5.5266    141.5195   1.2626708503e+02   4.4288292934e+01    0.2744576    0.1581971  89.87   0.00185082    1.341    0.254
       120 -10.6760    247.5399    144.4933   7.5974520854e+01   2.9891967830e+00    0.3236748    0.2464355 -53.74  0.001682189    1.764    0.433
       121 -10.8919    249.2028    140.8424   7.4889976039e+01   3.1798305085e+00    0.5892066    0.2408399  42.95  0.002411872    2.407    0.585
       122 -11.7946    247.9123    136.1912   7.4059106176e+01   4.1085875983e+00    0.7177342    0.4580633  15.64   0.00338752    1.916    0.478
       123 -12.1625    249.3878    131.7623   7.2810306581e+01   4.4525664326e+00     1.210593    0.3198228 -30.59  0.003809002    3.850    0.740
       124  -8.7859    133.4779    141.0148   9.7740227027e+01   2.7476714236e+01    0.2153033    0.1375819 -53.18  0.001029951    1.589    0.371
       125  -9.4241     44.8355    139.8484   1.1770538883e+02   4.1094977858e+01    0.1729179    0.1417767 -70.84 0.0004536525    1.185    0.156
       126 -11.1041     16.9689    140.2503   1.2378767309e+02   4.3650341661e+01    0.2902366    0.1346686  63.75   0.00161052    2.266    0.559
       127  -8.9658    235.9789    145.9823   7.8265830390e+01   5.0961753519e+00    0.2195155      0.15497  12.23 0.0005431555    1.583    0.368
       128  -9.7544    106.4196    135.7260   1.0289385508e+02   3.3504268006e+01    0.3473575    0.2552629 -10.61  0.001095395    2.487    0.598
       129 -11.4541     13.3492    127.6578   1.2336463434e+02   4.6585639599e+01    0.2449894     0.134638 -58.60  0.001111474    1.679    0.404
       130 -11.2355      3.2536    133.3553   1.2607224891e+02   4.6134635212e+01    0.3514298    0.1892198 -86.60  0.001120577    1.433    0.302
       131 -12.9893      3.9992    121.7559   1.2488385074e+02   4.8500046891e+01    0.6900214    0.3328187 -65.59  0.004292827    1.607    0.378
       132  -8.5303     93.0377    133.2445   1.0557912317e+02   3.6221900524e+01    0.1580642    0.1118375  43.95 0.0003499099    1.491    0.329
       133  -9.1577     96.3337    145.9806   1.0701271730e+02   3.2951735516e+01    0.1851177     0.153457 -75.07 0.0004114952    1.112    0.101
       134  -9.6952     44.2010    130.1114   1.1661180488e+02   4.3270491036e+01    0.1661729    0.1175566  85.28 0.0004850261    1.304    0.233
       135  -8.6215    113.3191    129.2868   1.0001608198e+02   3.3692982161e+01    0.1319147    0.1126906 -11.12 0.0002221655    1.594    0.373
       136  -8.9007     58.9360    127.7199   1.1279173830e+02   4.2140847663e+01    0.1679302    0.1429755 -87.01 0.0004199776    1.050    0.047
       137 -12.5122     15.8684    120.1070   1.2200189269e+02   4.7997543533e+01    0.4683208    0.2301526 -81.99  0.002327103    1.713    0.416
       138 -10.6441    239.1943    120.5979   7.1888623048e+01   8.2631231731e+00    0.4382656    0.2291453  -8.80  0.001511205    3.388    0.705
       139  -8.4990     50.3183    122.6670   1.1411006945e+02   4.4244066835e+01    0.1278999   0.08234395  78.89 0.0007048278    1.693    0.409
       140  -9.9868    249.7560    117.5896   6.9451147515e+01   6.4612037367e+00    0.2466101    0.2014842  41.46 0.0006356177    1.259    0.206
       141 -12.1803    247.5313    112.9866   6.8707299866e+01   7.6217606889e+00     0.616915    0.5471585   3.79  0.003538113    1.087    0.080
       142 -11.1267    247.0224    105.2660   6.6917613389e+01   8.8938219880e+00    0.5246588    0.3215114  53.98  0.002472698    1.745    0.427
       143 -12.4861    248.6525     99.5877   6.5272878686e+01   9.3894249735e+00    0.9155924    0.6461883  21.66  0.004472658    1.680    0.405
       144 -12.9084      9.0907    113.1004   1.2283187340e+02   4.9983136606e+01    0.5137011    0.2220819 -76.91  0.002856597    1.806    0.446
       145 -13.1411     11.4384    104.1398   1.2122325046e+02   5.1735564026e+01    0.7614095    0.3806819 -49.62  0.004485416    2.001    0.500
       146  -9.7847     29.6378    108.1810   1.1714531805e+02   4.9457371930e+01    0.1734059    0.0815074 -60.36  0.000406204    1.679    0.405
       147 -12.9947      2.2871     91.1187   1.2197602454e+02   5.5078275500e+01      1.10877    0.2400687 -74.25  0.004113249    4.108    0.757
       148  -8.3242     71.7282    100.3240   1.0457256348e+02   4.6600219925e+01    0.1300894   0.09556198 -89.28 0.0002722594    1.575    0.365
       149  -9.4775    161.4867     79.5162   7.5962697960e+01   3.3723995080e+01    0.1530083     0.151391 -22.17 0.0007597166    1.009    0.009
       150 -10.3677    231.8947    116.1808   7.2060405412e+01   1.0551318480e+01    0.2168757    0.2037647 -50.19 0.0007751561    1.184    0.156
       151  -9.5458    237.6633    249.3297   9.6611557546e+01  -7.7682771969e+00   0.09785583   0.07904255  56.15 0.0007052029    1.731    0.422
       152 -11.7543    150.1555    247.1545   1.1033012172e+02   6.3407548315e+00    0.3337924    0.2384258  38.36  0.002358022    1.336    0.251
