#   1 NUMBER                 Running object number                                     
#   2 MAG_AUTO               Kron-like elliptical aperture magnitude                    [mag]
#   3 X_IMAGE                Object position along x                                    [pixel]
#   4 Y_IMAGE                Object position along y                                    [pixel]
#   5 X_WORLD                Barycenter position along world x axis                     [deg]
#   6 Y_WORLD                Barycenter position along world y axis                     [deg]
#   7 A_WORLD                Profile RMS along major axis (world units)                 [deg]
#   8 B_WORLD                Profile RMS along minor axis (world units)                 [deg]
#   9 THETA_WORLD            Position angle (CCW/world-x)                               [deg]
#  10 FWHM_WORLD             FWHM assuming a gaussian core                              [deg]
#  11 ELONGATION             A_IMAGE/B_IMAGE                                           
#  12 ELLIPTICITY            1 - B_IMAGE/A_IMAGE                                       
         1 -16.8269    216.5495    126.4758   7.0491109589e+01   1.1851486968e+01     2.686435     2.322238 -57.42   0.01223915    1.298    0.230
         2 -19.6055    170.7553    147.5255   8.4735704228e+01   1.7762558910e+01     8.855777      8.54711 -30.22   0.04889459    1.049    0.047
         3 -10.2893     76.0245     37.0783   7.7971918032e+01   5.9666300206e+01    0.1930813    0.1728665 -17.27  0.000345516    1.101    0.092
         4 -12.3095    239.0189     15.5126   3.9932346737e+01   2.3652401081e+01     0.455952    0.2681233 -61.59  0.002018212    1.593    0.372
         5 -12.0570    248.2023      8.9359   3.7717586529e+01   2.2330724686e+01    0.3624043    0.1761239 -25.58  0.001746664    2.314    0.568
         6 -10.0616    165.5363      8.4330   4.5941232498e+01   4.2591255549e+01    0.2509882    0.1378659 -22.75 0.0007413413    2.021    0.505
         7 -11.3115    194.0882      8.0363   4.2333990798e+01   3.5341147142e+01    0.3487529    0.1849821  68.78  0.001655447    1.699    0.412
         8 -10.4138    170.9493      7.2032   4.4838213937e+01   4.1320590673e+01    0.2117449     0.198779 -36.20 0.0005610103    1.171    0.146
         9 -11.4701    178.6794      5.9910   4.3511218885e+01   3.9457507990e+01    0.2773088    0.2168857 -62.86 0.0008091566    1.294    0.227
        10 -11.7754    158.2033      2.3381   4.5023902238e+01   4.5019855114e+01    0.3257131    0.2597703  26.79 0.0006103531    1.408    0.290
        11 -10.5020     26.8213      7.0975   8.5041209415e+01   7.1184045463e+01     0.161942    0.1340336 -15.08  0.000415299    1.199    0.166
        12 -10.5864    135.2089      6.0325   4.9874831694e+01   5.0486977587e+01     0.262932    0.1464381  12.54  0.001141371    2.464    0.594
        13 -11.8472    245.0160      4.3244   3.6927307252e+01   2.3542382588e+01    0.3158717    0.1599328  59.91  0.001611056    2.122    0.529
        14 -11.4051    238.0696      3.8154   3.7319488966e+01   2.5162118902e+01    0.2669804    0.1728688 -13.68   0.00133514    2.117    0.528
        15 -11.8590    221.2861      3.8406   3.8652458627e+01   2.9076001811e+01    0.4842405    0.2162455 -73.85  0.001995357    2.714    0.632
        16 -10.0942      7.3027      4.8709   9.4508582016e+01   7.3347881443e+01    0.1648472    0.1274345   8.30 0.0006751269    1.382    0.276
        17 -10.8774    101.8507      2.7820   5.5475117708e+01   5.8654873372e+01    0.2083509    0.1529397  33.40 0.0008654787    1.220    0.180
        18 -11.1146    206.1362      1.7829   3.9467781027e+01   3.2956676404e+01    0.2033876    0.1563502 -73.08 0.0005367693    1.186    0.157
        19 -10.0997     39.4796      2.4975   7.6462197543e+01   7.0201642869e+01    0.1192012   0.09258244  -1.94 -1.796882e-05    1.015    0.014
        20 -10.6376     46.1038    196.2488   1.2077692038e+02   2.8413502408e+01     0.287044     0.110369 -56.02  0.001019892    2.979    0.664
        21 -11.6694    235.3205    249.0957   9.1116246436e+01  -9.5867537355e+00    0.2918173    0.1597843  -1.27  0.001611247    2.311    0.567
        22 -11.6145    220.3003    250.1655   9.3847584093e+01  -7.5555689869e+00    0.2264391    0.1329606  36.11 0.0005980888    1.387    0.279
        23 -14.0688    192.3920    248.9538   9.8584062004e+01  -3.2054842821e+00    0.3849937    0.2501152  32.18  0.001231632    1.223    0.182
        24 -10.3951    183.0202    248.4751   1.0020145913e+02  -1.6837835740e+00    0.2214823    0.1387096  35.05  0.001359164    1.267    0.211
        25 -12.5349    135.4680    250.2404   1.0906832061e+02   5.5501952800e+00    0.3848329    0.1786692  43.90 0.0006441651    1.674    0.403
        26  -9.8453    142.2054    244.9706   1.0721899015e+02   5.2927301388e+00    0.2179395    0.1482128 -23.05  0.001223472    2.476    0.596
        27 -11.0013    125.5906    248.8008   1.1070471155e+02   7.2997505401e+00     0.225712    0.1941581 -58.34 0.0005157951    1.468    0.319
        28 -11.8177    122.3470    244.1692   1.1079326203e+02   8.5343734191e+00     0.382996    0.2134085  44.92  0.001468449    1.419    0.295
        29 -10.0586     27.7299    196.4823   1.2445067239e+02   3.0419298416e+01    0.1278681     0.110293  36.99 0.0004989756    1.528    0.345
        30 -10.8971     36.3884    194.5605   1.2259100857e+02   2.9886816690e+01    0.2192826    0.1516962  72.27 0.0003567943    1.176    0.150
        31 -10.4445      9.8959    194.8823   1.2776661643e+02   3.2502593066e+01    0.1624073    0.1281604 -87.28 0.0006013761    1.210    0.174
        32 -12.1846    245.8184    191.8645   7.9380748112e+01  -4.1061600473e+00    0.3636983    0.2545118  33.46   0.00131505    1.380    0.275
        33 -11.2143    240.6021    189.7677   7.9878410509e+01  -2.9650836182e+00    0.3697991    0.2754039  -6.38  0.001518763    1.238    0.193
        34 -11.0355    174.5899    224.3705   9.8287221096e+01   3.1266152384e+00    0.2666056    0.2376257  72.09 0.0006759699    1.401    0.286
        35 -10.7797     53.2352    191.9401   1.1891228777e+02   2.8462564008e+01    0.2176085    0.1531954 -78.68 0.0003739294    1.286    0.222
        36 -11.8607     56.3549    189.0441   1.1796778609e+02   2.8694720097e+01    0.2575171    0.1887652  69.40 0.0004688689    1.170    0.145
        37 -11.8972     66.6941    185.2082   1.1532706399e+02   2.8177056027e+01    0.2207825    0.1903269  75.68 0.0001947618    1.066    0.062
        38 -11.3933    175.1711    231.8284   9.9289360324e+01   1.9059606748e+00    0.4368741    0.2629096  29.49  0.002407365    1.571    0.363
        39 -10.9370    173.5113    228.5455   9.9120401421e+01   2.6725581420e+00    0.2882527    0.1860443  30.29 0.0009903264    1.422    0.297
        40  -9.8141     17.4780    184.9145   1.2564817748e+02   3.3882174117e+01     0.171245   0.09144561 -81.91 0.0004777646    1.531    0.347
        41 -12.3521    165.8443    223.8025   9.9889780118e+01   4.7002997982e+00    0.5638757    0.2730998  47.70   0.00207882    1.901    0.474
        42 -11.4732    227.7233    229.6403   8.9325529692e+01  -6.2228081000e+00    0.4307573    0.1531049 -37.38  0.001973762    3.151    0.683
        43  -9.7155     41.5206    177.9734   1.2004881100e+02   3.2901114587e+01    0.2193559    0.1358677 -31.23  0.001030926    3.356    0.702
        44  -9.4074     73.4393    177.4398   1.1288612140e+02   2.8965507403e+01    0.1297028    0.1142253  84.06 0.0002832171    1.061    0.058
        45 -10.7297     13.5609    175.6805   1.2578579855e+02   3.6229052878e+01    0.1897031    0.1533921  87.30 0.0005795954    1.118    0.106
        46 -10.8155     68.8350    174.9003   1.1361257752e+02   3.0176938648e+01    0.2074176    0.1785592 -77.03 0.0002587211    1.147    0.128
        47 -10.3833      2.9832    241.0471   1.3117798066e+02   2.4354306589e+01    0.1518366    0.1034706  72.52 0.0003364181    1.042    0.040
        48  -9.8846     55.2526    171.9713   1.1635736874e+02   3.2617838558e+01    0.1787689    0.1424791 -86.11 0.0003089214    1.080    0.074
        49 -11.1294     96.8211    231.1183   1.1417648402e+02   1.4646402408e+01     0.270197    0.1472472  42.89 0.0006968835    1.558    0.358
        50 -10.3529     71.0512    168.7303   1.1229787228e+02   3.1272717511e+01    0.2999375    0.1642412 -74.75 0.0009182139    1.827    0.453
        51 -11.1740      3.0498    168.6986   1.2747804174e+02   3.8630674225e+01    0.2425117    0.1309071 -82.33 0.0008938944    1.433    0.302
        52  -9.6161     58.6533    168.1424   1.1511968500e+02   3.3061843547e+01    0.1722238    0.1041899 -61.35 0.0002256482    1.577    0.366
        53 -12.2092    247.8608    166.1770   7.3875713318e+01  -7.5235204128e-01     0.232522    0.2138029  -0.57 0.0004168561    1.159    0.137
        54 -10.8484     24.0623    166.4951   1.2280595099e+02   3.7286259484e+01    0.2784598    0.1945934 -34.94  0.001648683    2.241    0.554
        55 -10.7097     65.8014    165.3461   1.1308494321e+02   3.2769196841e+01    0.2725672    0.1729248 -58.90 0.0006651292    1.544    0.352
        56 -10.6896     68.4025    160.4158   1.1178810113e+02   3.3560493612e+01    0.3380062    0.1293981 -53.71  0.001365207    2.599    0.615
        57 -10.4070    112.0952    240.9226   1.1233772563e+02   1.0642443770e+01    0.1929448    0.1324329  62.76 0.0007269377    1.342    0.255
        58 -11.7491    241.1764    162.1715   7.4171845992e+01   1.0314719793e+00    0.4297003    0.2952435  -5.22  0.001402325    1.580    0.367
        59 -10.0190    245.4307    158.4841   7.2663612941e+01   8.4035422073e-01    0.2128406    0.1493876 -31.07 0.0007302937    1.311    0.237
        60 -10.8479     13.0002    162.9800   1.2494135333e+02   3.9071606674e+01    0.1773617    0.1517001 -88.73            0    1.179    0.152
        61 -11.5078     17.6842    158.6727   1.2354050074e+02   3.9632861998e+01    0.2992516    0.1700838 -58.39   0.00100414    1.752    0.429
        62 -11.7151     14.3005    155.9924   1.2407321573e+02   4.0529558115e+01    0.2441152    0.1755338  84.99 0.0009916298    1.116    0.104
        63 -11.4560    127.6682    228.3670   1.0794185454e+02   1.0321164333e+01    0.3895178     0.263443  83.88  0.001719121    1.980    0.495
        64 -11.5507     76.7060    156.7567   1.0921535736e+02   3.3244847792e+01    0.4130667    0.1921164 -51.17  0.001772648    2.235    0.553
        65 -10.0701     42.1228    161.7006   1.1822067740e+02   3.6515211993e+01     0.211061    0.1399443 -85.64 0.0004457354    1.315    0.240
        66 -10.0408     56.9381    158.1618   1.1426277396e+02   3.5589141101e+01    0.1942798    0.1497044  83.06 0.0004204616    1.178    0.151
        67 -11.5508     68.7109    236.4213   1.1985679564e+02   1.7659616004e+01    0.2076957    0.1609427  69.52 0.0002731647    1.053    0.050
        68 -12.1186    125.2793    234.7534   1.0917328964e+02   9.6208440128e+00     0.275931    0.2101281  61.87  0.001780869    1.225    0.184
        69 -10.0208     62.5013    148.8980   1.1159165412e+02   3.7063007428e+01    0.1964677    0.1191355 -66.75 0.0003803915    1.478    0.323
        70 -12.5822     79.3208    144.7890   1.0660883526e+02   3.5692759905e+01    0.2988005      0.24932  83.69  0.000642905    1.163    0.140
        71 -11.3102    245.4011    238.0309   8.7662188158e+01  -9.7868932922e+00    0.2497324    0.1787939  -6.08 0.0008999298    1.267    0.211
        72 -12.3001     73.4094    142.5088   1.0776432188e+02   3.7099877855e+01    0.5861463    0.2538264 -72.89  0.002154005    2.903    0.656
        73 -11.7784     59.1858    142.8471   1.1153701952e+02   3.8932055503e+01     0.359971     0.273763   6.95  0.001382972    1.933    0.483
        74 -10.3553     31.0278    143.4386   1.1881885511e+02   4.1920196424e+01    0.1989849    0.1454438 -66.88 0.0004317449    1.214    0.176
        75  -9.4058     36.7913    141.3597   1.1711002452e+02   4.1839580500e+01    0.1395563    0.1246425  17.39 0.0003750735    1.474    0.322
        76 -10.0424     94.5192    135.8608   1.0094013288e+02   3.5418407538e+01    0.2143428    0.1370937 -58.91 0.0005559509    1.490    0.329
        77 -10.3498     69.4273    230.2205   1.1921274893e+02   1.8695489465e+01    0.2039331    0.1334763  47.80 0.0005106668    1.312    0.238
        78 -11.6144    103.9311    236.8967   1.1343488785e+02   1.2564092210e+01     0.486339     0.237009  62.59  0.002382526    2.350    0.574
        79 -11.3984     80.2299    123.4421   1.0234580679e+02   4.0680233330e+01    0.3709521    0.2799171 -79.35 0.0009379674    1.393    0.282
        80 -11.6687     78.6573    131.3834   1.0435827138e+02   3.9006870518e+01    0.5163412    0.3347735  72.90  0.001922806    1.996    0.499
        81 -11.1184     77.1503    127.7854   1.0408059482e+02   4.0097539526e+01    0.3557824    0.2552886  22.47  0.001140528    1.763    0.433
        82 -11.5945    233.9466    226.8086   8.7764213240e+01  -6.8150154115e+00    0.2276371    0.1706526  14.01 0.0003272152    1.081    0.075
        83 -12.0714     63.2039    129.0736   1.0820052582e+02   4.1729940048e+01    0.3570649    0.2717591  74.00 0.0004823395    1.410    0.291
        84 -10.6749     91.3674    227.2924   1.1482294023e+02   1.6148107203e+01    0.2015343    0.1433714  87.31 0.0009296971    1.434    0.303
        85 -10.3782     47.9125    123.0780   1.1146283961e+02   4.5029020402e+01    0.1957046    0.1658338 -70.78 0.0002748445    1.020    0.020
        86 -11.1827     12.2540    122.8479   1.2129424997e+02   4.8324657769e+01    0.2093189    0.1650711  80.47 0.0004329846    1.204    0.169
        87 -11.6015      7.0058    121.0261   1.2249372759e+02   4.9108624605e+01    0.3190783    0.1029089 -52.16 0.0008840912    2.872    0.652
        88 -14.5523    243.3216    222.0162   8.5326601099e+01  -7.6290149273e+00    0.4476393    0.3430808   9.58  0.001440317    1.036    0.035
        89 -10.6876    249.7952    114.8728   6.2231619743e+01   6.9274582319e+00    0.3616122    0.2124056 -28.42  0.001723788    1.593    0.372
        90 -10.6102     93.1369    115.2270   9.6861124912e+01   4.0557826687e+01    0.3516574    0.2207306 -58.00  0.001604149    1.534    0.348
        91 -12.2647    184.0022    221.4846   9.6034906076e+01   1.9691018186e+00    0.5505796    0.3076135  51.91  0.001929494    1.990    0.498
        92 -11.8333      8.3023    109.4884   1.2079722676e+02   5.1699887847e+01    0.3731696   0.07008516 -63.09  0.001428934    3.136    0.681
        93  -9.8019     14.5600    223.6980   1.2851899404e+02   2.6372672850e+01    0.1720148   0.08093059  40.28  0.001064732    2.001    0.500
        94 -10.4014     96.3190    110.0687   9.4709313928e+01   4.1219211582e+01    0.4418486    0.2619844 -23.73  0.001393513    2.956    0.662
        95 -10.5257     73.1697    110.6122   1.0166477752e+02   4.4804597190e+01    0.2899845    0.1872256 -51.78   0.00142344    1.404    0.288
        96 -11.9660      3.6744    109.0542   1.2206118444e+02   5.2082874245e+01    0.3407969    0.1150852 -68.97  0.001555012    2.125    0.529
        97 -10.8851     23.5159    108.9803   1.1629905483e+02   5.0729917385e+01    0.2771603    0.2036914 -20.13  0.001385301    1.800    0.444
        98 -10.2731     88.8789    108.8004   9.6572907625e+01   4.2790026612e+01      0.38042    0.2449216  17.90  0.001455253    2.237    0.553
        99  -9.7248     84.2607    108.6017   9.7892575533e+01   4.3591061790e+01    0.1748333    0.1430893  22.28 0.0001986354    1.426    0.299
       100  -9.7535     46.0481    106.2600   1.0901655110e+02   4.9267746166e+01    0.1445497    0.1186746  25.84 0.0004075268    1.454    0.312
       101 -10.6363    241.3759    104.3637   6.1032869696e+01   1.0340896723e+01     0.259914    0.2071001 -46.92 0.0006848291    1.214    0.176
       102 -11.7183    237.6026    100.4558   6.0666662095e+01   1.1779212996e+01    0.7807385    0.4672543  -7.31   0.00271369    2.789    0.642
       103 -10.6447    233.1253     99.6601   6.1161335962e+01   1.2877010594e+01    0.2887444    0.2409897 -32.49  0.001005251    1.102    0.092
       104 -13.1649    246.1391     96.4361   5.8446034032e+01   1.0624481041e+01    0.3233153    0.3150315   5.18 0.0006489188    1.128    0.113
       105 -11.2194     66.9072    103.4036   1.0195665106e+02   4.7399570692e+01    0.3090019     0.186977 -60.21 0.0005443184    1.510    0.338
       106 -11.4994     74.0697    219.6067   1.1738794288e+02   2.0067714999e+01    0.2962653     0.209111 -57.08  0.001011702    1.728    0.421
       107 -11.9713     78.8151    100.4252   9.7558938758e+01   4.6366805206e+01    0.2602544    0.2547888 -30.24 0.0002413708    1.091    0.083
       108 -10.1069     95.1184     99.8821   9.2464896266e+01   4.3787694477e+01    0.2195599    0.1937405 -76.92 0.0003220163    1.223    0.183
       109 -11.3460     85.2371     97.0953   9.4728113328e+01   4.6114844787e+01    0.6628687    0.2793037 -46.80  0.002546136    2.199    0.545
       110 -10.6088     72.5574     96.6329   9.8572291718e+01   4.8189512731e+01    0.4431576     0.215508 -39.35  0.001787707    2.287    0.563
       111  -9.7822     66.1983    221.7411   1.1908476062e+02   2.0725215517e+01    0.1998767    0.1114409  57.64 0.0006509941    1.503    0.335
       112 -10.9991     90.1768     86.7921   9.0360091885e+01   4.7599147998e+01    0.2905785    0.2486574 -29.90 0.0007156017    1.160    0.138
       113 -10.5762     67.0010     90.7110   9.8864410474e+01   5.0349238730e+01    0.4463562    0.1545167 -48.81  0.001561297    2.514    0.602
       114 -13.8029    248.3960     88.1723   5.6169947583e+01   1.1458123939e+01    0.3569214    0.3177038 -31.53 0.0009288798    1.066    0.062
       115 -11.2753    228.0980     90.5573   5.9688329626e+01   1.5499543043e+01    0.3586769    0.2788895  76.14  0.001242638    1.509    0.337
       116 -11.4915    229.7725    220.2032   8.7372189970e+01  -5.3477094514e+00    0.2925246     0.198562  38.11   0.00178769    1.410    0.291
       117  -9.8439     77.4541     90.1263   9.5325052118e+01   4.8948140409e+01    0.2096745    0.1292193 -49.65 0.0004161762    1.467    0.318
       118  -9.5624     52.3041     90.7001   1.0370802697e+02   5.2230896602e+01    0.1297738    0.1013362  82.32 0.0003706047    1.589    0.371
       119 -12.5374     14.3825     86.0571   1.1546378768e+02   5.6722630905e+01    0.2374112    0.1977031 -70.41 0.0003843633    1.092    0.084
       120 -10.4001     70.9398     82.7092   9.5421169319e+01   5.1597321191e+01    0.2841488      0.22831   9.03   0.00155107    1.453    0.312
       121 -10.9246    239.2300     81.5557   5.5833669586e+01   1.4471427474e+01    0.2455741    0.2080738 -31.24  0.000320517    1.126    0.112
       122 -10.6573    227.0232     81.9016   5.7674980001e+01   1.7160847502e+01    0.2125863    0.1951317 -55.09 0.0002696991    1.048    0.046
       123 -11.4369    120.7841     80.2890   7.9328799104e+01   4.2957095469e+01    0.4252328    0.3471763  30.52  0.001523063    1.299    0.230
       124 -10.4739    119.5473     76.0090   7.8324979719e+01   4.4080610330e+01    0.3011366     0.180574 -39.73  0.000484252    1.631    0.387
       125 -10.3500     97.9354     82.1717   8.6588689222e+01   4.7197061424e+01    0.2606132    0.2082171 -29.57 0.0006448213    1.262    0.207
       126 -12.5143    104.0377     71.6317   8.1409001389e+01   4.8188046863e+01    0.4601442    0.4298595 -32.71 0.0004332587    1.043    0.041
       127 -12.8903    111.5084     75.1233   8.0327949829e+01   4.5967542438e+01    0.4198367    0.3873339 -60.88 0.0004097185    1.176    0.150
       128 -10.4931    248.1158     78.1870   5.3833215084e+01   1.3065111185e+01    0.1997878    0.1849968 -12.11 0.0005960586    1.192    0.161
       129 -11.4100    125.1163     76.3152   7.6894133528e+01   4.2793426129e+01    0.3384159    0.2597185  55.56  0.001265649    1.392    0.282
       130  -9.7681     92.3840     77.2692   8.6813077266e+01   4.9257205930e+01    0.2017675     0.133305 -53.20 0.0003876081    1.563    0.360
       131 -11.0659    199.0874    220.6118   9.3036987107e+01  -4.4400039335e-01    0.4205558      0.18142  37.05  0.001956198    2.011    0.503
       132 -10.8789    186.1833     72.4712   6.1917481430e+01   2.8619656071e+01    0.2761031    0.2367039 -33.17  0.000437437    1.167    0.143
       133 -11.0487    108.0749    219.7409   1.1074024378e+02   1.5001062906e+01    0.1957185    0.1694801 -85.75 0.0005338764    1.217    0.178
       134 -10.3812      8.4608     72.2955   1.1501245198e+02   6.0178944223e+01     0.267534   0.08389717  27.03  0.001214699    3.626    0.724
       135 -12.0253    107.0352     78.0858   8.2580457420e+01   4.6283406164e+01    0.3462297    0.2815388  46.00 0.0003320126    1.292    0.226
       136 -10.3041    222.5402     70.2576   5.5362214348e+01   2.0062706803e+01     0.244334     0.194396  67.18 0.0006025405    1.327    0.246
       137 -12.7361    215.0637     66.5526   5.5492004288e+01   2.2429762251e+01    0.3402143    0.2898917 -30.89 0.0004600414    1.180    0.152
       138 -10.0064    244.0321     66.7029   5.1598379173e+01   1.5691270497e+01     0.190976    0.1689857 -69.98 0.0005441306    1.118    0.105
       139 -12.1852     94.2631     66.0112   8.2569856024e+01   5.1195225654e+01     0.270892    0.2520765  14.14 0.0004271846    1.085    0.078
       140 -10.2811     52.8134     66.7818   9.7179051843e+01   5.7504239119e+01    0.1745518    0.1532342 -74.13 0.0005028365    1.358    0.264
       141 -10.1764     23.9914    219.0133   1.2662541188e+02   2.6294252692e+01    0.1647117    0.1191829  74.19            0    1.011    0.011
       142 -11.8624    193.6939     61.6345   5.7510791048e+01   2.8494856705e+01     0.620006    0.3222969 -52.62  0.001661301    2.197    0.545
       143 -12.8908    164.3568    230.8465   1.0119974670e+02   3.8514381887e+00    0.4032912    0.3285046  59.85 0.0009123867    1.349    0.258
       144 -12.0026    231.9391    236.9019   8.9775121589e+01  -7.7265091024e+00    0.3847987    0.2230227  28.80  0.001923505    1.415    0.293
       145 -10.4097     11.5272     64.5018   1.1228089684e+02   6.1714642368e+01    0.1214838   0.09389511 -54.86 1.148423e-05    1.010    0.010
       146  -9.9271    224.0704     62.6807   5.3197491977e+01   2.0869253989e+01     0.193252    0.1869343  87.01 0.0008125515    1.095    0.087
       147 -11.3886    205.5260     62.4898   5.5848183612e+01   2.5398926353e+01    0.3833419    0.2680753  66.54  0.000991338    1.478    0.323
       148 -10.3242    186.2878     61.1004   5.8622139546e+01   3.0457200454e+01    0.3008117    0.2310145  -3.68  0.001220785    1.653    0.395
       149 -10.7021    181.2315     61.2636   5.9569623125e+01   3.1719592858e+01    0.2800973    0.2442017 -81.85 0.0006240875    1.210    0.174
       150 -11.3916    177.6030     57.9027   5.9232037347e+01   3.3179178687e+01    0.3910215     0.265928 -38.87 0.0009964481    1.455    0.313
       151 -10.7362     37.3304     61.2989   1.0144587754e+02   6.0377093135e+01    0.2176914    0.1892962 -46.16 0.0003196596    1.091    0.084
       152 -10.4684     29.8055     62.3857   1.0468536296e+02   6.0842617694e+01     0.154882    0.1128124  -6.55 0.0004260316    1.580    0.367
       153  -9.8536    235.4949     60.8654   5.1239015502e+01   1.8478817814e+01    0.2143589      0.12787 -35.23  0.001016323    1.541    0.351
       154 -10.0435    211.1884     60.5785   5.4476748291e+01   2.4297040615e+01    0.2736259    0.1453827  69.21  0.001126563    2.093    0.522
       155  -9.7682    200.0153     59.7516   5.5956252907e+01   2.7196882213e+01    0.1992817    0.1867206  70.02 0.0002966474    1.082    0.076
       156 -10.7987     90.4771    217.5875   1.1398165833e+02   1.8102583658e+01    0.2251973    0.1166198 -65.01  0.001138096    2.069    0.517
       157 -10.6892      9.3980     60.2505   1.1216257116e+02   6.2756911690e+01    0.1680346   0.09712697 -71.69 0.0009502795    1.656    0.396
       158 -12.3395    137.6654     58.0404   6.7690379494e+01   4.3195014508e+01    0.6764261    0.3819725  33.24  0.002091735    2.208    0.547
       159  -9.9556    113.8565    217.0579   1.0926180632e+02   1.4579819818e+01    0.1897088    0.1463408  69.54 0.0004406227    1.253    0.202
       160 -11.2532     60.2008    216.3486   1.1975654570e+02   2.2560348909e+01    0.3855625    0.1944861  34.09  0.002043128    2.217    0.549
       161  -9.7781    240.8993     56.5177   4.9515098692e+01   1.7885259747e+01     0.185935     0.134753  70.84 0.0005091007    1.472    0.321
       162  -9.9650    113.9718     56.3686   7.3303612699e+01   4.8951429389e+01    0.2023059      0.18466  31.58 0.0005920662    1.082    0.076
       163 -10.6092    210.7186     54.5020   5.2915430687e+01   2.5325467096e+01    0.2782205    0.2251266  56.20 0.0007760107    1.289    0.224
       164 -11.9548    200.4896     52.0256   5.3735081588e+01   2.8241481511e+01    0.4446065    0.3610278  56.39  0.002336427    1.259    0.205
       165 -10.2145    123.5455     52.8835   6.9473094743e+01   4.7387712277e+01    0.3977127    0.2065364 -26.62 0.0009275763    2.156    0.536
       166 -10.0030    249.2987     53.3222   4.7796594170e+01   1.6472569334e+01    0.1933428    0.1310708 -52.49  0.000339452    1.333    0.250
       167 -11.7169    250.1360     49.9845   4.6923321187e+01   1.6755489067e+01    0.2335702    0.1694463 -39.28 0.0003494668    1.234    0.190
       168 -10.4695    177.3983     52.7856   5.7734214197e+01   3.4020284369e+01    0.2001109    0.1466852 -15.50 0.0004804099    1.604    0.377
       169 -11.0165    221.9216    224.7693   8.9544350734e+01  -4.7114599304e+00    0.4432338    0.1845806  27.65   0.00193324    2.663    0.624
       170  -9.5698     84.5524     53.5457   8.1376117145e+01   5.5338205595e+01    0.1396667    0.1279222 -17.16 6.422126e-05    1.039    0.037
       171 -10.5874     72.8860     51.7156   8.4763801154e+01   5.7665853080e+01    0.2896143    0.2146488 -59.85  0.001508389    1.759    0.432
       172 -11.7415     31.1108     51.9125   1.0113940667e+02   6.2915189438e+01    0.3097053    0.2396085 -77.68 0.0006363589    1.727    0.421
       173 -10.4437    223.0291     51.3527   5.0424331521e+01   2.2788757182e+01    0.2896991    0.2362032   0.38  0.001536241    1.583    0.368
       174 -11.6130    163.5773    214.4876   9.8919804220e+01   6.6054675757e+00    0.2873059    0.2535973  85.28  0.001797148    1.399    0.285
       175  -9.9490    118.9982     51.9573   7.0354424153e+01   4.8579088057e+01    0.2291816    0.1698963  19.26 0.0005065075    1.551    0.355
       176 -11.8380    118.3265    235.5675   1.1058547518e+02   1.0580408755e+01    0.2872317    0.2279865  48.14 0.0008617851    1.072    0.067
       177 -11.3752     18.4484     49.1307   1.0562012857e+02   6.4514165075e+01    0.2445415     0.167961 -39.85 0.0003021797    1.177    0.150
       178 -11.4719     18.4260     42.7655   1.0372301662e+02   6.5797203503e+01    0.4223311    0.1800314 -56.04  0.001678915    1.953    0.488
       179 -10.7002    160.4924     48.1976   5.9469535348e+01   3.9048985149e+01    0.3338432    0.2398264  68.40  0.001579605    1.439    0.305
       180 -10.3332     36.0479     49.0502   9.8178895578e+01   6.3017201454e+01    0.1891344    0.1509817 -33.50 0.0003113396    1.031    0.030
       181 -10.0605    114.6464     47.9259   7.0087698634e+01   5.0211603513e+01    0.2603075    0.1922656  33.14  0.001053462    1.375    0.273
       182 -10.8207    118.8171     44.7684   6.7810239683e+01   4.9765513737e+01    0.1905057    0.1730687 -70.07  0.000358053    1.310    0.237
       183 -10.4570     12.9534    216.3322   1.2841256383e+02   2.7936290803e+01     0.147012    0.1075815  67.40 0.0003768271    1.108    0.098
       184 -10.3295    125.0468     43.4858   6.5740702940e+01   4.8515330545e+01    0.2568524    0.1946237 -45.99 0.0004648867    1.446    0.309
       185 -11.2696    123.1579     40.2484   6.5038629764e+01   4.9435516964e+01    0.2722003    0.2159311  22.32  0.001404886    1.324    0.245
       186 -10.6419    154.5954     42.7332   5.8864077704e+01   4.1347845105e+01    0.2470854     0.183275 -86.40 0.0009118517    1.667    0.400
       187 -10.9343     97.3607    207.7688   1.1147677030e+02   1.8974908906e+01    0.6333299    0.1661551 -65.05  0.002017666    5.246    0.809
       188  -9.9742    231.1266     40.6356   4.6745323137e+01   2.2353968189e+01    0.1830585    0.1609336  87.23 0.0004084803    1.126    0.112
       189 -11.0010    148.8682     40.7170   5.9352824253e+01   4.3084745411e+01    0.2583458    0.2076235 -35.77 0.0002475755    1.284    0.221
       190 -10.0394     33.5017    235.5254   1.2595355171e+02   2.2158343750e+01    0.1874912   0.08096918  86.99  0.000967595    2.314    0.568
       191 -10.9489     66.9427     40.9733   8.2855008121e+01   6.0530342350e+01    0.2153681    0.1819597  15.01  0.001306539    1.167    0.143
       192 -10.0338     41.5082     40.7089   9.2952685563e+01   6.4034688665e+01    0.2828879    0.1441667 -32.43  0.001403481    1.862    0.463
       193 -10.3190    175.0061     39.7653   5.4198562937e+01   3.6508809837e+01    0.2247127    0.2161031  71.86 0.0004019852    1.027    0.027
       194 -10.2393    177.5154     37.4959   5.3097094803e+01   3.6165367359e+01    0.2059284    0.1395486  79.53 0.0005856004    1.582    0.368
       195 -10.8686     90.6247     39.5980   7.4059395801e+01   5.6565064969e+01    0.2334841    0.2208337  -9.49 0.0003927255    1.118    0.105
       196  -9.9092     30.2449    213.9520   1.2518473105e+02   2.6608966600e+01     0.141597   0.07877406 -83.43 0.0004145807    1.563    0.360
       197 -11.5913     54.6611     37.5147   8.6257447217e+01   6.2945941176e+01    0.4017801    0.2652571  10.27  0.001188724    1.715    0.417
       198 -10.3100     58.9709     31.4540   8.2026342093e+01   6.3334067803e+01    0.2390361    0.1544216 -20.58 0.0003044543    1.496    0.332
       199 -10.8691    108.4532     36.2685   6.7422605466e+01   5.3352569858e+01    0.2434013     0.223105  75.81  0.000224467    1.309    0.236
       200 -11.3505    176.5511    244.7505   1.0086508219e+02  -1.6015047978e-01     0.357032    0.3276871 -50.48  0.002214829    1.423    0.297
       201 -11.6391    215.5112    233.6596   9.2143409499e+01  -4.8506560510e+00    0.3970378    0.2435076  -0.28  0.001650334    2.035    0.509
       202 -10.0657    200.0893     32.6654   4.8414653478e+01   3.1003786755e+01    0.2017199     0.171006  74.00 0.0006167907    1.134    0.118
       203 -10.0057     44.1452    209.1642   1.2223751735e+02   2.5982853978e+01    0.1589839    0.1348603  83.39 0.0003586652    1.191    0.160
       204  -9.9218     11.2681    208.5285   1.2829109107e+02   2.9623231771e+01    0.1215207    0.1023063  38.20 0.0009385808    1.597    0.374
       205 -10.5395    165.7612     39.0397   5.5568189288e+01   3.8996056643e+01    0.4183823      0.25229 -84.50  0.001351714    2.461    0.594
       206 -10.5718    234.7433    203.9590   8.3596068067e+01  -3.9822748020e+00    0.4991516    0.2259826 -38.05  0.002014684    2.359    0.576
       207 -10.7136    141.7413     27.4092   5.6237830948e+01   4.6617283416e+01     0.197526     0.155875  31.29 0.0002861191    1.315    0.239
       208 -11.2306    126.1287     28.4675   5.9973989382e+01   5.0320830285e+01    0.4742588    0.2282049 -21.88  0.001936329    2.339    0.572
       209 -12.9513     57.5573    205.0780   1.1927008737e+02   2.5163146087e+01     0.321101    0.1978525  51.43 0.0009457079    1.404    0.288
       210 -10.0622     49.7719     28.7825   8.4645120088e+01   6.5077582116e+01    0.1829629     0.144785 -12.68 0.0004928568    1.074    0.069
       211 -10.6450      7.7840     27.8042   1.0376352590e+02   6.9388869580e+01    0.2978083    0.1151355 -40.16  0.001555601    1.981    0.495
       212  -9.5124     19.5094    205.5102   1.2661779704e+02   2.9416215346e+01    0.1154107   0.08143863  74.77 0.0008100311    1.050    0.047
       213 -12.7072    157.0672    227.3391   1.0210226381e+02   5.6217200031e+00    0.5130768    0.4115958 -64.87  0.003243199    1.582    0.368
       214 -10.0159     44.5154     28.0252   8.6570039717e+01   6.5891213325e+01    0.2040642    0.1457246 -10.86 0.0007299678    1.312    0.238
       215 -10.8871    133.3595    234.5312   1.0760913193e+02   8.3638669496e+00    0.2082006    0.1706085  50.92  0.000451431    1.026    0.026
       216 -11.2253    201.5635    233.2981   9.4606757727e+01  -2.6067341098e+00    0.2571277    0.2016139  50.98 0.0005822758    1.507    0.336
       217  -9.8075    219.2415     35.7865   4.6879370411e+01   2.5840416420e+01    0.1735415    0.1613273  30.34 0.0003819976    1.297    0.229
       218 -10.4633     33.2879     25.2890   9.0447474939e+01   6.7667086768e+01    0.3006383    0.1697294  41.56  0.001627252    2.439    0.590
       219 -10.4636    209.3912     25.2481   4.5267064734e+01   2.9590495614e+01     0.241894    0.1739096  72.53 0.0002919676    1.331    0.249
       220  -9.6257    228.4886     24.4899   4.3039073516e+01   2.5043233466e+01    0.1327212    0.1196794 -72.41 0.0001255604    1.053    0.050
       221 -11.0694     12.2069    203.7264   1.2785295420e+02   3.0489850696e+01    0.2557118    0.1397035  68.52   0.00163994    1.459    0.315
       222 -10.1711    101.8398     22.1993   6.3634995031e+01   5.6656252480e+01    0.1922221    0.1471386  16.26 0.0009903712    1.303    0.233
       223 -10.0283     49.2018     21.6377   8.1708375303e+01   6.6267479326e+01    0.1711155    0.1047488  22.51 0.0009476036    1.678    0.404
       224 -10.7102    172.6824    245.3296   1.0165178215e+02   3.7635215197e-01    0.2090348    0.1775153  51.12 0.0009152175    1.251    0.201
       225 -10.1742    175.1689     16.9583   4.7228995810e+01   3.9246415112e+01    0.2117011     0.173985 -67.60 0.0003822433    1.242    0.195
       226 -10.3465     43.1014    238.3995   1.2449479322e+02   2.0527152712e+01    0.4273667     0.120291 -81.66  0.001654433    4.972    0.799
       227  -9.7885     12.4958     16.0363   9.6777478739e+01   7.1148335224e+01    0.1684463   0.09058379 -45.52 0.0004942605    1.539    0.350
       228 -10.1438    182.8738     15.4764   4.5763307722e+01   3.7423659247e+01    0.2169979    0.1278486  71.38  0.001026851    1.577    0.366
       229 -10.1292     50.1309     15.2159   7.8283453142e+01   6.7053454693e+01    0.1871926    0.1397895   0.33 0.0005015676    1.174    0.149
       230 -11.1374     68.2382    201.3643   1.1675066493e+02   2.4521166070e+01    0.5120087    0.2379337  85.11  0.002120053    3.182    0.686
       231 -11.4244    201.4395    242.4764   9.6024583886e+01  -3.7847025822e+00    0.2551431    0.1787332   9.09  0.001605245    1.503    0.334
       232  -9.9989    154.2757    245.5945   1.0506859221e+02   3.2777835863e+00    0.1660313    0.0951753  34.71 0.0004723792    1.528    0.346
       233 -11.6009    245.1288    244.0858   8.8682245292e+01  -1.0410140890e+01    0.1807594    0.1200656  11.14  0.000912787    1.260    0.206
       234 -10.7184    185.5410    243.0924   9.8991663442e+01  -1.3649634544e+00    0.2338224    0.1743276 -46.37  0.001036169    1.741    0.426
       235 -12.6396    181.8589    238.3175   9.8983414462e+01  -1.2073070523e-01    0.4318206    0.2555748  24.59  0.001390909    1.757    0.431
       236 -11.1265     33.4898    243.4803   1.2641118556e+02   2.0735010369e+01    0.1806981    0.1444327  72.54  0.001291299    1.206    0.171
       237 -10.7901    224.3000    241.3999   9.1814616596e+01  -7.1281200322e+00    0.1582452    0.1445069 -45.02 0.0005958917    1.687    0.407
       238 -14.7751    238.8964    143.7101   7.0547259460e+01   4.3825901032e+00     1.163232    0.7053788 -24.12  0.003713663    1.641    0.391
       239 -16.1457    129.3089    137.3989   9.2231017030e+01   2.8621089725e+01     2.862943     1.812523 -29.43    0.0106349    2.145    0.534
       240 -16.2159    184.7057     97.7320   6.9264438711e+01   2.4455433977e+01     2.666551     1.777115  34.76   0.01147771    1.747    0.428
       241 -10.8420    167.4325    248.8197   1.0307304378e+02   7.2566213294e-01    0.2827598    0.1594448  25.84 0.0008537126    1.951    0.488
       242 -15.2774    156.8262    110.7012   7.8884694736e+01   2.8502905951e+01     1.310854    0.8844514 -10.33  0.005094177    2.321    0.569
       243 -10.1522     68.9884    194.9993   1.1592395692e+02   2.5754274875e+01    0.2417442    0.2172333   9.13  0.001569054    1.634    0.388
       244 -10.2117    244.7011    199.1996   8.0970080466e+01  -4.9251361113e+00    0.1723351    0.1433949   2.48 0.0006173684    1.053    0.051
       245 -10.2418     92.1762    196.4519   1.1117152086e+02   2.2076576510e+01    0.2301048    0.1721513 -76.20  0.001349741    1.338    0.253
       246 -15.7778    169.0012    106.7836   7.5048610030e+01   2.6456805573e+01     2.330108     1.337632 -59.73  0.008542714    2.422    0.587
       247 -16.6399    185.9319    178.3998   8.8013777227e+01   8.7537907863e+00     1.605132     1.316185  64.18  0.008675559    1.486    0.327
       248 -10.3960    170.9514    248.6429   1.0241005982e+02   1.9376153612e-01    0.1697947    0.1485359  11.47 0.0005512935    1.241    0.195
