#   1 NUMBER                 Running object number                                     
#   2 MAG_AUTO               Kron-like elliptical aperture magnitude                    [mag]
#   3 X_IMAGE                Object position along x                                    [pixel]
#   4 Y_IMAGE                Object position along y                                    [pixel]
#   5 X_WORLD                Barycenter position along world x axis                     [deg]
#   6 Y_WORLD                Barycenter position along world y axis                     [deg]
#   7 A_WORLD                Profile RMS along major axis (world units)                 [deg]
#   8 B_WORLD                Profile RMS along minor axis (world units)                 [deg]
#   9 THETA_WORLD            Position angle (CCW/world-x)                               [deg]
#  10 FWHM_WORLD             FWHM assuming a gaussian core                              [deg]
#  11 ELONGATION             A_IMAGE/B_IMAGE                                           
#  12 ELLIPTICITY            1 - B_IMAGE/A_IMAGE                                       
         1 -20.0093    212.8600     91.2024   7.0599856549e+01   2.0144340633e+01     7.199127     6.195262 -31.09    0.0304726    1.091    0.083
         2 -16.4823     69.0619    129.2320   1.1472954901e+02   4.1704514885e+01       8.6427     3.125316  22.71   0.02446909    4.217    0.763
         3 -10.8742    152.4976     13.4427   5.7358029308e+01   4.4474398802e+01    0.4309521    0.2332722 -53.84  0.001696264    1.834    0.455
         4 -10.3599    125.7280     13.9599   6.1101507110e+01   5.1440044605e+01    0.3251764    0.2323711 -55.66  0.001431314    1.452    0.311
         5 -12.4328    119.2837      9.8954   6.0583619986e+01   5.3534069834e+01    0.6801544    0.4302203  52.83  0.002814685    1.507    0.336
         6 -10.5542    145.9866     12.0016   5.7650246367e+01   4.6301133092e+01    0.2014835     0.178145  62.72 0.0004357152    1.182    0.154
         7 -10.2023    143.4919      9.9857   5.7281445945e+01   4.7142603076e+01    0.2292875    0.1956084  13.89  0.001093608    1.490    0.329
         8 -10.7117    144.1222      4.8497   5.5509138541e+01   4.7441114746e+01    0.5051765    0.2429022 -34.62  0.002348911    2.060    0.515
         9  -9.8130    156.7770      9.3866   5.5634138624e+01   4.3767847401e+01    0.3999517    0.1656782  44.48   0.00150502    3.365    0.703
        10  -9.4665    201.9172      9.5003   5.2000391936e+01   3.2891919708e+01    0.1641878     0.109959  83.02 0.0003766467    1.416    0.294
        11 -10.1193    194.0340      8.7432   5.2339576412e+01   3.4755814024e+01    0.2085332    0.1554044  64.01  0.001110253    1.468    0.319
        12  -9.6531    167.4307      1.4712   5.2324884943e+01   4.1800932662e+01    0.2264525   0.09384277  64.42 0.0008257059    2.220    0.550
        13 -12.4341    109.5216    149.1085   1.0601092112e+02   2.9989820049e+01    0.7808579    0.4485903  62.82   0.00289922    2.693    0.629
        14 -10.4124    175.0938    189.7108   9.7861529361e+01   1.0725960387e+01    0.1947654    0.1772994 -30.26 0.0003984767    1.276    0.216
        15 -10.2118    230.5536    197.2813   8.9093861822e+01   1.8874082081e+00    0.1992893    0.1384293  22.28 0.0008791378    1.356    0.262
        16 -12.7718    119.5215    147.3602   1.0290033232e+02   2.8547564715e+01    0.5933602     0.521569  84.15  0.001875635    1.334    0.251
        17 -13.0748    123.7443    141.7055   1.0057953166e+02   2.8998164752e+01    0.7666253    0.5171033 -69.19  0.003284174    2.003    0.501
        18 -10.6265    101.0000     87.9718   9.3602132024e+01   4.5720540329e+01    0.3993463    0.2184471 -45.69  0.001128476    1.885    0.469
        19 -10.8143    101.3640     83.8302   9.2214905760e+01   4.6532919313e+01    0.4478298    0.2681613 -35.15  0.001609374    1.916    0.478
        20  -9.7452     53.1725     71.1606   1.0685933245e+02   5.8705668063e+01    0.2253901    0.1953865 -25.67 0.0007350029    1.189    0.159
        21 -12.9880    109.1313     68.0524   8.4684319474e+01   4.7918648765e+01    0.7315678    0.4679705 -45.60  0.002619669    1.633    0.387
        22 -10.2952    152.6409    188.1688   1.0238773834e+02   1.4522622001e+01    0.2547231    0.1720383  44.99 0.0006619506    1.561    0.359
        23 -10.7151    115.9777     57.5592   7.9157658048e+01   4.8126259554e+01    0.2861881    0.2297166 -37.74 0.0005369654    1.312    0.238
        24 -11.0749    147.7225    184.6100   1.0288657964e+02   1.5968400487e+01    0.3680549    0.2404059  55.35  0.001118547    2.042    0.510
        25 -10.4504     76.6741     50.4976   8.9053616310e+01   5.8666723380e+01    0.4953203    0.2629083 -55.74  0.001893941    2.601    0.615
        26 -11.8673    120.0656     40.1510   7.1896734185e+01   4.9795932223e+01    0.5142545    0.2647216  37.90  0.001382001    2.544    0.607
        27 -12.0749    122.2931     33.6369   6.9019635729e+01   5.0099769034e+01    0.3650492    0.3116451  42.55 0.0009568253    1.240    0.193
        28 -10.7561    166.6531    187.0182   9.9144892906e+01   1.2493338217e+01    0.3009557    0.1754351  47.78  0.001446372    2.041    0.510
        29 -10.4650    138.5105     27.9986   6.4052196526e+01   4.6542588100e+01    0.3166105     0.222315  33.34  0.001543334    1.793    0.442
        30 -11.4951    137.9892     24.8147   6.3047510599e+01   4.7049374517e+01    0.4452773     0.272911  31.45  0.001967102    2.279    0.561
        31 -11.5234    211.1399    242.9150   9.9445682789e+01  -1.4676868908e+00    0.3226403    0.1467158  26.96   0.00190257    1.816    0.449
        32 -10.0579    148.7946     23.8358   6.1142841533e+01   4.4338534653e+01    0.1985226     0.180208  63.00  0.000405439    1.159    0.137
        33 -11.2225    242.6167    178.5088   8.3985831131e+01   2.8090063910e+00    0.3539747    0.1961048  33.10  0.002130421    1.904    0.475
        34 -11.3877    128.5013     22.4596   6.3762404048e+01   4.9814485700e+01    0.3783458    0.1610658  66.08  0.001284306    2.074    0.518
        35 -10.5915    130.4998     18.9990   6.2186953805e+01   4.9662596713e+01    0.2729744    0.2136867 -16.65   0.00102563    1.516    0.340
        36 -11.8655    138.6924    172.4635   1.0285074017e+02   1.9813375570e+01    0.4250327    0.3067403  71.51  0.001553764    2.179    0.541
        37 -10.8974    202.6309     19.0476   5.4298311800e+01   3.1753367593e+01    0.3630773    0.2478437  68.67  0.001920431    1.523    0.344
        38  -9.5330    207.6825     16.6272   5.3343054854e+01   3.0890193591e+01    0.1752347    0.1390064  61.61 0.0006614098    1.469    0.319
        39 -10.2437    189.9912     15.1953   5.4300648938e+01   3.5047485233e+01    0.4536829    0.1389069  57.88  0.001743621    3.409    0.707
        40  -9.9640    163.9964     15.2838   5.6680523600e+01   4.1359761976e+01    0.2167649    0.1743102  37.68   0.00062607    1.554    0.357
        41 -10.9459    158.0442    192.5347   1.0193767727e+02   1.2894411437e+01    0.3344034    0.2620438  73.13  0.001135093    2.135    0.532
        42 -10.1948    136.3889    232.4471   1.1251202508e+02   9.3606912060e+00    0.2065397    0.1678532  20.99 0.0002433159    1.036    0.034
        43 -10.1108    171.9480    229.7836   1.0481448412e+02   5.0004205208e+00    0.1879202      0.11721  44.49  0.001065202    1.948    0.487
        44 -11.7676    222.4709    207.8975   9.2178685029e+01   1.5154989636e+00    0.4078068    0.1795418  31.83  0.001468515    2.144    0.534
        45 -10.4697    211.9956    207.7098   9.3936551457e+01   2.8518751373e+00    0.2015489    0.1245765  23.90  0.000650854    1.443    0.307
        46 -10.2433    242.7459    246.5584   9.4794681158e+01  -5.1755556473e+00    0.1264039   0.07937288  26.08 0.0005022059    1.571    0.363
        47 -11.8720    160.7885    189.6744   1.0085794663e+02   1.2960822096e+01    0.5250499      0.30202  57.88 0.0008368554    3.295    0.697
        48 -11.3472    129.7316    165.1563   1.0370929577e+02   2.2860345531e+01    0.3681068    0.2428867 -38.83 0.0008717283    1.657    0.396
        49 -10.5080    165.4287    192.7486   1.0039113220e+02   1.1709465822e+01     0.233301    0.1886005  49.10 0.0008421575    1.512    0.339
        50 -11.9838    112.9254    154.5700   1.0612471126e+02   2.8141385142e+01    0.3925805    0.3180893  21.75  0.001073524    1.263    0.208
        51 -10.4277     99.2792    169.8003   1.1256921187e+02   2.7030417382e+01    0.2484913    0.2237381  61.33 0.0005250237    1.144    0.126
