#   1 NUMBER                 Running object number                                     
#   2 MAG_AUTO               Kron-like elliptical aperture magnitude                    [mag]
#   3 X_IMAGE                Object position along x                                    [pixel]
#   4 Y_IMAGE                Object position along y                                    [pixel]
#   5 X_WORLD                Barycenter position along world x axis                     [deg]
#   6 Y_WORLD                Barycenter position along world y axis                     [deg]
#   7 A_WORLD                Profile RMS along major axis (world units)                 [deg]
#   8 B_WORLD                Profile RMS along minor axis (world units)                 [deg]
#   9 THETA_WORLD            Position angle (CCW/world-x)                               [deg]
#  10 FWHM_WORLD             FWHM assuming a gaussian core                              [deg]
#  11 ELONGATION             A_IMAGE/B_IMAGE                                           
#  12 ELLIPTICITY            1 - B_IMAGE/A_IMAGE                                       
         1 -12.9062    231.5599     11.2997   4.1502399651e+01   2.5494371759e+01    0.4976089    0.2377281 -50.18  0.002264405    1.926    0.481
         2 -13.7852    149.7132      5.7756   4.8673675380e+01   4.7167454473e+01    0.7632882    0.6599123  28.84  0.003414219    1.195    0.163
         3 -13.0176    159.0733      3.8476   4.6663219843e+01   4.4860105857e+01     0.612187    0.4638109 -58.57  0.003204889    1.404    0.288
         4 -12.8872      2.2501      2.4780   1.0039140281e+02   7.5623974297e+01    0.5116436    0.2682863 -53.37  0.002638919    1.675    0.403
         5 -11.1183    250.0000      2.9664   3.8110615600e+01   2.2098043384e+01    0.2128148   0.06528465 -25.47 0.0008122163    3.011    0.668
         6 -12.1950    234.2515      2.4417   3.9017437579e+01   2.5760988658e+01    0.4558114    0.1270204  77.69  0.001589649    3.810    0.738
         7 -12.8059    146.4306    217.5714   1.0460441207e+02   1.0706521511e+01    0.5515273    0.4084803  36.27  0.002345953    1.185    0.156
         8 -15.0314    240.6169    240.9005   9.1610542009e+01  -6.4815109365e+00      1.79505     1.000363  17.17   0.01157894    1.613    0.380
         9 -12.2209    138.6701    247.8120   1.0955929024e+02   7.5083462616e+00     0.363852    0.3249983   7.62   0.00271694    1.433    0.302
        10 -13.0449    120.2117    245.5674   1.1252257034e+02   1.0491786403e+01     1.210893    0.6203316  25.21  0.005868463    3.230    0.690
        11 -14.0880    105.9775    239.6796   1.1445277212e+02   1.3389210481e+01     1.454288    0.8091338  33.14  0.008659334    1.873    0.466
        12 -12.6784     49.0734    213.8797   1.2263047166e+02   2.5225339993e+01     1.611267    0.4622709  58.92  0.006553212    3.800    0.737
        13 -15.7906     93.5991    153.7095   1.0657497021e+02   3.1520396382e+01     4.753977     2.393647 -84.35   0.01674225    3.719    0.731
        14 -14.4046     88.9667    245.0428   1.1786264413e+02   1.4892639065e+01     1.081865    0.4362206  54.61  0.005887504    2.122    0.529
        15 -15.9351     74.6580    223.6415   1.1867338522e+02   2.0292983348e+01      2.98795     1.765395  52.32   0.01932909    1.321    0.243
        16 -15.0280     75.0464    204.9857   1.1697053801e+02   2.3622322970e+01     1.896118    0.9079686  66.40  0.009438839    2.332    0.571
        17 -15.8485     82.4560    184.3099   1.1329575424e+02   2.6655763349e+01     3.990981     2.001221  83.10   0.01681449    3.107    0.678
        18  99.0000     33.7085    187.3089   1.2372568202e+02   3.2105957231e+01     2.236088    0.8746318 -71.81   0.01168236    2.289    0.563
        19 -13.5443      6.2069    247.3617   1.3140509552e+02   2.3976808949e+01    0.9391496    0.2485413  47.40  0.005695383    2.256    0.557
        20 -16.8783     13.5978    134.4773   1.2408680474e+02   4.5518546379e+01     10.23289     2.070833 -75.54    0.0362836    3.926    0.745
        21 -15.7831      8.8397    196.9882   1.2907096824e+02   3.2619688186e+01     1.185045    0.7517225  42.85  0.008224977    1.552    0.356
        22 -16.0120     10.4297    185.1905   1.2819404819e+02   3.4805761980e+01     1.187803    0.7375754  38.92  0.007499564    1.686    0.407
        23 -13.3585    154.6463    214.6489   1.0266660997e+02   9.8279254767e+00    0.7474554    0.5693462  14.99  0.003549257    1.555    0.357
        24 -13.3759    175.1013    209.1204   9.8031065054e+01   7.2807776454e+00     1.121872    0.3951046  33.46   0.00432923    3.201    0.688
        25  -9.5762     36.3245    212.2843   1.2485963379e+02   2.6965025926e+01   0.08884154   0.08357999 -65.18 0.0004891055    1.600    0.375
        26 -11.0128    142.9980    202.9044   1.0326075561e+02   1.3629115039e+01    0.2762921    0.1626176  47.63  0.001458411    1.487    0.328
        27 -12.1278    148.5866    198.3016   1.0148697026e+02   1.3460219254e+01    0.4605801    0.2633266  50.01  0.002391152    1.631    0.387
        28 -14.4238    239.6631    179.5906   8.1340051394e+01   4.9690706718e-01     1.917447    0.7641191 -23.10  0.008048619    2.949    0.661
        29 -13.6338    194.4417    180.8748   8.9611064430e+01   8.1629748042e+00    0.6816176    0.6086184 -28.61  0.004311457    1.231    0.188
        30 -13.4572    185.5636    191.2330   9.3151493028e+01   8.1611182840e+00     1.621449    0.6656166  49.14  0.006769998    2.592    0.614
        31 -12.6818    195.1749    190.4894   9.1216587348e+01   6.5877130160e+00    0.7686391     0.432395  32.02   0.00392732    1.673    0.402
        32 -11.8388     49.8598    187.6439   1.2047173829e+02   3.0226974681e+01     0.505433     0.271604  56.39  0.002919359    1.596    0.373
        33 -12.7149    203.1230    180.3311   8.7887615296e+01   6.6846671549e+00    0.5070509    0.4235395  80.17  0.002908977    1.886    0.470
        34 -13.0034     50.1795    160.0013   1.1775857980e+02   3.6101836688e+01    0.7543229    0.5767183 -61.90  0.003258684    1.396    0.284
        35 -13.6267     38.0455    171.4057   1.2158150193e+02   3.4969098877e+01    0.7813655    0.5638686  64.99  0.003411431    1.171    0.146
        36 -12.6761     41.7372    164.6309   1.2015693066e+02   3.6038193252e+01    0.4100085    0.2158676 -64.06  0.001496693    1.800    0.444
        37 -14.0477    119.1874    171.9876   1.0358146614e+02   2.3389688957e+01    0.8977116    0.6135941  58.59  0.004755243    1.459    0.314
        38 -12.3054     62.2445    152.3969   1.1399274293e+02   3.6331922652e+01    0.7299742    0.2960903 -58.23  0.003246064    2.324    0.570
        39 -12.9561     57.3327    150.6653   1.1496863989e+02   3.7348759096e+01    0.3259751    0.2834936 -68.16  0.001217798    1.226    0.184
        40 -13.6267    207.5967    165.5927   8.4176552453e+01   8.0956718595e+00    0.9809163    0.8140755 -72.99  0.005433716    1.872    0.466
        41 -13.5002    103.0364    135.5781   1.0101648785e+02   3.4049308047e+01     1.296637    0.8216758 -67.95  0.006079118    1.687    0.407
        42 -13.7869    234.4462    123.3168   7.0122863519e+01   9.3823062473e+00     1.612131    0.7064585 -48.13  0.005876849    3.195    0.687
        43 -14.6631     70.2028    243.4650   1.2093807982e+02   1.7565154700e+01     1.813323     0.601385  61.80  0.007867552    3.831    0.739
        44 -12.0977     83.3978    112.7339   1.0164214546e+02   4.2652072826e+01    0.5670655    0.3735638 -80.72  0.002625166    1.818    0.450
        45 -14.3873    244.6727     98.8835   6.2672462470e+01   1.0953974994e+01      2.45429    0.4953733 -33.39  0.007291466    3.951    0.747
        46 -12.1885     90.6857    101.9931   9.7033229529e+01   4.3993876767e+01    0.5472717     0.399346   7.33   0.00252887    2.069    0.517
        47  99.0000     28.3531    244.7378   1.2787957876e+02   2.2188901607e+01      1.96962     1.247725 -84.61   0.01557477    1.544    0.352
        48 -12.0720    146.5816    242.3397   1.0759103467e+02   7.0846418512e+00     0.438592    0.2355065  40.94  0.002249435    1.433    0.302
        49 -12.1356      3.1215    232.3421   1.3140973245e+02   2.6734221664e+01    0.4285114   0.08755667  59.95    0.0020464    3.441    0.709
        50 -13.4336      2.9440    224.1279   1.3116676165e+02   2.8162230821e+01     1.559721    0.3567816  82.84   0.00570547    6.190    0.838
        51 -11.7392    103.7275    224.1626   1.1336748274e+02   1.6190320512e+01     0.476129    0.2021817  53.08  0.002339707    2.128    0.530
        52 -12.3158    135.8026    213.8701   1.0613751600e+02   1.2994429088e+01    0.6079017    0.2581571  50.15  0.002848197    2.202    0.546
