#   1 NUMBER                 Running object number                                     
#   2 MAG_AUTO               Kron-like elliptical aperture magnitude                    [mag]
#   3 X_IMAGE                Object position along x                                    [pixel]
#   4 Y_IMAGE                Object position along y                                    [pixel]
#   5 X_WORLD                Barycenter position along world x axis                     [deg]
#   6 Y_WORLD                Barycenter position along world y axis                     [deg]
#   7 A_WORLD                Profile RMS along major axis (world units)                 [deg]
#   8 B_WORLD                Profile RMS along minor axis (world units)                 [deg]
#   9 THETA_WORLD            Position angle (CCW/world-x)                               [deg]
#  10 FWHM_WORLD             FWHM assuming a gaussian core                              [deg]
#  11 ELONGATION             A_IMAGE/B_IMAGE                                           
#  12 ELLIPTICITY            1 - B_IMAGE/A_IMAGE                                       
         1  -8.8371    119.4034     32.7844   4.1741286216e+01   5.1307412472e+01    0.2650991    0.1280118 -35.06 0.0005781157    2.077    0.518
         2  -8.6572     55.7955      9.9175   5.2298108451e+01   6.6220249383e+01    0.1993426    0.1517076 -39.08 0.0007535879    1.551    0.355
         3  -7.6900     28.2970      9.6870   6.3912911269e+01   6.9625286815e+01   0.09672478   0.08606263 -47.40 0.0003991693    1.601    0.376
         4  -8.0362     90.7718      8.5883   3.9783286655e+01   6.0355744654e+01    0.1674962    0.1235594  60.62 0.0005048978    1.642    0.391
         5  -7.7497    101.2846      7.6802   3.6458519656e+01   5.8301585751e+01    0.1220795    0.1026332 -55.18 0.0005446917    1.591    0.371
         6  -8.5035     33.3869      4.8168   5.9296360714e+01   6.9791866348e+01    0.2507422    0.1524845 -49.50  0.001099123    2.338    0.572
         7  -7.6756    192.4571      2.5198   1.8207982015e+01   3.6243530754e+01    0.1391615     0.125067  72.91 1.405998e-05    1.036    0.035
         8  -8.4834     79.1992      3.6415   4.1064634217e+01   6.3094545963e+01    0.2418809    0.1405976 -37.19  0.001252981    1.976    0.494
         9  -8.2216     62.6806      1.4978   4.5642694926e+01   6.6185165185e+01    0.1410109    0.1142042  44.67  0.000920545    1.501    0.334
        10 -10.0749    223.9129    243.7721   6.9630194552e+01  -6.2081738650e+00    0.3886904    0.2223666 -43.44  0.002319828    2.535    0.605
        11  -8.9258    249.1389    249.2590   6.6331171052e+01  -1.0612879439e+01    0.2990402     0.182265  14.63  0.001978027    1.524    0.344
        12  -9.4201    243.1847    245.9509   6.6789444393e+01  -9.4118203060e+00    0.3035808    0.1745384  -9.83  0.001838892    2.086    0.521
        13  -9.5800    246.8035    228.1823   6.3390575714e+01  -8.1610610246e+00    0.4571444    0.2205483 -25.77  0.001937513    2.325    0.570
        14  -9.9392    248.6449    241.5609   6.5230151026e+01  -9.8040545602e+00    0.4454098    0.2235834 -24.19  0.001657688    2.270    0.560
        15  -8.9461    247.6741    234.5147   6.4274878835e+01  -8.9535798132e+00    0.2015057    0.1485572   1.65 0.0008186399    1.283    0.221
        16  -9.1930    188.1318    250.4219   7.6563216152e+01  -1.1846323289e+00    0.2153656    0.1238409  43.28 0.0007296118    1.308    0.236
        17  -8.3583    191.6712    249.3485   7.5825828433e+01  -1.6341014990e+00    0.2000324    0.1145439  53.10 0.0006067689    1.728    0.421
        18  -9.3197    210.9560    246.3332   7.2166991955e+01  -4.4164535151e+00    0.1942717    0.1637106 -60.13 0.0008493562    1.885    0.469
        19  -9.1725    147.0930    245.6771   8.2958209565e+01   6.1532012942e+00    0.3264458    0.1952367  71.29   0.00144741    2.293    0.564
        20  -9.0294    120.0822    245.0134   8.7479291974e+01   1.0551855644e+01    0.2889393    0.1724409  85.91  0.001569364    2.290    0.563
        21  -8.8063     67.4538    244.3594   9.6076268643e+01   1.8217742709e+01    0.2219794   0.09397851 -74.81  0.001286016    2.542    0.607
        22  -8.5695     10.0036    244.0313   1.0472965724e+02   2.4885347012e+01    0.2489091   0.07179683  79.18  0.001133325    4.262    0.765
        23  -8.6511    139.4344    244.2006   8.4101603906e+01   7.6045681420e+00    0.1430691     0.104606 -85.52  0.000945376    1.732    0.423
        24  -8.5285    201.8745    242.8207   7.3204864633e+01  -2.5360853394e+00    0.1866061    0.1623006 -55.46 0.0008399251    1.660    0.398
        25  -8.7664    168.7283    242.9533   7.8911670439e+01   2.9576543781e+00    0.2299422    0.1382366  50.74 0.0008692932    1.382    0.277
        26  -9.2904     77.6441    242.6787   9.4313603451e+01   1.7128479501e+01    0.2074501    0.1023539  81.61  0.001117482    2.411    0.585
        27  -8.1706     49.6000    242.8096   9.8776392654e+01   2.0718975785e+01    0.1446763   0.07542516  85.36 0.0009499766    1.767    0.434
        28  -7.6789     34.5121    243.5372   1.0112141716e+02   2.2364074175e+01    0.1029704   0.06836796  69.21 9.550156e-05    1.012    0.012
        29  -9.0900    194.3284    240.0265   7.4103995152e+01  -9.4882784543e-01    0.2800458    0.2014397 -55.78   0.00118615    2.063    0.515
        30  -9.2608    182.9874    239.9054   7.6045982573e+01   9.6763341028e-01    0.3567377    0.2210528  66.08  0.001640239    2.415    0.586
        31  -9.3945    160.1163    239.8025   8.0008141832e+01   4.8237873356e+00    0.3090096     0.197613 -68.50  0.001253133    2.375    0.579
        32  -7.6017    153.4593    241.9400   8.1425540013e+01   5.6328065548e+00    0.1454961    0.0958228  88.15 0.0008078368    2.453    0.592
        33  -8.1723     88.1098    242.0953   9.2553024891e+01   1.5766555517e+01    0.1522976    0.1252263  68.29 0.0006663969    1.181    0.153
        34  -9.1146    241.4238    238.2435   6.5890180368e+01  -8.3725185463e+00    0.4133411    0.1999027  -5.46  0.001834817    3.856    0.741
        35  -8.1215    214.4465    240.5306   7.0741319212e+01  -4.3303888559e+00    0.1183596   0.08973299  31.80  4.50493e-05    1.004    0.004
        36  -8.4113    146.2721    239.4137   8.2372022242e+01   7.1803628493e+00    0.1813997    0.1306328  83.31 0.0005773086    1.769    0.435
        37  -7.9507     41.2272    239.3003   9.9859913432e+01   2.2292770002e+01    0.1500957   0.06471163  89.65 0.0008751643    2.321    0.569
        38  -8.9822    230.9924    236.8667   6.7404992336e+01  -6.5914319821e+00    0.2214667    0.1759119 -63.31  0.001054468    2.430    0.588
        39  -8.1904    209.1069    238.1646   7.1301522883e+01  -3.1822834854e+00    0.1488388    0.1257715  49.68  0.000481486    1.339    0.253
        40  -8.3337    135.3369    238.5578   8.4176040932e+01   9.0975577663e+00     0.215949    0.0880649  48.32 0.0005964395    1.906    0.475
        41  -8.6623     25.6936    236.7591   1.0209382405e+02   2.4456569932e+01    0.2063583   0.08052338  77.68  0.001168481    2.468    0.595
        42  -9.4645    213.6757    231.6532   6.9541075055e+01  -3.1729797173e+00    0.3157327    0.2436545  73.45  0.001241068    2.191    0.544
        43  -8.9355    203.2428    234.4729   7.1766761344e+01  -1.7627996072e+00    0.2684062    0.1992099 -61.21  0.001222031    2.197    0.545
        44  -9.7810    175.7031    233.1465   7.6399867100e+01   3.0989210074e+00    0.4031399    0.2306588 -59.04  0.002161771    2.708    0.631
        45  -7.7671     57.8182    236.6093   9.7071335048e+01   2.0731668439e+01    0.1581979    0.0689669  53.35 0.0009469528    1.727    0.421
        46  -8.3479    170.1372    235.1938   7.7658449592e+01   3.7693573474e+00    0.1581427    0.1240278  61.34 0.0004768998    1.328    0.247
        47  -9.4942    108.9311    234.2784   8.8306904200e+01   1.3948410132e+01    0.3745622    0.1746739  63.12  0.001203746    2.346    0.574
        48  -8.3453     99.8056    234.2944   8.9883523291e+01   1.5328386179e+01    0.2124994    0.1235472  77.72  0.001244102    1.918    0.479
        49  -9.2889     78.8334    234.5261   9.3463065841e+01   1.8305712571e+01    0.2092123    0.1324917  86.65  0.001404703    1.522    0.343
        50  -8.6936    217.3045    235.6691   6.9531021738e+01  -4.2435999569e+00    0.2142335    0.1429043  38.74 0.0006656369    1.189    0.159
        51  -8.1702    123.0817    233.9109   8.5800421439e+01   1.1787786669e+01     0.250874    0.1382256  69.74  0.000904845    2.236    0.553
        52  -9.6773     69.0455    232.5832   9.4939470934e+01   1.9958879794e+01    0.4532088    0.1675475  65.97  0.002006021    3.429    0.708
        53  -8.6041      8.4475    234.5020   1.0455467629e+02   2.6604328026e+01   0.09905555   0.06425297  72.93 0.0002310857    1.006    0.006
        54  -8.5423    194.6664    232.5013   7.2970876639e+01  -6.3092507682e-02    0.1946659    0.1458988 -59.36 0.0008974071    1.992    0.498
        55  -8.1388    144.3678    232.6738   8.1898327678e+01   8.4926520028e+00    0.2720535    0.1256139  61.42  0.001195476    2.909    0.656
        56  -8.6598    140.1428    230.0614   8.2333411972e+01   9.5972187628e+00    0.2804856    0.1397973  54.41  0.001200897    1.784    0.439
        57  -8.4864    132.8293    233.0830   8.3991238353e+01   1.0340050731e+01    0.1909825    0.1348639  65.46  0.001225808    1.337    0.252
        58  -8.6832     92.5640    231.7918   9.0893286529e+01   1.6811770274e+01    0.2927713    0.1501144  78.38  0.001095803    2.509    0.601
        59  -9.3270    186.4339    230.4168   7.4118175608e+01   1.6210784284e+00    0.3319125    0.2400715  85.95  0.001438588    2.477    0.596
        60  -9.0223    236.0165    230.2106   6.5515263547e+01  -6.6709156842e+00    0.2472636    0.1596288 -25.69  0.001050905    1.758    0.431
        61  -8.0862    157.5175    231.5156   7.9412174066e+01   6.4423274342e+00    0.1234787   0.09636504  50.52 3.048231e-05    1.046    0.044
        62  -8.5325      1.5073    230.5262   1.0540548205e+02   2.7934387300e+01    0.1626393   0.06338319  84.44  0.001002999    2.106    0.525
        63  -9.9143    149.4081    225.6134   8.0105409117e+01   8.7135162376e+00    0.5904292    0.3416135 -86.95  0.002496437    4.036    0.752
        64  -8.7863    148.0351    220.0102   7.9619296972e+01   9.8247621724e+00    0.3504145    0.1937204  37.01  0.001752723    1.749    0.428
        65  -7.9255    229.8128    228.9131   6.6353155923e+01  -5.5232859614e+00      0.15673    0.1384858 -70.31  0.000976919    1.942    0.485
        66  -8.5801    162.2307    227.6879   7.8061560519e+01   6.1925549988e+00    0.2838821      0.17861  65.91  0.001548528    1.973    0.493
        67  -8.7542    127.6584    226.9407   8.4200874140e+01   1.2157399732e+01     0.259887    0.1524852  62.34  0.001169491    1.670    0.401
        68  -8.8803      7.7892    227.0214   1.0432547240e+02   2.7932531420e+01    0.1268729   0.05985735 -85.03 0.0008127039    1.721    0.419
        69  -8.8256    206.1414    225.7552   6.9943154129e+01  -1.1721045827e+00    0.1823311    0.1653183 -50.60 0.0007477513    1.503    0.335
        70  -8.3649    200.2785    225.5808   7.0949773951e+01  -1.3813017092e-01    0.2009922    0.1546034 -24.44 0.0006542383    1.563    0.360
        71  -8.1205     48.8830    226.3224   9.7813481348e+01   2.3597183656e+01    0.1553495    0.1008411  77.53 0.0006637482    1.206    0.171
        72  -8.8777    216.5610    223.4425   6.7755202246e+01  -2.6678210244e+00    0.2521595    0.2020158 -62.88  0.001232518    2.053    0.513
        73  -9.1884    104.8812    223.4980   8.7910252226e+01   1.6361384858e+01    0.3055743    0.1680768  85.26   0.00143609    2.523    0.604
        74  -8.8876     94.2787    224.1682   8.9867173086e+01   1.7852544737e+01    0.3831695    0.1530774  61.12  0.001700758    2.832    0.647
        75  -8.7976    180.5944    223.9831   7.4228064091e+01   3.5176637074e+00    0.2517491    0.1693886  58.59  0.001006247    1.603    0.376
        76  -8.0830    113.6300    223.7778   8.6367738198e+01   1.4943663784e+01    0.1490343    0.1037655 -84.42 0.0003458104    1.601    0.375
        77  -8.5407     75.4249    224.1725   9.3167806369e+01   2.0547480546e+01    0.2421973    0.1611921  63.65  0.001043645    1.164    0.141
        78  -8.2210     73.3218    220.6414   9.3227163647e+01   2.1458328258e+01    0.1243528   0.06642889  69.57 0.0007044244    1.769    0.435
        79  -9.2254    225.4344    221.6689   6.5929002893e+01  -3.9558941163e+00    0.2175926    0.1665375 -26.81 0.0008075289    1.512    0.339
        80  -8.3568    173.1462    222.9109   7.5420924287e+01   4.9820095223e+00    0.1834851    0.1478557  62.07 0.0005792119    1.316    0.240
        81  -8.7534    158.8570    220.2011   7.7650985355e+01   7.9039460182e+00    0.2081434    0.1582715  74.74 0.0007512795    1.564    0.360
        82  -7.8882     59.5194    223.5282   9.5836675126e+01   2.2767547407e+01    0.1140411   0.07951319  69.52 1.155237e-05    1.068    0.064
        83  -9.2299    239.0949    221.0727   6.3497849656e+01  -6.1510315254e+00    0.2724618    0.1893153 -26.41  0.001230033    1.610    0.379
        84  -9.2570    192.2665    221.1414   7.1698615834e+01   1.8532230340e+00    0.2590696    0.2171016  87.89 0.0007161502    1.730    0.422
        85  -8.8295     82.7134    220.1336   9.1528841871e+01   2.0239833261e+01    0.2422621    0.1303813  84.85  0.001040588    2.157    0.536
        86  -8.0655     27.4990    220.9913   1.0095237358e+02   2.6976551167e+01    0.1474186   0.08134555 -81.58  0.001021718    1.568    0.362
        87  -8.3150    202.5401    219.9963   6.9679037721e+01   1.9732519951e-01    0.1565979    0.1233262 -32.23 0.0003594501    1.522    0.343
        88  -9.1622    120.3429    218.8679   8.4583577032e+01   1.4690890812e+01    0.4289443    0.2061969  66.58   0.00186929    2.966    0.663
        89  -8.4340    209.9704    218.9674   6.8193364235e+01  -9.6903566110e-01    0.1843705    0.1710343 -32.71 0.0006150606    1.370    0.270
        90  -8.6418    249.2610    218.0585   6.1282829868e+01  -7.4550374897e+00    0.2546927    0.1542447  54.50  0.001368041    2.386    0.581
        91  -9.3069    133.0315    216.0233   8.1881726248e+01   1.3053979956e+01    0.4612857    0.2627389  79.54  0.002078752    3.023    0.669
        92  -8.4786     62.2216    217.2481   9.4875898086e+01   2.3542619752e+01    0.3052682     0.129735  71.77   0.00108064    2.868    0.651
        93  -9.1212     51.5966    217.4301   9.6721619241e+01   2.4847912059e+01    0.2395283    0.1296948  84.82   0.00097456    1.707    0.414
        94  -8.3307    179.1869    217.1705   7.3470939049e+01   4.7422288626e+00    0.1699232    0.1369724  62.33 0.0005017411    1.357    0.263
        95  -8.5240    169.4454    215.9798   7.5089853604e+01   6.6666416224e+00     0.258268    0.1867924  80.01  0.001153175    1.989    0.497
        96  -8.6985    142.9707    216.3332   8.0067935512e+01   1.1294994636e+01    0.2685058    0.1823229  88.91  0.001062507    2.042    0.510
        97  -8.3247    111.8187    216.9654   8.5932101926e+01   1.6395503209e+01    0.2007729    0.1208137  78.08  0.001079542    2.004    0.501
        98  -8.1911     18.6114    216.1618   1.0210809480e+02   2.8763402359e+01    0.1380601   0.07495052 -72.89 0.0009548269    1.742    0.426
        99  -8.8296    232.3158    214.4119   6.3526327750e+01  -4.2467750882e+00     0.225807    0.2065689 -36.10  0.001063172    1.484    0.326
       100  -8.0848    154.7370    214.9417   7.7678659734e+01   9.4539871286e+00    0.1920974    0.1359588  82.28  0.001060322    1.931    0.482
       101  -7.7638     41.6415    215.3089   9.8260066200e+01   2.6418872160e+01    0.1189133   0.05816163  66.77 0.0007041757    1.734    0.423
       102  -9.4548    213.9992    212.0024   6.6329031562e+01  -7.7139893340e-01    0.3517517     0.263558  63.33  0.001468041    1.840    0.457
       103  -8.4592    185.8406    214.1636   7.1785861311e+01   3.9810326215e+00    0.1901819    0.1579974  58.44  0.001179071    1.292    0.226
       104  -9.2207     93.0061    213.7537   8.9041681849e+01   1.9877787433e+01    0.2476593    0.1559629  75.37  0.001087356    1.570    0.363
       105  -9.4478     73.5938    212.0294   9.2406239013e+01   2.2978400123e+01    0.5522379    0.1944078  62.41  0.002169161    3.837    0.739
       106  -7.9937    106.5772    212.7657   8.6423723130e+01   1.7966862213e+01    0.1563454    0.1058872 -86.07 0.0006129676    1.606    0.377
       107  -8.0029    224.8381    212.3316   6.4469600992e+01  -2.7112739694e+00    0.1564243    0.1418034   7.21 0.0004903132    1.195    0.163
       108  -9.3879    175.5602    209.9252   7.3032105977e+01   6.4801926787e+00       0.3896    0.2413389  70.61  0.001388044    2.667    0.625
       109  -8.8192    161.7342    211.8401   7.5918774673e+01   8.6946854259e+00    0.2211102    0.1755262 -71.88 0.0008706981    1.595    0.373
       110  -9.1605      5.6500    207.7693   1.0375377533e+02   3.1528758852e+01    0.2056135   0.08718303  73.85  0.000991644    1.940    0.485
       111  -8.6579    147.8807    210.1067   7.8287539892e+01   1.1457406743e+01    0.2435018    0.1721237 -88.98  0.000959426    1.924    0.480
       112  -8.8221    116.1283    209.9422   8.4296187233e+01   1.6931035656e+01    0.2749687    0.1771555  75.32 0.0007990276    1.726    0.421
       113  -9.4064    236.6474    207.7786   6.1626327179e+01  -4.1776506614e+00    0.3516193    0.2475754 -39.93  0.001456568    1.802    0.445
       114  -8.2296    192.0571    210.0190   6.9980478114e+01   3.4503760137e+00    0.1890191    0.1512818  74.72 0.0007328773    1.709    0.415
       115  -8.9268     85.7296    209.1440   8.9905661177e+01   2.1793589838e+01    0.2590022    0.1400653  87.19  0.001333387    2.239    0.553
       116  -8.3520     32.3979    210.2335   9.9480535243e+01   2.8388821738e+01    0.1487148   0.07742912  86.80  0.000517499    1.645    0.392
       117  -8.2043     46.3811    209.1970   9.7003615426e+01   2.6986964369e+01    0.1563163   0.08261196  88.98 0.0007695557    1.736    0.424
       118  -9.4416    246.4971    207.0892   5.9823932270e+01  -5.7530047702e+00    0.2511963    0.2029172 -10.33 0.0006432736    1.242    0.195
       119  -9.3199    250.1251    201.8960   5.8273455656e+01  -5.7412946744e+00    0.3487277    0.1840239 -26.04  0.001276567    1.980    0.495
       120  -8.3170    156.5502    207.7604   7.6297593867e+01   1.0288083984e+01     0.158617    0.1227203 -74.69 0.0008408307    1.630    0.386
       121  -8.2834    139.1884    207.7772   7.9619232893e+01   1.3386160539e+01    0.2168578    0.1431795 -78.64 0.0008521263    2.041    0.510
       122  -8.1510    126.6152    208.3233   8.2097659189e+01   1.5465141729e+01    0.1931087    0.1264891  70.63 0.0008679162    1.662    0.398
       123  -9.1799     99.5796    206.0362   8.6970480559e+01   2.0283671309e+01    0.3463692    0.1868184  73.12  0.001250976    2.295    0.564
       124  -9.0321    204.2922    210.7055   6.7857001757e+01   1.1355356724e+00    0.2252773    0.1943562  75.47 0.0008326148    1.598    0.374
       125  -8.4704     56.4193    205.2428   9.4904890021e+01   2.6503005652e+01    0.2688614    0.1318274  76.94  0.001004649    2.153    0.536
       126  -9.3098    194.9067    203.5351   6.8378253647e+01   3.8691904778e+00    0.3348959    0.2498398  59.12  0.001209347    1.520    0.342
       127  -9.4999    192.5221    197.2238   6.7744026673e+01   5.2598321687e+00    0.4224275    0.3181605 -89.45  0.001623475    2.224    0.550
       128  -8.0668    109.1808    205.1496   8.5034126403e+01   1.8926331195e+01    0.1757083    0.1248096  73.80 0.0007752261    1.361    0.265
       129  -8.9660    183.8091    203.6156   7.0470595840e+01   5.9212398340e+00    0.2800882    0.1973929  61.83  0.001188058    1.647    0.393
       130  -9.6562    163.7656    202.7041   7.4145063535e+01   9.7944015690e+00    0.4176353    0.2524067  62.96  0.001122456    2.005    0.501
       131  -8.4989    131.2104    203.6949   8.0594012781e+01   1.5491773529e+01     0.262899    0.1762241  80.04 0.0009836087    1.847    0.459
       132  -9.1484    243.2787    200.7891   5.9231220768e+01  -4.4522977261e+00    0.3007295    0.1962501 -33.85  0.000987099    1.724    0.420
       133  -8.4349    210.9134    201.5554   6.5088695296e+01   1.1974318565e+00    0.2264749    0.1698506 -57.12 0.0007944652    1.953    0.488
       134  -8.9907    140.6758    201.0200   7.8372874911e+01   1.4293801171e+01    0.3548407    0.2185811  74.52  0.001316259    2.292    0.564
       135  -8.7107     80.2441    201.1444   9.0104798548e+01   2.4087616756e+01    0.3089842    0.1439361  69.61  0.001376849    2.723    0.633
       136  -8.1770     48.4572    201.9395   9.6067581922e+01   2.8106680465e+01    0.1627594   0.07367093  80.36 0.0008081048    2.480    0.597
       137  -8.0322    222.0026    201.1898   6.3023288900e+01  -7.6776429650e-01    0.1655492    0.1347133 -47.90 0.0006629153    1.643    0.391
       138  -9.4016    149.5563    198.4173   7.6244931426e+01   1.3138597391e+01    0.3914157    0.2543051  88.57    0.0013191    2.493    0.599
       139  -8.8185    124.0117    199.0355   8.1362099824e+01   1.7575644105e+01    0.2806492     0.182159 -89.88  0.001010583    1.999    0.500
       140  -9.3406    112.8989    198.2648   8.3445902109e+01   1.9592941678e+01    0.3958609    0.2143518  71.41  0.001804734    2.502    0.600
       141  -9.1795    237.0103    198.0941   5.9816674034e+01  -3.0302564781e+00    0.3037399    0.1648815 -39.08  0.001443132    2.167    0.539
       142  -8.6057    176.9121    198.7788   7.0983173214e+01   7.9705003048e+00    0.2210166    0.1680483 -88.67 0.0005223671    1.948    0.487
       143  -8.0080     99.8204    199.3628   8.6142008841e+01   2.1494006610e+01    0.1704892    0.1079579  36.83  0.000679331    1.743    0.426
       144  -9.0170     89.0865    198.3538   8.8106995913e+01   2.3330041178e+01    0.3298573    0.1860202  85.24   0.00131968    2.140    0.533
       145  -8.3370    202.2779    197.5787   6.5977372535e+01   3.3679970704e+00    0.2105082    0.1599239 -50.83 0.0008395455    1.690    0.408
       146  -8.7911     61.3573    196.7740   9.3240313688e+01   2.7498992585e+01    0.3637705     0.168596  72.41  0.001518528    2.528    0.604
       147  -8.5525     54.5861    197.4682   9.4568410029e+01   2.8220345913e+01    0.3071142    0.1257843  67.74    0.0013945    2.920    0.658
       148  -7.7510     29.5009    197.5032   9.9120036928e+01   3.1091771872e+01    0.1114919   0.07900297  76.93 -0.0001586681    1.034    0.033
       149  -8.4026     12.6991    197.3603   1.0202870295e+02   3.2798024502e+01    0.1748499   0.08230837  67.76 0.0008003408    1.744    0.427
       150  -9.7838    245.6562    192.6488   5.7311566891e+01  -3.8463640877e+00    0.3983765     0.255552 -36.38  0.002253701    1.774    0.436
       151  -8.7624    216.0751    195.5554   6.3075225131e+01   1.0857262006e+00    0.2341621    0.2021832 -75.37  0.000869095    1.753    0.429
       152  -8.4896    133.1075    195.6992   7.9091247788e+01   1.6596174634e+01    0.2123452    0.1679524 -88.74 0.0006250325    1.388    0.280
       153  -8.8122    224.7451    193.9494   6.1214860718e+01  -2.8689190850e-01    0.3056841     0.172651 -46.25  0.001462151    2.369    0.578
       154  -7.4967    209.3277    195.6340   6.4325102555e+01   2.3299609175e+00    0.1257332    0.1042863  81.46  0.000703689    1.806    0.446
       155  -8.7883    185.1707    194.4432   6.8661135464e+01   7.0903124657e+00    0.2458446    0.1814095 -44.39 0.0007734353    1.581    0.368
       156  -8.3866    230.9902    194.2538   6.0160585384e+01  -1.4606643468e+00    0.1815002     0.149946  23.47 0.0004261089    1.019    0.019
       157  -8.7933    160.8652    193.8456   7.3295581541e+01   1.1821335217e+01    0.2777061    0.2064953  76.19  0.001038059    1.682    0.405
       158  -8.9103     76.9442    193.7180   8.9950560346e+01   2.5993752804e+01    0.2170508    0.1511115  89.57 0.0005492782    1.322    0.244
       159  -8.9696     43.6349    192.9419   9.6212511941e+01   3.0413831360e+01    0.3513795    0.1535867  79.91  0.001702568    2.672    0.626
       160  -8.0082    198.9232    191.5678   6.5532020890e+01   4.9024979842e+00    0.1915127    0.1609572 -44.49 0.0004544434    1.413    0.292
       161  -8.1788    179.2785    191.4172   6.9274384300e+01   8.7085063000e+00    0.2097607    0.1632205 -73.89 0.0006659676    1.782    0.439
       162  -8.5266    172.3282    191.5778   7.0660408499e+01   1.0020111860e+01    0.2677957    0.1945087 -81.72  0.001007069    2.103    0.524
       163  -9.1118    139.5487    190.3380   7.6995558531e+01   1.6415981585e+01    0.3690104    0.2341068  79.64  0.001211547    2.317    0.568
       164  -7.8086    205.0012    191.4875   6.4375478658e+01   3.7536878701e+00     0.170708    0.1120995  64.92 0.0008034206    2.238    0.553
       165 -10.3139     92.3971    188.6907   8.6311047788e+01   2.4713416568e+01    0.8769745    0.2412944  51.51  0.003107038    3.761    0.734
       166  -8.7443      6.6432    189.5117   1.0261722869e+02   3.4842325637e+01    0.1823919   0.07553765 -80.44  0.001087514    1.913    0.477
       167  -8.9541    216.6560    187.8951   6.1549834824e+01   2.0681841685e+00    0.2771816    0.2231078 -55.59   0.00105936    1.704    0.413
       168  -9.0067    191.5160    187.2815   6.6166706474e+01   7.0018213411e+00    0.3309603    0.2295478 -70.85  0.001242795    2.452    0.592
       169  -9.3023    155.9816    187.2310   7.3178022975e+01   1.3905182341e+01    0.3457139    0.2184837 -63.59  0.001019051    2.042    0.510
       170  -8.5395    148.6300    189.0676   7.4962021063e+01   1.4965735279e+01    0.2052668     0.161138 -89.10  0.001148477    1.522    0.343
       171  -8.7936    129.3441    188.4859   7.8782683689e+01   1.8605026525e+01    0.2715555    0.1948333  80.73 0.0008180535    1.603    0.376
       172  -9.5987    120.6976    186.0732   8.0193081733e+01   2.0589840784e+01    0.4816677    0.2562999 -75.71  0.002060477    2.823    0.646
       173  -8.3330    237.3683    188.2764   5.7911781899e+01  -1.8137452137e+00     0.164877    0.1171447 -36.92 0.0006735082    1.612    0.380
       174  -9.2421     66.8539    184.7951   9.0978254804e+01   2.9156415861e+01    0.4305018    0.2152137  89.64  0.001795408    2.387    0.581
       175  -9.0066     54.6686    186.6120   9.3556173231e+01   3.0352845595e+01    0.3790525    0.1729586  76.08  0.001761638    2.735    0.634
       176  -8.6397     34.0814    187.5863   9.7554167728e+01   3.2533593585e+01    0.3013623    0.1330051  79.89  0.001536758    2.418    0.586
       177  -8.1437    230.5190    187.0361   5.8881814262e+01  -3.9890466188e-01    0.1791863    0.1252144 -32.64 0.0007843365    1.549    0.354
       178  -8.8756    164.8789    186.3445   7.1239419035e+01   1.2350947304e+01    0.2745358    0.1921813 -68.63 0.0008523713    1.928    0.481
       179  -9.1081    109.6421    186.0192   8.2454720837e+01   2.2482976096e+01    0.3546442    0.2080147  74.03  0.001236859    2.161    0.537
       180  -8.9615    249.3826    185.4857   5.5305064565e+01  -3.5830371582e+00    0.2209366    0.1815923 -19.91  0.000787965    1.255    0.203
       181  -8.6304    202.8992    184.4748   6.3470562157e+01   5.2224336648e+00    0.2308441    0.1906015 -60.32 0.0007509349    1.605    0.377
       182  -8.7198    182.9601    184.7517   6.7369911214e+01   9.0883686968e+00    0.2347344    0.2028139 -55.15  0.000679305    1.367    0.268
       183  -7.7037     12.9785    185.6666   1.0126987048e+02   3.5012872796e+01    0.1749711   0.03341963  52.62 0.0007044408    4.281    0.766
       184  -8.6637    224.1216    183.3262   5.9315679141e+01   1.3140915747e+00    0.2241267    0.1871922 -37.42 0.0004885267    1.393    0.282
       185  -8.7560    210.0848    183.8891   6.2007202879e+01   3.9164981094e+00    0.2154473    0.1881978 -25.04 0.0005364054    1.246    0.198
       186  -8.5987    197.0250    183.3749   6.4384354550e+01   6.5441460383e+00    0.2297101     0.193404 -78.23 0.0009230543    1.653    0.395
       187  -9.1010    174.3223    183.2395   6.8805240189e+01   1.1043446591e+01     0.307692    0.2350853 -56.65  0.001037493    1.560    0.359
       188  -8.6407    241.6481    181.4476   5.5841614795e+01  -1.6735476847e+00     0.448805    0.2501475 -57.27  0.001594047    5.030    0.801
       189  -9.0163     44.5078    182.1634   9.5114301508e+01   3.2460146107e+01    0.3071844    0.1510175  72.96 0.0009688452    2.097    0.523
       190  -8.0231      1.8171    183.5710   1.0312239011e+02   3.6399679128e+01    0.1408575   0.07127091  54.27 0.0009446578    1.699    0.412
       191  -9.2241    147.6541    180.5581   7.3755897569e+01   1.6712518930e+01    0.3460798    0.2534808  83.56  0.001182186    1.735    0.424
       192  -8.1038    235.5027    180.7714   5.6782708416e+01  -4.5523231092e-01    0.2395944    0.1251725 -26.69 0.0008740554    2.057    0.514
       193  -9.4777     25.3982    178.3776   9.8468488157e+01   3.5269633758e+01    0.5775504    0.2035666  81.11  0.002217074    4.407    0.773
       194  -8.5311    250.5103    172.4849   5.2531831666e+01  -2.0736869639e+00    0.2170295    0.1747302 -14.70 0.0002487109    1.178    0.151
       195  -9.1683    248.9370    177.2656   5.3761350986e+01  -2.4296237811e+00    0.2685893    0.2403745 -35.88  0.001172011    1.394    0.283
       196  -8.5492    247.4860    173.5404   5.3259222620e+01  -1.6670615949e+00    0.2121368    0.1610683 -28.14 0.0005288399    1.348    0.258
       197  -9.5017    191.3552    178.1612   6.4496657409e+01   8.5117889020e+00    0.3182475    0.2480542  66.34 0.0008634597    1.551    0.355
       198  -8.7187    137.5092    178.9272   7.5592368239e+01   1.8936377219e+01    0.2694862    0.1932498  72.39 0.0009735472    1.570    0.363
       199  -9.2115     36.1042    176.5974   9.6257895102e+01   3.4525196172e+01    0.4913432    0.1863234  78.52  0.001865725    4.318    0.768
       200  -8.8063    204.9637    177.4200   6.1726014472e+01   5.9164018498e+00    0.2850613    0.1971792 -40.61 0.0007957026    1.613    0.380
       201  -8.2450    169.2093    178.2193   6.8924552095e+01   1.2930552768e+01    0.1892775    0.1587127  74.45 0.0007562111    1.356    0.263
       202  -8.5706    129.3921    177.4155   7.7050261343e+01   2.0727599937e+01    0.2966926    0.1848771  78.77  0.001017709    2.309    0.567
       203  -8.5243    231.1675    176.6159   5.6728197252e+01   9.4020763057e-01    0.2368868    0.1779431 -27.76 0.0007243823    1.380    0.275
       204  -8.5087    217.6272    177.0945   5.9285075206e+01   3.4739056298e+00    0.2171542    0.1800511  49.58 0.0007444214    1.283    0.221
       205  -9.0536     89.2046    176.6970   8.5435261817e+01   2.7626061351e+01    0.2785383    0.1711734  71.52   0.00101741    1.736    0.424
       206  -9.3463     59.1130    175.6212   9.1555631725e+01   3.2041453818e+01    0.5116302    0.2192286  69.84  0.002093698    3.377    0.704
       207  -9.3355     56.3289    171.0146   9.1629834892e+01   3.3350298137e+01    0.3949516    0.1843858  82.73  0.001727663    2.922    0.658
       208  -8.9384     13.0633    176.3391   1.0064020098e+02   3.6842971182e+01    0.2585008    0.1248814  76.68  0.001257996    1.827    0.453
       209  -8.1023    211.6270    176.2041   6.0227218971e+01   4.7865069082e+00    0.1797086    0.1265921 -20.25 0.0004620353    1.587    0.370
       210  -9.1036    182.9539    175.5970   6.5667662400e+01   1.0631913571e+01    0.2751417    0.2030971 -46.61 0.0005946194    1.529    0.346
       211  -9.2204    159.0052    175.0356   7.0438301290e+01   1.5531479432e+01    0.3932348    0.2482333  77.17  0.001340551    2.675    0.626
       212  -9.2873    104.4661    174.6959   8.1923592022e+01   2.5615360161e+01    0.5012003    0.2412824  65.14  0.001772061    2.977    0.664
       213 -10.6926     75.8315    169.7745   8.7371100532e+01   3.1032958080e+01     1.124207    0.4094775 -75.48  0.003887495    4.265    0.766
       214  -9.6564     81.3321    155.2842   8.4165519441e+01   3.3353315810e+01    0.4870645    0.3651607 -67.63  0.001918443    1.253    0.202
       215  -8.2900    224.4714    174.0201   5.7415667237e+01   2.6012238841e+00    0.1913727    0.1307626 -33.55 0.0005292714    1.548    0.354
       216  -7.5820    241.3198    173.7005   5.4353120369e+01  -5.5446605390e-01    0.1182204    0.1083182 -86.03  0.000302363    1.621    0.383
       217  -9.5612    175.8309    171.6966   6.6357138636e+01   1.2755900595e+01    0.3952423    0.2566952 -45.39  0.001153522    1.706    0.414
       218  -8.3102    143.0435    172.5353   7.3340032015e+01   1.9121284015e+01    0.2552234    0.1901165 -78.48 0.0006942397    1.625    0.385
       219  -8.6428    134.9365    171.5572   7.4898034730e+01   2.0854263815e+01     0.253616    0.1887669 -82.79 0.0009814992    1.588    0.370
       220  -9.5361    121.4051    170.3658   7.7611129348e+01   2.3580496648e+01    0.3601108    0.2373273 -87.29 0.0009496979    1.973    0.493
       221  -9.1816     45.1757    170.8057   9.3904673703e+01   3.4717827704e+01    0.3379796    0.1721567  78.34  0.001215217    2.103    0.524
       222  -8.4072    205.9568    170.2845   6.0120602227e+01   6.8521801547e+00    0.2331027    0.1958431 -70.25 0.0006283413    1.629    0.386
       223  -8.7810    230.1467    169.1562   5.5400414283e+01   2.2176748664e+00    0.3956151    0.1581821 -45.84  0.001455482    3.461    0.711
       224  -8.5064    198.7335    169.8724   6.1432704215e+01   8.3881996547e+00    0.2442712    0.1942211 -61.60 0.0009915292    1.642    0.391
       225  -8.5826    149.9454    169.4993   7.1332414579e+01   1.8364087982e+01    0.2551499    0.1944892 -79.11 0.0008779436    1.612    0.380
       226  -8.2755    244.6459    169.3074   5.2882670900e+01  -5.6245238836e-01    0.1841892    0.1634264 -78.94  0.000844759    1.733    0.423
       227  -8.2876    237.3057    169.0923   5.4114979976e+01   8.5024235713e-01    0.1873087     0.162731 -15.49 0.0008973747    1.152    0.132
       228  -9.3019    167.0415    168.3109   6.7515274794e+01   1.5158467186e+01    0.3560793    0.2577489  79.03 0.0009652349    1.913    0.477
       229  -8.4739    218.8592    168.1050   5.7244652688e+01   4.5993384146e+00    0.1944087    0.1894642 -89.44 0.0005080182    1.287    0.223
       230  -8.0052    211.5368    167.7866   5.8550842954e+01   6.1214099013e+00    0.1849463    0.1327227 -48.05 0.0006501615    1.666    0.400
       231  -9.7306    158.5521    166.3003   6.8911527374e+01   1.7257599546e+01    0.4666162    0.2821172 -31.79 0.0009380049    2.205    0.546
       232  -8.6702    111.8619    167.4836   7.9222065341e+01   2.5853334128e+01    0.3259487    0.1988972  80.99  0.001113138    2.292    0.564
       233  -8.0271     88.6947    168.3656   8.4410949380e+01   2.9442032486e+01    0.2096378    0.1322625  73.34  0.001080731    1.723    0.420
       234  -8.9439    192.0156    166.6295   6.2100994892e+01   1.0314051212e+01    0.2476997    0.2330442 -67.81 0.0006427978    1.244    0.196
       235  -8.7036    185.0264    166.4801   6.3469837360e+01   1.1787063921e+01    0.2544256    0.1973016 -61.01 0.0006445965    1.603    0.376
       236  -9.7916    137.1809    164.4746   7.3166943661e+01   2.1838126076e+01    0.6586239    0.3020707  60.41  0.002323939    3.177    0.685
       237 -10.0227     95.1604    162.6793   8.2160577998e+01   2.9640579743e+01    0.7962706    0.3871596  74.93  0.002539715    4.830    0.793
       238  -9.2567     20.5398    165.8264   9.8420410109e+01   3.8292573868e+01     0.285111     0.131628  63.37  0.001400058    2.084    0.520
       239  -8.3970    234.0538    164.6619   5.3771590749e+01   2.1196979765e+00    0.2223088    0.1779528 -37.17 0.0006964242    1.378    0.274
       240  -9.6091     33.4387    163.0598   9.5563960884e+01   3.7610865306e+01    0.4907617    0.1781238  59.00  0.002191493    3.127    0.680
       241  -7.9103    240.1460    164.1065   5.2583760270e+01   1.0239111091e+00    0.1695587    0.1600572 -36.43 0.0003847654    1.294    0.227
       242  -8.5713    212.8652    163.3122   5.7373938725e+01   6.5642609761e+00    0.2220462    0.1893541 -44.30 0.0003221135    1.340    0.254
       243  -8.3455     56.6172    163.6242   9.0737720992e+01   3.4878901416e+01     0.260794    0.1652435  15.32  0.001303899    3.039    0.671
       244  -8.4840    246.1552    162.8821   5.1290513708e+01   5.6007117969e-02     0.189839    0.1739814 -14.38 0.0004687582    1.171    0.146
       245  -8.3934    204.7216    162.3315   5.8726039741e+01   8.4023529332e+00      0.23954      0.16899 -47.93 0.0006582834    1.647    0.393
       246  -9.7203      3.7657    162.2086   1.0144147347e+02   4.0470884201e+01    0.3842478    0.1723229  50.79  0.001955407    2.070    0.517
       247  -8.8839    151.6857    160.8932   6.9344204443e+01   1.9688218578e+01    0.3379613    0.2357295  79.22  0.001104576    1.975    0.494
       248  -9.1126    177.5009    160.3814   6.3772723288e+01   1.4448088865e+01    0.2936772    0.2482231 -74.36 0.0007537894    1.444    0.307
       249  -8.6932    227.3299    158.8930   5.3760571972e+01   4.3186889670e+00    0.2906881    0.2061213 -54.70 0.0009300546    1.934    0.483
       250  -8.5526     60.9522    160.0575   8.9371184054e+01   3.5102259275e+01    0.2664797    0.1588193  74.15  0.001249376    1.764    0.433
       251  -8.2791    245.4544    158.5120   5.0487437753e+01   8.1199408006e-01    0.2353535    0.1612065 -37.61 0.0006549503    1.547    0.354
       252  -9.4013    241.8226    154.1487   5.0176098735e+01   2.1507446872e+00    0.4337058    0.3001001  86.68  0.001771502    3.481    0.713
       253  -9.6956    250.1994    157.6196   4.9493616837e+01   3.6853150400e-02    0.3391417    0.2067796 -36.77 0.0008269712    1.686    0.407
       254  -8.1270    246.7255    155.3360   4.9592445350e+01   1.0253812173e+00    0.1847717    0.1202786 -20.65 0.0005418456    1.534    0.348
       255  -7.5446    242.2563    159.6757   5.1284170062e+01   1.2584972332e+00     0.122749    0.1065554 -56.94 0.0002527789    1.549    0.354
       256  -8.1713    237.0316    158.5126   5.1947283756e+01   2.4458496947e+00    0.2103724     0.173697 -18.27 0.0005999249    1.176    0.150
       257  -9.4897    167.7809    157.4086   6.5201013253e+01   1.7042747510e+01     0.383942    0.2793745  88.43  0.001361813    2.023    0.506
       258  -8.5528    128.2801    158.7884   7.4101361668e+01   2.4691819635e+01     0.266867    0.2012046  86.90 0.0008758541    1.536    0.349
       259  -9.4947    105.7824    157.7745   7.8994251696e+01   2.8941075813e+01    0.4300505    0.2628338  77.19  0.001341182    2.209    0.547
       260  -8.6358    196.6024    157.4521   5.9289302420e+01   1.0929933621e+01     0.263605    0.2114398 -68.94 0.0008812924    1.664    0.399
       261  -8.5331    188.1142    157.6364   6.1030058880e+01   1.2698940465e+01    0.2390587    0.1989315 -52.51 0.0006498655    1.359    0.264
       262  -8.5412    218.0132    156.4072   5.4942133813e+01   6.6107761261e+00    0.2590885     0.187714 -48.59 0.0007213817    1.641    0.391
       263  -8.8903    157.6715    155.8432   6.7050568207e+01   1.9452402127e+01    0.2681973    0.2282197 -71.40 0.0009424796    1.313    0.238
       264  -9.2498    119.4745    154.6981   7.5347019257e+01   2.7182200994e+01    0.4011023    0.2519054 -81.97   0.00111051    2.211    0.548
       265  -9.1739     49.8601    155.1498   9.1218305176e+01   3.7509402939e+01    0.3735963    0.1729885  63.50  0.001746985    2.544    0.607
       266  -9.0255     23.3400    155.6720   9.6979943380e+01   4.0151179855e+01    0.2139217    0.1379796 -46.41   0.00084521    2.099    0.524
       267  -8.0041    204.7274    155.1802   5.7208513522e+01   9.5957578523e+00    0.2156445    0.1793808 -59.77 0.0006385584    1.489    0.329
       268  -8.4468    144.6167    154.6346   6.9673334114e+01   2.2359102481e+01    0.2758219    0.1936862  81.67 0.0008183226    1.939    0.484
       269  -9.5538    132.8862    152.7877   7.1943611561e+01   2.5056201680e+01    0.4414972    0.2994047  77.84  0.001260308    1.961    0.490
       270  -9.1741    133.5946    148.1647   7.0879525816e+01   2.5882415800e+01    0.3750403    0.1995223 -42.73  0.001586019    2.113    0.527
       271  -9.6809     67.6454    152.3783   8.6871128810e+01   3.5903014891e+01    0.5957845    0.2624086 -81.51  0.002302761    3.302    0.697
       272  -8.2258    151.8001    152.7994   6.7718059076e+01   2.1266101289e+01    0.2006308    0.1682879  84.77 0.0005636619    1.341    0.255
       273  -9.0222     20.4450    152.6297   9.7313388003e+01   4.1056197969e+01    0.2093042    0.1259565  82.24 0.0007526053    1.437    0.304
       274  -8.8768      8.4972    153.0093   9.9828257250e+01   4.1984200069e+01    0.2649074    0.1152391  20.91  0.001365671    3.799    0.737
       275  -9.9049     29.4268    150.5774   9.5194418134e+01   4.0661003733e+01    0.4295866     0.182451  71.14  0.001914046    3.096    0.677
       276  -9.2026      2.9298    150.5055   1.0077498251e+02   4.2932832709e+01    0.3326349    0.1374065 -79.40  0.001885294    1.857    0.461
       277  -8.8533    189.3055    149.8686   5.9123904261e+01   1.3832047781e+01    0.3087827    0.2194247 -62.20 0.0008810015    1.867    0.464
       278  -7.9166    182.3900    151.1077   6.0812875064e+01   1.5104368611e+01    0.2000387    0.1377912 -54.59 0.0007210957    1.709    0.415
       279  -8.7579     98.1550    150.6271   7.9549792481e+01   3.1758806794e+01    0.2814807    0.1919149  87.00  0.001133001    1.705    0.413
       280  -9.4100    248.8302    149.1326   4.7894734651e+01   1.5177268399e+00    0.3016522    0.1963449 -28.92 0.0007618195    1.475    0.322
       281  -9.6873    243.2375    149.6227   4.8949156420e+01   2.5417912894e+00    0.3848524    0.2632578  53.46  0.001980221    1.656    0.396
       282  -9.9182    243.6940    139.6925   4.6668059007e+01   3.9400071169e+00    0.6188792    0.3327632 -54.45  0.002377779    3.175    0.685
       283  -9.3502    240.1843    145.1635   4.8490661690e+01   3.8210341903e+00     0.309795    0.1809733 -36.93  0.001019181    1.712    0.416
       284  -8.9512    242.6891    142.7114   4.7515239213e+01   3.6865370515e+00    0.2716623    0.1921651   4.66 0.0009337636    1.612    0.380
       285  -8.2662    212.9605    149.6646   5.4423805902e+01   8.7700896267e+00    0.2015603    0.1724243  41.86 0.0003824878    1.137    0.120
       286  -8.2628    162.6730    150.1922   6.4800526546e+01   1.9507426762e+01     0.224101    0.1837091 -71.90 0.0006112345    1.427    0.299
       287  -8.4974    198.6712    148.5883   5.6959893675e+01   1.2026311230e+01    0.2546256    0.1816189 -41.95 0.0005653251    1.488    0.328
       288 -10.4027    148.9985    145.0127   6.6732194573e+01   2.3416470777e+01    0.6166993    0.4035981 -87.34  0.001738706    2.621    0.618
       289  -9.8930    139.7092    145.4528   6.8932171382e+01   2.5230683563e+01    0.6823121    0.4176182 -89.12  0.002071797    3.305    0.697
       290  -9.3330    139.5203    137.6682   6.7336161064e+01   2.6894993243e+01    0.3769202    0.2553039 -10.99   0.00148127    2.813    0.644
       291 -10.0252     89.3859    146.1972   8.0866853878e+01   3.4132804091e+01    0.6365417    0.3392582 -89.25  0.002401679    3.318    0.699
       292  -9.8258     39.8610    147.6756   9.2576936624e+01   4.0237841596e+01    0.4436154    0.2159497  71.62  0.001898339    2.504    0.601
       293  -9.2873    233.5885    147.5610   5.0174566746e+01   4.7950628866e+00    0.2630441    0.1615401 -34.21 0.0007077479    1.621    0.383
       294 -10.4705     54.9022    143.9394   8.8663973763e+01   3.9371659542e+01    0.8765084    0.4222308 -89.66  0.003521221    2.864    0.651
       295  -8.9638     57.6674    134.7064   8.6697142584e+01   4.1095703194e+01    0.2333824    0.1645214  13.16  0.001145156    2.222    0.550
       296 -10.1229    106.9041    144.5151   7.6413400334e+01   3.1618228858e+01      0.70664    0.3787666  71.25  0.002484263    3.335    0.700
       297  -8.0609    105.7769    138.3969   7.5534791681e+01   3.3158525028e+01    0.2182317    0.1764719 -19.14 0.0007897924    1.754    0.430
       298  -8.9040     78.0113    146.5998   8.3619769636e+01   3.5744619867e+01    0.2555995    0.1654749 -85.26 0.0007935124    1.645    0.392
       299  -9.7254     13.6091    146.2184   9.8194906028e+01   4.2995786832e+01    0.3016558    0.1558095  67.67   0.00121561    1.909    0.476
       300  -8.2032    223.1426    146.3876   5.1795643292e+01   7.1493421965e+00    0.1933747    0.1773243  37.62 0.0006384326    1.113    0.102
       301  -7.9629    206.8487    146.1141   5.4806514227e+01   1.0680178877e+01    0.2058456    0.1982136 -76.85 0.0006172959    1.207    0.172
       302  -8.2855    175.8319    146.0656   6.1089554168e+01   1.7468095371e+01    0.2288771    0.1971577 -86.86 0.0007581427    1.389    0.280
       303  -8.8132    165.7836    144.0348   6.2802338443e+01   2.0043247749e+01     0.324273    0.2417582  78.67  0.001025121    1.765    0.433
       304  -9.8257    125.0676    142.5497   7.1738573667e+01   2.8725581669e+01     0.517468    0.3317153 -84.29  0.001318878    2.350    0.575
       305  -8.7081    247.0180    143.8257   4.7031222058e+01   2.6536089486e+00    0.2516625    0.1842418 -19.08  0.000449151    1.320    0.242
       306  -8.1662    250.1574    140.7996   4.5835743859e+01   2.4798124877e+00    0.1970512    0.1865932 -34.86 0.0008666636    1.219    0.180
       307  -9.6789      2.7801    141.5247   1.0011289723e+02   4.4813464970e+01     0.364953    0.1671932  77.53   0.00176563    2.154    0.536
       308  -8.5349    182.0852    141.5217   5.8761050857e+01   1.6947733206e+01     0.274914    0.2077712 -59.67 0.0007625324    1.578    0.366
       309 -10.4167     69.4961    140.6783   8.4731782036e+01   3.8246307136e+01    0.5280021    0.3002624  87.08  0.002443613    2.288    0.563
       310  -9.7961     69.4588    133.8418   8.3658367746e+01   3.9784101203e+01     0.371908    0.2851853   2.46  0.001818307    2.084    0.520
       311  -7.8332    238.6622    140.3216   4.7669454857e+01   4.8714874036e+00    0.1365266    0.1130576 -71.19 0.0007050422    1.714    0.416
       312  -9.9846     23.6120    138.1600   9.5205445271e+01   4.3874968449e+01     0.432624    0.2001796  71.43  0.001708104    2.618    0.618
       313  -7.9007    218.5459    138.4691   5.0851104759e+01   9.4279224009e+00    0.1428674    0.1381391   8.41 0.0002777949    1.067    0.063
       314  -8.3766    207.4928    137.6508   5.2756740495e+01   1.1993310765e+01    0.2510709    0.2026995 -56.24 0.0006712948    1.465    0.317
       315  -8.6428    197.6240    137.3800   5.4633253494e+01   1.4239846148e+01      0.27566    0.2119021 -64.19 0.0007761882    1.672    0.402
       316  -8.5470    172.3113    138.0325   6.0046610227e+01   1.9779535096e+01    0.2626112    0.2088532  81.83 0.0007806982    1.583    0.368
       317  -9.2397    150.6173    136.2310   6.4460289286e+01   2.4871134587e+01    0.5524293    0.3002417  25.17  0.001844843    3.428    0.708
       318 -10.3170     83.3923    133.0643   8.0059044471e+01   3.7978987904e+01    0.5268316    0.3127724 -68.05  0.001461861    1.656    0.396
       319  -8.5496    162.8250    136.2025   6.1705498152e+01   2.2233050517e+01    0.2333762    0.2013949  84.84 0.0007430273    1.317    0.241
       320  -9.4402     39.1646    135.9341   9.1328245572e+01   4.2886477115e+01    0.2413748    0.1610756  70.88 0.0007269679    1.501    0.334
       321  -8.3722    247.0056    130.0123   4.3914328236e+01   4.7339061681e+00    0.2516822    0.1907254 -42.33 0.0006156059    1.394    0.283
       322  -8.8866    248.4945    134.7782   4.4756619601e+01   3.7095323971e+00    0.2578596    0.2045658 -38.70 0.0007488238    1.308    0.236
       323  -8.6784    250.7982    129.8782   4.3264880522e+01   3.9791239460e+00    0.4164232    0.1211141 -29.48  0.001306814    3.757    0.734
       324  -7.9579    187.9672    135.2304   5.6094546621e+01   1.6802031349e+01     0.211133    0.1618734 -61.18 0.0004293066    1.582    0.368
       325  -8.5787    179.4730    133.8138   5.7540707741e+01   1.8985491355e+01    0.2773236    0.2337266 -85.82 0.0008201042    1.458    0.314
       326  -8.8693    112.8493    133.0118   7.2739991101e+01   3.3084836968e+01    0.3537733    0.2457868  81.45  0.001000669    1.871    0.466
       327  -7.8587    237.5401    133.5135   4.6311677130e+01   6.1619730678e+00    0.1402316     0.132406 -11.23 0.0001730558    1.073    0.068
       328  -7.6766    231.4447    133.5706   4.7385704236e+01   7.4446215072e+00    0.1434827    0.1315385   5.64 5.353604e-05    1.020    0.020
       329 -10.9424    132.6558    129.4314   6.7152088538e+01   3.0041163329e+01    0.9660335    0.5136948 -47.25  0.003341507    1.903    0.474
       330  -9.3077    143.2090    131.4662   6.5104356827e+01   2.7428481236e+01    0.3046506    0.2417111 -82.72 0.0007255751    1.510    0.338
       331 -10.1193     97.8645    129.9367   7.5844054653e+01   3.6387584412e+01    0.6007374    0.3370877 -58.10   0.00182002    1.710    0.415
       332  -8.6098     98.3006    121.4313   7.3997862126e+01   3.8218126931e+01    0.4589597    0.2559152 -28.60  0.001646489    3.563    0.719
       333 -10.3987     60.6010    125.5144   8.4524674924e+01   4.2804889055e+01    0.8151001    0.4202722  81.38  0.003166253    3.488    0.713
       334 -10.2077     12.9371    127.9507   9.6605734444e+01   4.6957088613e+01    0.6755028    0.2543716 -83.74  0.003136328    2.628    0.619
       335  -7.9730    204.5608    130.0619   5.1545200290e+01   1.3974813013e+01     0.224355    0.1452553 -38.29 0.0004728717    1.567    0.362
       336  -8.1737    192.7091    129.9180   5.3869743554e+01   1.6702089179e+01    0.2082906    0.1948096 -41.75 0.0004423176    1.115    0.103
       337  -9.2185    168.4253    129.3152   5.8868416416e+01   2.2350152834e+01    0.3012502    0.2464036  85.65 0.0004548888    1.497    0.332
       338  -9.8370    153.0311    128.9470   6.2245565894e+01   2.5843752699e+01    0.4902761     0.260217 -53.68  0.001338554    2.129    0.530
       339  -9.7911     73.3582    128.9031   8.1848708921e+01   4.0365593969e+01    0.4708795     0.268851 -80.97  0.001779802    2.122    0.529
       340  -8.4768      1.9956    130.0289   9.9318585120e+01   4.7291203858e+01    0.1781166     0.100989  72.30   0.00112357    1.689    0.408
       341  -7.6992    220.5130    129.5360   4.8405892586e+01   1.0483789054e+01    0.1460209    0.1388287   6.59 8.596565e-05    1.016    0.016
       342  -8.0855    211.5129    128.9906   4.9953916823e+01   1.2588670950e+01    0.2204749    0.1437589 -38.66 0.0008210689    1.549    0.354
       343 -10.7793     44.8634    123.1024   8.8168154922e+01   4.5153264628e+01      1.05742    0.4993116  80.38  0.003959239    4.041    0.753
       344  -9.7703    117.8043    124.7399   6.9749554338e+01   3.3978741942e+01    0.5383499    0.3664011 -78.33  0.001284476    1.920    0.479
       345  -8.8924    179.2661    124.4891   5.5357887812e+01   2.0811013549e+01    0.2976216    0.2508429 -77.50 0.0007758409    1.430    0.301
       346 -10.1695     28.6357    122.1901   9.2138515919e+01   4.6931870265e+01    0.6599135    0.2996973  75.64  0.002768037    3.494    0.714
       347  -7.7658    188.5174    123.9844   5.3294513990e+01   1.8762709419e+01    0.2056028      0.13056 -62.62  0.000483973    2.274    0.560
       348  -8.5671     84.2901    122.8389   7.7920695778e+01   4.0148755619e+01     0.239196    0.1825097  -4.55  0.001213744    2.065    0.516
       349  -8.0726    195.0327    121.9851   5.1476367809e+01   1.7614656941e+01    0.2352386    0.1864462 -73.87 0.0004971833    1.644    0.392
       350  -8.7949    171.9160    121.3065   5.6163974296e+01   2.3123810308e+01    0.2519192    0.2102871 -56.63 0.0004453265    1.292    0.226
       351  -8.8760    167.6831    121.0130   5.7024253724e+01   2.4156191304e+01     0.333707    0.2397091 -64.32  0.001481322    1.731    0.422
       352  -9.8444    158.6568    120.8626   5.9020057749e+01   2.6241023147e+01    0.5210871    0.3249884 -40.01  0.001441368    1.659    0.397
       353  -7.6037    203.2555    121.6749   4.9772100994e+01   1.5757595007e+01    0.1472893    0.1185706 -67.33 0.0002333849    1.549    0.355
       354 -10.0121    141.5567    117.9972   6.2331698656e+01   3.0605568358e+01    0.5563222    0.3010832 -56.75  0.001180039    2.172    0.540
       355  -9.5816     70.9781    119.3142   8.0737579212e+01   4.2861719392e+01    0.3337015    0.2235564  87.50 0.0009999342    1.795    0.443
       356  -9.4654    130.5641    118.0746   6.5036341457e+01   3.2901277101e+01    0.4003505    0.2688071 -71.58  0.001144113    1.962    0.490
       357  -9.8585      2.9227    116.6773   9.7840543391e+01   5.0077993927e+01    0.5603883     0.226226  86.80  0.002642296    2.841    0.648
       358  -7.6332    231.5030    117.4995   4.3574135362e+01   1.0022517553e+01    0.1445164    0.1384854 -25.13 0.0002823673    1.067    0.063
       359  -8.2097    185.9235    115.9083   5.1823304977e+01   2.0877541179e+01    0.2381352     0.187588 -74.98 0.0004977873    1.637    0.389
       360  -9.9574    109.3076    113.9318   6.9469046139e+01   3.7946178791e+01    0.5387727    0.3182679 -71.83  0.001463794    2.411    0.585
       361  -8.7817     58.8127    115.4125   8.3264261645e+01   4.5307265457e+01    0.2405277    0.1468283 -36.35  0.001194559    2.157    0.536
       362  -8.7323    250.0743    114.6692   3.9845859246e+01   6.4363947252e+00    0.1963445    0.1769581  34.14  0.001132598    1.151    0.131
       363  -8.2314    193.0392    115.0439   5.0146525171e+01   1.9351641657e+01    0.2332663    0.1874021 -74.72 0.0004858753    1.580    0.367
       364  -7.7561    153.3043    115.6363   5.8958939593e+01   2.8508052375e+01    0.1602358    0.1220208 -82.00 0.0001164646    1.735    0.424
       365 -10.0613     92.7014    112.3328   7.3509506306e+01   4.1187622932e+01    0.5017164    0.2971191 -69.99  0.001265009    2.017    0.504
       366  -7.9494    167.3893    114.2057   5.5382029740e+01   2.5566233503e+01    0.2154357    0.1449739 -51.04 0.0004264326    1.595    0.373
       367  -9.9055     78.9336    112.2049   7.7205975986e+01   4.3348684588e+01    0.5026026    0.3208812 -89.65  0.001819354    2.200    0.545
       368  -8.6462     79.2634    104.7064   7.5508851879e+01   4.4986956503e+01    0.3314146    0.2267657  -0.37   0.00152166    2.537    0.606
       369  -8.9742     26.7339    113.6747   9.1489411406e+01   4.8980886598e+01    0.1978763    0.1442372 -20.27  0.001237119    2.014    0.503
       370  -9.9722    121.8089    112.0328   6.5781131480e+01   3.5971517106e+01    0.3986808    0.2933328 -66.14 0.0007786006    1.507    0.336
       371  -8.6774    174.8642    111.5934   5.3068713364e+01   2.4317373867e+01     0.295369    0.2211334 -49.58 0.0006556046    1.405    0.288
       372  -9.1026    159.1488    111.4129   5.6530644573e+01   2.8031592854e+01    0.2916532    0.2209163 -51.47 0.0006244536    1.379    0.275
       373  -9.9854    133.6372    108.9446   6.2017066811e+01   3.4204165852e+01      0.65381    0.3039016 -47.62  0.001994145    2.153    0.535
       374  -9.8453     66.4988    110.3877   8.0239136171e+01   4.5477797769e+01    0.3555658    0.2370573  89.10  0.001505984    1.858    0.462
       375 -10.0552     14.3603    111.1571   9.4364160404e+01   5.0501359593e+01    0.3538593    0.1920744  72.49  0.001707981    2.148    0.534
       376 -10.6717    248.4840    104.0126   3.7551848613e+01   8.4117492485e+00    0.5152496    0.3374189 -24.83  0.002504002    1.501    0.334
       377  -8.1853    189.2830    107.6993   4.9024707468e+01   2.1598673959e+01     0.282649    0.1787918 -47.65  0.000705504    1.683    0.406
       378  -9.5962    118.9812    105.6889   6.4936744692e+01   3.7901743670e+01     0.335577    0.2492672 -57.74  0.001179112    1.370    0.270
       379 -10.4500    109.0853     98.7198   6.5791043147e+01   4.1311788265e+01    0.8453401     0.481015  69.30  0.001524387    3.444    0.710
       380  -8.8921    107.6231     92.3604   6.4509236265e+01   4.2948898065e+01    0.5498039     0.288742  29.03  0.002106222    2.695    0.629
       381  -9.6776    139.9114    104.0464   5.9187824265e+01   3.3874453475e+01     0.494503    0.2966194 -53.32 0.0009820851    1.801    0.445
       382 -10.6950     22.9422    102.4307   9.0901144920e+01   5.1772804299e+01    0.6632913    0.3390632  78.51  0.002484434    2.795    0.642
       383  -9.6597    150.6949    103.0570   5.6312198841e+01   3.1656038150e+01    0.5042689    0.3106723 -65.29  0.001667688    2.379    0.580
       384 -10.5229     45.4950    101.8868   8.4497516283e+01   4.9848902857e+01     0.736425    0.4058465  81.44  0.003236355    2.989    0.665
       385  -9.1842     45.9734     92.4807   8.2553401766e+01   5.1893595411e+01    0.3618993    0.2256722  -1.13  0.001815294    2.690    0.628
       386  -8.5253    166.7540    103.9449   5.2846063702e+01   2.7724762852e+01    0.2851878    0.2093616 -58.32 0.0007387994    1.557    0.358
       387 -10.2121    128.6214    101.1515   6.1262360906e+01   3.6904549301e+01     0.545027    0.3319274 -36.84  0.001790089    1.750    0.428
       388  -9.6002      6.5634    102.3796   9.5322101028e+01   5.2928569105e+01    0.2705466    0.1438847  89.55  0.001060681    1.854    0.461
       389  -7.9705    175.6146    101.8500   5.0341390642e+01   2.5998477166e+01    0.2196534    0.1435838 -49.13 0.0007455605    1.632    0.387
       390  -8.2934    159.6881    100.8992   5.3628038890e+01   2.9994956230e+01    0.2214909    0.1939352 -46.93  0.000546929    1.157    0.136
       391  -9.2163     82.2123    100.0911   7.3627440401e+01   4.5576425948e+01    0.3305925    0.2239567 -76.41  0.001004295    1.792    0.442
       392 -10.0966     63.9483     95.7543   7.7922478719e+01   4.9090873918e+01     0.582841    0.3349672 -81.89  0.002044264    2.672    0.626
       393  -9.2285     95.0353     96.9531   6.9231876736e+01   4.4207720075e+01    0.3082916    0.2130592 -63.06 0.0006058207    1.519    0.342
       394  -8.3480    164.8895     93.8728   5.0514205214e+01   3.0114056289e+01    0.2828798    0.2084611 -47.05 0.0005144542    1.396    0.283
       395  -7.7692    188.7005     93.3733   4.5321063505e+01   2.4348746482e+01    0.1646289    0.1212886 -68.76 0.0007028881    1.748    0.428
       396  -8.3316    176.6515     93.0873   4.7728682289e+01   2.7385692411e+01    0.2555329    0.1898551 -57.23 0.0009253152    1.527    0.345
       397  -9.3461    139.0008     91.7929   5.6065275933e+01   3.6578161354e+01    0.4485011     0.266399 -53.77 0.0009771758    1.896    0.473
       398  -8.6681    127.9938     83.6641   5.6539653184e+01   4.0628570808e+01    0.5212325    0.2521122  26.81   0.00146722    4.652    0.785
       399  -9.8564    124.5700     90.5645   5.9425054098e+01   3.9957608501e+01    0.4208998    0.3263051 -66.54 0.0009309117    1.504    0.335
       400  -9.2114    120.2328     92.5924   6.1141427125e+01   4.0432326735e+01    0.2639997    0.2218253  64.84  0.001356249    1.317    0.241
       401  -9.5193      5.3463     91.8075   9.4293623061e+01   5.5279257212e+01    0.2836326    0.1729065  75.95  0.001292157    1.860    0.462
       402  -8.1596     43.2867    109.1648   8.6385460897e+01   4.8445432474e+01    0.2330467    0.1011087  20.79 0.0009911848    3.658    0.727
       403  -8.0905    157.8496     91.7614   5.1523764142e+01   3.2212116425e+01    0.2154575    0.1849636 -75.42 0.0005357866    1.339    0.253
       404  -9.7167     34.9272     89.6401   8.5304254907e+01   5.3588431895e+01    0.4315977    0.2239342 -83.21  0.001410476    2.588    0.614
       405  -9.2295     22.9009     89.8734   8.8929979123e+01   5.4530820444e+01    0.2631724    0.2456961 -45.52  0.001289483    1.239    0.193
       406  -7.8370    151.1310     89.1362   5.2351297369e+01   3.4314024890e+01    0.2154375    0.1835722 -71.12 0.0005299701    1.341    0.254
       407 -10.0730     86.4469     86.0031   6.8874913668e+01   4.7997321048e+01     0.565868    0.3606641 -67.05  0.001817709    1.918    0.479
       408  -8.8791     65.7773     87.1385   7.5388548437e+01   5.0756101721e+01    0.4873331    0.2579194  11.80  0.001832423    4.064    0.754
       409  -7.6246    164.3577     87.1453   4.8730989746e+01   3.1514781839e+01    0.2272464     0.139875 -48.32 0.0006141619    1.731    0.422
       410  -9.7526     48.6199     83.6897   7.9877158580e+01   5.3547589632e+01    0.5501939     0.345795 -78.89  0.002489526    1.939    0.484
       411  -7.9365    179.3745     85.2686   4.4965366040e+01   2.8132644537e+01    0.2277568    0.1407932 -46.34 0.0005282757    1.692    0.409
       412  -9.6920    104.8641     83.0433   6.2689766969e+01   4.5422863629e+01    0.4217386    0.2943716 -71.23 0.0008632442    1.961    0.490
       413  -8.4753    157.9907     83.8161   4.9209409446e+01   3.3689104579e+01    0.2729901    0.2220095 -41.05 0.0005117999    1.237    0.191
       414  -9.1627    140.9134     82.4616   5.2887989573e+01   3.7985111313e+01    0.3380192    0.2059846 -53.79 0.0006977028    1.895    0.472
       415  -7.9160     64.2861     82.6362   7.4742881976e+01   5.1928704656e+01    0.1312778    0.0992626 -87.29 0.0007021519    1.691    0.409
       416  -9.7947     24.6526     80.3336   8.6687468779e+01   5.6469059871e+01    0.4168368     0.226136 -82.77   0.00172907    2.227    0.551
       417  -9.4130      9.6664     80.6026   9.1369986720e+01   5.7427942304e+01    0.2881652       0.1701  67.11  0.001507781    2.266    0.559
       418  -8.5732    150.3514     80.0540   4.9881249347e+01   3.6232756134e+01    0.3268399     0.184451 -45.31 0.0008960846    1.827    0.453
       419  -8.7460    119.4895     80.1835   5.7778316014e+01   4.3121682342e+01    0.3375037    0.2269372 -64.16 0.0008395085    1.959    0.489
       420  -8.8593     74.7324     80.1681   7.0861910205e+01   5.1030282666e+01    0.2999715    0.1946814 -69.69  0.001013223    1.926    0.481
       421  -8.3424    166.9003     79.4818   4.5944716104e+01   3.2295115781e+01    0.2323953     0.206422 -33.30  0.000416761    1.139    0.122
       422  -9.0279    105.2555     76.8826   6.0771020608e+01   4.6609139868e+01    0.2784409    0.1893207  13.23 0.0009171491    2.143    0.533
       423  -7.7949    189.3694     76.1897   4.0386544618e+01   2.7181598554e+01    0.2273512    0.1375028 -44.66 0.0007277144    1.699    0.412
       424  -7.8577    157.3842     76.2432   4.7103545052e+01   3.5233960474e+01    0.2148556    0.1431041 -46.59 0.0003762791    1.568    0.362
       425  -9.3777    128.0762     74.7359   5.3828813114e+01   4.2356311589e+01    0.4828241    0.2600217 -46.12  0.001854414    1.898    0.473
       426  -8.3455    140.6545     75.1564   5.0749478149e+01   3.9434445410e+01    0.2399392    0.1858395 -53.87 0.0005982566    1.405    0.288
       427  -9.7359     82.5329     72.5002   6.6279289153e+01   5.1454517024e+01    0.4114722    0.2632714 -66.93  0.000996403    2.118    0.528
       428  -9.9042     63.1127     73.1511   7.2647692596e+01   5.4103409288e+01    0.4567138    0.2259604 -59.49  0.001173023    2.080    0.519
       429  -8.0761    163.4934     73.0824   4.4784892224e+01   3.4286677743e+01     0.234669    0.1525778 -38.04  0.001011158    1.544    0.353
       430  -8.6411    115.5955     72.7612   5.6587466844e+01   4.5385722953e+01    0.2567221    0.1761469 -48.07 0.0006060782    1.476    0.323
       431  -8.3146     42.8356     72.7113   7.9180533962e+01   5.6510102084e+01    0.2252834    0.1500738 -83.57 0.0008678184    2.011    0.503
       432  -7.5089    175.5282     72.4492   4.2042974167e+01   3.1355904197e+01     0.154249    0.1518885  53.96 0.0008077901    1.005    0.005
       433  -9.1493    105.9709     71.5451   5.8935483984e+01   4.7535422977e+01    0.2738648    0.1956337 -57.27 0.0007048975    1.584    0.369
       434  -9.2468     95.1890     70.9613   6.1935719131e+01   4.9644202559e+01    0.3802101    0.2323728 -59.94  0.001152747    2.055    0.513
       435  -9.3119     51.5908     69.5229   7.5466299308e+01   5.6254539037e+01    0.4106139    0.2268781 -73.40  0.001529959    2.771    0.639
       436  -8.5406     29.2176     70.2014   8.3123150281e+01   5.8275716368e+01    0.2029659   0.09015371 -35.56 0.0007093649    2.691    0.628
       437  -9.0222     16.4784     69.6976   8.7252833051e+01   5.9318915558e+01    0.2284765    0.1634244 -84.71 0.0008727624    1.507    0.336
       438  -7.6213    157.3190     69.6934   4.5124673906e+01   3.6418632385e+01    0.1575301    0.1228814 -75.21 0.0005075146    1.635    0.388
       439  -8.8543    147.0408     67.7931   4.6910785243e+01   3.9264379734e+01    0.3800081     0.206921 -41.74  0.001063199    1.858    0.462
       440  -8.6760    138.7995     66.1012   4.8372798185e+01   4.1521414346e+01    0.2944051    0.2014838 -49.83 0.0006327063    1.597    0.374
       441  -8.5847    121.6499     65.7807   5.2710669548e+01   4.5435692484e+01    0.2751924    0.2129715 -66.05 0.0006792725    1.647    0.393
       442  -8.8001     37.3185     63.9882   7.8884851661e+01   5.8872705365e+01    0.2916245    0.1891788 -83.55  0.001097985    2.250    0.555
       443  -8.9033    110.0296     63.4488   5.5180904399e+01   4.8286139836e+01    0.2618802     0.197329 -53.89 0.0006130164    1.478    0.323
       444  -8.6237     65.7145     62.4580   6.8719895052e+01   5.5956995189e+01    0.4312574    0.2438203  -1.90  0.001616563    3.983    0.749
       445  -8.5758     17.9268     63.1945   8.5415739537e+01   6.0584132269e+01    0.2986728    0.1204044 -34.88  0.001379426    2.998    0.666
       446  -7.9749    158.3734     61.7523   4.2415640415e+01   3.7514066411e+01    0.2029873    0.1485239 -21.82 0.0003742458    1.491    0.329
       447  -9.0776     97.6641     60.3098   5.7781912182e+01   5.1257044948e+01    0.2920387    0.2403482  53.27 0.0009750073    1.393    0.282
       448  -9.6367     73.4753     59.3474   6.5156576219e+01   5.5471681664e+01    0.3969684     0.235706 -57.14  0.001130267    1.931    0.482
       449  -8.1880    147.0244     58.9722   4.4095157533e+01   4.0787386072e+01    0.1873695    0.1737667 -25.75 0.0005008733    1.087    0.080
       450  -8.5728     89.0201     59.3166   6.0118855106e+01   5.2986378282e+01    0.1865831    0.1775425 -12.96 0.0005471395    1.068    0.063
       451  -8.6027    130.7272     57.3795   4.7550749691e+01   4.4912371858e+01    0.2618521    0.1741993 -45.52 0.0004037925    1.592    0.372
       452  -9.8488     23.3595     56.1127   8.1846094122e+01   6.1656597678e+01    0.3946563    0.2412973 -87.06  0.002066214    2.614    0.617
       453  -9.4587      7.5200     56.8459   8.7702101619e+01   6.2523610104e+01    0.3088131    0.1821203 -88.75  0.001090118    2.265    0.559
       454  -8.1986    140.0208     55.9859   4.4776580357e+01   4.2974094018e+01    0.2311345    0.1810872 -66.57 0.0004502842    1.609    0.379
       455  -8.9014    119.1519     55.5894   4.9998549421e+01   4.7794541995e+01       0.2931    0.2155522 -61.08  0.000767754    1.768    0.434
       456  -8.9285     44.2224     55.4368   7.4105364927e+01   5.9933962893e+01    0.2613836    0.1908813 -69.48 0.0009204712    1.634    0.388
       457  -9.2265     62.9717     54.3922   6.7131821119e+01   5.7911614196e+01    0.3445908    0.1907587 -56.44 0.0007067477    2.004    0.501
       458  -8.8389     54.1033     53.6179   7.0009316045e+01   5.9185370605e+01    0.3134353    0.1737793 -62.69   0.00128909    2.346    0.574
       459  -8.6199    105.8075     52.8967   5.2830409189e+01   5.1033271590e+01    0.2597345    0.1911198 -54.30 0.0008306286    1.614    0.380
       460  -9.4338     92.5227     50.3533   5.5949155842e+01   5.4006358305e+01    0.3847613    0.2258703 -49.24  0.000997779    1.890    0.471
       461  -8.3756    214.4603     59.9521   3.1476161651e+01   2.3333543228e+01    0.2218194    0.1945328  62.40 0.0003086047    1.143    0.125
       462  -8.3800    129.9648     48.9995   4.4889652292e+01   4.6473642135e+01    0.2259753    0.1808015 -68.79 0.0005454877    1.624    0.384
       463  -8.0322    150.0000     48.0091   3.9809532619e+01   4.1806688013e+01    0.2400727   0.08626843 -31.45 0.0004717965    2.853    0.649
       464  -8.4013    120.8474     46.9926   4.6549081581e+01   4.8855850668e+01    0.2570197    0.1895154 -35.68  0.001072526    1.356    0.263
       465  -8.3982    112.1768     46.7199   4.8819376214e+01   5.0770951025e+01    0.2385998    0.1861435 -44.05 0.0006198306    1.365    0.268
       466  -9.0330     82.1372     46.1780   5.7787436996e+01   5.6546822074e+01    0.2918123    0.1998776 -49.69 0.0006528474    1.606    0.377
       467  -8.4008     44.9868     44.4610   7.0405493346e+01   6.1981144687e+01    0.2174088    0.1552134 -57.42   0.00068777    1.500    0.333
       468  -9.3069     16.7513     44.3040   8.1260101701e+01   6.4478733955e+01    0.2265375    0.1582917 -72.97 0.0008426557    1.632    0.387
       469  -8.4789    132.8798     43.1069   4.2108549917e+01   4.6708430333e+01    0.2214893    0.1986473 -61.61 0.0005609173    1.290    0.225
       470  -8.8941     58.2843     42.3797   6.4729236620e+01   6.0773640916e+01    0.3005913    0.2032472 -60.80  0.001013359    1.984    0.496
       471  -9.5750      5.3366     41.5958   8.5025903133e+01   6.5686127227e+01    0.3015913     0.172552 -78.15  0.001487224    2.182    0.542
       472  -8.2376     92.8527     42.1933   5.2880735220e+01   5.5336772800e+01    0.1959849    0.1526639   1.29 0.0006012833    1.351    0.260
       473  -9.1896     69.7585     41.4733   6.0279196401e+01   5.9326611170e+01    0.2800228    0.2242804 -63.08  0.001036804    1.709    0.415
       474  -7.6889    140.2301     40.9978   3.9629440231e+01   4.5259454606e+01    0.1870456    0.1228062 -28.98 0.0003773004    1.559    0.359
       475  -8.3696    105.9050     40.8286   4.8449941043e+01   5.3013589726e+01    0.2536844    0.1723131 -55.47 0.0006789254    1.987    0.497
       476  -8.6154     36.9557     40.4555   7.2171443629e+01   6.3560238408e+01    0.2174929    0.1536649 -61.88  0.000969695    1.638    0.390
       477  -8.6059     95.6677     37.9249   5.0399238091e+01   5.5492882574e+01    0.1959705    0.1612007 -28.93 0.0005197087    1.173    0.147
       478  -8.3432     80.8189     36.7636   5.4704606137e+01   5.8354625751e+01    0.1688536    0.1534386 -45.84  0.000421416    1.311    0.237
       479  -7.5481    133.6689     36.2914   3.9500450136e+01   4.7513082219e+01    0.1435853    0.1154696 -73.26 0.0002471681    1.628    0.386
       480  -8.7312    125.9481     35.4785   4.1079843318e+01   4.9439826981e+01    0.2188721    0.1870203 -18.65 0.0004286026    1.172    0.147
       481  -9.3047     26.2020     35.1069   7.4715439497e+01   6.5524211828e+01    0.2783957    0.1740184 -61.30 0.0008345862    1.756    0.430
       482  -8.6646    111.8739     34.5402   4.4406724673e+01   5.2711238429e+01    0.2668645    0.1961341 -37.06 0.0006733658    1.409    0.291
       483  -9.0763    175.7799    247.4353   7.8271390408e+01   1.2073651212e+00     0.300101    0.2044604  77.67   0.00128634    2.446    0.591
       484  -8.7708     48.6658     33.0901   6.4961707292e+01   6.3615733885e+01    0.1746738    0.1674489 -12.87 0.0006723663    1.291    0.226
       485  -8.9254     72.0306     30.5176   5.5250174767e+01   6.0789356810e+01    0.2802996    0.1681869 -48.01  0.001161788    1.982    0.495
       486  -8.8673     12.9284     30.0381   7.8641637988e+01   6.7439484885e+01    0.2906911    0.1433192 -64.68  0.001276462    2.330    0.571
       487  -8.2959    101.5045     29.0073   4.5185129750e+01   5.5664388818e+01    0.2018586    0.1284438 -30.45 0.0006192808    1.538    0.350
       488  -7.7776     42.2723     29.6656   6.6201478984e+01   6.4940312526e+01    0.1073458   0.09130193 -61.26 0.0003596045    1.597    0.374
       489  -8.7339     81.6022     27.3192   5.0678602391e+01   5.9675692163e+01    0.2419713    0.2053665 -62.14 0.0008552584    1.699    0.412
       490  -9.5966      3.5771     26.8353   8.1700745927e+01   6.8576585054e+01     0.316148    0.1804352 -70.13  0.001910865    2.077    0.519
       491  -8.8859     91.8726     26.1355   4.6910106544e+01   5.7963493679e+01    0.3025848    0.1687233 -40.44 0.0008169105    1.929    0.481
       492  -8.5312    104.5144     22.5390   4.1744144551e+01   5.5907775267e+01    0.1364518    0.1230841  13.18 0.0001582873    1.026    0.025
       493  -8.9694     63.7683     20.9842   5.4254438266e+01   6.3507657325e+01    0.2683888    0.1734753 -44.78 0.0009788027    1.795    0.443
       494  -8.9139     48.4050     21.4104   6.0387692767e+01   6.5566939456e+01    0.2510641    0.1796048 -44.92 0.0009825563    1.533    0.348
       495  -8.8417     60.8514     32.2570   5.9989123686e+01   6.2177357244e+01    0.2548572    0.1633525 -49.96 0.0007503857    1.798    0.444
       496  -7.7052     19.7265     21.3250   7.2647536523e+01   6.8505664277e+01   0.09754258   0.08330823 -63.55 0.0003533996    1.580    0.367
       497  -8.8589     74.2371     19.4005   4.9823866823e+01   6.2060779884e+01    0.2336123    0.1845126 -36.83 0.0006883211    1.399    0.285
       498  -8.3531     87.9890     17.2294   4.4382749674e+01   5.9882313364e+01    0.2235152    0.1545025 -38.40 0.0006278648    1.606    0.377
       499  -8.2024     38.8884     18.1205   6.2936255465e+01   6.7209846691e+01    0.1703355    0.1422006 -34.99 0.0006194728    1.284    0.221
       500  -7.5499    112.7713     16.6378   3.7177893553e+01   5.4839567939e+01    0.1390233   0.09529649  13.97  0.000375279    1.580    0.367
       501  -8.0430     97.3736     15.1832   4.0719340362e+01   5.8285434872e+01    0.1835835    0.1144155 -34.86 0.0006441695    1.698    0.411
       502  -7.8233     30.0358     15.5387   6.5698157788e+01   6.8548541465e+01    0.1246858   0.09904418  54.57 0.0005030417    2.244    0.554
       503  -7.9181      7.5143     15.0038   7.5923063126e+01   7.0450818413e+01     0.135085   0.08949491 -72.76 0.0008097341    2.489    0.598
       504  -7.6035     17.2820     13.6677   7.0771588516e+01   6.9982995359e+01   0.09551128   0.08250499 -58.75  0.000338288    1.612    0.379
       505  -9.3401    156.1549    248.2412   8.1710514635e+01   4.3243128897e+00    0.2796023    0.2399017  58.16  0.001331583    1.176    0.149
       506  -9.2168    103.8369    246.7235   9.0358260257e+01   1.2757198689e+01    0.3566025    0.1826645 -88.80  0.001873467    2.965    0.663
       507  -8.3723     93.8138    249.1220   9.2209316706e+01   1.3848386872e+01    0.1782749    0.1079595  65.85  0.001116626    1.386    0.278
       508  -9.4460    232.9406    246.2314   6.8502449764e+01  -7.8773402067e+00    0.3418587    0.2218143  -6.53  0.001928864    1.783    0.439
       509  -8.6898    218.7278    247.4232   7.1024836431e+01  -5.7770883165e+00    0.2376123    0.1516125 -39.05  0.001221883    2.096    0.523
       510  -8.5989    131.9873    247.3425   8.5708469175e+01   8.3416085896e+00     0.192725     0.130525  70.23 0.0005766265    1.533    0.348
       511  -8.2870    112.9192    248.1354   8.8983355672e+01   1.1181310872e+01    0.1714941    0.1197538  66.71 0.0008657055    1.241    0.194
