#   1 NUMBER                 Running object number                                     
#   2 MAG_AUTO               Kron-like elliptical aperture magnitude                    [mag]
#   3 X_IMAGE                Object position along x                                    [pixel]
#   4 Y_IMAGE                Object position along y                                    [pixel]
#   5 X_WORLD                Barycenter position along world x axis                     [deg]
#   6 Y_WORLD                Barycenter position along world y axis                     [deg]
#   7 A_WORLD                Profile RMS along major axis (world units)                 [deg]
#   8 B_WORLD                Profile RMS along minor axis (world units)                 [deg]
#   9 THETA_WORLD            Position angle (CCW/world-x)                               [deg]
#  10 FWHM_WORLD             FWHM assuming a gaussian core                              [deg]
#  11 ELONGATION             A_IMAGE/B_IMAGE                                           
#  12 ELLIPTICITY            1 - B_IMAGE/A_IMAGE                                       
         1 -12.5008     58.2771    133.0245   1.2990806146e+02   4.1786433538e+01     1.921689    0.6717335 -73.52  0.004770787    6.994    0.857
         2 -14.2021    202.2434     15.8084   6.5232241768e+01   3.2968483272e+01     2.608783     1.660091  29.77   0.01127497    2.429    0.588
         3 -13.5017    206.9029      9.5050   6.3176774339e+01   3.2527128590e+01     1.320989    0.6460407  52.70   0.00147736    2.122    0.529
         4 -11.5291      2.1029     12.7811   1.1827263726e+02   7.0579499653e+01    0.6319249    0.1677618 -49.75  0.002871183    3.645    0.726
         5 -13.0359      2.4127      3.9791   1.1452565411e+02   7.1794291670e+01    0.8717228    0.7154185  24.65  0.007261176    1.774    0.436
         6 -12.0187      1.8487     27.1433   1.2352450055e+02   6.8369150753e+01    0.9008461    0.1300025 -53.90  0.002968672    6.212    0.839
         7 -12.1446    138.5444    247.8471   1.2935182142e+02   4.4997066766e+00    0.5429634    0.3380091 -68.17  0.003033603    2.048    0.512
         8 -10.1109    248.7449    250.4231   1.0966458913e+02  -1.3928026079e+01    0.2200763   0.09608264  40.82 0.0008475613    2.108    0.526
         9 -12.1131     41.2983    206.4473   1.4313104780e+02   2.7203606866e+01    0.8151124    0.3667072 -63.92 0.0002352438    2.054    0.513
        10 -15.0247      6.9522    244.4425   1.5156866922e+02   2.3550263134e+01     9.391387     2.380056  32.75   0.03058405    9.724    0.897
        11 -15.7551      6.8252    204.7326   1.4925102328e+02   3.1234350367e+01     8.607019     1.457314 -71.78   0.02678891    4.119    0.757
        12 -11.0110     66.2965    250.0364   1.4245777880e+02   1.5370527070e+01    0.2999574    0.1141755  50.53  0.001547431    2.076    0.518
        13  -9.4976    229.6248    229.8813   1.0956274936e+02  -8.3746701407e+00    0.1593616    0.1144004 -44.69  0.000748366    1.753    0.430
        14 -11.3122    120.0311    239.5309   1.3177528220e+02   9.0562900023e+00    0.2390826    0.1666577 -89.06  0.001387037    1.641    0.391
        15  -9.0292    152.6920    213.0220   1.2161772202e+02   8.1788327000e+00    0.1772308    0.1681426  71.72 0.0003892139    1.088    0.081
        16 -10.7729     68.7123    235.0286   1.4072482466e+02   1.7839755563e+01    0.2543797    0.2378403  70.74  0.001210591    1.416    0.294
        17 -11.4528     32.4471    206.8509   1.4481543733e+02   2.8148067397e+01    0.4101451     0.223354  74.50    0.0013639    1.666    0.400
        18 -11.2244     23.8652    203.1062   1.4608617097e+02   2.9868100144e+01    0.2704619    0.2493475  13.99  0.002040442    1.777    0.437
        19 -10.4064    192.7602    194.7688   1.1020062851e+02   3.8688666811e+00    0.7052316    0.3415316 -62.93  0.001979913    5.969    0.832
        20 -11.5194     67.0277    195.9129   1.3696144655e+02   2.6142972268e+01    0.3658376    0.2379926 -48.49  0.001345371    1.964    0.491
        21 -11.6429     72.2162    188.5939   1.3497376114e+02   2.7028048095e+01    0.2834162    0.2270264 -61.60 0.0005203668    1.327    0.246
        22  -9.2064    120.3173    188.2607   1.2444630121e+02   1.9241080254e+01    0.2506434    0.1682149  31.18 0.0009255427    1.794    0.443
        23  -9.1917    125.4542    186.1334   1.2295650963e+02   1.8760428137e+01    0.3187726     0.162369  30.05  0.001201168    2.829    0.646
        24 -10.9042     81.3691    176.3205   1.3127441967e+02   2.8456741829e+01     0.239895    0.2154627 -78.91 0.0004000257    1.119    0.106
        25 -13.1050     68.6208    174.0964   1.3382638481e+02   3.0821566041e+01    0.4932427    0.2756224 -46.04  0.001463625    2.231    0.552
        26 -12.1124     87.9740    167.1004   1.2832450199e+02   2.9563568020e+01     1.089688     0.609181  62.41  0.004820061    2.125    0.529
        27 -12.7803     67.3577    144.2631   1.2952488374e+02   3.7965533880e+01    0.9776909    0.5922567 -89.79  0.003975754    2.111    0.526
        28 -11.6660    105.7502    246.5614   1.3521641787e+02   1.0124006433e+01    0.3052482    0.2163171 -81.66  0.001236226    1.498    0.332
        29  -9.3553    103.0272    147.0275   1.2103639598e+02   3.1759005299e+01    0.2242528     0.195777 -30.63 0.0007399365    1.360    0.265
        30 -12.0598     89.1492    150.5105   1.2516983679e+02   3.3266272376e+01    0.2840902    0.2465003 -43.60 0.0005315182    1.284    0.221
        31  -8.9925    134.3548    148.2189   1.1357001034e+02   2.5523827444e+01    0.2175736    0.1403795 -60.34 0.0005662277    1.648    0.393
        32 -13.4692     43.2716    229.1306   1.4469811132e+02   2.2350393147e+01    0.6741996    0.4698311  50.35  0.001865117    1.409    0.290
        33  -8.8033    192.1860    144.2207   9.9604778586e+01   1.3807531716e+01    0.2010534    0.1770605 -76.79 0.0003687427    1.278    0.217
        34  -9.7722    110.9597    136.6852   1.1686574266e+02   3.2747658610e+01    0.3372212    0.2402266 -27.54  0.001250326    1.870    0.465
        35 -10.4184     98.5550    133.7398   1.1943757059e+02   3.5653164207e+01    0.2702194    0.2274241 -21.19 0.0008080238    1.473    0.321
        36 -11.1621     50.0902    129.9960   1.3153630927e+02   4.3467558685e+01    0.2801721    0.2208028  81.86 0.0006540659    1.344    0.256
        37 -14.9256     48.8614    220.0515   1.4294739212e+02   2.3461343505e+01     2.645726      1.60817  44.43   0.01014067    1.647    0.393
        38  -9.5235    107.8617    123.6055   1.1471059823e+02   3.6345360454e+01    0.2224015    0.1917681 -42.41 0.0004031112    1.163    0.140
        39 -10.8866    168.0439    113.2013   9.7209543658e+01   2.5752581368e+01    0.3492176    0.3029644 -78.82 0.0006008513    1.266    0.210
        40  -8.9194    203.3500    111.3291   8.9433466488e+01   1.7760234531e+01    0.1585921     0.122725  12.03 0.0007048438    1.765    0.433
        41  -9.9747    100.4668    151.2265   1.2249552033e+02   3.1217876259e+01    0.3161663    0.2657701 -50.97 0.0009081602    1.216    0.177
        42  -8.6180    180.2850    232.6599   1.1928197852e+02  -3.0266205033e-01    0.1242197   0.09822778  73.40 0.0007016204    1.634    0.388
        43 -12.2353     99.2454    248.6566   1.3660678178e+02   1.0773871321e+01    0.5944142    0.2353644  47.10  0.002903664    2.039    0.510
        44 -11.9930     83.5182    244.2904   1.3896684465e+02   1.3955050109e+01    0.5738085    0.2855094  74.37  0.002806918    2.454    0.592
        45 -11.5842     80.9782    248.0424   1.3976711950e+02   1.3643700571e+01    0.5445554    0.2257099  63.11  0.002507359    2.648    0.622
        46 -11.9073    129.1000    244.1311   1.3064261743e+02   6.7253973954e+00    0.2642258    0.2432226  49.19  0.001808857    1.214    0.177
