#   1 NUMBER                 Running object number                                     
#   2 MAG_AUTO               Kron-like elliptical aperture magnitude                    [mag]
#   3 X_IMAGE                Object position along x                                    [pixel]
#   4 Y_IMAGE                Object position along y                                    [pixel]
#   5 X_WORLD                Barycenter position along world x axis                     [deg]
#   6 Y_WORLD                Barycenter position along world y axis                     [deg]
#   7 A_WORLD                Profile RMS along major axis (world units)                 [deg]
#   8 B_WORLD                Profile RMS along minor axis (world units)                 [deg]
#   9 THETA_WORLD            Position angle (CCW/world-x)                               [deg]
#  10 FWHM_WORLD             FWHM assuming a gaussian core                              [deg]
#  11 ELONGATION             A_IMAGE/B_IMAGE                                           
#  12 ELLIPTICITY            1 - B_IMAGE/A_IMAGE                                       
         1 -10.1951     81.7697     40.7686   8.3515695721e+01   5.9000798455e+01    0.8415334    0.3892151 -40.30  0.003336491    2.104    0.525
         2  -8.6588     40.3241      1.7914   8.2779923017e+01   7.3416047038e+01    0.3517644    0.1951994  28.29   0.00173359    2.048    0.512
         3 -10.4369     50.6849     36.9295   9.5405412994e+01   6.5119212560e+01    0.8614392    0.6067612  86.63  0.004055508    2.336    0.572
         4  -9.3052     39.4325      7.6688   8.7125251215e+01   7.2546957854e+01    0.4043997    0.3192034   6.75  0.002213589    1.322    0.243
         5 -10.7311     39.4748     29.7814   9.8290916993e+01   6.8140334962e+01    0.6996787    0.3880626 -62.86  0.002801501    1.955    0.488
         6 -11.9184     44.2463     21.1231   9.1737856778e+01   6.9315611399e+01     1.329266     1.010669 -87.90  0.006891177    2.138    0.532
         7 -11.0339    128.3466     17.9304   5.9740396991e+01   5.1445691843e+01     1.105122    0.7883297  50.51  0.005258395    1.351    0.260
         8 -11.0034    131.4177      3.5924   5.2958413896e+01   5.2166735099e+01     1.076637    0.7570406  46.84  0.004123692    1.382    0.276
         9 -10.7093    121.0269      4.1216   5.5111399431e+01   5.4956107460e+01    0.7435259     0.625425 -84.07  0.002911731    1.298    0.229
        10 -11.1282    109.5410      4.4305   5.7701265175e+01   5.7988661134e+01      1.13419    0.5220087  65.44  0.004482132    2.135    0.532
        11 -10.9663    144.0725      4.2052   5.1179387625e+01   4.8596798505e+01    0.9568942    0.7050893  82.68  0.004684611    1.378    0.274
        12 -11.1164    155.2361     20.5061   5.5766253881e+01   4.3774227572e+01    0.8860972    0.5793232  73.41  0.002821074    1.563    0.360
        13 -13.8719    166.2441     10.5016   5.0486930105e+01   4.1812660802e+01     3.674902     2.288438  63.18   0.01682379    1.533    0.348
        14  -9.8874    116.5559     16.3272   6.1685357330e+01   5.4781707618e+01     1.118339    0.2730351 -35.54  0.003330344    3.661    0.727
        15  -9.5971    111.4182     16.2839   6.2929515225e+01   5.6123686494e+01    0.5956637    0.2863995  44.69  0.002328626    2.099    0.523
        16 -10.1227     70.5297      5.7078   7.0308542398e+01   6.7218322204e+01    0.6458147    0.4395023  43.16  0.003033887    1.444    0.308
        17 -10.6105     79.3705     13.3886   7.1307138752e+01   6.4227479661e+01    0.6489563    0.5484703  21.70  0.003606884    1.174    0.148
        18 -11.2999     84.6365      3.9371   6.4208564934e+01   6.4272418444e+01      1.14227    0.5490516  51.13  0.004021904    1.945    0.486
        19  -9.0700     94.1025     17.3023   6.8321666882e+01   6.0289664820e+01    0.4326859    0.2957833  84.94  0.001895773    2.171    0.539
        20  -9.4316     64.4854     16.3550   7.9031130286e+01   6.6823739510e+01    0.3012494    0.2565506 -75.12  0.001342783    1.602    0.376
        21 -10.0968    248.7358     15.4039   4.4202383978e+01   2.0557832681e+01    0.4593254    0.2991634   4.63   0.00240624    1.936    0.483
        22  -9.9695     70.0380     14.9585   7.5849202517e+01   6.5960688008e+01    0.3797354    0.2829623 -44.69  0.001999898    1.431    0.301
        23  -9.0886     20.3930     13.6180   1.0297749149e+02   7.3605246421e+01    0.5205137    0.1901772 -43.68  0.002267479    2.379    0.580
        24  -9.7352    104.2676     11.9805   6.2727830616e+01   5.8493029836e+01    0.5441419    0.3999923  -8.41  0.002671136    1.460    0.315
        25  -8.5053     54.9543      7.7752   7.8568139296e+01   6.9989582352e+01    0.2743715    0.1977428  68.97  0.001371619    2.189    0.543
        26  -9.3031     59.9878      9.2195   7.7005449055e+01   6.8830813204e+01    0.4263954    0.2673969 -46.08  0.002102009    1.770    0.435
        27  -9.6769     60.6941      2.2591   7.2330894127e+01   6.9713085341e+01    0.5951577    0.3298447  44.44  0.002874954    1.794    0.443
        28 -10.1457    199.7356      8.3296   4.6108286758e+01   3.2989430816e+01    0.3950189    0.2183027  61.63  0.001396137    1.800    0.444
        29 -10.3392    248.8013      4.2662   4.1401920029e+01   2.1576635267e+01    0.5997171    0.3074038 -31.93  0.003089396    1.599    0.375
        30  -8.2102     49.0275      7.2362   8.1323178644e+01   7.1112653848e+01    0.2578842    0.1968929  43.21  0.001014976    1.450    0.310
        31  -9.0159     51.9886      2.4375   7.6656369754e+01   7.1345003677e+01    0.3165464    0.2233867 -19.29  0.001448006    1.362    0.266
        32 -10.2508    219.7146      1.9537   4.2634655021e+01   2.8522970860e+01    0.4945603    0.2095974  75.29  0.002099384    2.403    0.584
        33  -9.7278     95.9305      2.6609   6.0175982482e+01   6.1667974711e+01    0.4550776    0.3498546 -75.18  0.002224371    1.662    0.398
        34  -9.9142    203.9212      4.1227   4.4465027452e+01   3.2296059425e+01    0.3113072       0.2303  80.08  0.001170487    1.356    0.263
        35  -8.9601     26.8551      3.2535   9.2730299364e+01   7.5013042550e+01    0.3407438    0.2168967 -48.26  0.001926119    1.458    0.314
        36  -9.0080     17.1098      2.3670   9.9599662325e+01   7.6206736442e+01    0.3326331    0.2430716 -83.26  0.001890055    2.114    0.527
        37  -8.8021     91.4118     30.0163   7.5305245928e+01   5.8927760684e+01    0.4915012    0.2557214 -48.06  0.001965659    2.184    0.542
        38 -10.0571     84.4701     48.1098   8.5444216379e+01   5.6997601452e+01    0.6126219     0.498026  64.79  0.003147596    1.435    0.303
        39 -10.0213    184.6706    246.2644   1.0127012705e+02   4.4888622688e+00    0.2113775     0.192278  83.66  0.001773911    1.958    0.489
        40  -8.1098    202.3791     46.2431   5.7281646786e+01   2.8070813273e+01    0.2163891    0.1228893 -36.08 0.0009501551    1.635    0.388
        41 -10.3020      3.2252     40.3002   1.2151332606e+02   6.8529806656e+01    0.5157834    0.4016405 -89.56  0.002366152    1.207    0.172
        42  -8.5644      7.5977     35.8323   1.1826646677e+02   6.9404148650e+01     0.274086    0.1877283  77.31   0.00161723    1.614    0.380
        43  -9.2557     12.0547     33.3331   1.1514026346e+02   6.9762663991e+01    0.4470838    0.2498677 -58.89  0.001476304    1.428    0.300
        44 -10.7383    173.5692    242.5155   1.0269448110e+02   6.3607186589e+00    0.4372692    0.1013598  36.77  0.001886569    3.189    0.686
        45  -9.3116    201.5141    222.4773   9.5492862353e+01   4.6161225705e+00    0.1122134   0.08066072  25.04 0.0001481071    1.002    0.002
        46  -9.2693    124.0144    206.0129   1.0761749848e+02   1.8125875082e+01    0.1683361    0.1308584  41.30  0.001156399    1.013    0.013
        47  -8.5406    239.3403    202.6785   8.6453057350e+01   1.3014295313e+00   0.09310257   0.08425283  36.45 0.0007050422    1.720    0.418
        48  -9.2248     66.5117     30.0546   8.5046302185e+01   6.3979039985e+01    0.4211805    0.2281939 -34.99  0.001853951    1.863    0.463
        49 -11.0916     10.4587    141.4577   1.2793029996e+02   4.4358641244e+01    0.6765994    0.3263678  29.87  0.003839395    2.064    0.515
        50  -8.5758     27.0897     35.2704   1.0715017043e+02   6.8216655732e+01    0.2754151    0.1802178  14.47  0.001515401    1.812    0.448
        51 -10.2200    225.2038     29.3617   4.9816996646e+01   2.4487503004e+01     0.495326    0.3745818  64.46   0.00177191    1.417    0.294
        52 -12.6890    241.3119    132.5564   7.3249071751e+01   8.5675404353e+00     1.383144     1.033666  31.08  0.005818987    1.275    0.216
        53 -10.2045     10.6800    129.6527   1.2724943633e+02   4.6944352794e+01    0.2457907    0.1813857  40.55  0.001656253    1.363    0.266
        54  -8.1401     22.8909    125.4766   1.2353997188e+02   4.6933511378e+01    0.1681047      0.11356  32.90 0.0006956133    1.551    0.355
        55  -9.7960     14.2126    121.4565   1.2574632247e+02   4.8542029422e+01     0.262402    0.1485576 -56.47  0.001470136    1.922    0.480
        56  -7.6510      2.3148    116.6806   1.2892139385e+02   5.0430957492e+01     0.126854   0.06630737  61.48 0.0007039103    1.654    0.395
        57  -9.4224     41.3626    142.0986   1.1986058162e+02   4.1419810868e+01    0.2563552    0.1614884  44.78   0.00149559    1.421    0.296
        58  -9.8085     17.9239    105.7220   1.2338724182e+02   5.1938761290e+01    0.6065941     0.288494  62.43  0.002994062    2.088    0.521
        59  -8.5488     97.7862     27.3156   7.1958245433e+01   5.7908990501e+01    0.3906078    0.2053656 -23.06  0.001287467    2.216    0.549
        60  -8.6335    125.5920     29.3898   6.5181932262e+01   5.0649909572e+01    0.3006003    0.2695906  16.33  0.001433205    1.165    0.142
        61  -9.5222     75.4099     27.7174   8.0189379552e+01   6.2722056499e+01    0.3459295    0.2932507 -26.13  0.001903922    1.132    0.117
        62  -8.7172    104.6413     26.1369   6.9325327101e+01   5.6448637296e+01    0.4425281    0.2558838  65.43  0.001829937    2.010    0.503
        63  -7.6352     25.5170     26.5112   1.0501539479e+02   7.0343562766e+01    0.1293556    0.1093453 -47.52 4.973337e-05    1.007    0.007
        64  -8.0106     22.3855     23.2821   1.0571905308e+02   7.1337051924e+01    0.2413047    0.1404952 -49.36  0.001130886    1.427    0.299
        65  -7.8339     19.4753     22.5010   1.0727143974e+02   7.1748967091e+01    0.1723191    0.1141264  35.49 0.0009834296    1.775    0.437
        66  -9.3561     69.1305    105.3133   1.0673212324e+02   4.6512192074e+01    0.4833067    0.2151402 -38.23  0.001587351    4.205    0.762
        67  -9.4575     30.1904    101.9912   1.1898259267e+02   5.1830897181e+01    0.3031904    0.1960172 -60.15  0.001418987    1.488    0.328
        68  -8.7060     10.9373     22.4758   1.1279850996e+02   7.2334276491e+01    0.2350261    0.1239616 -48.32  0.001267514    1.569    0.363
        69 -10.4841     77.1366     19.6826   7.5501577980e+01   6.3740624567e+01    0.4836666    0.3640121  74.70  0.002385132    1.848    0.459
        70  -9.0974      2.4542     89.5114   1.2724905434e+02   5.6756782317e+01    0.3436598    0.1822389  80.99  0.001877732    1.653    0.395
        71 -11.9043     43.3294     82.2904   1.1130384149e+02   5.5336919678e+01     1.115813    0.8731516 -12.06  0.006278426    1.685    0.407
        72  -8.6956     19.3100     87.6794   1.2106672301e+02   5.6173185859e+01    0.2131352    0.1214824  64.69  0.001110501    1.795    0.443
        73  -9.0012    228.0597     78.8073   6.2681091191e+01   1.7892407989e+01    0.4051972    0.2548154  12.14  0.001542548    2.058    0.514
        74 -10.1303     25.0268     65.0274   1.1545089776e+02   6.1279362073e+01    0.7535192    0.2598486 -57.11  0.003187137    2.343    0.573
        75 -10.6355     11.7623     70.5199   1.2189850669e+02   6.0835776176e+01    0.6397852    0.3443033 -80.43  0.003398322    1.579    0.367
        76  -9.3730     86.3152     31.7520   7.7896618497e+01   5.9744002322e+01    0.3264619    0.2583644  34.22   0.00167949    1.307    0.235
        77  -8.9218    228.0092     15.4467   4.5747177596e+01   2.5259996226e+01    0.2641476     0.216932 -45.86  0.001550706    1.098    0.089
        78 -11.0813      4.0267     75.8950   1.2556707606e+02   5.9938643374e+01    0.9012971    0.5155193  46.05  0.005155702    1.814    0.449
        79  -8.6304    138.8528     78.4384   7.9340639917e+01   3.8914862635e+01    0.2675572    0.2128385 -50.28  0.000974843    1.315    0.239
        80  -8.5403     77.0615     78.0453   9.7894930244e+01   5.1733651371e+01    0.2346903    0.1736048  79.08  0.001075826    1.692    0.409
        81  -8.8361     67.0260     35.8071   8.7397444693e+01   6.2756009280e+01    0.5227977    0.3400968  76.85   0.00202988    3.266    0.694
        82  -9.5352     74.5885     69.2469   9.6309142983e+01   5.4179453416e+01    0.4771982     0.324047  68.56  0.002170839    1.983    0.496
        83  -8.8362     83.3324     69.0766   9.3091306620e+01   5.2700256245e+01    0.3261698    0.2379895  65.23  0.001461274    1.661    0.398
        84  -7.7265     83.3386     89.3129   9.8657711648e+01   4.8062243510e+01    0.1451398    0.1147489 -17.48 0.0007046366    1.694    0.410
        85  -8.5578     32.7020     69.0096   1.1294838552e+02   5.9651983975e+01     0.270645    0.1521023 -22.74  0.001196963    2.766    0.638
        86  -9.1399     45.8034     62.4112   1.0589152232e+02   5.9886061433e+01    0.5458857     0.271596 -50.27  0.002485512    1.846    0.458
        87  -9.3545     16.2933     63.4012   1.1897303939e+02   6.2296291839e+01    0.3314916     0.166218  84.52  0.001543671    2.220    0.549
        88  -8.8300     69.8373     61.1118   9.5629398883e+01   5.6821758081e+01    0.2240607    0.1981644  88.76  0.001240798    1.242    0.195
        89  -8.2802     16.4119     58.1772   1.1805725600e+02   6.3559775717e+01    0.1823536     0.105388 -87.60 0.0009393971    1.692    0.409
        90 -10.8439     17.7706     73.3616   1.1982887412e+02   5.9769465262e+01     0.644849    0.3870637 -81.71  0.003536476    1.458    0.314
        91  -9.4543    199.0754     55.4146   6.0444134712e+01   2.7690674562e+01    0.3120307    0.2525419  36.43   0.00050868    1.312    0.238
        92  -9.0022     66.2425     53.8279   9.4672748156e+01   5.9045891059e+01    0.4262635    0.1862227 -60.80  0.001540235    2.811    0.644
        93  -7.9846     23.1760     52.1587   1.1369966838e+02   6.4546969807e+01      0.17577     0.142421  78.32  0.001073082    1.310    0.237
