#   1 NUMBER                 Running object number                                     
#   2 MAG_AUTO               Kron-like elliptical aperture magnitude                    [mag]
#   3 X_IMAGE                Object position along x                                    [pixel]
#   4 Y_IMAGE                Object position along y                                    [pixel]
#   5 X_WORLD                Barycenter position along world x axis                     [deg]
#   6 Y_WORLD                Barycenter position along world y axis                     [deg]
#   7 A_WORLD                Profile RMS along major axis (world units)                 [deg]
#   8 B_WORLD                Profile RMS along minor axis (world units)                 [deg]
#   9 THETA_WORLD            Position angle (CCW/world-x)                               [deg]
#  10 FWHM_WORLD             FWHM assuming a gaussian core                              [deg]
#  11 ELONGATION             A_IMAGE/B_IMAGE                                           
#  12 ELLIPTICITY            1 - B_IMAGE/A_IMAGE                                       
         1 -12.3245    198.0070     39.1208   4.6152353134e+01   3.1332357596e+01    0.9728933    0.9327057 -70.22  0.003505192    1.064    0.060
         2 -12.5063    208.3002     28.6899   4.2144441645e+01   3.0178864292e+01    0.8828969    0.7468245  31.30  0.002034327    1.482    0.325
         3 -11.7515     32.4445     11.5278   8.0107605022e+01   7.0003268576e+01    0.8873453    0.2683956 -35.76  0.003829329    2.970    0.663
         4 -10.7179    229.6201      3.7313   3.4189119734e+01   2.8066251671e+01    0.4176519    0.3523238 -58.69  0.002099351    1.107    0.097
         5  -8.3239     61.5003      7.4951   6.5327262547e+01   6.6163659142e+01    0.1262835    0.1013157  12.87 0.0008106782    1.002    0.002
         6 -10.9190    235.0579      3.6001   3.3759453296e+01   2.6890483595e+01    0.5139114    0.4107624  53.64  0.002962717    1.532    0.347
         7  -9.6341     45.0071    220.4506   1.1999160046e+02   2.2887584319e+01    0.3489771    0.2187752  66.29  0.001503396    1.373    0.272
         8 -11.4701     16.7859    191.4495   1.2351226080e+02   3.1937801077e+01    0.3361832    0.2390247  47.54 0.0004318063    1.396    0.283
         9 -13.2325     50.6458    197.0091   1.1682006904e+02   2.7175014901e+01     3.187385     2.192352 -55.47   0.01894034    1.636    0.389
        10  -8.6111     92.7598    217.0536   1.0995507251e+02   1.7330137720e+01    0.1890227    0.1493917  70.74 0.0006369832    1.201    0.167
        11  -8.6494     70.8590    214.2224   1.1423215169e+02   2.0957817310e+01    0.3657754    0.1848253 -46.75  0.001720375    2.794    0.642
        12  -9.5350     54.0280    221.7096   1.1832596096e+02   2.1566250369e+01    0.4502918    0.1803509  41.46  0.001466707    2.122    0.529
        13  -8.4930    113.8764    207.5845   1.0421289568e+02   1.6025047572e+01    0.2660312     0.162141  72.70  0.001202841    2.361    0.576
        14  -9.2318     63.7686    201.9799   1.1448293424e+02   2.4472681091e+01    0.2802885    0.2161459 -50.48 0.0004652635    1.571    0.364
        15  -8.5354     67.1511    195.8386   1.1308149086e+02   2.5376887884e+01    0.2371833    0.1673045 -85.84  0.001014395    1.366    0.268
        16  -8.5870    109.8628    201.1756   1.0420199861e+02   1.7985140201e+01      0.16825    0.1583708  -4.42 0.0004351593    1.268    0.212
        17  -9.2530    194.3384    197.4377   8.5259629364e+01   4.1761762386e+00    0.6106809     0.326062 -63.58  0.001692217    7.243    0.862
        18 -12.7045     57.6605    240.7166   1.1913589922e+02   1.7444300352e+01    0.7687691    0.3326589  50.92  0.003791861    1.877    0.467
        19  -9.9571     49.2081    216.3035   1.1883414260e+02   2.3242037083e+01    0.3782879    0.2551594  78.59  0.001123686    1.320    0.243
        20  -8.5479     98.9492    180.9648   1.0374669780e+02   2.4131581239e+01    0.2498706    0.1877554  -1.36  0.001223397    2.016    0.504
        21  -8.2987    150.6905    179.0558   9.1197315659e+01   1.5556547073e+01     0.319033    0.2160518  87.10  0.001280154    2.778    0.640
        22  -7.9586     40.7261    178.0043   1.1715863073e+02   3.2585060291e+01    0.1754612    0.1380793 -85.38 0.0003462051    1.085    0.078
        23 -10.3909     70.2359    174.9375   1.0981256702e+02   2.9731861764e+01    0.3808153    0.2510584 -41.53  0.001922719    1.904    0.475
        24 -10.3138     74.5214    170.0451   1.0808495070e+02   3.0300794798e+01     0.427335    0.2876823 -36.60 0.0009902242    1.967    0.492
        25  -9.6937    102.0609    170.8313   1.0136216219e+02   2.5958875260e+01    0.3293274    0.1970931  30.39  0.001490053    1.854    0.461
        26 -11.1254     82.9587    161.2784   1.0461630093e+02   3.1188088976e+01     1.005793    0.4415935  56.39 0.0004028887    3.225    0.690
        27 -12.0399     71.3220    156.2709   1.0684399356e+02   3.4050138304e+01    0.5758408    0.4420859 -43.04  0.001119116    1.451    0.311
        28 -12.8536     68.7100    144.3851   1.0561820219e+02   3.7315241236e+01     2.318356     1.172634  73.89  0.006697257    4.299    0.767
        29  -8.0215    157.0020    159.5240   8.5792552410e+01   1.8458057810e+01    0.3081105    0.1977144 -83.66  0.001040501    3.601    0.722
        30 -10.8714     85.7945    222.5802   1.1201358746e+02   1.7225668004e+01    0.4928166    0.3134263  63.72 0.0007121981    1.544    0.352
        31 -10.5109     89.7096    154.2237   1.0165917705e+02   3.1867628313e+01    0.5998583    0.4281609 -14.96  0.002745134    2.157    0.536
        32  -7.9236    112.7031    151.2884   9.5052356045e+01   2.8736540246e+01    0.1487071    0.1155828  76.92  0.000315375    1.553    0.356
        33  -9.7762     53.5759    149.2832   1.1048719250e+02   3.8003671542e+01    0.3444206    0.2028992  62.67  0.001636211    1.982    0.495
        34  -9.5313    134.0000    145.9931   8.8443941190e+01   2.5986800621e+01    0.6516425    0.2104266 -54.63  0.001856092    3.848    0.740
        35  -8.9239     41.2170    146.1735   1.1335104209e+02   4.0122824298e+01    0.4465204    0.2071898 -38.68  0.001778209    3.239    0.691
        36 -10.3977     58.9182    144.3829   1.0830591663e+02   3.8569596781e+01    0.5634423    0.2205943 -64.61  0.002243682    2.301    0.565
        37  -9.2449    103.3677    139.3431   9.5089098272e+01   3.3228313094e+01    0.5466478    0.3287859 -20.99  0.001953379    3.123    0.680
        38 -10.5886     90.7200    139.4218   9.8599270358e+01   3.5311513207e+01    0.2904171      0.24516 -48.75 0.0003231647    1.162    0.140
        39  -9.2993     32.3722    165.3742   1.1783225152e+02   3.6393590990e+01    0.2356405    0.1702746 -74.97 0.0008119252    1.183    0.154
        40  -8.8602    105.8618    130.6409   9.2497095496e+01   3.4883482950e+01      0.33783    0.2458334 -57.99  0.001592629    1.357    0.263
        41 -10.0629     32.9086    130.3387   1.1347242444e+02   4.4808791257e+01    0.5150608    0.1479093 -67.08  0.001864482    2.824    0.646
        42  -9.4957    112.7097    129.8861   9.0421849642e+01   3.3817298795e+01    0.3833168    0.2845438   5.24  0.001245098    1.853    0.460
        43  -9.1786     99.3245    126.0980   9.3315113399e+01   3.7123168028e+01    0.2667498    0.2326813 -16.51 0.0007555902    1.293    0.227
        44  -8.8196    135.0000    123.9851   8.2993408646e+01   3.0798527981e+01    0.2680782   0.08803621 -46.32 0.0008074356    2.977    0.664
        45 -10.1942     43.2353    128.8699   1.1028418421e+02   4.4171205823e+01    0.4353038     0.240514  71.61   0.00187512    2.586    0.613
        46  -9.7204     54.0083    117.9798   1.0515988920e+02   4.5685361768e+01    0.2815664    0.1754633  88.41  0.001261266    2.174    0.540
        47  -8.3267    108.2916    119.0328   8.9065129330e+01   3.7204678669e+01    0.2089437    0.1909433 -50.28 0.0002453816    1.051    0.049
        48 -10.9821     43.4793    109.6370   1.0687502193e+02   4.8876210548e+01    0.5188745    0.3403527 -80.31  0.002646156    1.647    0.393
        49 -14.5355     35.5423    249.5695   1.2365954034e+02   1.8406807879e+01      9.03314     2.805805  26.74   0.02304704   12.793    0.922
        50 -10.6905     32.9122    108.9205   1.1011678487e+02   5.0049159881e+01    0.6751212    0.1510715 -64.20  0.002239212    3.486    0.713
        51  -7.9420    205.6612    110.2865   6.3645859005e+01   1.8040040196e+01    0.1489889    0.1171639 -73.66    0.0004233    1.635    0.388
        52  -8.1294    119.6485    110.6868   8.3704927150e+01   3.6947192843e+01    0.1622587    0.1232122  -5.34 0.0007045898    1.727    0.421
        53 -10.0527     52.4764    110.2006   1.0410836862e+02   4.7769889742e+01    0.3106199    0.2005855  40.04  0.001582727    1.747    0.427
        54  -9.3573    115.6291    108.7985   8.4335754148e+01   3.8175225370e+01    0.2155613    0.2007346   3.22 0.0009513756    1.122    0.109
        55 -10.4781     32.6466     99.2194   1.0843309433e+02   5.2415471144e+01    0.5732627    0.1685933 -62.18  0.002170403    2.678    0.627
        56  -8.7590     58.9754     67.7502   9.0968336004e+01   5.6756474437e+01    0.2232788    0.1897154  46.75 0.0008319296    1.467    0.318
        57 -15.5708      5.7188    210.5918   1.2682446506e+02   2.8895245417e+01     12.70139    0.4483018 -74.70   0.02877274    8.640    0.884
        58 -11.9632    187.8500     46.7194   4.9703470641e+01   3.2785245206e+01    0.8219823    0.6753821  -2.52  0.002525537    1.491    0.329
        59  -9.3394     59.7883    231.7904   1.1803622280e+02   1.8871269690e+01    0.2399212    0.1777066 -86.83 0.0009319037    1.291    0.226
        60  -7.9008     72.9954     54.2161   8.1079870119e+01   5.7362014985e+01    0.1799639    0.1097929  35.40 0.0007542724    1.697    0.411
        61  -9.9715    146.3528     50.7385   5.8549824642e+01   4.2467908688e+01      0.47279    0.3187838 -87.68  0.002004878    2.252    0.556
        62  -8.2192     44.5084    230.5069   1.2083132598e+02   2.0953069088e+01    0.1780194   0.09250409  87.52 -0.0001251903    1.937    0.484
        63  -8.8872    148.0323     44.2350   5.6072012186e+01   4.3000586694e+01    0.2590079    0.2092503 -44.24 0.0005686026    1.305    0.234
        64  -7.7765     77.5090    226.5748   1.1409865029e+02   1.7583263036e+01    0.1237455   0.09928874  62.01 0.0001296166    1.036    0.034
        65 -15.7063      7.0844    244.1505   1.2815827897e+02   2.2312789010e+01     18.29045     1.848426 -78.21   0.03623895    9.184    0.891
        66  -8.6681     57.7008    220.3423   1.1748280137e+02   2.1392266230e+01    0.3492461    0.1559113  40.31  0.001802663    1.974    0.493
        67  -9.3349     48.8172    224.8639   1.1959377468e+02   2.1558842024e+01    0.2097442    0.1712938  72.34 0.0004624708    1.055    0.052
