#   1 NUMBER                 Running object number                                     
#   2 MAG_AUTO               Kron-like elliptical aperture magnitude                    [mag]
#   3 X_IMAGE                Object position along x                                    [pixel]
#   4 Y_IMAGE                Object position along y                                    [pixel]
#   5 X_WORLD                Barycenter position along world x axis                     [deg]
#   6 Y_WORLD                Barycenter position along world y axis                     [deg]
#   7 A_WORLD                Profile RMS along major axis (world units)                 [deg]
#   8 B_WORLD                Profile RMS along minor axis (world units)                 [deg]
#   9 THETA_WORLD            Position angle (CCW/world-x)                               [deg]
#  10 FWHM_WORLD             FWHM assuming a gaussian core                              [deg]
#  11 ELONGATION             A_IMAGE/B_IMAGE                                           
#  12 ELLIPTICITY            1 - B_IMAGE/A_IMAGE                                       
         1 -12.3245    219.9992     26.7392   1.8812144241e+01   2.7905937375e+01     2.526347     1.358664  -9.61   0.01166307    2.980    0.664
         2 -12.9641    232.1459     43.2973   2.1749004822e+01   2.3664539020e+01     2.279368     1.304612 -10.62   0.01137344    2.603    0.616
         3 -12.5620    246.0834     27.4668   1.7325387974e+01   2.2894763749e+01     2.162801    0.8332502 -27.14   0.01071834    2.332    0.571
         4 -12.9695    248.8962     62.2372   2.4528852032e+01   1.8458803806e+01     1.083869    0.5037221 -33.10  0.002352727    1.666    0.400
         5 -14.1468    242.9542     86.4669   3.0184200649e+01   1.6416191880e+01     3.770359     2.466299 -21.05   0.01881634    1.485    0.327
         6 -13.1795    235.3047    105.1488   3.4949377025e+01   1.5172366910e+01     5.226878     0.764658 -42.37   0.01102321    7.755    0.871
         7  -9.1523    200.1746     14.0761   1.7043716475e+01   3.3431977791e+01    0.2846348    0.2071658 -22.11  0.001557512    1.495    0.331
         8  -9.0538    115.6227     12.1914   2.5563743293e+01   5.4687877130e+01    0.3191759    0.2902111 -89.56  0.001442197    1.015    0.015
         9  -9.7153    120.2438      9.0673   2.3536942671e+01   5.3771944549e+01     0.455631    0.3824549  53.61  0.001789509    1.233    0.189
        10  -8.0096    207.0741      8.9850   1.5315935790e+01   3.2450462760e+01    0.1797025    0.1424796  40.16  0.001129166    1.731    0.422
        11  -7.3764     94.0000      5.0145   2.6421844277e+01   6.1150693769e+01     0.221427   0.08160903 -22.05 0.0008108995    3.001    0.667
        12  -8.0618    250.5089      3.4972   1.2063476652e+01   2.4509083724e+01    0.2183717   0.08617959 -29.22  0.000845551    2.061    0.515
        13  -8.4757    247.7986      1.4295   1.1730293210e+01   2.5183822155e+01    0.1694148    0.1014832  80.42 0.0005875878    1.871    0.466
        14  -7.2143     34.5279    207.4924   9.6378311153e+01   2.6606854114e+01    0.1234017    0.1031051  42.91 1.346983e-05    1.063    0.060
        15  -8.5308    247.8506    203.1276   5.1053463411e+01   1.1332340387e+00    0.1499588    0.1184483 -14.84  0.001218339    1.305    0.234
        16  -8.4178    240.6196    198.3917   5.1358615522e+01   2.4289830297e+00    0.1658441   0.08883795  44.53  0.000944355    3.084    0.676
        17  -7.1565     88.7030    198.2331   8.1921835602e+01   2.2282373319e+01    0.1301676   0.08445888  48.22 0.0002068941    1.467    0.318
        18  -7.6636    248.3081    196.6325   4.9970384994e+01   1.8151306042e+00   0.09079499   0.07701045 -33.63 0.0007036545    1.755    0.430
        19  -9.0404    223.5044    188.9860   5.2443024239e+01   5.5163623038e+00    0.2857601    0.2373505 -59.65  0.001129449    2.327    0.570
        20  -8.0710    248.2419    184.4291   4.8008849179e+01   3.2295008812e+00    0.1861707   0.09116429  28.33  0.001147536    2.113    0.527
        21  -9.6560    139.0812    183.0173   6.7641979567e+01   1.8068294938e+01    0.2214056    0.1941276 -31.29  0.001371944    1.220    0.180
        22 -10.2773    214.5425    180.0184   5.2371879059e+01   7.8101654434e+00    0.4498595    0.2850137 -27.70  0.002844901    1.393    0.282
        23  -8.1337    144.9153    180.8222   6.5967974405e+01   1.7588184533e+01    0.2002838     0.160752   4.13 0.0005341661    1.224    0.183
        24  -9.1043    246.4395    178.5403   4.7281739636e+01   4.1295527487e+00    0.2397293    0.1432729   5.33  0.001548153    1.727    0.421
        25  -9.5190    225.4879    174.9761   4.9756096517e+01   7.0884477015e+00    0.3286107    0.1211039 -36.78  0.001612958    2.440    0.590
        26  -8.2780    240.0064    177.0427   4.7942784279e+01   5.0557572160e+00    0.1496322    0.1337134 -44.46  0.001132047    1.762    0.433
        27  -9.1287    219.9942    173.2277   5.0311190870e+01   8.0245987245e+00    0.3446164    0.1206885 -33.64   0.00159997    2.580    0.612
        28  -8.9646    228.7538    171.8449   4.8709614465e+01   7.0870885209e+00    0.2281761    0.1377193 -38.57  0.001410255    1.678    0.404
        29  -8.7001    230.0611    167.4701   4.7741376973e+01   7.4943722636e+00    0.2087697    0.1682832 -38.20  0.001280472    1.488    0.328
        30  -8.3540     82.6911    171.8137   8.0268766533e+01   2.8733327519e+01    0.2116576    0.1743031  19.90  0.000446503    1.225    0.184
        31  -9.4473    232.8514    159.8480   4.5962019434e+01   8.1374415926e+00    0.2679132     0.168755 -45.72 0.0009181823    1.960    0.490
        32  -7.9391    197.3031    160.9064   5.1870106211e+01   1.2955785013e+01    0.1754651    0.1403588 -19.50  0.000486651    1.103    0.094
        33  -8.1604    241.3080    159.3352   4.4665286865e+01   7.1210945806e+00    0.1169694   0.07234632  -5.94  0.000704198    1.674    0.403
        34  -8.0156    225.6947    158.1564   4.6714959493e+01   9.3143687335e+00    0.1672488    0.1488275  14.97 0.0004810537    1.279    0.218
        35  -7.7664     47.6296    156.0577   8.8731281179e+01   3.7009308021e+01    0.1843041    0.1688891  80.51 0.0004226308    1.088    0.081
        36 -12.2521    184.3342    102.0054   4.1593198319e+01   2.4725360522e+01     2.802915     0.647724  44.46  0.008066488    5.349    0.813
        37  -8.0770    250.5373    248.5054   5.7185749574e+01  -3.7652597643e+00   0.09656058   0.06312424  -0.85 0.0001208954    1.017    0.016
        38 -12.0503    248.8307    106.5904   3.3670290871e+01   1.2913843304e+01    0.9790614     0.469273 -29.49 0.0007870364    1.711    0.415
        39 -11.0984    250.0170     42.6284   2.0304654725e+01   2.0549295621e+01    0.6180294    0.3656415 -18.97  0.001098172    1.877    0.467
        40 -10.2375    101.9128    245.7797   8.3658410563e+01   1.2207588075e+01    0.2043381    0.1846049   2.79 0.0007302041    1.255    0.203
        41  -7.4163     52.7447    247.6283   9.4352682594e+01   1.7235656554e+01   0.09961808   0.08186869 -16.33  0.000332523    1.643    0.392
        42  -8.2401    188.3470    146.8741   5.0758499988e+01   1.6564349067e+01    0.2020536    0.1579816 -49.13 0.0007831736    1.483    0.326
        43  -7.3208     91.6104    147.4604   7.3997859050e+01   3.3032527753e+01    0.1435622    0.1377028  43.82 8.355315e-05    1.027    0.026
        44 -11.0519      3.5559    141.8738   1.0191092408e+02   4.4538227017e+01    0.8972213    0.4229433 -86.62  0.004126771    1.979    0.495
        45  -9.9661     68.1893    144.5023   8.0725498986e+01   3.7282694532e+01    0.6923319    0.3502453  56.25  0.002702922    2.333    0.571
        46  -8.5502    232.5016    236.0248   5.8163184651e+01  -9.0913619006e-01    0.1359343   0.08167035 -26.13  0.001009502    1.543    0.352
        47  -8.9687    151.6329    137.9692   5.6376948324e+01   2.4522727868e+01    0.3214335    0.2444499 -35.02 0.0009553456    1.313    0.239
        48 -11.3181     49.7181    132.3969   8.5147499122e+01   4.2822982405e+01    0.8914118    0.7179886 -55.47    0.0031143    1.308    0.235
        49 -11.1261     42.1464    132.5588   8.7835686996e+01   4.3665827033e+01    0.8526102    0.6663954 -66.29  0.003817777    1.289    0.224
        50 -10.2919     33.8079    134.1845   9.0971048425e+01   4.4119304590e+01    0.4181545     0.363067  10.69  0.001102188    1.285    0.222
        51  -9.2844     37.1671    131.1753   8.9438562664e+01   4.4570491185e+01      0.29929     0.217178  70.14 0.0002621794    1.370    0.270
        52 -10.8065     63.9763    125.6972   7.9087693769e+01   4.2677552615e+01    0.6133163     0.405703  79.98  0.002694491    1.859    0.462
        53  -9.2661    197.7739    132.4664   4.6136496707e+01   1.7319139971e+01    0.5178016    0.2168648 -44.48  0.002221442    2.443    0.591
        54  -8.4877    220.8236    133.2697   4.2658058637e+01   1.3502054153e+01    0.1650393    0.1572967  79.03 0.0006725258    1.455    0.313
        55  -7.5547    181.4683    129.4497   4.8392315151e+01   2.0642415338e+01    0.1341407     0.121961 -15.36 0.0006552148    1.004    0.004
        56  -9.0542     72.8171    126.9689   7.6269087664e+01   4.1033792593e+01    0.3662437    0.2153463  25.85  0.001547604    1.806    0.446
        57  -8.1127    180.6378    135.6820   4.9886686822e+01   1.9728530000e+01    0.1413302   0.09940025   1.89 0.0007041838    1.768    0.434
        58  -8.1975    130.1347    122.9503   5.8205905886e+01   3.1651794063e+01    0.2175815    0.1997448  83.67  0.001168682    1.221    0.181
        59 -10.3604     63.3098    131.6729   8.0327475961e+01   4.1227015678e+01    0.3857882    0.2556937  52.41  0.001787661    1.513    0.339
        60 -10.3376     57.9393    116.8941   7.9699151978e+01   4.5833817893e+01    0.2658934    0.2459897  62.21            0    1.036    0.034
        61  -9.7229    134.6232    115.5108   5.5301057336e+01   3.2316475896e+01    0.4173413     0.224574 -33.38  0.001642914    2.223    0.550
        62  -8.2551    140.0347    114.7059   5.3777365582e+01   3.1380535321e+01     0.208468    0.1979474  31.67 0.0006156049    1.055    0.052
        63  -8.1404    190.8673    111.3581   4.2677353239e+01   2.1937420701e+01    0.2300118    0.1651611 -44.94 0.0006246468    1.351    0.260
        64  -8.8234    206.9265    110.2621   3.9878934662e+01   1.9193394405e+01    0.2350842    0.1556568 -42.17  0.001016428    1.391    0.281
        65 -10.4668    159.6178    106.5928   4.7382888960e+01   2.8925317160e+01    0.6703258    0.3458275  48.05  0.002865091    2.010    0.503
        66  -8.2473    149.7948    107.9435   4.9836864002e+01   3.0707410835e+01    0.2266129    0.1974691  -7.01 0.0006233897    1.272    0.214
        67  -9.2537    216.6456    109.4109   3.8284752766e+01   1.7636987787e+01    0.3976925    0.2446287 -12.20  0.001977039    2.069    0.517
        68  -9.8096    208.8545    104.3995   3.8290675761e+01   1.9736013932e+01    0.3623202    0.2736084 -80.83  0.002024811    1.953    0.488
        69  -7.9868    126.4867    104.4977   5.4614940422e+01   3.6313576991e+01    0.1502092    0.1483014  81.76  -7.0785e-05    1.014    0.014
        70  -7.3196    108.9881    104.4572   5.9510875015e+01   3.9970464096e+01    0.2168136    0.1499157  43.44 1.277235e-05    1.422    0.297
        71  -8.4695    134.8560    102.8370   5.2041887505e+01   3.4877949229e+01    0.2256156     0.209242   5.09 0.0004207732    1.169    0.144
        72  -8.5893    143.4070     99.8237   4.9201739979e+01   3.3640997790e+01    0.3532031    0.2505643 -72.13 0.0008968003    1.929    0.482
        73  -9.5122    158.9356     98.5416   4.5485133734e+01   3.0548397572e+01    0.2985696    0.2509452 -31.92 0.0005484676    1.175    0.149
        74 -10.4193    176.4059     91.8985   4.0471618763e+01   2.8017751461e+01     0.432442    0.3169496 -20.82  0.000986088    1.505    0.336
        75  -7.4424    206.0412     86.0214   3.4461979539e+01   2.2989345917e+01    0.1597735    0.1232968 -35.68 -0.002661949    1.127    0.112
        76  -9.3830    183.5484     81.1349   3.6539092503e+01   2.8265058758e+01    0.5292681    0.2438042 -35.08  0.001626974    1.996    0.499
        77  -7.5959    135.7084     81.9381   4.6026986970e+01   3.8827492906e+01    0.2096842    0.1861314 -53.14 0.0003569965    1.112    0.101
        78  -8.6499    202.8219     79.9719   3.3452368542e+01   2.4501916412e+01    0.2583446    0.1886625  73.04  0.001457357    1.646    0.392
        79  -8.4369    129.1360     79.0310   4.6754109707e+01   4.0910827535e+01    0.2385303    0.2127825  51.70  0.001241129    1.128    0.114
        80  -8.4403    199.0553     67.9122   3.0980934261e+01   2.7003964369e+01    0.3115825    0.1694693 -29.81  0.001288617    1.748    0.428
        81  -8.9213     99.9520     66.7509   5.0975964994e+01   5.0155866110e+01    0.2999942    0.2233943 -45.30 0.0003471686    1.366    0.268
        82  -9.0123    126.4834    234.4636   7.7327615095e+01   1.1072906018e+01    0.1955544    0.1569449  18.24 0.0001102322    1.054    0.051
        83  -9.3305    189.8084    154.4397   5.1982937956e+01   1.5111142331e+01    0.4631539    0.2573939  28.45  0.001888305    1.944    0.486
        84  -8.5397    200.3555     59.0780   2.8600403655e+01   2.7965697040e+01    0.2522776    0.1769286 -78.48  0.001376465    1.647    0.393
        85  -8.8570    202.0910     53.7544   2.7057863539e+01   2.8318413644e+01    0.2961512    0.1864058 -29.18 0.0007537482    1.511    0.338
        86  -8.4438    198.8910     50.5406   2.6593982474e+01   2.9419990603e+01     0.408701    0.2716363 -31.31    0.0022391    1.403    0.287
        87  -8.8778    208.0710     55.6125   2.6869262641e+01   2.6836679496e+01    0.3312705    0.1544515 -34.10 0.0008271635    1.824    0.452
        88  -8.4714    168.1320     59.2270   3.3023970392e+01   3.5094831857e+01    0.2113883    0.1933611   8.84 0.0005932738    1.306    0.234
        89  -7.1212     97.2978     50.7326   4.5926587008e+01   5.3883363895e+01    0.1494023    0.1179576 -85.26 0.0001808063    1.518    0.341
        90  -7.7813     74.3412     47.0024   5.2607633575e+01   5.9876413900e+01    0.2507134    0.1180261 -61.45 0.0007049896    4.481    0.777
        91 -11.6099    227.9645     75.5255   2.9399437936e+01   2.0393272521e+01     1.287001     0.590516 -22.02  0.001156764    2.627    0.619
        92  -8.0001    193.0950     44.3518   2.5618629060e+01   3.1484223087e+01    0.2117658    0.1670899 -29.18 0.0003276576    1.272    0.214
        93  -9.0154    148.4078     43.5708   3.1455536621e+01   4.2193481465e+01    0.2523556    0.2382467  57.23 0.0004610332    1.153    0.132
        94  -8.4699    197.2433     37.5753   2.3406393892e+01   3.1424279420e+01    0.2984471    0.1929334  36.47  0.001509229    2.250    0.555
        95  -7.5258    189.4908     37.4789   2.4166109298e+01   3.3158239498e+01    0.1318209    0.1172838 -55.64 0.0001005939    1.045    0.043
        96  -7.4732    168.5287     35.5357   2.6019007504e+01   3.8307794943e+01    0.1377415    0.1250672 -65.91  0.000150759    1.030    0.029
        97  -8.5403    184.3504     31.8025   2.3143726284e+01   3.5026081651e+01    0.2558725     0.215965 -26.93 0.0007855078    1.270    0.213
        98  -7.6392    195.9964     28.4781   2.1133382066e+01   3.2781572862e+01     0.187456     0.122052  81.31  0.001030466    1.593    0.372
        99  -9.2041    231.1375     24.8295   1.7635506858e+01   2.5931590526e+01    0.4274694    0.1545594 -55.60  0.001952294    2.622    0.619
       100  -8.2775    139.3612     24.2200   2.6353882523e+01   4.7064181775e+01    0.4049252    0.1531012 -17.23  0.001252697    4.308    0.768
       101  -8.0369     99.4135     25.7442   3.4858347463e+01   5.7345658268e+01    0.1980055    0.1463299 -13.78 0.0009566705    1.640    0.390
       102  -9.0183    199.4285     23.6756   1.9587386664e+01   3.2568104533e+01    0.2428469    0.1003705 -34.19 0.0008572127    2.007    0.502
       103  -8.6058    185.2787     21.9667   2.0321255543e+01   3.5950238758e+01    0.2146826    0.1767651  72.52 0.0003433436    1.290    0.225
       104  -8.7245     52.9808    234.1219   9.3532254533e+01   1.9570905134e+01    0.1745676    0.1473023  44.66  0.001255024    1.113    0.102
       105  -8.0037    135.7255     19.9912   2.5385827334e+01   4.8509060819e+01    0.1955691     0.176264 -52.83 0.0005130249    1.109    0.098
       106  -8.4110    128.1627     20.6545   2.6812085101e+01   5.0422469371e+01    0.2907791    0.1309475  79.93  0.001028824    2.499    0.600
       107  -9.8945    202.5982     18.2052   1.7936872210e+01   3.2470177254e+01    0.2878453    0.2718433  85.89  0.001866335    1.240    0.193
       108  -7.7966    112.1256    229.7818   7.9898024380e+01   1.3558886058e+01    0.1785319    0.1379453  38.54 0.0006129623    1.197    0.164
       109  -7.8905    141.6912     16.4735   2.3300664867e+01   4.7341479129e+01    0.2428955     0.127773 -25.44 0.0007273547    2.021    0.505
       110  -7.1250     15.0168     17.7695   7.4541342746e+01   7.5818817675e+01    0.1560944    0.1037313  20.37 0.0008356654    1.493    0.330
       111  -7.2987    233.3210    217.6420   5.5405539732e+01   9.9947439562e-01   0.08678484   0.08005634  -9.61 0.0007044654    1.765    0.433
       112  -7.4427    150.0175    214.9849   6.9990952737e+01   1.1142427630e+01     0.145331    0.1175215  14.97 0.0004159425    1.008    0.008
       113  -7.4906    203.3153     10.3201   1.5877368791e+01   3.3127491935e+01    0.1133793   0.09391117  34.68 0.0004199939    1.656    0.396
       114  -8.6244    249.3994    211.0692   5.2047469428e+01   1.0820987954e-01    0.1748259    0.1269854  17.51 0.0008154772    1.387    0.279
       115  -7.9977     53.9367    210.3115   9.1739402874e+01   2.4019282751e+01    0.1937781    0.1641753 -29.66 0.0005260693    1.522    0.343
       116  -7.7718     59.5301    207.5120   9.0137756058e+01   2.3964635637e+01    0.1272759    0.1068707  37.18 0.0001487421    1.051    0.048
