#   1 NUMBER                 Running object number                                     
#   2 MAG_AUTO               Kron-like elliptical aperture magnitude                    [mag]
#   3 X_IMAGE                Object position along x                                    [pixel]
#   4 Y_IMAGE                Object position along y                                    [pixel]
#   5 X_WORLD                Barycenter position along world x axis                     [deg]
#   6 Y_WORLD                Barycenter position along world y axis                     [deg]
#   7 A_WORLD                Profile RMS along major axis (world units)                 [deg]
#   8 B_WORLD                Profile RMS along minor axis (world units)                 [deg]
#   9 THETA_WORLD            Position angle (CCW/world-x)                               [deg]
#  10 FWHM_WORLD             FWHM assuming a gaussian core                              [deg]
#  11 ELONGATION             A_IMAGE/B_IMAGE                                           
#  12 ELLIPTICITY            1 - B_IMAGE/A_IMAGE                                       
         1 -15.7376    220.0140     28.9014   4.0482050566e+01   2.7356536611e+01     7.704166     3.961393 -21.52   0.03826348    2.533    0.605
         2 -14.8816    238.5426     48.3741   4.3036778601e+01   2.1384973137e+01    0.9235793    0.6410078 -48.42  0.003701771    1.191    0.160
         3 -15.2199    248.6471     26.9507   3.7926864395e+01   2.2041398138e+01     1.941102    0.5678413 -38.20   0.00807956    2.530    0.605
         4 -11.5497    127.5830     26.8579   5.1791274237e+01   4.9101639176e+01    0.6887795    0.4243079   2.64 0.0009372449    2.388    0.581
         5  -9.3957    114.5082      3.1952   4.5848460299e+01   5.4530101300e+01    0.3270144    0.2623723 -74.91  0.001961319    1.386    0.278
         6  -9.8465    125.8916     14.1739   4.7764238444e+01   5.0803916836e+01    0.3206308    0.2642046 -85.79  0.001138162    1.264    0.209
         7 -11.6777    119.0686      9.7690   4.7418175968e+01   5.2879300045e+01    0.7567249    0.4580839  52.55  0.002894196    1.438    0.304
         8 -14.5983    238.8067     34.1435   4.0073361560e+01   2.3050477584e+01     1.335785    0.8215878  -2.57  0.003047869    3.571    0.720
         9  -9.7199    204.5793      6.8051   3.6779725099e+01   3.2910259504e+01    0.2271292    0.1888662   1.79  0.001439554    1.702    0.412
        10  -9.4801     92.4450      7.6990   5.2120016159e+01   5.9504000967e+01    0.2194711    0.1643772   7.56  0.000729084    1.498    0.332
        11  -9.4848    250.8052      4.9962   3.3615336726e+01   2.3953372871e+01    0.1858211   0.08409514 -36.22 0.0003175137    1.882    0.469
        12 -11.4202    246.9181      2.0762   3.3262591030e+01   2.4944000069e+01    0.3549141     0.193927  60.84 0.0008232784    2.200    0.545
        13  -8.0263    180.5594      5.5077   3.8398337785e+01   3.8375078754e+01    0.1217154    0.1053209 -87.69 9.323736e-05    1.045    0.043
        14  -9.9758    209.9035      2.4947   3.5452979223e+01   3.2184089662e+01    0.3245709    0.2108091  72.80  0.002068989    1.480    0.324
        15 -16.7436    244.5952     60.4799   4.4990123293e+01   1.8720430822e+01     5.738695     5.471223 -47.10   0.03286038    1.207    0.171
        16 -10.3287    229.9716    194.2360   7.4292686374e+01   9.1731444085e-01    0.3285947    0.1940351  47.71  0.001664679    2.761    0.638
        17  -8.5338     50.9758    189.8013   1.1559909027e+02   2.8247809199e+01    0.1807181    0.1717222 -28.49 0.0003225688    1.194    0.162
        18 -10.8662    208.7155    185.5141   7.6531495246e+01   5.2555563092e+00     0.645986    0.3847736 -59.02  0.002587709    3.843    0.740
        19 -11.4209    216.0110    183.6339   7.4803702357e+01   4.4921048920e+00    0.4891227    0.3894002  12.08  0.002010492    1.182    0.154
        20  -9.5790    213.8436    167.5174   7.2029614846e+01   7.4599940247e+00    0.4929526    0.2895019  62.78  0.001698125    5.410    0.815
        21 -10.7672    230.4785    167.4577   6.9099174268e+01   4.9641300779e+00     0.422276    0.3365611 -28.37  0.001624777    1.159    0.137
        22 -11.2661    226.9296    173.8551   7.0958654171e+01   4.4698832459e+00    0.5266174    0.3376447   6.70  0.002848775    1.738    0.425
        23 -11.2431    220.2546    176.7181   7.2693171847e+01   4.9847359574e+00     0.543231     0.440225  59.41  0.002661228    2.059    0.514
        24  -9.0706    220.2855    171.6195   7.1686132066e+01   5.8029585707e+00    0.3039072    0.2278186 -45.18   0.00110867    1.563    0.360
        25  -8.2579    239.5697    248.4967   8.1830904253e+01  -7.5165716833e+00     0.114287   0.07826969  -2.49 0.0001660734    1.014    0.014
        26  -7.6886    115.7958    174.9544   9.5837920769e+01   2.2590356839e+01    0.1828856    0.1187246 -50.25 0.0003901008    1.608    0.378
        27  -8.3976     52.5185    174.0718   1.1338107364e+02   3.1876078126e+01     0.189271    0.1736202  36.48 2.054034e-06    1.093    0.085
        28  -9.0082    187.9583    170.4686   7.7677188691e+01   1.1129916120e+01     0.204708    0.1326571  34.21 0.0003809588    1.554    0.357
        29  -8.2347     99.0035    169.3600   9.9433558445e+01   2.6612181089e+01    0.2031861    0.1797628  36.38 0.0004777116    1.097    0.088
        30  -9.9610    200.9919    164.5098   7.3837000720e+01   1.0032259511e+01    0.3294401    0.2355892 -73.25  0.001424144    3.127    0.680
        31  -9.9621    203.8101    160.8202   7.2531020181e+01   1.0212283982e+01    0.3187212    0.2586446 -51.04  0.001415437    1.521    0.343
        32 -12.7142     13.5925    158.8785   1.2294179871e+02   3.9374842012e+01    0.9009773    0.7962222 -86.95  0.003893479    1.015    0.015
        33  -9.0926    178.7509    156.5048   7.6689397328e+01   1.5334711653e+01    0.3232135    0.2281014 -79.21  0.001280769    3.185    0.686
        34 -10.4867    192.3348    152.6661   7.3042533530e+01   1.3629635206e+01    0.6009852    0.2302188 -50.30   0.00195882    3.777    0.735
        35  -8.9350    157.8313    156.1642   8.1341450966e+01   1.9228910327e+01    0.2085768    0.2051086  23.89 0.0002929168    1.176    0.150
        36  -8.5410    147.1564    155.8959   8.3873469241e+01   2.1265107164e+01    0.2130089    0.2096842  14.11 0.0004082709    1.143    0.125
        37  -8.8645    204.6311    153.2116   7.0777771359e+01   1.1403304011e+01     0.400067    0.2170799 -55.44  0.001594481    2.981    0.665
        38  -8.3838    198.7980    153.2001   7.1886374703e+01   1.2404065406e+01    0.1934069    0.1476985  -7.96 0.0003894075    1.316    0.240
        39  -8.0339    212.6455    152.3217   6.9119515226e+01   1.0214607121e+01    0.1275875    0.1081922 -69.89 0.0005835994    1.757    0.431
        40 -10.2310    133.8243    146.0677   8.5121434931e+01   2.5914493749e+01    0.9208407     0.250784 -52.81  0.002286786    5.173    0.807
        41 -12.3767     67.8969    144.0075   1.0423549250e+02   3.7549502180e+01     2.186477     1.541579 -84.19  0.008289968    1.720    0.419
        42 -11.4251     42.7437    147.4212   1.1282657075e+02   3.9716819677e+01    0.4927566    0.3984157   9.45  0.001229443    1.377    0.274
        43 -12.2900     51.0228    144.1954   1.0969903720e+02   3.9637086437e+01    0.8622722    0.7700878  85.45  0.002944052    1.151    0.131
        44 -11.7509     58.2667    141.9574   1.0698601003e+02   3.9342298125e+01    0.7830334    0.4770953 -81.59  0.001816345    2.020    0.505
        45  -9.8105    143.3281    145.2095   8.2463361741e+01   2.4283589772e+01    0.3561858    0.1844587 -48.68  0.001398047    2.020    0.505
        46  -9.5859    192.0618    144.0206   7.1205174117e+01   1.5260703119e+01    0.2117239    0.1943603 -24.14 0.0003909653    1.095    0.087
        47  -8.3354    210.3219    238.0304   8.5440811644e+01  -2.9038878801e+00    0.1616902    0.1234774  -4.91 0.0003538726    1.096    0.088
        48  -9.3035    210.8884    137.0188   6.6155503793e+01   1.3129649217e+01     0.225568    0.1996979  28.19 0.0008509891    1.229    0.187
        49 -11.1016    191.7970    131.7818   6.8497389241e+01   1.7548334704e+01    0.6154549    0.3085516  41.06  0.001019923    2.132    0.531
        50 -10.1544    197.9054    128.8188   6.6663952913e+01   1.6925705625e+01    0.2932991     0.231288  -5.44   0.00104946    1.373    0.271
        51 -12.6188    184.8502    123.5428   6.7934674496e+01   2.0411737345e+01     1.472067    0.7089419 -29.93  0.005741306    2.304    0.566
        52 -11.8191    134.7381    112.3452   7.6599093965e+01   3.3112830050e+01     2.782517    0.2443149 -44.70  0.004329308   12.193    0.918
        53 -12.7662    120.8505     98.7097   7.6646813355e+01   3.8967254501e+01     2.041807     1.754781 -82.05  0.009992597    1.478    0.323
        54 -11.4037    129.3906     96.9474   7.3776798940e+01   3.7468226286e+01    0.7001423    0.4371883 -47.01  0.002130782    1.673    0.402
        55  -9.6363    140.8749    133.1221   8.0259586898e+01   2.7383302749e+01    0.2980156    0.2314695 -54.31 0.0005635322    1.426    0.299
        56  -8.7008     80.0073    131.0301   9.7744673180e+01   3.9076075612e+01     0.241494    0.1874564  69.90  0.001119595    1.632    0.387
        57  -8.2330    225.5378    130.3617   6.2283596705e+01   1.1715516462e+01    0.2174725    0.1632093 -88.37  0.001114001    2.376    0.579
        58  -9.5300    204.8780    127.7472   6.5159186426e+01   1.5812824163e+01    0.2574764    0.2073999 -49.54 0.0004921599    1.323    0.244
        59  -8.7127    205.5630    123.0571   6.3979234539e+01   1.6497136618e+01    0.3402364    0.2179707  30.78  0.001436217    1.854    0.461
        60  -9.5152    154.2087    125.6823   7.5130085935e+01   2.6236024049e+01    0.3726364    0.2029295 -55.32  0.001402771    2.381    0.580
        61  -8.1162     94.9535    126.4646   9.1877574769e+01   3.7720888114e+01    0.2279903    0.1522508  34.23 0.0003529139    1.489    0.329
        62  -7.9648     99.3594    125.1572   9.0174992907e+01   3.7250472110e+01     0.208807    0.1492848 -62.20  0.000117261    1.596    0.374
        63  -9.0667    209.5475    220.6914   8.2735691608e+01  -3.4794944092e-01    0.2022373    0.1975993 -85.64 0.0006096017    1.876    0.467
        64 -10.6512    136.0773    129.6754   8.0672585573e+01   2.9098397499e+01    0.8220182    0.2585368 -48.25  0.002446014    3.387    0.705
        65 -10.6009    164.0616    117.0507   7.0705259926e+01   2.5908963911e+01    0.4851877    0.3170029 -35.93  0.001334838    1.494    0.331
        66  -8.5095    215.9253    117.0781   6.0908319014e+01   1.5588252966e+01    0.2019083    0.1711659 -53.83 0.0005504525    1.272    0.214
        67  -9.6125    169.2322    115.3290   6.9146153932e+01   2.5153632379e+01    0.3226441    0.2011321 -49.68  0.001026414    1.719    0.418
        68  -8.2993     40.1750    116.1850   1.0869884265e+02   4.8111186592e+01    0.1972568     0.164911  84.90  0.001052912    1.338    0.252
        69  -9.9345    175.6304    113.9026   6.7451484368e+01   2.4082430955e+01    0.3968228    0.3215919  87.46   0.00197376    1.688    0.408
        70 -10.3532    211.0001    104.2842   5.8789193263e+01   1.8619267574e+01    0.4514496     0.382973 -59.06  0.002668645    1.263    0.208
        71 -10.6279    206.6333    102.7072   5.9114295445e+01   1.9729433604e+01    0.5239108    0.2944056  43.98  0.002487335    2.003    0.501
        72  -9.5470    211.8105    110.5692   6.0098472873e+01   1.7430834000e+01    0.3491137    0.2536239 -27.23    0.0005702    1.309    0.236
        73 -10.6945    206.4326    109.8442   6.0804585217e+01   1.8581176095e+01    0.5163357    0.4763931  80.29  0.002194881    1.278    0.217
        74  -7.7722    178.3644    110.2858   6.6001527516e+01   2.4179322424e+01    0.1505049     0.112737  10.47 0.0004844052    1.692    0.409
        75 -10.8672    160.4281    129.0794   7.4501283572e+01   2.4269803629e+01    0.5449098    0.3757094 -30.66  0.002521204    1.467    0.318
        76  -8.7831    140.9729    106.4722   7.3410407573e+01   3.2987576543e+01    0.2942183    0.2152543 -55.92 0.0006899796    1.565    0.361
        77  -9.3106    147.4360    105.0269   7.1423959891e+01   3.1862659095e+01    0.2991611    0.2290953  41.45 0.0006150886    1.312    0.238
        78  -8.7900     83.3036    104.0760   9.0128140380e+01   4.5162357124e+01     0.205289    0.1926448 -40.23 0.0003026115    1.079    0.073
        79 -10.2071    156.8649    101.1311   6.8181263695e+01   3.0537609115e+01    0.4644158    0.3471254  44.72  0.001472931    1.356    0.263
        80  -9.8983    197.4025    176.9093   7.7055106356e+01   8.4450298355e+00    0.3978674    0.2972356 -76.27  0.001803721    3.021    0.669
        81 -10.6775    140.5383     95.4872   7.0481309158e+01   3.5273529342e+01    0.4289651    0.3676923 -87.85  0.001353371    1.448    0.310
        82  -8.8094    208.1355     96.4688   5.7421992242e+01   2.0449251893e+01    0.3142518    0.1339155  52.99  0.001316814    2.576    0.612
        83  -7.6416     85.6452     96.3226   8.7153990698e+01   4.6555463287e+01    0.1569126    0.1248112  73.80 0.0007046482    1.760    0.432
        84 -10.9579    142.2049     86.5116   6.7507789861e+01   3.6600649068e+01    0.6249548    0.3482192  43.64  0.002590886    1.805    0.446
        85  -9.9641    140.5478     81.3512   6.6394460704e+01   3.7927356693e+01    0.4014315    0.2848034  50.03  0.001185348    1.391    0.281
        86 -10.1580    100.3370     84.4864   7.8616814315e+01   4.6281357534e+01    0.2760421    0.2582635   2.41 0.0002476208    1.024    0.024
        87 -11.3133    130.1153     88.1518   7.1023439222e+01   3.9049922181e+01    0.5604715    0.4333962  35.08  0.001513406    1.309    0.236
        88 -10.1135    133.9724    100.0131   7.3430013724e+01   3.5835898679e+01    0.3510666    0.3204859  75.02 0.0005218359    1.256    0.204
        89 -10.1528    154.4553     70.9491   6.0275565716e+01   3.6445725178e+01    0.3545295    0.2966671 -62.88 0.0004195517    1.299    0.230
        90  -8.0325    125.2950     68.3451   6.6171072995e+01   4.3788441078e+01    0.1552544    0.1163141  12.90 0.0007031814    1.668    0.400
        91 -11.0360    135.6066     63.2422   6.2034754842e+01   4.2189061747e+01    0.6024131    0.3252967 -34.21  0.001841401    1.927    0.481
        92 -10.0285    140.2458     64.9850   6.1524983974e+01   4.0797482487e+01    0.3562292    0.1973428  42.00  0.001266065    1.896    0.473
        93  -9.5016    143.8969     54.7923   5.7602337369e+01   4.1485164070e+01    0.3149635    0.1419139  41.10  0.001157302    2.644    0.622
        94 -10.6552    181.5185     50.3461   4.9916899363e+01   3.3133949050e+01    0.3988647    0.2752952 -19.99  0.001097451    1.725    0.420
        95  -9.8268    111.0897     39.3840   5.9903756914e+01   5.1603509163e+01     0.448868    0.1858599 -27.67   0.00150869    2.745    0.636
        96  -9.0641    164.9479     39.9785   4.9503704012e+01   3.8387035410e+01    0.2317344    0.1527895 -69.81  0.001135248    1.762    0.433
        97  -9.5861    204.6264    174.8395   7.5227929925e+01   7.6634713308e+00    0.2529846    0.2180121  81.24  0.001407761    2.048    0.512
        98  -9.1959    159.9425     35.9960   4.9120271804e+01   4.0084363338e+01    0.2346769    0.1528646 -71.07  0.001139155    1.811    0.448
        99  -8.5893    177.0160     34.8782   4.6423612253e+01   3.6141747782e+01    0.2278425    0.1701599 -38.74 0.0007322041    1.345    0.257
       100  -8.2091    171.1824     35.1234   4.7260405375e+01   3.7489976584e+01    0.1873545    0.1439211 -62.53 0.0007817872    1.300    0.231
       101  -8.7132    167.8795     32.6697   4.7032668647e+01   3.8567009261e+01    0.2555743    0.1887312 -16.51  0.001397086    1.639    0.390
       102 -10.5858    229.4498    213.6086   7.7854098917e+01  -1.8313855819e+00    0.3400705    0.2105799 -11.39 6.893388e-05    1.423    0.297
       103 -10.2904    126.3381     22.6994   5.0607645013e+01   4.9856105036e+01     0.286113     0.236742  82.86 0.0009499918    1.219    0.180
       104  -7.9703    160.4396     30.9689   4.7595393503e+01   4.0555629406e+01    0.1810513     0.131293 -31.70  0.000377479    1.471    0.320
       105 -10.3109    144.7220     30.0201   4.9746651356e+01   4.4510622043e+01    0.3660171    0.1822449 -27.88  0.001561733    2.194    0.544
       106  -8.5627    112.5179     29.9529   5.6096375101e+01   5.2443033186e+01    0.1990185    0.1403167 -25.00 0.0005360893    1.571    0.363
       107  -9.7938    178.2742     24.9601   4.3643521157e+01   3.6975695629e+01    0.5357747    0.3420609  65.39  0.001845966    1.469    0.319
       108  -8.7904    197.5393    214.9780   8.4094769541e+01   2.1116631657e+00    0.2273359    0.1467893  24.68  0.000916713    1.395    0.283
       109  -9.1693    198.5955    210.1314   8.3040291333e+01   2.7282172840e+00     0.229895    0.1815434  14.53 0.0003931472    1.145    0.127
       110  -9.3843    199.1968    205.6810   8.2131022704e+01   3.3531633433e+00    0.2027603    0.1598288 -30.61 0.0004678217    1.324    0.245
       111  -8.2580    155.0679     14.5256   4.3556130815e+01   4.3586931923e+01    0.1890799    0.1152042  71.07  0.000319761    1.456    0.313
       112  -7.9997    225.9823    202.0286   7.6419168579e+01   2.8052953111e-01    0.1508082    0.1162228  -6.01 0.0003111612    1.016    0.015
       113 -10.0428    204.7890    200.5631   8.0106758050e+01   3.3830146965e+00    0.2987497    0.1728676 -12.52  0.001472539    1.915    0.478
       114 -10.0857    166.5819    200.3873   8.8044345094e+01   9.1036139009e+00    0.2486246    0.2178702   7.26 0.0003009933    1.070    0.065
       115 -10.5516    241.9676    199.9396   7.3280651353e+01  -1.4343231978e+00     0.281517    0.2136744  26.97  0.001357064    1.512    0.339
       116 -10.3134    192.7516    194.3329   8.1352606194e+01   6.1645879756e+00    0.8166656    0.4410776 -59.75  0.002701281    5.404    0.815
       117  -9.2406    188.2327    185.1617   8.0540088762e+01   8.4483019348e+00    0.2351887    0.2147572  -1.54 0.0003418711    1.173    0.147
       118  -7.9799    118.8078    198.1468   9.9007534271e+01   1.7031053837e+01    0.1814107    0.1518866  -6.65 0.0002224496    1.251    0.201
