#   1 NUMBER                 Running object number                                     
#   2 MAG_AUTO               Kron-like elliptical aperture magnitude                    [mag]
#   3 X_IMAGE                Object position along x                                    [pixel]
#   4 Y_IMAGE                Object position along y                                    [pixel]
#   5 X_WORLD                Barycenter position along world x axis                     [deg]
#   6 Y_WORLD                Barycenter position along world y axis                     [deg]
#   7 A_WORLD                Profile RMS along major axis (world units)                 [deg]
#   8 B_WORLD                Profile RMS along minor axis (world units)                 [deg]
#   9 THETA_WORLD            Position angle (CCW/world-x)                               [deg]
#  10 FWHM_WORLD             FWHM assuming a gaussian core                              [deg]
#  11 ELONGATION             A_IMAGE/B_IMAGE                                           
#  12 ELLIPTICITY            1 - B_IMAGE/A_IMAGE                                       
         1 -12.6773    144.0975     54.0735   7.4420535075e+01   4.2340727270e+01     2.009539     1.116461  53.06  0.001053969    1.813    0.448
         2 -10.6878     16.6715     38.4310   1.1163606751e+02   6.6624617119e+01     1.107545    0.7869701 -63.99  0.007326593    1.200    0.167
         3 -12.2125    118.5753     49.2309   7.8983243507e+01   4.9158649336e+01     1.692306     1.396512   7.61  0.008710173    1.377    0.274
         4 -11.3857      4.8643     80.8892   1.2426573810e+02   5.8036426994e+01     2.741792    0.3129135 -71.39  0.008574249    5.197    0.808
         5 -11.0492     90.6862     21.2596   7.5617419803e+01   5.9600255325e+01    0.7547083    0.4565395  -9.16  0.001856746    2.052    0.513
         6 -12.6197     52.0508     91.1150   1.1131070645e+02   5.1631449293e+01     2.444907    0.7402042 -47.60  0.008681129    3.644    0.726
         7 -11.6992     74.6586     47.8695   9.1902767490e+01   5.7934519600e+01      2.30024    0.5804102 -40.37  0.006914466    4.159    0.760
         8 -12.2225     54.3173     35.4458   9.4752148913e+01   6.3367137437e+01    0.9947684    0.8454803  60.24  0.006207032    1.568    0.362
         9 -12.4272     86.3347     52.1112   8.9527242964e+01   5.5119478994e+01     4.510283     1.368255 -47.77   0.01493205    3.267    0.694
        10 -11.5916     37.1426     41.7351   1.0397894327e+02   6.4153833731e+01     1.157431    0.6470979   7.97  0.005653458    2.851    0.649
        11 -12.9822     33.5354     67.1496   1.1228176919e+02   5.8999994252e+01     2.059236     1.084303  12.23    0.0100553    3.004    0.667
        12 -12.6683     17.9086     95.8518   1.2227268763e+02   5.3802135032e+01     1.692925    0.7616979 -75.16  0.008880441    1.790    0.441
        13 -10.4396     68.7225     19.3762   8.2183388060e+01   6.3980376008e+01      1.20916    0.8189577  26.60  0.006609132    1.627    0.385
        14 -11.3319     59.1596     49.7033   9.8075430079e+01   5.9875813105e+01     1.275986    0.6281036 -56.52  0.005821977    2.011    0.503
        15 -12.1666    131.0523     18.0345   6.3820296132e+01   5.0827536319e+01      1.26909    0.7773979  45.29  0.003933738    1.603    0.376
        16 -10.5195    121.4648     11.5104   6.3169079749e+01   5.3946448793e+01    0.4966614    0.2508787  45.80 0.0008576772    1.914    0.477
        17 -10.8882     99.3853     38.3935   8.0262808598e+01   5.5130274402e+01    0.8888744    0.5269827 -26.68  0.004040102    1.745    0.427
        18 -11.5611    111.8691     21.9282   6.9932590992e+01   5.4929141152e+01     1.131766    0.8364092 -52.41  0.005716589    1.603    0.376
        19 -10.6940    117.4188     15.2815   6.5710436960e+01   5.4481428799e+01    0.5436654    0.3592851 -87.08  0.001899429    2.366    0.577
        20 -11.9809    112.6895      7.4688   6.3377556532e+01   5.6492029077e+01     1.085877    0.3555128  58.36  0.003949342    2.847    0.649
        21 -12.3596     99.9187      6.5136   6.6084887764e+01   5.9525332889e+01    0.6472227    0.4666046 -11.93 0.0008975432    1.351    0.260
        22 -11.6928     93.7896      8.1335   6.8529182349e+01   6.0678507674e+01    0.5834169    0.4633478  35.37  0.003345322    1.215    0.177
        23  -9.7840    176.3421     14.9451   5.4856232545e+01   3.9318778904e+01    0.3068885    0.2577823  12.64  0.001095583    1.310    0.236
        24 -11.0913    178.0569     27.9497   5.8990741354e+01   3.7352999095e+01     1.549557    0.7444756  29.68  0.005081514    3.418    0.707
        25  -9.9538    176.7460     22.2897   5.7287006046e+01   3.8384825965e+01    0.6593262      0.34136  16.64   0.00220576    3.431    0.709
        26 -10.2128    249.1639      4.5314   4.4442128975e+01   2.1747413064e+01     0.673993    0.2265766 -34.56   0.00277233    2.344    0.573
        27  -9.3086    226.2518      8.3930   4.7286118048e+01   2.6912577281e+01    0.2993308    0.2283917  49.89 0.0007916959    1.440    0.305
        28 -10.0065    231.5367     17.3149   4.9272955601e+01   2.4664222513e+01    0.7545065    0.3434692 -43.56  0.003215583    2.009    0.502
        29 -11.1106    215.3270     23.2976   5.2629516859e+01   2.8085903965e+01     1.092926    0.6414018  -1.85  0.004590275    2.296    0.564
        30 -10.8390    233.2864      9.3262   4.6935917993e+01   2.5072304166e+01    0.4615912    0.4015518 -26.43  0.002389232    1.155    0.134
        31 -10.9469    243.3922     11.3618   4.6643734710e+01   2.2417203533e+01     1.019362    0.3425798 -20.63  0.003630091    3.142    0.682
        32 -11.1312    211.2142     15.8471   5.0887060534e+01   2.9972679319e+01    0.8557848     0.511884  25.84  0.002418317    2.308    0.567
        33  -9.2090    222.1188     10.7084   4.8309904799e+01   2.7717455979e+01    0.5273113    0.2817125 -46.90  0.001542682    1.781    0.439
        34 -11.4607    236.5049     31.6647   5.2703214986e+01   2.1826070718e+01     1.031184    0.6409753   3.04  0.004580387    2.221    0.550
        35 -10.5118    202.1163     18.5609   5.2725658165e+01   3.2054287465e+01    0.9647875    0.3713526  41.00  0.003105085    3.664    0.727
        36 -10.1464    198.4978     15.1922   5.2109404427e+01   3.3375733565e+01    0.4339115    0.2626266  -7.64  0.001905346    1.975    0.494
        37 -10.9761    244.0934     19.1738   4.8635587230e+01   2.1420862319e+01    0.9236736    0.3463472  65.19  0.003742443    2.664    0.625
        38  -9.8933    238.4629     14.6624   4.7929619915e+01   2.3254976471e+01    0.3749352    0.2077345 -52.99 0.0009142651    1.771    0.435
        39 -10.5483     41.3231      4.1730   8.5755974793e+01   7.0486937353e+01    0.5517662    0.3447962  -8.14  0.002869231    1.823    0.451
        40 -11.1312     51.4429     23.7324   9.1029462502e+01   6.5915828490e+01    0.7992889     0.392415 -25.01 0.0005064239    2.733    0.634
        41 -10.7250     68.9975      3.9031   7.4229447814e+01   6.6109833391e+01    0.7385378    0.3611395  32.22  0.003385684    2.340    0.573
        42 -11.4551     25.0442      5.5126   9.4626035152e+01   7.2227038700e+01    0.5514013     0.506062 -29.29  0.003440295    1.287    0.223
        43 -10.4176     31.6005     11.3533   9.4238142280e+01   7.0534428906e+01    0.3713862    0.2197401 -29.63  0.002106246    1.515    0.340
        44 -11.7841     19.7669     13.7281   1.0136612791e+02   7.1287045102e+01     0.687319    0.5693685   9.26  0.003395852    1.394    0.283
        45 -11.1735     50.0679      9.9434   8.4940322517e+01   6.8385267148e+01    0.4141461    0.3167923 -15.22  0.001482033    1.158    0.136
        46 -12.0988     56.0957      3.5870   7.8969717747e+01   6.8370771383e+01    0.5851543     0.466073 -11.72  0.001450754    1.060    0.056
        47 -10.9076     23.7443     31.9848   1.0649754281e+02   6.7407900585e+01    0.9415155     0.279015 -60.99  0.003540007    3.428    0.708
        48 -11.9959     30.3876     23.0049   1.0007570383e+02   6.8557952707e+01    0.9818792    0.4674177 -45.97  0.005209921    1.658    0.397
        49 -11.9837     38.1188     24.5832   9.7182955356e+01   6.7433795622e+01    0.5983873     0.371198 -27.67  0.001660755    1.620    0.383
        50 -11.3070     42.6026     15.0579   9.0839512135e+01   6.8586824862e+01    0.6768116    0.5369857  49.39  0.003444782    1.742    0.426
        51 -11.8723     12.5137      7.1574   1.0230017052e+02   7.3084232721e+01    0.6857775    0.3105498 -43.69  0.002998512    1.653    0.395
        52 -12.4256      8.9697     25.4800   1.1128028299e+02   6.9810520036e+01    0.8100674     0.565367 -37.54  0.003886344    1.280    0.219
        53 -12.5793      3.2457     17.3846   1.1148950250e+02   7.1765388492e+01    0.3917466    0.1994398 -41.93 0.0004243425    1.578    0.366
        54 -13.6893      3.9641      9.4404   1.0812583873e+02   7.3258032989e+01    0.6532637    0.3080905 -55.82  0.001424222    1.632    0.387
        55  -9.7659    149.8149      9.3082   5.6853353508e+01   4.6977908923e+01    0.6765895    0.2738546  60.00  0.002600944    2.228    0.551
        56 -11.1718    158.0345     18.7039   5.8984416840e+01   4.3788593355e+01     1.670725    0.5239529 -33.04  0.005651149    2.876    0.652
        57 -11.1618    163.8300      4.6248   5.2992911729e+01   4.3716541627e+01     1.272223    0.6334072 -21.66  0.005353719    2.044    0.511
        58 -11.4419    148.9917     16.8639   5.9867873004e+01   4.6377740990e+01     1.151647    0.5725184  26.83  0.004075031    2.988    0.665
        59 -10.0222    165.7676     11.5770   5.5199026471e+01   4.2509493540e+01    0.2833894    0.2609135  69.36 0.0007463913    1.065    0.061
        60 -10.2909    169.8684     13.5638   5.5300017801e+01   4.1202615304e+01    0.3667235     0.274428 -56.39 0.0007380532    1.435    0.303
        61 -10.2644    185.6503     13.8114   5.3237602462e+01   3.6944426689e+01    0.5413786    0.2312015  57.51  0.002113503    2.180    0.541
        62  -9.5614    141.0486     10.7459   5.8932864982e+01   4.9112563301e+01    0.4809866    0.2616704 -55.79  0.001216528    2.462    0.594
        63  -9.7134    173.6102      8.7284   5.3103372850e+01   4.0697162673e+01    0.3427999    0.2077146 -21.95 0.0008869744    1.686    0.407
        64 -10.1629    180.7241      4.8747   5.0896267323e+01   3.9162756657e+01    0.4308768    0.2766928  39.81  0.001554044    1.694    0.410
        65  -8.7719    175.2538      4.1668   5.1328154698e+01   4.0697322135e+01     0.404908    0.1685193  61.16   0.00108248    2.162    0.537
        66 -10.8938     77.3529      9.1443   7.4088131351e+01   6.3886271793e+01    0.2816599    0.2530703  23.06 0.0005742912    1.136    0.120
        67  -9.5435     78.8779      3.9688   7.0921799435e+01   6.4230444262e+01    0.5243485    0.2489155  32.19  0.002264128    2.467    0.595
        68  -9.6786    189.8645      7.8994   5.0808254369e+01   3.6423101711e+01     0.382753    0.1802853  60.47  0.001583049    1.985    0.496
        69  -9.6764    204.6355      6.1076   4.8656703283e+01   3.2688745904e+01    0.2623155    0.2222277  86.47 0.0007678408    1.157    0.136
        70 -10.7574    212.4596      4.4448   4.7406475780e+01   3.0814187867e+01    0.6864902     0.386503  67.73  0.002453173    1.730    0.422
        71 -10.2888    207.3455      2.9146   4.7434543908e+01   3.2287755582e+01    0.4425018    0.3945407 -38.79  0.002255468    1.102    0.093
        72 -10.6616    200.4581      6.7693   4.9287241809e+01   3.3722271875e+01    0.5586423    0.2677696 -25.74  0.002027046    2.019    0.505
        73 -10.2379    196.5838      6.1947   4.9520124938e+01   3.4802843759e+01    0.5236156    0.3235427  -6.66  0.002387756    1.909    0.476
        74 -10.2181    221.7081      2.1652   4.5935842026e+01   2.8668376547e+01    0.5560855    0.2326324  53.17  0.002252477    2.526    0.604
        75  -8.0937    238.3415      7.2794   4.5972045439e+01   2.4046790783e+01    0.1333742   0.09884742  38.31 0.0007007635    1.626    0.385
        76 -11.0109    132.4466      4.3974   5.7945075206e+01   5.1955528239e+01    0.6078453    0.3499666  50.21  0.002145028    1.619    0.382
        77 -10.9938    139.7870      1.7433   5.5568306427e+01   5.0323011288e+01    0.4094332    0.2935291  68.75  0.001230139    1.384    0.277
        78  -9.1675    229.4048      3.0263   4.5541594694e+01   2.6657204653e+01    0.3480333    0.1537267  64.03  0.001499693    2.215    0.549
        79  -8.7533    122.4057      3.1453   5.9358238249e+01   5.4586977352e+01    0.2332696    0.1676829 -60.69  0.001152694    1.754    0.430
        80  -8.2628     37.2328      1.3137   8.6088630275e+01   7.1455354782e+01    0.1183448   0.07633567 -15.38 0.0005128438    1.496    0.331
        81 -10.1327     14.0112    237.2739   1.3277990578e+02   2.6448291339e+01      0.19774    0.1393144 -58.48  0.001613382    2.346    0.574
        82  -9.4475    235.3887    249.1731   9.9041688917e+01  -4.7480733697e+00    0.1398872    0.1057965  38.92  0.001117619    1.354    0.261
        83  -9.3768    212.1854    250.3788   1.0268096810e+02  -1.5866570297e+00    0.1514204   0.07560772  46.23 0.0009486441    1.722    0.419
        84  -9.1227    183.8935    250.1116   1.0701160692e+02   2.5503717537e+00      0.16385     0.117128  49.36  0.001234845    1.290    0.225
        85 -11.4414     77.6064     62.6222   9.5889432700e+01   5.4459587188e+01     1.044363    0.4064835 -37.37  0.002572326    3.249    0.692
        86  -9.6276     12.6757    232.3016   1.3280259478e+02   2.7355157928e+01    0.2204718    0.1073122  66.48  0.001009511    1.431    0.301
        87  -8.7291    243.6151    239.3064   9.6470712697e+01  -5.0502503312e+00   0.09374824   0.07537992  51.11 0.0007019771    1.799    0.444
        88 -11.9693    101.3218     55.5665   8.6112442813e+01   5.1634112739e+01     1.124977    0.7508771  14.53  0.003326715    2.294    0.564
        89  -8.6781    184.3478    236.3022   1.0528213669e+02   3.9950185462e+00    0.1113444   0.07075246  23.47 0.0007039381    1.691    0.409
        90  -8.7856    227.2555    231.5902   9.7855702379e+01  -1.9968238176e+00    0.1552093   0.07702468  33.64 0.0005378953    1.574    0.365
        91  -9.0136    202.0391    228.9831   1.0147131196e+02   2.0890363441e+00    0.1698704     0.128327  36.19 0.0003609406    1.054    0.051
        92 -12.2100     12.0863    108.6590   1.2537770832e+02   5.1363655190e+01     1.053126    0.6772574 -41.33  0.006110847    2.026    0.507
        93  -8.5469     50.5560    227.7390   1.2664706673e+02   2.4084675723e+01    0.1369184   0.07610027  82.12 0.0009499602    1.631    0.387
        94 -11.0313     17.8646     81.5367   1.2025158557e+02   5.7040742004e+01    0.2253758    0.2106633 -85.04 0.0004682088    1.215    0.177
        95 -11.9365     70.4475     30.4214   8.6529560015e+01   6.1863824293e+01    0.5051112    0.3594044 -35.13 0.0001782982    1.245    0.197
        96 -12.0151     63.0176     30.9404   8.9527035689e+01   6.2952968642e+01     1.014493    0.3489086  34.87  0.003777881    3.740    0.733
        97  -9.8247     92.2308    119.9502   1.0584095336e+02   3.9479940029e+01    0.3807974    0.2459738 -56.01  0.001409283    1.476    0.322
        98  -9.3621     92.5054    115.4544   1.0487911917e+02   4.0430618536e+01    0.2258575      0.16723 -69.27 3.063378e-05    1.300    0.231
        99  -9.0725     90.8619    112.3877   1.0468162304e+02   4.1378575083e+01    0.3043054    0.2475434  11.12 0.0009119521    1.736    0.424
       100 -11.1253     42.5983    118.1184   1.1845269615e+02   4.6521364622e+01    0.5727298    0.2252692  59.76  0.002273996    3.573    0.720
       101  -8.5559    131.9704    119.4767   9.5964359916e+01   3.2372138582e+01    0.2114659    0.1393715  47.61  0.000365545    1.502    0.334
       102  -9.7661    104.7119    117.1042   1.0209706870e+02   3.8002721780e+01    0.3644257    0.2626312  83.88  0.001615363    1.679    0.405
       103  -9.8884     98.4362    114.4803   1.0314536169e+02   3.9660214656e+01    0.3947519    0.2505582  45.06  0.001771861    1.620    0.383
       104  -9.8875     51.0301    118.3518   1.1627672790e+02   4.5536786679e+01    0.3074121    0.2108461  86.31   0.00179205    1.403    0.287
       105  -8.6523    118.6691    116.2849   9.8443749934e+01   3.5629221687e+01     0.145475    0.1088285  81.70 0.0003165758    1.615    0.381
       106  -9.1887    109.7204    115.3124   1.0045157392e+02   3.7497816041e+01    0.2628521    0.1633376  54.94  0.000885681    1.700    0.412
       107  -9.9823     83.1225    114.3303   1.0710976586e+02   4.2159650120e+01     0.407381    0.2535033  23.43  0.001366558    2.395    0.583
       108 -10.9614     67.3137    107.8837   1.1014077493e+02   4.5884938302e+01    0.6465244    0.2998699 -42.03  0.002626762    2.964    0.663
       109 -10.0347     74.1666    107.5799   1.0819823342e+02   4.5003817644e+01    0.3732933    0.2768219  41.09  0.001483832    1.482    0.325
       110 -10.9996     77.4580    101.9418   1.0613490219e+02   4.5802104037e+01     0.702463    0.3073969  39.70  0.002546029    2.458    0.593
       111  -9.4314     44.8461    113.9486   1.1726934682e+02   4.7223267451e+01     0.227665    0.1955303  14.43  0.001498243    1.604    0.377
       112  -9.9733     34.0137    109.8796   1.1961938369e+02   4.9248235717e+01    0.5470688    0.3676548 -35.93  0.003174394    2.075    0.518
       113  -9.3113    132.9821    112.5530   9.4119855203e+01   3.3590408833e+01    0.2789879    0.2038961 -65.14 0.0008551561    1.524    0.344
       114  -9.0050     59.5823    112.2562   1.1303184148e+02   4.5892590601e+01    0.1884653    0.1031887 -56.05 0.0009511835    1.676    0.403
       115  -8.7047    104.4630    109.0171   1.0039769881e+02   3.9811013858e+01    0.2155187    0.1328897 -53.75   0.00056278    1.551    0.355
       116  -9.4590     53.1711    104.6521   1.1349969745e+02   4.8403185067e+01    0.3271539    0.1661955 -71.24  0.001586654    1.824    0.452
       117  -9.6468    150.9535    104.9412   8.8054779196e+01   3.1295751862e+01    0.2116988    0.2095197 -67.19            0    1.009    0.008
       118  -9.7406    133.6220    103.3850   9.1710767659e+01   3.5339471604e+01    0.4173352    0.1393126 -45.13  0.001376706    2.958    0.662
       119  -9.4113    141.4411    102.8750   8.9716227398e+01   3.3780488438e+01    0.3611154    0.2628957 -36.16  0.001735831    1.437    0.304
       120  -9.7743    171.2526    102.5975   8.3038053104e+01   2.7149590084e+01    0.3674411    0.2583409  28.95  0.001287619    1.680    0.405
       121  -8.7879     96.8290    102.9568   1.0103320402e+02   4.2478478608e+01    0.1989872    0.1783534 -42.41 0.0002746546    1.200    0.167
       122 -12.3239     25.3546     82.9416   1.1809839170e+02   5.6142486000e+01    0.8467398    0.6337265 -84.89  0.005481302    1.198    0.165
       123 -12.3896    107.8875     67.7209   8.8279787141e+01   4.7943598608e+01     1.619558     1.329646  42.58  0.008599282    1.297    0.229
       124  -9.9185     63.6094     99.4413   1.0955518774e+02   4.8300158867e+01    0.5175604    0.2553747 -54.33  0.002459121    1.805    0.446
       125 -10.2892    116.9356     99.3858   9.4860188865e+01   3.9558587095e+01    0.4497069    0.3021972  -0.48  0.001708981    3.178    0.685
       126  -8.6612     81.0659     97.2204   1.0408305169e+02   4.6323790631e+01     0.227423    0.1670524  37.71 0.0003909851    1.530    0.347
       127  -9.0433     93.3386     89.1159   9.8625456978e+01   4.6131228819e+01    0.4391364    0.2643298  67.33  0.001843394    2.489    0.598
       128  -8.6706     77.4676     93.5609   1.0428172564e+02   4.7693738822e+01    0.2812445    0.2111773   0.13  0.001058812    2.088    0.521
       129 -11.1275     88.5003     91.5878   1.0062994406e+02   4.6400129413e+01     1.497762    0.7099966 -70.28  0.004958023    3.800    0.737
       130  -9.6051     82.0279     90.0214   1.0211525520e+02   4.7789540706e+01    0.3136796    0.2653803  67.54  0.001096137    1.274    0.215
       131  -9.7807     82.3353     85.3726   1.0086485573e+02   4.8776395499e+01    0.6830359    0.2295443 -41.52  0.002134653    4.007    0.750
       132  -9.4863     87.4445    100.5426   1.0304513583e+02   4.4575404024e+01    0.2440894    0.2249492  73.52 0.0005074203    1.108    0.097
       133  -9.2885     85.0091     97.4856   1.0302799993e+02   4.5648818437e+01    0.3119829    0.2075125  68.19  0.001242249    1.893    0.472
       134 -10.5362     35.6705     98.6317   1.1751222811e+02   5.1647620136e+01    0.4181397    0.2911518   5.84  0.002209744    2.222    0.550
       135  -8.3873    147.6004     98.5155   8.7138613278e+01   3.3294634243e+01    0.1479443    0.1442084 -39.84 -2.033574e-05    1.032    0.031
       136  -9.6397    159.6478     96.6278   8.3924173513e+01   3.0928743586e+01    0.3873675    0.3321903  53.88  0.001825098    1.178    0.151
       137  -9.6893    114.4653     95.6027   9.4531782348e+01   4.0845385875e+01    0.3358479    0.1774085  51.19  0.001405777    2.029    0.507
       138  -8.6489    188.8350     94.1525   7.7286225620e+01   2.4514489439e+01    0.2112585    0.1773338  13.80  0.000787253    1.316    0.240
       139 -10.3611    126.7016     90.6532   9.0052079351e+01   3.9403592674e+01    0.6041335    0.4489671 -57.31  0.002949206    1.390    0.281
       140 -11.1800    119.0589     85.7824   9.0663093450e+01   4.1991747290e+01    0.6018028     0.576367  78.59  0.003396675    1.072    0.067
       141  -9.6618    123.5976     80.4332   8.7930883663e+01   4.2139847494e+01    0.3595877    0.3087391 -41.36  0.001065117    1.130    0.115
       142  -8.3571    137.2418     90.9779   8.7532919656e+01   3.7075062544e+01    0.2013167    0.1249586 -43.18 0.0008752617    1.578    0.366
       143  -8.4177    224.9293     89.9925   6.9947944353e+01   1.6717737369e+01     0.169153    0.1616259   5.38 0.0004165047    1.047    0.045
       144  -8.2223    200.4445     90.5164   7.4169306908e+01   2.2355919190e+01    0.1491855     0.142565 -10.78 6.300218e-05    1.009    0.009
       145  -8.4903    187.4380     89.5105   7.6286774045e+01   2.5633209580e+01    0.1502397    0.1458907 -26.04 9.807233e-05    1.020    0.020
       146  -9.3164     74.1587     89.3697   1.0427820866e+02   4.9127908445e+01    0.5024863    0.1018964  41.73  0.001506087    5.032    0.801
       147  -8.5499    153.0054     87.4771   8.2857993948e+01   3.4191843594e+01    0.2371554    0.1498341  49.41  0.001030942    1.598    0.374
       148 -10.6625    144.8228     76.3331   8.1454510810e+01   3.8198356723e+01    0.4852128    0.3457024 -16.74  0.002159295    1.739    0.425
       149 -10.3673    139.1089     76.1807   8.2765316555e+01   3.9548553819e+01     0.418403    0.3252134  -6.81  0.001501553    1.627    0.385
       150 -10.0599    146.2441     85.6855   8.3894142237e+01   3.6093318845e+01    0.6128666    0.2973909 -34.09  0.001754835    2.220    0.550
       151  -9.7719    150.1734     77.6890   8.0630239255e+01   3.6688944204e+01    0.5168195    0.3689914  20.13   0.00225726    1.876    0.467
       152  -9.1057    239.4543     86.4945   6.6882108502e+01   1.3955948245e+01    0.1424864    0.1284828 -12.03 0.0003234492    1.031    0.030
       153  -9.6511    140.7078     84.5690   8.4878143799e+01   3.7568114915e+01    0.3459893    0.2516199 -58.00  0.001021192    1.514    0.339
       154 -10.6132    164.2832     86.0258   7.9969826883e+01   3.1804170429e+01    0.3180607    0.2772812   3.30 0.0005757546    1.285    0.222
       155  -8.3550     76.6795     84.3292   1.0229524726e+02   4.9883723847e+01    0.1400751    0.1031503  86.89 0.0002918575    1.690    0.408
       156 -10.0846    217.0604     81.0044   6.8807418603e+01   1.9883309807e+01    0.5484666    0.2500632 -24.27  0.002055591    2.353    0.575
       157  -8.7428    219.4377     75.2303   6.6873400966e+01   2.0172393172e+01    0.2222271    0.1258698 -40.13 0.0009554424    1.697    0.411
       158  -9.9999    160.3830     81.7986   7.9584330377e+01   3.3504523567e+01    0.4322584     0.315497  60.19  0.001824043    1.453    0.312
       159  -9.6499    135.3176     80.3204   8.4936578201e+01   3.9607609463e+01    0.4013156      0.21017 -32.67  0.001556548    2.124    0.529
       160 -10.3030    133.3695     77.5068   8.4572975577e+01   4.0591502022e+01    0.6987634    0.2409368 -42.59  0.002306419    2.793    0.642
       161  -8.5063    188.5087     80.0231   7.3426147500e+01   2.6956747525e+01    0.2265078    0.1170566 -52.86 0.0008099079    2.503    0.601
       162  -9.6602    178.8830     79.5029   7.5106759099e+01   2.9410571149e+01    0.4560175     0.283796 -59.21  0.001837147    2.114    0.527
       163  -9.6719    247.6762     75.3351   6.2922274454e+01   1.3665621406e+01    0.3137956     0.205742 -54.05  0.001250283    1.776    0.437
       164  -9.1784    214.4763     73.0864   6.7050431970e+01   2.1681132715e+01    0.4711099    0.2583137  -5.62  0.001672892    2.955    0.662
       165  -8.9957     76.6522     74.3636   9.9668897443e+01   5.2090575606e+01    0.3368541    0.2120112  21.86  0.001571542    2.272    0.560
       166  -9.4515    191.7995     73.2409   7.0876141676e+01   2.7242235382e+01    0.3977575    0.2596301 -86.71 0.0008387113    2.425    0.588
       167  -8.9139     84.5527     74.5221   9.7259062858e+01   5.0795166359e+01    0.2100514    0.1385367  26.07 0.0009631715    1.975    0.494
       168  -9.3144    152.0621     71.6342   7.8350642847e+01   3.7344751070e+01    0.5927109    0.2012876  52.20  0.001911327    2.939    0.660
       169 -10.4605    151.0702     67.1717   7.7169956998e+01   3.8381086869e+01    0.4030976    0.3460546   9.24  0.001729069    1.317    0.241
       170 -10.7811    138.3887     68.3359   8.0486591959e+01   4.1187931841e+01    0.9303037    0.4929743  57.48   0.00354621    2.079    0.519
       171  -8.9304    132.0638     67.8871   8.1893699554e+01   4.2726819284e+01     0.301452    0.2217614  45.44 0.0009514512    1.406    0.289
       172 -10.3624    159.6143     50.9991   7.0050826431e+01   3.8955161270e+01      0.63629    0.4225609 -47.68  0.002421496    1.585    0.369
       173 -11.2214    165.5337     61.1712   7.2181555887e+01   3.5817353661e+01      1.21748     0.415788 -30.46  0.003789773    3.058    0.673
       174  -9.7781    152.6820     44.0414   6.9085022758e+01   4.1796102801e+01    0.3762852    0.2655599 -42.28  0.001118153    1.425    0.298
       175  -9.8014    156.7563     43.8086   6.8176501855e+01   4.0788958998e+01    0.2817796    0.2564107  79.91  0.000707501    1.170    0.145
       176  -9.4047     84.8961     67.9345   9.5204792803e+01   5.2145015447e+01    0.2717502    0.2119305 -20.78  0.001431513    1.528    0.346
       177  -8.8208    110.7931    224.6041   1.1629125600e+02   1.6706830708e+01     0.166899   0.07770683  50.77 0.0009513003    1.688    0.408
       178  -9.9807    250.5044     65.4713   6.0049505057e+01   1.4341081989e+01    0.5982966    0.1255511 -27.66  0.001713276    4.278    0.766
       179 -11.8805     43.1862     50.0938   1.0422082980e+02   6.1759089835e+01    0.7143759    0.4874464  13.34  0.003302387    1.923    0.480
       180  -9.2944    199.0102     63.0818   6.6671357179e+01   2.7004906170e+01    0.2222521    0.2129855 -31.88            0    1.010    0.010
       181  -8.6489     61.9334     62.6359   1.0115796060e+02   5.6771285449e+01    0.1721748     0.161045 -54.43 0.0004714105    1.082    0.076
       182  -9.0818    189.2256     49.5363   6.4179799842e+01   3.1506959967e+01    0.2712206    0.2419531  67.36 0.0008285025    1.153    0.133
       183  -9.3861    179.0864     59.0005   6.8890670695e+01   3.2711078852e+01    0.4895706    0.3017275 -11.00  0.001628086    2.118    0.528
       184  -9.8858    185.8189     54.0116   6.6142717860e+01   3.1736506491e+01    0.4353445    0.2605799  -4.82  0.001658142    2.416    0.586
       185 -11.1956    182.1049     50.6763   6.5735947546e+01   3.3193314680e+01    0.5643123    0.3948149 -28.08  0.002612185    1.412    0.292
       186 -10.6826    174.2457     56.4821   6.8994339063e+01   3.4346410332e+01    0.6616191    0.4456996   1.23  0.002157995    2.035    0.509
       187  -9.1150    137.1997     59.4125   7.7843939069e+01   4.3081608581e+01    0.2814657    0.1431128  48.71 0.0007676876    1.997    0.499
       188 -10.1866    222.5098     56.7744   6.1331389112e+01   2.2046541009e+01     0.428032    0.3471873  77.60  0.002074365    1.369    0.270
       189  -9.1357    158.8957     58.3359   7.2627091336e+01   3.7957084858e+01    0.2918438    0.1995917  42.03  0.001303513    1.540    0.351
       190  -8.9648    243.1726     54.7003   5.8131786657e+01   1.7396327148e+01    0.2204296    0.1742763 -69.72  0.001179161    1.434    0.303
       191  -9.4261    201.6019     58.2065   6.4817936441e+01   2.7068949775e+01    0.4591646    0.3289221  -2.99  0.002096923    1.682    0.405
       192  -8.7610    197.3985     54.7372   6.4450642672e+01   2.8645559381e+01     0.252324    0.2007052 -81.82 0.0006947069    1.467    0.319
       193  -9.8649    193.1419     53.8736   6.4875403071e+01   2.9865591797e+01    0.3017291    0.2618074  84.66 0.0004358571    1.249    0.200
       194 -12.0023     56.7636     69.8068   1.0491488207e+02   5.5877278850e+01    0.9289663    0.4692135  28.05  0.004337754    2.545    0.607
       195  -8.4270    167.6167    220.7946   1.0608924443e+02   8.5060411124e+00    0.1310496    0.1096842 -69.06 0.0005437274    1.607    0.378
       196  -8.5444    225.5244     49.4350   5.8881149252e+01   2.2291592991e+01    0.1435487    0.1360959 -32.64 6.149076e-05    1.017    0.017
       197  -9.2149    196.9861     49.5455   6.2945201843e+01   2.9493074869e+01    0.3430746    0.1274238  55.23  0.001194665    2.583    0.613
       198  -8.8858    171.3703     48.0286   6.6796452152e+01   3.6378084023e+01    0.3398207     0.144527 -29.39  0.001211158    2.321    0.569
       199  -9.4065     94.4910     47.9664   8.5441465650e+01   5.4399663229e+01    0.4827295    0.4003308   7.05  0.001977853    1.370    0.270
       200  -9.8928    136.3646     24.9871   6.5461836642e+01   4.8626523792e+01    0.3300671     0.229882   5.06  0.000795904    1.717    0.418
       201  -9.0418     41.1640    221.2341   1.2780761604e+02   2.6208178504e+01    0.1380928    0.1047829 -37.48 0.0009531269    2.846    0.649
       202  -8.7130    104.9683    219.9962   1.1685402393e+02   1.8255780123e+01    0.1544825    0.1320081  23.17  0.001128841    1.651    0.394
       203  -9.1190      3.4900    213.9902   1.3357267721e+02   3.1197370657e+01    0.1447806   0.07187064 -89.76  0.001046454    1.633    0.388
       204  -9.5620     26.8428    212.1066   1.2969228529e+02   2.9275056270e+01    0.1720738   0.09768077  66.37  0.001252683    1.285    0.222
       205  -9.6555    123.9902    205.9790   1.1196115242e+02   1.7623795057e+01    0.1694744    0.1358916  55.35  0.001172418    1.003    0.003
       206  -9.5606    244.3903    204.4399   9.1017121179e+01  -1.8967309623e+00    0.2097115    0.1423374  15.13  0.000243339    1.291    0.225
       207 -12.0446    105.7998     33.5842   7.6455401591e+01   5.4570125505e+01    0.5409963    0.3866694 -71.16 0.0003823398    2.143    0.533
       208 -11.7135    112.1759     31.3866   7.3805959301e+01   5.3505730983e+01    0.7999197    0.4742614  79.53  0.001744475    3.209    0.688
       209  -8.6218    234.0000    199.9668   9.1907315020e+01   2.1127648108e-01    0.1698741   0.06368863 -31.16 0.0003970177    2.944    0.660
       210  -9.3036     10.6682    192.0911   1.3148591712e+02   3.4389125785e+01    0.1776801    0.1047476  57.19  0.001125173    1.316    0.240
       211  -9.5038    230.4157     45.4340   5.7160906672e+01   2.1614422266e+01    0.3701242    0.2601591  66.08  0.001211653    1.517    0.341
       212 -10.0551    206.4225     46.1044   6.0505452469e+01   2.7536196829e+01    0.4332592    0.2099465  62.52  0.001728012    2.103    0.525
       213  -9.9713    155.0176     33.7348   6.4970135456e+01   4.2683680247e+01    0.6830325    0.3990707   8.47  0.002517763    2.726    0.633
       214  -9.2524    142.7500     38.9563   6.9369150929e+01   4.5070648490e+01    0.3163049    0.2323141 -17.66 0.0005072803    1.435    0.303
       215 -10.3391    144.0267     42.5390   7.0389344517e+01   4.4209902680e+01    0.8369789    0.3417141  41.12  0.002776965    2.991    0.666
       216 -10.9135    139.2645     41.7070   7.1144471059e+01   4.5520675545e+01    0.7113931    0.3868992  63.43  0.002874401    2.060    0.515
       217 -10.5126    148.6522     34.8165   6.6618345528e+01   4.4174907924e+01    0.5553879    0.3277254  65.62  0.001823098    1.822    0.451
       218  -9.5748    143.4890     34.4829   6.7565102396e+01   4.5535827342e+01    0.2620828    0.2464119 -55.47 0.0007026074    1.119    0.107
       219  -9.3911    105.7071     44.8718   8.0925742820e+01   5.2705139572e+01    0.3946781     0.329719  41.24  0.002135256    1.253    0.202
       220  -9.8938    213.7707     42.9635   5.8569405994e+01   2.6076664054e+01    0.4902686    0.2926306   3.06  0.001695707    2.483    0.597
       221  -8.0530    196.5031     45.5274   6.1792184628e+01   3.0177370754e+01    0.1496708    0.1449195 -44.59 -1.208509e-06    1.008    0.008
       222  -8.6310    234.5778     59.5197   6.0480198785e+01   1.8772684092e+01    0.1433993    0.1313223 -25.46 0.0001523873    1.024    0.023
       223  -9.8440     66.7641     43.2416   9.3001350205e+01   6.0076934028e+01    0.3980187    0.2021899 -42.43  0.001042712    1.731    0.422
       224  -9.0072    219.9547     42.6566   5.7677540930e+01   2.4555550050e+01    0.1993422    0.1858826  59.51 0.0007566942    1.129    0.114
       225  -9.4462    203.0008     27.6962   5.5414910707e+01   3.0771317323e+01    0.5192999    0.2935166 -42.72  0.002272538    1.715    0.417
       226  -9.8523    198.7446     32.6986   5.7514289768e+01   3.1276304936e+01     0.473239    0.3645722  -2.74  0.002020122    1.475    0.322
       227 -10.0777    202.5240     38.1235   5.8655906784e+01   2.9598440905e+01    0.5799574    0.3403111 -32.51     0.002564    1.606    0.377
       228  -8.8523    206.1463     34.8466   5.7175118814e+01   2.9074765564e+01    0.3006162    0.2078866  65.05 0.0007835866    1.472    0.321
       229  -9.9295    162.7231     41.7077   6.6291425781e+01   3.9555733879e+01    0.6562688    0.2860321  71.60  0.002115029    3.240    0.691
       230  -8.8202    162.0069     37.5137   6.4980474258e+01   4.0339324613e+01    0.2482606     0.205118 -51.79 0.0008481707    1.268    0.211
       231  -8.7600    225.6875     41.6097   5.6669130757e+01   2.3260916044e+01    0.2891631    0.1290435  60.31  0.001158315    2.259    0.557
       232  -8.7852    196.8328     41.5232   6.0511652054e+01   3.0634710805e+01     0.221521    0.1490728  66.48  0.001011902    1.534    0.348
       233  -9.0953    191.0191     40.4217   6.1043293347e+01   3.2304976317e+01      0.31818    0.2241403 -11.53 0.0005852614    1.589    0.371
       234  -9.5669    192.3423     35.4845   5.9290513463e+01   3.2607287833e+01    0.3583869    0.2390822 -30.20  0.001659232    1.451    0.311
       235  -9.7422    194.8510     30.5817   5.7390710192e+01   3.2564887712e+01    0.5045779    0.2896871  -5.66  0.001856144    2.306    0.566
       236 -11.1026    167.3798     24.3347   5.9447264934e+01   4.0641737687e+01    0.6451688    0.2717104  54.00 0.0008544292    2.229    0.551
       237  -8.8447     50.0247    188.3181   1.2405809683e+02   3.1016402769e+01    0.1519867    0.1114211  63.84 0.0003578183    1.093    0.085
       238 -10.0119    180.3700     37.9164   6.1919914937e+01   3.5449459699e+01    0.7107937    0.3372254 -56.11   0.00240183    3.016    0.668
       239 -10.6329    173.8572     38.6648   6.3254680904e+01   3.7067138099e+01    0.3582837    0.2710752  79.74  0.000372577    1.466    0.318
       240  -8.9362    245.7167    187.0219   8.7811812572e+01  -2.6541717065e-01    0.1647619    0.1309785   7.78 0.0004800451    1.076    0.071
       241 -10.6708    183.0072     27.4336   5.8073089221e+01   3.6096663162e+01    0.6474738    0.3558732  37.02  0.002586608    2.203    0.546
       242  -8.8331      7.7612    185.9741   1.3171605035e+02   3.5775359940e+01    0.1277068   0.06658595 -85.91  0.000315319    1.547    0.354
       243  -9.3042    235.4236     38.8508   5.4774262838e+01   2.1223939095e+01    0.2573592     0.206049  58.01 0.0008792689    1.336    0.252
       244  -8.4412     43.7224    185.6883   1.2505156737e+02   3.2234412217e+01   0.09410845     0.080314 -63.79  0.000266621    1.561    0.360
       245 -11.0707    214.4595     32.8447   5.5524599501e+01   2.7180077882e+01     1.170357    0.6847253  86.73  0.004116972    2.111    0.526
       246  -9.6947     11.9059    184.1930   1.3088165108e+02   3.5737615767e+01    0.1767052    0.1075072 -61.36  0.001223957    2.014    0.503
       247 -10.1064     18.7691    184.0494   1.2961767176e+02   3.5128437987e+01    0.2356449    0.1310369  44.66  0.001618776    1.651    0.394
       248 -10.3636      1.7209    178.8854   1.3248384429e+02   3.7618692622e+01    0.3758326    0.1058835 -80.58   0.00191329    2.871    0.652
       249 -10.0622    246.2263     33.0698   5.2093258985e+01   1.9347099806e+01    0.7051063     0.191019  57.24  0.002457415    3.541    0.718
       250  -9.1883     26.1727    176.6058   1.2777054997e+02   3.5834769709e+01    0.2791767    0.1382372  40.31  0.001218165    1.946    0.486
       251 -11.0499     12.9151    164.4915   1.2960057323e+02   3.9455830994e+01    0.6670834    0.1268884  42.44  0.003103103    3.493    0.714
       252 -10.2507      2.3434    160.5866   1.3147891064e+02   4.1112828044e+01    0.3678534    0.1636391 -83.20  0.002250355    1.760    0.432
       253  -8.8605     10.0252    157.7758   1.2977374137e+02   4.1050291947e+01    0.1507995     0.112638 -45.79  0.001071453    2.010    0.503
       254  -9.1830     84.5239    154.4579   1.1334823819e+02   3.3232062234e+01    0.2135178    0.1234405  28.64  0.001035685    2.388    0.581
       255 -12.3882     20.2707    147.9157   1.2692704989e+02   4.2190357053e+01    0.7911088     0.514295  74.08  0.003870568    1.257    0.204
       256 -11.5480      5.8960    143.2443   1.2972204530e+02   4.4364244690e+01     0.522511    0.3659411  75.77 0.0007281143    1.117    0.104
       257 -11.2036      5.2711    136.0955   1.2937793804e+02   4.5910107425e+01      1.15346    0.5510427   6.31  0.005213904    5.400    0.815
       258 -11.1532     18.3983    122.2268   1.2511871932e+02   4.7873865808e+01    0.5599101    0.2117089 -63.04  0.002847484    2.190    0.543
       259  -9.1706    123.2492     36.0399   7.2803697580e+01   5.0252589846e+01    0.2811491    0.2161054  51.11  0.000616234    1.325    0.245
       260  -9.1178    125.0120     32.4692   7.0974880721e+01   5.0371319049e+01    0.3646863    0.2308237  40.08  0.001407341    1.654    0.395
       261  -8.4004    114.2991     36.3270   7.5223436537e+01   5.2264682317e+01    0.1503938    0.1107819  11.59 0.0007028204    1.636    0.389
       262 -11.2243     67.7970     73.2822   1.0219771846e+02   5.3635141756e+01      1.00891     0.359852 -54.80  0.003928076    2.475    0.596
       263 -10.5933    134.8436     33.7524   6.9175925891e+01   4.7800260684e+01    0.3554659    0.2735934 -14.08 0.0002884723    1.359    0.264
       264  -9.0337    138.4600     31.4877   6.7516367466e+01   4.7223430971e+01    0.2791646    0.1849823 -30.68 0.0007733871    1.477    0.323
       265  -9.5730     32.5144     33.2957   1.0305366415e+02   6.6339467513e+01    0.2373061    0.1452025 -43.27 0.0008277526    1.338    0.252
       266 -10.8369     14.2948    118.0127   1.2573822935e+02   4.9128606442e+01    0.8305568    0.3993477 -43.10  0.004181551    3.080    0.675
       267 -10.9287     12.9852    129.7269   1.2711108177e+02   4.6676627919e+01    0.3187886    0.2419929  53.98  0.001393036    1.361    0.265
       268 -10.8419     12.3250    126.0612   1.2695752713e+02   4.7521628608e+01    0.3008334    0.2253296  83.55  0.001246917    1.063    0.060
       269 -10.2252     45.9058    145.3024   1.2095031686e+02   4.0169605721e+01    0.3715787    0.2961035 -45.81  0.002220149    1.688    0.407
       270 -10.8747     34.6508    150.4081   1.2398574245e+02   4.0287324204e+01    0.4024699    0.2174841  39.98  0.001083998    1.888    0.470
       271 -10.7260     39.1783    147.1563   1.2266816139e+02   4.0504928514e+01    0.3220099    0.2547435  77.35  0.001124941    1.058    0.055
       272 -10.2656     38.3225    143.0916   1.2245340355e+02   4.1464067347e+01    0.2353889    0.2092908   9.94 0.0003145409    1.684    0.406
       273  -8.8131      8.2695    150.9801   1.2971353385e+02   4.2578324407e+01    0.1550043     0.104415  87.79 0.0004220437    1.109    0.098
       274  -9.3662     87.0625    149.0396   1.1200719812e+02   3.3988028573e+01    0.2045979    0.1733187  79.05 0.0007753758    1.028    0.028
       275 -10.0064     66.3999    148.3015   1.1661905288e+02   3.7042822063e+01    0.2519155    0.2039644  40.13  0.001625252    1.416    0.294
       276  -8.3044     60.6323    147.7279   1.1786429058e+02   3.7904058062e+01    0.1097891   0.09508454 -34.61 0.0003601582    1.669    0.401
       277 -11.3431     30.2443    140.0995   1.2401386946e+02   4.2920413181e+01    0.6114272    0.3641396  82.50  0.002148509    1.477    0.323
       278  -9.8977     22.5820    137.1076   1.2550574055e+02   4.4277086868e+01    0.2539757    0.2024464 -66.21  0.001830342    1.354    0.261
       279  -8.8295     23.2765    133.3197   1.2499756983e+02   4.5032786709e+01    0.1636223     0.129447  74.95 0.0006825289    1.121    0.108
       280  -8.3464     98.0089    140.9568   1.0821617672e+02   3.3992476129e+01    0.1615597    0.1404944 -83.07 0.0005411442    1.073    0.068
       281  -8.8560     80.5779    140.7076   1.1227102296e+02   3.6718409573e+01    0.2220595    0.1126231 -59.02 0.0005817182    1.884    0.469
       282  -9.6027    228.1661     31.3504   5.3507987702e+01   2.3905546152e+01    0.3409294    0.2525848 -66.12  0.001014333    1.433    0.302
       283 -10.0082    225.3682     26.5437   5.2462480780e+01   2.5166324060e+01    0.5282761    0.3051698 -78.17  0.002266927    2.204    0.546
       284  -9.1769    145.9609     29.3777   6.5157142189e+01   4.5611355475e+01    0.3772595    0.1989361  41.84  0.001511235    2.037    0.509
       285  -9.5986    248.5833     26.1246   5.0052776896e+01   1.9594246347e+01    0.3324282     0.226927  34.98  0.001691952    1.838    0.456
       286  -9.8028    154.6183     24.8303   6.1820256249e+01   4.3954154945e+01     0.434243    0.2694831 -44.10  0.001534693    1.688    0.408
       287 -10.3260     54.8914    138.1234   1.1801202225e+02   4.0684289386e+01    0.2951539    0.1790366 -56.57 0.0009631913    1.694    0.410
       288  -9.2584     48.9108    138.6582   1.1949735957e+02   4.1267087276e+01    0.3710665    0.1749541  49.95  0.001920613    2.051    0.512
       289  -9.3743     86.4546    134.2202   1.0983981418e+02   3.7251591030e+01    0.2795995    0.1933744  16.37  0.001373592    2.400    0.583
       290  -9.7931    148.3545     23.9359   6.2652614909e+01   4.5698617209e+01    0.4382186    0.2324929  57.12  0.001838886    1.805    0.446
       291 -11.5354     45.8464    131.0995   1.1931835912e+02   4.3270742893e+01     0.429962    0.3923816 -38.11  0.003004517    1.491    0.329
       292 -10.5347     72.2349    130.0667   1.1265330456e+02   4.0225705016e+01    0.3883326    0.2209686 -60.58  0.002020359    1.626    0.385
       293 -11.1806     39.9344    127.1263   1.2029177019e+02   4.4785551391e+01     0.504968    0.2429513 -69.13  0.002671351    1.742    0.426
       294  -9.4756     97.6476     22.0867   7.3899818356e+01   5.8041425595e+01    0.2420438    0.2015354  39.12 0.0006040112    1.218    0.179
       295  -8.4295      1.0000     47.9774   1.2045123484e+02   6.5506167619e+01    0.1685916   0.04973023 -69.50 0.0007406015    2.530    0.605
       296 -11.4793     67.1889    123.6475   1.1290642002e+02   4.2338991131e+01    0.7379605     0.299046 -49.07  0.003070968    2.802    0.643
       297 -10.6806     59.8425    125.7307   1.1509791841e+02   4.2819715640e+01    0.3241402    0.2220332   9.63  0.001326351    2.569    0.611
       298  -9.3995     29.4883    119.7815   1.2205778875e+02   4.7447726138e+01    0.4132214    0.3168596  52.82  0.002817035    1.369    0.270
       299 -10.7502     30.2972    126.8286   1.2264667646e+02   4.5808374031e+01    0.5071262    0.3101467 -36.48  0.002382985    2.644    0.622
       300  -9.5042     22.5072    128.4935   1.2472175416e+02   4.6151249472e+01     0.222146    0.1736424  88.88 0.0007138586    1.024    0.023
       301  -9.4263     25.5072    126.5332   1.2379451995e+02   4.6315041066e+01    0.2859363    0.1887461 -64.52  0.001837654    1.407    0.289
       302  -8.9719     75.1043    124.6502   1.1105432494e+02   4.1028159541e+01    0.2054056    0.1456209  63.44  0.000707783    1.429    0.300
       303 -10.6442     59.6481    120.3740   1.1433296764e+02   4.4046618056e+01    0.3254669    0.2390581 -42.55  0.001887053    1.685    0.406
       304 -11.7861     39.7617     85.7039   1.1404519705e+02   5.4199997727e+01     1.571805    0.6851426 -51.46  0.007501737    2.061    0.515
       305 -12.3148     99.9591     78.3454   9.3784330943e+01   4.7277064381e+01     2.031402     1.483877 -87.33   0.00962919    1.904    0.475
       306 -11.5120    123.4302     68.4287   8.4274207136e+01   4.4548043569e+01     1.324238    0.8500401 -58.94  0.005730981    1.882    0.469
       307  -8.9053    125.1653    249.0157   1.1619124801e+02   1.1221121531e+01    0.1469577    0.1198556   2.80  0.001096503    2.087    0.521
       308  -9.4218     11.1580    248.6270   1.3357374064e+02   2.5002387318e+01    0.2392495    0.0609054  53.47  0.001482389    2.281    0.562
       309 -11.9346     67.2627     62.1548   9.9192017248e+01   5.6129526441e+01    0.2696699     0.253168 -61.57 0.0004371252    1.095    0.087
       310  -9.4018      3.6458    245.9056   1.3455777324e+02   2.6114103706e+01    0.1725098   0.08226997 -74.19  0.001320789    2.240    0.554
       311 -11.2129      4.9235     98.8130   1.2631023013e+02   5.4037683813e+01    0.5874768    0.2972443 -55.13   0.00345206    1.875    0.467
       312 -10.0015    191.1663    245.3154   1.0530526379e+02   1.9833252577e+00    0.3775031     0.107234  45.72   0.00175203    2.808    0.644
       313 -10.0407    142.4454    243.4807   1.1288825536e+02   9.4418560392e+00     0.318813    0.1414557  34.29   0.00170241    2.392    0.582
       314 -13.2717     16.8968     56.9283   1.1610147555e+02   6.2617167066e+01     1.408739    0.9381986  18.34  0.004974635    1.948    0.487
