#   1 NUMBER                 Running object number                                     
#   2 MAG_AUTO               Kron-like elliptical aperture magnitude                    [mag]
#   3 X_IMAGE                Object position along x                                    [pixel]
#   4 Y_IMAGE                Object position along y                                    [pixel]
#   5 X_WORLD                Barycenter position along world x axis                     [deg]
#   6 Y_WORLD                Barycenter position along world y axis                     [deg]
#   7 A_WORLD                Profile RMS along major axis (world units)                 [deg]
#   8 B_WORLD                Profile RMS along minor axis (world units)                 [deg]
#   9 THETA_WORLD            Position angle (CCW/world-x)                               [deg]
#  10 FWHM_WORLD             FWHM assuming a gaussian core                              [deg]
#  11 ELONGATION             A_IMAGE/B_IMAGE                                           
#  12 ELLIPTICITY            1 - B_IMAGE/A_IMAGE                                       
         1 -12.7652      2.5815    128.6725   1.0742252419e+02   4.7926578736e+01     5.093312     1.346396 -88.26   0.01269777    6.556    0.847
         2 -12.3266    224.9440     41.9779   2.8808710325e+01   2.5946195108e+01      1.36345    0.9236774  48.58  0.008190099    1.993    0.498
         3 -11.8638      6.2989     40.7487   8.9386388692e+01   6.9245316142e+01     1.049029     0.830826  76.22  0.005758388    1.934    0.483
         4 -11.2929    248.4061     21.7672   2.2947587054e+01   2.4007728365e+01     0.646089    0.3064051 -40.60  0.003198055    1.655    0.396
         5 -10.4457      2.9789     13.2647   8.0149049260e+01   7.4696793804e+01    0.3838406     0.163785 -44.55  0.002000626    2.046    0.511
         6  -7.7863    189.6344     15.3053   2.5820856413e+01   3.6389385017e+01    0.1345811   0.07453705 -65.29 0.0007036659    1.743    0.426
         7 -13.1988      5.3236    228.0328   1.1327050148e+02   2.3560284969e+01     7.847788          nan  32.19   0.02707254    4.797    0.792
         8 -11.8379      9.8207    236.2103   1.1269864894e+02   2.1463281024e+01     1.365101    0.4909204  77.94  0.004508949    3.157    0.683
         9 -11.8724      1.9747    245.8705   1.1467106795e+02   2.0213695396e+01    0.8401839    0.4886148  43.97  0.003157769    1.372    0.271
        10 -10.1973      1.4091    240.5061   1.1458296117e+02   2.1327002100e+01    0.1907087    0.1121814  86.31  0.000512468    1.553    0.356
        11  -7.9404    115.0000    239.9574   9.0049785313e+01   8.6828785761e+00    0.1875466   0.07304752 -56.78  0.000805483    2.964    0.663
        12 -13.4584     26.1502    190.0835   1.0610239844e+02   3.0333066535e+01     3.095198      1.78683  67.66   0.01285273    1.739    0.425
        13  -8.7420     80.5500    210.6449   9.4500811917e+01   1.9223854595e+01    0.2401031    0.2027119  62.86 0.0006648647    1.186    0.157
        14  -8.6660     71.6266    214.7362   9.7132476908e+01   1.9461735061e+01    0.2396469    0.1805792 -67.49 0.0006499958    1.402    0.287
        15 -10.4679      8.6992    192.9048   1.1067317008e+02   3.1189562566e+01     0.408373    0.2218081 -76.78  0.002156249    1.663    0.399
        16  -9.1339      1.7968    162.6181   1.1048589713e+02   3.9181426326e+01    0.3825046     0.137873 -72.20   0.00156087    2.288    0.563
        17 -10.3417      1.9281    185.2514   1.1188876435e+02   3.3555055035e+01    0.5814466    0.1842895 -81.17  0.002325925    2.840    0.648
        18 -10.0422      2.0061    170.7462   1.1097858520e+02   3.7119050768e+01    0.6125128    0.1213028 -73.45  0.002045145    3.799    0.737
        19 -10.6748     47.8678    173.5494   9.8609621703e+01   3.2209106050e+01    0.7026673    0.3811601 -30.04  0.001731114    2.928    0.658
        20 -10.1202     54.5413    168.3197   9.6050711885e+01   3.2768765006e+01     0.346352    0.2755069 -23.67 0.0008382423    1.531    0.347
        21  -8.7734    100.8310    171.1547   8.3492181753e+01   2.5554006455e+01    0.3385704    0.1514824  50.51  0.001174852    2.872    0.652
        22  -7.7979     90.3257    167.6699   8.5771964284e+01   2.8033098480e+01    0.1561611    0.1125376  68.13 0.0006943321    1.705    0.413
        23 -11.4028     74.7090    153.7326   8.7872465614e+01   3.3884132817e+01    0.8707575    0.7127047 -79.54  0.001139321    1.270    0.213
        24 -11.6377     68.0311    144.4217   8.8262792820e+01   3.7253673721e+01    0.9250772    0.6240925  62.17  0.003535266    1.786    0.440
        25 -11.5972     52.0433    155.3252   9.4975918148e+01   3.6451723942e+01    0.5620168    0.3476784 -34.22  0.001388719    2.016    0.504
        26  -9.0826     93.3026    139.4789   7.9527653173e+01   3.4644894665e+01    0.5888246    0.3699543 -13.99  0.002185128    2.699    0.630
        27 -10.5642     78.9177    138.6316   8.3752855670e+01   3.7167978052e+01    0.3702263    0.3179996 -40.22 0.0004220261    1.174    0.148
        28  -9.4892     66.5044    159.5138   9.1276269701e+01   3.3525035100e+01    0.3003019    0.2548892 -59.90 0.0005706323    1.142    0.124
        29 -12.2304     10.2709    206.8477   1.1111812183e+02   2.7798770281e+01     1.054925    0.8102744 -17.98  0.004555331    1.854    0.461
        30  -8.8531    105.5422    130.5242   7.3911103690e+01   3.4729697006e+01    0.3174738    0.2875603 -19.80 0.0009987714    1.155    0.134
        31  -9.1652     91.3678    126.2204   7.7176753714e+01   3.8302207528e+01    0.3318838    0.2781453 -10.52 0.0005371947    1.370    0.270
        32  -7.5783     33.4656    125.4961   9.6460231718e+01   4.6406120576e+01    0.1435912    0.1300736 -76.72 0.0008092102    1.047    0.045
        33  -7.7919    103.9020    118.8732   7.1579762000e+01   3.7847832648e+01    0.2288058    0.2003433 -18.76 0.0004029836    1.227    0.185
        34  -9.6636     51.8280    114.4553   8.7866163218e+01   4.7276990093e+01    0.4674414    0.1804452 -59.94  0.001694951    2.353    0.575
        35  -7.8712    204.9968    110.7875   4.6781286904e+01   1.9295052474e+01    0.2664689    0.1558948  30.05  0.001171709    2.613    0.617
        36 -11.1995     14.9522    198.7408   1.0952044689e+02   2.9277318083e+01    0.4342979    0.3297154 -31.27 0.0008296934    1.770    0.435
        37 -10.1805      1.8723     87.3226   1.0250756158e+02   5.8653569164e+01    0.6446874    0.1504345 -74.32  0.001971863    4.293    0.767
        38  -8.2442    164.6710     86.3314   4.7818079136e+01   3.1916614457e+01    0.1523424    0.1093447 -71.69  0.000705172    1.716    0.417
        39  -8.7919      2.4827     79.4920   1.0092600799e+02   6.0573031806e+01     0.314691    0.1867521 -40.84  0.001665299    1.507    0.336
        40  -8.9429      1.7022     75.6671   1.0058925701e+02   6.1548212624e+01    0.3472058    0.1320173 -52.04   0.00129732    2.004    0.501
        41  -8.3092      2.0000     67.0232   9.8745408701e+01   6.3613898827e+01    0.2158177   0.06404508 -67.89 0.0006798395    2.928    0.659
        42  -7.7332      5.2527     64.6996   9.6618502043e+01   6.3992212226e+01    0.2173497   0.06676911 -54.07 0.0008814934    2.332    0.571
        43  -9.8497     13.1156     60.7158   9.1627351734e+01   6.4410279194e+01    0.3695647    0.2286883 -62.71  0.001504514    1.540    0.351
        44 -10.6123    206.0965     54.3316   3.3493375172e+01   2.8073357441e+01    0.5663787    0.2781318 -45.56  0.002799518    1.746    0.427
        45 -11.9667     92.2363    225.8161   9.3504217097e+01   1.4438931629e+01      1.30136    0.3543684  35.23  0.004809544    2.957    0.662
        46  -9.9814      2.2527     50.9391   9.4790598109e+01   6.7298929530e+01    0.5036219    0.1713607 -68.22  0.001974528    3.116    0.679
        47 -11.1231     78.6145    222.2491   9.6283401765e+01   1.6947658938e+01    0.5100259    0.3629341  39.67  0.002908768    1.251    0.201
        48 -10.4411     72.9789    218.8316   9.7248316106e+01   1.8394207281e+01    0.3799679     0.233444  53.08  0.001966137    1.617    0.382
        49  -7.6082    120.0571     28.5228   3.9066728718e+01   5.1104251271e+01    0.1840715    0.1119942 -85.60 0.0008052575    2.325    0.570
        50 -11.2218    231.1105     36.1678   2.7051879184e+01   2.5490575690e+01    0.4953119    0.3576535  63.29  0.001682856    1.627    0.386
        51 -10.0699      9.2369     22.1334   8.0111159593e+01   7.2609814681e+01    0.2454788    0.1553024  25.48  0.000558085    1.631    0.387
        52  -9.9180     12.2813    218.1978   1.1128552402e+02   2.5075042242e+01    0.3755219    0.1694586  81.09  0.001370884    2.249    0.555
