#   1 NUMBER                 Running object number                                     
#   2 MAG_AUTO               Kron-like elliptical aperture magnitude                    [mag]
#   3 X_IMAGE                Object position along x                                    [pixel]
#   4 Y_IMAGE                Object position along y                                    [pixel]
#   5 X_WORLD                Barycenter position along world x axis                     [deg]
#   6 Y_WORLD                Barycenter position along world y axis                     [deg]
#   7 A_WORLD                Profile RMS along major axis (world units)                 [deg]
#   8 B_WORLD                Profile RMS along minor axis (world units)                 [deg]
#   9 THETA_WORLD            Position angle (CCW/world-x)                               [deg]
#  10 FWHM_WORLD             FWHM assuming a gaussian core                              [deg]
#  11 ELONGATION             A_IMAGE/B_IMAGE                                           
#  12 ELLIPTICITY            1 - B_IMAGE/A_IMAGE                                       
         1 -11.9863     85.9885     18.4812   4.1384230257e+01   6.1374940363e+01    0.5741584    0.2274894 -46.02  0.002012205    3.088    0.676
         2 -11.6840     80.4663     18.5061   4.3011860295e+01   6.2698653650e+01    0.4272535      0.17592 -28.00  0.001648764    2.409    0.585
         3 -12.2679     90.6791     13.3924   3.7528667258e+01   6.0820826618e+01    0.5470103    0.3329171  -8.74  0.002485804    1.906    0.475
         4 -11.2494     77.7059     12.6682   4.0654522228e+01   6.4074405507e+01    0.3008962    0.1921779 -61.46  0.001353373    2.138    0.532
         5 -11.6719     80.3864      6.9744   3.6700835152e+01   6.4043194681e+01    0.4161012    0.2667592 -70.23  0.001895154    2.159    0.537
         6 -11.1537     86.9896      3.0227   3.2914897643e+01   6.2774908466e+01    0.6072285    0.1821325  45.77  0.002026096    3.394    0.705
         7 -10.0082     28.3346    245.9678   1.0495926837e+02   2.1426605507e+01    0.2218886    0.1639404 -14.09  0.001588507    2.173    0.540
         8 -10.1031     14.4367    245.2871   1.0757554131e+02   2.2745075533e+01    0.3182744    0.1274281  28.09  0.001894765    2.067    0.516
         9 -10.2471     70.7332    245.4702   9.6729743859e+01   1.7357606137e+01    0.2210295   0.07344287  34.44  0.001151196    2.129    0.530
        10  -9.7804     23.9443    235.0973   1.0539803534e+02   2.3624483702e+01    0.2843886    0.1460477  10.10  0.001524048    3.004    0.667
        11  -9.1693     12.7777    235.5926   1.0761037761e+02   2.4501363961e+01    0.1549552   0.06656032  38.83  0.000955103    1.635    0.388
        12 -10.2238     91.5961    240.2284   9.2246060221e+01   1.5893269260e+01     0.131071    0.1005116 -44.55 0.0009555346    1.664    0.399
        13  -9.6723      2.8432    232.7155   1.0947157615e+02   2.5801703491e+01    0.1506685    0.1189713  23.41  0.001195717    1.427    0.299
        14  -8.9824     42.0609    226.0000   1.0129870340e+02   2.3513650920e+01    0.1836419   0.05170802  28.26 0.0008053507    2.963    0.662
        15  -8.3950     16.0473    226.0000   1.0665195708e+02   2.5898234958e+01    0.1693335   0.05009189  26.54 0.0007954933    2.895    0.655
        16  -9.5083      9.9875    221.6729   1.0774860217e+02   2.7183606672e+01    0.2399838   0.08275888  26.26  0.001203592    2.542    0.607
        17  -8.8998     33.7832    220.3969   1.0273596723e+02   2.5314622945e+01    0.1478923   0.09518116  22.30 0.0009496227    1.602    0.376
        18  -9.1473     85.7967    219.3938   9.1592022027e+01   1.9932905334e+01     0.167982   0.09780396  21.73 0.0009531733    1.738    0.424
        19  -8.6489     49.4876    210.5196   9.8749821700e+01   2.5586097686e+01    0.1158132   0.09486331  48.34 8.756493e-05    1.014    0.014
        20  -8.7465     58.4971    206.5453   9.6446077130e+01   2.5375722978e+01    0.1178056   0.09798938  46.64 0.0001325961    1.014    0.013
        21  -8.8659     51.7626    202.3879   9.7651575322e+01   2.6904862637e+01    0.1602792    0.1046326  20.79 0.0009452701    1.632    0.387
        22 -10.2120    129.0000    200.0114   8.0170746804e+01   1.7706683816e+01    0.1796978   0.06993832 -51.40 0.0008027304    2.944    0.660
        23  -8.8722     37.9971    197.2562   1.0046717991e+02   2.9340350883e+01    0.1543282   0.08880825  31.47 0.0008850741    1.550    0.355
        24  -9.6224     68.3711    195.0112   9.3169497692e+01   2.6488817540e+01    0.2752264    0.1611577  22.15  0.001476235    1.807    0.447
        25  -8.9405     45.7738    195.4269   9.8519400568e+01   2.8918810186e+01    0.1583317     0.109035  18.23 0.0009437928    1.622    0.384
        26  -9.4639     37.5158    188.1329   9.9964152403e+01   3.1261083699e+01    0.2286405    0.1552443   6.73  0.001308891    1.953    0.488
        27  -9.1655     70.1846    185.6572   9.1794077707e+01   2.8153500856e+01    0.1776691    0.1110546  21.41 0.0006961182    1.725    0.420
        28  -9.4493     57.7763    184.2094   9.4686215257e+01   2.9918272436e+01    0.2937009    0.1436661  18.84  0.001333239    2.530    0.605
        29  -8.6326     48.6527    184.2954   9.6943758166e+01   3.0913309804e+01    0.1348567   0.07568158  55.74 0.0007032703    1.674    0.403
        30  -8.4122     92.6555    182.6691   8.6019549357e+01   2.5866526506e+01    0.1286919    0.0970314 -13.07 0.0007050502    1.755    0.430
        31  -9.1291     39.9456    177.4715   9.8562916920e+01   3.3293882057e+01    0.1893189    0.1122787  29.86   0.00103512    1.602    0.376
        32  -9.3142     65.1242    174.1472   9.1809278723e+01   3.1192567247e+01     0.192303     0.175243 -16.41  0.001229754    1.326    0.246
        33  -8.9537     24.9698    175.0000   1.0220361379e+02   3.5280757481e+01    0.1929195    0.0641232  24.85 0.0008008716    2.932    0.659
        34  -9.4247     45.4864    173.5262   9.6807245175e+01   3.3579480964e+01    0.2181528    0.1228353  12.63  0.001041374    2.372    0.578
        35  -9.7333     57.6825    172.0213   9.3497435398e+01   3.2544565386e+01    0.2599491    0.1695585  41.89  0.001439441    1.368    0.269
        36  -9.3242     40.2096    171.3862   9.7993845327e+01   3.4608987620e+01    0.1859095   0.09630513  40.38 0.0008052803    1.673    0.402
        37  -9.4199     87.5051    169.9816   8.5592588546e+01   2.9168446019e+01    0.1793185    0.1022606 -36.45 0.0008082725    2.392    0.582
        38  -8.6164     70.6551    169.6825   8.9865905473e+01   3.1472059870e+01    0.1293705   0.09985553 -21.51 0.0007048749    1.721    0.419
        39  -9.0279     77.3357    168.2980   8.7963248780e+01   3.0905117140e+01    0.1285566    0.1013514 -17.27 0.0007032079    1.653    0.395
        40  -9.7410     83.0468    166.1561   8.6201621176e+01   3.0598001339e+01    0.2176634    0.1536118  -4.28   0.00108479    2.051    0.513
        41  -9.5211     22.8217    165.3813   1.0213609316e+02   3.7632127292e+01    0.1628235    0.1171098   9.01 0.0007306865    1.738    0.425
        42  -9.3531     42.9765    163.0000   9.6500980694e+01   3.6217130047e+01    0.2079302   0.06906728  26.88 0.0008032818    2.948    0.661
        43  -8.8311     76.3127    161.2999   8.7296776986e+01   3.2575742395e+01    0.1295022    0.1030721 -21.09 0.0005663228    1.607    0.378
        44  -8.8407     80.9838    160.7701   8.5983973232e+01   3.2056230723e+01     0.181726    0.1056121  32.90 0.0006553973    1.642    0.391
        45  -9.6329     12.9696    158.6901   1.0438291710e+02   3.9997926558e+01     0.347392    0.1376159  87.44  0.001522102    2.533    0.605
        46 -10.1806     64.2454    158.8642   9.0230478015e+01   3.4695935069e+01    0.2452583    0.1743451 -10.47  0.001234546    2.065    0.516
        47 -13.1220     44.5541    148.6400   9.4569387053e+01   3.9417770262e+01     1.045079    0.4883811  76.25  0.004066806    3.017    0.669
        48 -11.6505     52.4828    153.5230   9.2852062686e+01   3.7360499766e+01    0.5872928    0.3943016   0.81  0.002911121    2.151    0.535
        49  -9.4790    101.4751    148.5078   7.8601936470e+01   3.1710553348e+01    0.1362235    0.1324186  29.45 0.0008099636    1.027    0.026
        50  -9.9265     95.6182    142.7847   7.9134398836e+01   3.3897117676e+01     0.196032    0.1341515 -69.99 0.0009483744    1.671    0.402
        51 -10.6722     81.8181    152.0584   8.4464031246e+01   3.3883463976e+01    0.2631831    0.1841056  -4.90  0.001249918    2.131    0.531
        52  -9.1991     89.3284    140.3116   8.0420670404e+01   3.5438812745e+01    0.1420023    0.1099022 -17.99 0.0007042024    1.667    0.400
        53 -11.3781     54.7146    147.0091   9.1408160855e+01   3.8639849335e+01    0.4401165    0.3364181  20.93  0.002447808    1.457    0.314
        54 -10.0033     43.0935    131.6785   9.2950968749e+01   4.3737871006e+01    0.1914023     0.173977  45.14  0.000991099    1.133    0.118
        55  -9.8059     75.4818    122.4794   8.1150765380e+01   4.1769852648e+01    0.1434823    0.1365063  86.65 3.352208e-05    1.015    0.015
        56 -10.7217     52.0202    120.0495   8.8304358733e+01   4.5620209280e+01    0.2882281    0.1944958  32.39   0.00144419    1.532    0.347
        57  -9.9409     61.2557    117.7148   8.4814101437e+01   4.5000998491e+01    0.2378648    0.1558231 -30.39   0.00106386    2.053    0.513
        58  -9.4261     75.4898    151.5298   8.6124182656e+01   3.4891594010e+01    0.1366751    0.1253804  62.76 0.0003969217    1.033    0.032
        59  -9.7020    109.4999    111.4947   6.8577733595e+01   3.8499971984e+01    0.1467001     0.144012 -53.66 0.0008106456    1.012    0.012
        60  -9.4160    144.8024    103.4399   5.7585163144e+01   3.3100300735e+01    0.2103296    0.1375715  33.60 0.0009497865    1.724    0.420
        61 -11.5981    113.6337     98.3743   6.3987823993e+01   4.0547954168e+01    0.4312719    0.2698147  33.14  0.001867122    1.825    0.452
        62 -10.7366    144.5762     92.5853   5.4656047668e+01   3.5194662382e+01    0.3314935    0.2367002   0.07  0.001472488    1.970    0.492
        63  -9.8470    153.7727     88.8004   5.1611181595e+01   3.3886310162e+01    0.2478082    0.1578024   9.11 0.0009475048    2.752    0.637
        64 -12.7645    120.8914     81.4407   5.7045249465e+01   4.2516439170e+01    0.6290926    0.3760363 -40.07  0.002719586    1.613    0.380
        65 -11.1299    110.8568     83.5823   6.0432144571e+01   4.4251197205e+01     0.362468    0.1731787 -31.31  0.001243449    2.759    0.637
        66  -9.1115    162.1963     82.5766   4.8165453013e+01   3.3111030179e+01    0.2032958    0.1346691  40.52 0.0009484528    1.674    0.403
        67 -10.7411    145.6667     81.9249   5.1316301080e+01   3.6904811857e+01    0.2646107    0.2059796  38.80  0.001321395    1.385    0.278
        68 -10.3190    153.5460     80.1283   4.9142237924e+01   3.5452945679e+01     0.288028    0.1892855  17.34  0.001195209    2.311    0.567
        69 -14.0178    128.4805     75.7312   5.3329764462e+01   4.1921686001e+01     1.277534    0.7736225 -54.17  0.005378189    1.879    0.468
        70 -10.6121    104.2405     78.2341   6.0651057996e+01   4.6771172206e+01    0.2898471    0.1853428 -40.10  0.001276421    1.530    0.346
        71 -10.1748    166.7346     72.1510   4.4304676644e+01   3.3794574885e+01    0.2831395    0.1822288  27.94  0.001245684    2.096    0.523
        72  -8.9727    170.6464     77.6951   4.5230411467e+01   3.2042121792e+01    0.1477463    0.1097635  15.19 0.0006131856    1.711    0.416
        73 -11.3522    148.9429     66.7586   4.5961805828e+01   3.8763558937e+01    0.4464113    0.2496848 -11.37   0.00158918    2.996    0.666
        74 -11.6887    161.3046     61.5546   4.2041762664e+01   3.6688051190e+01    0.3603132    0.2605848 -12.79  0.001745629    1.576    0.365
        75 -10.2473    209.9877     59.0224   3.4484691109e+01   2.6249852329e+01    0.2097467    0.1550324  13.50  0.001138939    1.723    0.420
        76 -14.2224    138.9070     52.0809   4.3076115280e+01   4.3512747173e+01     1.231917     0.995833  76.79  0.006326412    1.360    0.265
        77  -9.0917    235.3088     50.6927   2.9861326065e+01   2.2263678615e+01    0.1296706   0.07672273 -50.34 0.0005933136    1.614    0.380
        78 -12.2326    185.2162     46.5417   3.3960668506e+01   3.3230917837e+01    0.6047437    0.2096557 -29.86  0.002285517    2.490    0.598
        79 -11.5480    211.9982     47.2965   3.1178531936e+01   2.7282575574e+01    0.2817316     0.185742 -64.96  0.001509725    1.716    0.417
        80 -10.8565    119.9948     53.0438   4.7574115181e+01   4.7955228938e+01    0.3420618    0.2146003  -5.20  0.001311835    2.559    0.609
        81 -11.4204    203.6476     42.9290   3.0850597487e+01   2.9576039524e+01    0.3042744    0.1622127 -14.81  0.001366645    2.160    0.537
        82 -10.2153    172.2469     55.7214   3.8484157736e+01   3.4988591900e+01    0.2284055    0.1186655 -17.12 0.0008943113    2.384    0.581
        83 -10.0369    172.5748     43.2308   3.4596727239e+01   3.6600835627e+01     0.202081    0.1325592 -14.56 0.0009546072    1.693    0.409
        84 -10.5813    207.9847     35.4992   2.8406751304e+01   2.9501338766e+01    0.1860947   0.09543499 -69.05 0.0008103626    2.556    0.609
        85 -11.1913    200.9912     33.7395   2.8572115723e+01   3.1220790989e+01    0.2728876    0.1612173   7.73  0.001192765    2.693    0.629
        86 -10.7437     76.8768     31.1417   5.0712593627e+01   6.1693174783e+01    0.2258082    0.2012277 -63.04 0.0008306357    1.260    0.207
        87 -10.4819     82.5197    248.7968   9.4684886471e+01   1.5598329857e+01    0.2673371   0.09590741  33.31  0.001439237    2.027    0.507
        88 -10.4218     94.1292    247.1588   9.2327148002e+01   1.4574017579e+01    0.1553686    0.1024908  46.29  0.001091346    1.345    0.257
        89  -9.4001     62.1216     19.5897   5.0081417892e+01   6.6712679502e+01    0.2402578    0.1647966 -23.66  0.001202477    1.471    0.320
        90 -10.7304     73.8138     16.0967   4.3797545577e+01   6.4573865276e+01    0.2748752    0.1963155   1.55  0.001310913    1.625    0.385
        91 -10.2157      4.6788    246.7546   1.0943794410e+02   2.3305831365e+01    0.3872951    0.2333473   5.43  0.002527674    2.539    0.606
        92 -10.0714      4.6232    240.1608   1.0930029999e+02   2.4395616629e+01    0.3229287   0.07620139  41.75  0.001727575    2.336    0.572
        93  -9.9508    105.6067    246.1956   9.0045509889e+01   1.3430037962e+01    0.1316254   0.09680843 -38.03 0.0009559342    1.738    0.424
