#   1 NUMBER                 Running object number                                     
#   2 MAG_AUTO               Kron-like elliptical aperture magnitude                    [mag]
#   3 X_IMAGE                Object position along x                                    [pixel]
#   4 Y_IMAGE                Object position along y                                    [pixel]
#   5 X_WORLD                Barycenter position along world x axis                     [deg]
#   6 Y_WORLD                Barycenter position along world y axis                     [deg]
#   7 A_WORLD                Profile RMS along major axis (world units)                 [deg]
#   8 B_WORLD                Profile RMS along minor axis (world units)                 [deg]
#   9 THETA_WORLD            Position angle (CCW/world-x)                               [deg]
#  10 FWHM_WORLD             FWHM assuming a gaussian core                              [deg]
#  11 ELONGATION             A_IMAGE/B_IMAGE                                           
#  12 ELLIPTICITY            1 - B_IMAGE/A_IMAGE                                       
         1 -12.9912    230.8496     19.8641   6.1780515404e+01   2.4330042279e+01     2.082201     1.273159 -23.55   0.01011158    1.531    0.347
         2 -12.4821    247.6842     15.4110   5.8918886703e+01   2.0738781667e+01     2.465456    0.7575862 -26.35  0.009336231    2.689    0.628
         3 -12.0732    238.5140     33.5371   6.4771516331e+01   2.1084629571e+01    0.9611005    0.7851244 -21.96  0.004155158    1.131    0.116
         4 -13.4460    246.1515     55.3992   6.9813182605e+01   1.6896058531e+01     4.714691    0.7709445 -27.92   0.01336921    4.356    0.770
         5  -9.8491     29.8423     13.6742   1.1227689399e+02   6.9440016299e+01    0.3261303    0.1793111 -53.07 0.0003930817    1.684    0.406
         6 -11.2030     77.3693     10.1856   8.9273147264e+01   6.3347782643e+01    0.3620909    0.3462002 -67.26 0.0007040928    1.504    0.335
         7  -9.6906    117.7817      8.7165   7.6180234599e+01   5.4840723756e+01    0.2445529    0.1991179 -11.45 0.0004556441    1.180    0.152
         8  -9.5564     99.0435     10.7113   8.2261747649e+01   5.8906944608e+01    0.2051939    0.1743766  24.39 0.0004459699    1.098    0.090
         9  -9.5779     16.9709      7.3030   1.1641528710e+02   7.1731688385e+01    0.2794116    0.1907514 -79.33  0.001081522    2.504    0.601
        10  -9.1262    128.5945      1.7833   7.0612038562e+01   5.2862769015e+01    0.2367307    0.1895218  46.12 0.0006561579    1.159    0.137
        11  -9.9847    127.8337      6.8497   7.2987046600e+01   5.2564844070e+01    0.2307099    0.2111905   1.90 0.0005449033    1.086    0.079
        12  -9.7012    125.1766      3.1891   7.1968651237e+01   5.3591927912e+01    0.2924933    0.2283546 -40.82  0.001171746    1.484    0.326
        13  -9.5662     97.4253      6.7571   8.0830966575e+01   5.9741405510e+01    0.2046912    0.1255977  -7.36 0.0009509771    1.652    0.394
        14  -9.5928    121.4371      4.5599   7.3427865083e+01   5.4386362274e+01    0.4905618     0.134242 -21.42  0.001538121    3.534    0.717
        15 -11.0356    110.9867      5.0258   7.6206860666e+01   5.6857812675e+01    0.5452987    0.4112028 -71.43            0    2.053    0.513
        16  -9.6516    114.4790      3.5269   7.4622611542e+01   5.6182934313e+01     0.266673    0.2307098 -28.87  0.000654583    1.275    0.216
        17 -10.0046     60.5292      5.9670   9.3786567452e+01   6.6867600676e+01    0.3558288    0.1832938  34.15  0.001733412    2.048    0.512
        18  -9.7176      3.2624      4.5067   1.2318582220e+02   7.3103998885e+01    0.3141952     0.248897 -69.15  0.001124838    1.418    0.295
        19  -8.9172    153.1896      3.2553   6.6587877310e+01   4.6309656752e+01     0.272765    0.1688966 -45.35 0.0007884241    1.895    0.472
        20  -8.9241     55.2650      4.3630   9.5230152090e+01   6.7928171498e+01    0.2024932    0.1300833  -4.27 0.0005146526    1.638    0.389
        21  -8.4591     55.5223      1.4770   9.3513282070e+01   6.8315094916e+01    0.2064763    0.1074522 -22.05 -1.69836e-05    1.814    0.449
        22  -9.7437     50.8313      3.6899   9.6893910646e+01   6.8686601271e+01    0.2231417    0.1736281 -18.25 0.0002438178    1.039    0.038
        23  -9.2384     15.0039      2.0125   1.1516415422e+02   7.2880378277e+01    0.1792087    0.1285374 -35.67            0    1.034    0.033
        24  -7.7912    177.2753      1.6219   6.2382988580e+01   3.9961225863e+01    0.1544526    0.1036015 -50.45 0.0007002696    1.700    0.412
        25  -8.2990    180.3446    221.8021   1.1674057885e+02   8.1218417148e+00    0.2367068   0.09660167 -28.82  0.001085972    4.210    0.762
        26 -12.2745    239.8992    240.7760   1.0961552678e+02  -2.4105495261e+00     1.587352    0.8602655  -4.34   0.01048056    2.103    0.524
        27 -12.1267    230.4625    191.2079   1.0343311333e+02   3.5948597905e+00      4.04137    0.7266629 -27.56   0.01086578    9.216    0.891
        28 -10.9143    249.5859    246.5783   1.0894443206e+02  -4.1648501143e+00    0.6873119    0.2449046 -25.02  0.003995263    3.321    0.699
        29 -11.2749    242.8100    137.2001   9.0663640830e+01   7.6032742371e+00     1.891489    0.2099954 -34.23  0.004583189    7.871    0.873
        30 -11.9264    247.6134    113.0267   8.4323102232e+01   9.6176328110e+00     2.483502    0.4746817 -26.09  0.006838682    5.224    0.809
        31 -13.5187    245.8687    153.4037   9.3626454228e+01   5.1549315340e+00     4.624049     1.153276 -25.94   0.01582558    4.253    0.765
        32 -10.3990    242.9580    199.7162   1.0282208659e+02   7.6171449413e-01    0.5304284    0.2233414 -21.27  0.001982153    2.630    0.620
        33 -11.3131    245.1488    190.2528   1.0082591118e+02   1.3459519626e+00    0.6862332    0.3742326 -38.26  0.003739524    2.658    0.624
        34 -11.0965    241.1366    180.0250   9.9635954558e+01   3.0388254266e+00    0.5714593    0.2617255 -29.95  0.002565114    2.344    0.573
        35 -11.7871    247.4816    215.4891   1.0467949005e+02  -1.3635905385e+00    0.8491577    0.3419113 -20.06  0.004528443    2.844    0.648
        36 -10.7100    247.0973    205.9275   1.0319385448e+02  -4.5015242229e-01    0.3466436    0.2490208  -9.08  0.001433091    1.387    0.279
        37 -11.0862    249.9902    200.3152   1.0179030406e+02  -3.6750167354e-01    0.4472596    0.2043888 -23.08   0.00201981    2.295    0.564
        38  -9.5905    224.9987    241.1938   1.1198728521e+02  -3.7647742298e-01    0.2964685    0.1431739 -24.07   0.00188648    2.567    0.610
        39  -9.0543    224.6210    248.2821   1.1297938243e+02  -9.2193486534e-01    0.2487901    0.1337608 -37.90  0.001656307    2.857    0.650
        40  -8.9155    228.1278    247.8899   1.1238706118e+02  -1.3709532553e+00    0.2284854     0.178503  58.14  0.001661269    2.365    0.577
        41 -10.0300    218.3261    246.7628   1.1376195992e+02   7.6895644719e-02    0.3859103    0.2921079 -11.14  0.003164995    1.561    0.359
        42  -9.6517    223.5807    227.4776   1.1031129504e+02   1.0494791327e+00    0.4180168    0.2401558 -38.52  0.002667595    2.569    0.611
        43  -8.8714    219.4673    216.5723   1.0938395128e+02   2.7099298725e+00    0.2160705    0.1333997 -31.72  0.001408233    2.030    0.507
        44  -9.1792    216.6197    222.0747   1.1066694329e+02   2.5957053794e+00    0.3423607    0.1932231 -33.36  0.002185815    2.259    0.557
        45  -9.1739    219.5059    239.4246   1.1261613533e+02   5.5293808190e-01    0.2442285    0.1531851 -26.48  0.001117998    2.004    0.501
        46 -11.1446    216.1798    231.6488   1.1209315866e+02   1.7414087640e+00       1.4211    0.5597973 -16.99  0.005836524    5.638    0.823
        47  -9.6513    210.4949    242.4995   1.1444860030e+02   1.5546182611e+00       0.2756    0.1785749   9.85  0.001650338    1.589    0.371
        48  -9.7498    213.9909    240.5199   1.1363624793e+02   1.2381274697e+00    0.2604211    0.1752845  24.77  0.001023116    1.108    0.097
        49  -8.3455    201.2986    250.6199   1.1690911932e+02   2.1066821025e+00    0.1469888   0.06854736  33.81 0.0004935949    1.534    0.348
        50 -10.5768    193.7584    246.5598   1.1761814388e+02   3.5447451005e+00    0.4035665    0.2637661 -28.26  0.003026767    2.031    0.508
        51  -8.4121    184.0963    250.5342   1.1961836225e+02   4.5159122973e+00    0.1626059   0.07327177  38.56 0.0008490581    1.543    0.352
        52  -9.9466    168.1687    250.0588   1.2210632993e+02   6.7841057937e+00    0.2315477    0.1178479  34.88 0.0004032569    1.480    0.324
        53 -10.9153    169.6297    242.2946   1.2102365404e+02   7.4056829640e+00    0.4913817    0.3691896  29.89  0.003882288    1.138    0.121
        54  -8.1111     73.4355    250.4897   1.3711265178e+02   1.8849756520e+01   0.09408167    0.0663117  54.10 0.0001023491    1.023    0.022
        55  -8.4968     47.8792    250.1583   1.4093266140e+02   2.1621888113e+01    0.1130573   0.08874799  48.52 0.0006055361    1.316    0.240
        56  -8.0083    130.0109    223.7654   1.2570271293e+02   1.5292638622e+01    0.1462705   0.07070722  41.23 0.0004249371    1.576    0.365
        57  -7.8134     15.6448    222.2707   1.4466234113e+02   2.8670444346e+01   0.09826951   0.04300464  58.49 0.0004150275    1.638    0.390
        58  -8.6640    186.0276    219.8065   1.1549874866e+02   7.4837931852e+00    0.2387679    0.1342764 -22.31  0.001395214    2.503    0.601
        59  -7.9251    174.6671    221.6558   1.1769877596e+02   8.9999790028e+00    0.1152207   0.07380933  17.76 0.0007050318    1.760    0.432
        60  -9.2184    210.8428    217.2279   1.1091927077e+02   3.9588075100e+00    0.2970291    0.1386978 -17.12  0.001477146    3.284    0.696
        61  -9.3840    193.0187    216.7802   1.1388069361e+02   6.7501729735e+00    0.2892582    0.2070038 -20.54  0.002006754    1.682    0.406
        62  -8.6747    179.4482    216.1719   1.1614558263e+02   8.9176643016e+00    0.1814177    0.1102045 -29.43  0.001130142    2.127    0.530
        63  -8.2980    205.5737    216.2140   1.1165855320e+02   4.8740139510e+00    0.1440075   0.09754533  -5.12 0.0009425203    1.677    0.404
        64  -7.9175    132.5730    213.4598   1.2413486772e+02   1.6346039654e+01    0.1112429   0.08846495  40.50 8.227182e-05    1.066    0.062
        65  -9.5134    216.6963    211.1942   1.0902956910e+02   3.6810166145e+00    0.2324546    0.1486719 -26.35  0.001172904    1.834    0.455
        66  -8.1987    208.3618    211.7933   1.1053061256e+02   4.9137928542e+00    0.1450339   0.09797531  -8.50 0.0009392338    1.666    0.400
        67 -10.3514    176.2403    209.9045   1.1585148898e+02   1.0177989369e+01    0.3431849    0.2739612  14.03  0.001847005    1.269    0.212
        68  -8.2481    212.4440    211.0062   1.0971844008e+02   4.3614134180e+00    0.1504672    0.1076629 -18.88  0.001024857    1.587    0.370
        69  -7.8884    186.6632    209.6871   1.1397711036e+02   8.5620464228e+00    0.1207507   0.07555733  18.74 0.0007046027    1.690    0.408
        70  -9.9997    172.7940    204.1373   1.1565963032e+02   1.1453247503e+01    0.3350179    0.1949377 -26.69  0.001905266    2.340    0.573
        71  -8.8097    217.3582    204.0016   1.0779107201e+02   4.3328899428e+00     0.235848    0.1284222 -14.86  0.001311616    2.248    0.555
        72  -8.4557    213.1341    203.2807   1.0839817274e+02   5.0820881573e+00    0.2053014     0.119454 -11.40 0.0007759556    2.095    0.523
        73  -8.8327    178.7347    203.5004   1.1449450491e+02   1.0583894172e+01    0.2143867     0.135185 -21.07  0.001262399    2.098    0.523
        74  -9.4122    222.7319    200.6839   1.0634174340e+02   3.8320660721e+00    0.2959905    0.2333792  47.63   0.00138503    1.625    0.385
        75  -8.2314    187.0000    201.9826   1.1278433732e+02   9.4411531115e+00    0.1671125   0.06837206 -38.13 0.0008112376    3.004    0.667
        76 -10.0017      1.3906    199.8557   1.4615755805e+02   3.3378649313e+01    0.2145894    0.1195137 -80.42  0.001243822    1.651    0.394
        77 -11.0866      3.0032    196.3954   1.4577723280e+02   3.3824030778e+01    0.3710717    0.2960894  23.21  0.003075427    1.811    0.448
        78  -8.7423    215.3373    197.3315   1.0705590205e+02   5.3824995075e+00    0.1976417    0.1419098 -23.57 0.0009068957    1.580    0.367
        79  -8.9870    176.4026    196.7128   1.1391497404e+02   1.1838104781e+01     0.253754    0.1172567 -36.99  0.001293336    2.668    0.625
        80  -9.0153    170.3356    196.4978   1.1500297261e+02   1.2857942652e+01    0.2044286    0.1506065 -30.30  0.001320328    1.643    0.391
        81  -9.2272    184.6085    194.6764   1.1209790160e+02   1.0752120102e+01    0.2435086    0.1435799 -18.97  0.001310815    2.309    0.567
        82  -9.1030    172.5061    189.4969   1.1353679726e+02   1.3455323665e+01    0.1969973    0.1138007 -25.24  0.001030902    2.349    0.574
        83  -8.5173     39.7460    187.1904   1.3887954739e+02   3.2180975292e+01     0.158307    0.1332207  -7.54  0.001123944    2.004    0.501
        84 -11.0171     12.6746    183.1074   1.4358621771e+02   3.5325217623e+01    0.4325095    0.1886459 -85.94  0.002266714    1.998    0.500
        85  -9.0017    183.7017    181.5294   1.1013638048e+02   1.2648151525e+01    0.2799017    0.1658186 -23.75  0.001486455    2.102    0.524
        86  -9.3342    228.9983    165.5556   9.8945660285e+01   6.7210043772e+00    0.2756307    0.1674635 -16.45  0.001137631    1.671    0.402
        87  -9.1936    226.5362    176.9933   1.0155408190e+02   5.8158125741e+00    0.3947556    0.1982362  -5.80  0.001755061    2.866    0.651
        88  -8.9276    227.5388    170.7839   1.0021139822e+02   6.3618803364e+00    0.2923348    0.1406663 -29.64  0.001136859    2.206    0.547
        89  -8.5859    190.5925    178.2950   1.0828587100e+02   1.1889371554e+01    0.2211339    0.1219704 -39.93  0.001151193    2.171    0.539
        90  -8.2493    218.6945    177.4614   1.0301280119e+02   7.1047904306e+00    0.2041926    0.1092313 -26.58  0.001072332    2.023    0.506
        91  -8.1640    197.6068    176.1736   1.0660186481e+02   1.0941564733e+01    0.1750827    0.1139767 -15.55 0.0009616973    1.767    0.434
        92  -8.3442    210.5120    175.0294   1.0402890628e+02   8.8217543263e+00    0.1790421    0.1203762 -24.10  0.001036365    1.601    0.376
        93  -8.4917    176.6800    180.4855   1.1129597899e+02   1.4004663287e+01    0.2100251    0.1171401 -37.83  0.001109839    2.101    0.524
        94  -8.7129    192.5428    172.4218   1.0687600960e+02   1.2340221674e+01    0.2442361    0.1256281 -32.38  0.001208278    2.203    0.546
        95 -10.6337     13.6074    167.9512   1.4267827847e+02   3.7981203020e+01    0.4154465    0.2255489 -87.44  0.002378886    1.541    0.351
        96  -9.3060    218.6201    167.4920   1.0115210340e+02   8.3244751922e+00    0.3487441    0.2173412 -15.57  0.001908219    1.692    0.409
        97  -8.9505    223.2077    172.9842   1.0138569188e+02   6.8550916851e+00    0.2686818    0.1700344 -24.62  0.001282668    1.666    0.400
        98  -9.0994    191.7023    164.9225   1.0565151295e+02   1.3530349952e+01     0.391501    0.1182266 -36.48  0.001455653    3.712    0.731
        99  -9.1920    199.3013    163.7908   1.0398969816e+02   1.2297032507e+01    0.3152512    0.1706575 -38.16   0.00156497    2.126    0.530
       100  -8.8685    212.6142    162.5177   1.0126956363e+02   1.0033049432e+01     0.330926    0.1221065 -31.67  0.001373228    2.922    0.658
       101  -8.7679    221.2322    161.4256   9.9497961241e+01   8.6073760776e+00    0.2353718    0.1650211 -17.55  0.001048739    1.431    0.301
       102  -9.5417    226.6273    156.9745   9.7645734504e+01   8.1798972896e+00    0.4558134    0.1356049 -31.01  0.001722584    3.457    0.711
       103  -8.9487    228.2655    151.3701   9.6201298530e+01   8.5723333540e+00    0.2379474     0.162228  -6.33 0.0008960326    1.419    0.295
       104  -8.8201    197.0432    156.1227   1.0291874513e+02   1.3781740051e+01     0.318165    0.1761199 -13.84  0.001407358    2.474    0.596
       105  -9.1592    204.8906    160.2320   1.0224707425e+02   1.1751527602e+01    0.3338482    0.2126919 -20.24  0.001780544    1.687    0.407
       106  -8.9133    211.6138    151.8696   9.9306273457e+01   1.1619506257e+01    0.3875617    0.1277143 -28.88   0.00141671    3.446    0.710
       107  -8.7849    205.6934    153.4626   1.0073792637e+02   1.2521716691e+01    0.2789348    0.1816978   4.58  0.001410877    1.745    0.427
       108  -8.3714    202.3055    151.3125   1.0093747924e+02   1.3462586175e+01    0.2700416    0.1357567 -32.86  0.001238226    2.121    0.529
       109  -9.8040      7.2636    151.6057   1.4306694168e+02   4.1549854164e+01    0.2127285    0.1439094  62.41 0.0006775015    1.247    0.198
       110  -8.6135    218.4995    143.9603   9.6371443410e+01   1.1362401572e+01    0.2541782    0.1745282  -2.32 0.0008801305    1.472    0.321
       111  -9.0015    215.1968    148.5069   9.7943931194e+01   1.1389644391e+01    0.3828822    0.1802578 -31.02  0.001579215    2.204    0.546
       112  -8.7619    214.1818    142.0619   9.6750790840e+01   1.2451779497e+01    0.3331818    0.1993627 -33.66  0.001079924    1.785    0.440
       113 -10.1009    218.3446    137.7219   9.5034699488e+01   1.2226159200e+01    0.5147164    0.2459062 -32.40  0.002302827    2.140    0.533
       114  -9.5590    191.0863    147.4167   1.0230547604e+02   1.6182464221e+01    0.2595538    0.1988395 -36.28  0.001446637    1.471    0.320
       115  -8.0427    124.4539    146.0083   1.1627633448e+02   2.8748364553e+01     0.171743    0.1295307 -50.35 7.081463e-05    1.424    0.298
       116  -8.7591    207.8470    144.4843   9.8453865179e+01   1.3349805244e+01    0.2740152    0.1675372 -10.49  0.001235289    1.888    0.470
       117  -9.4331    223.3968    145.8051   9.5885865587e+01   1.0186783158e+01    0.3240653    0.2122773  -8.26  0.001705666    1.547    0.354
       118  -9.3244    229.9272    140.4288   9.3567776178e+01   9.6336439344e+00    0.3543522     0.182283 -30.96  0.001542002    1.972    0.493
       119 -10.7134    240.0261    218.3851   1.0631588746e+02  -5.3183324697e-01     0.627896    0.3651933 -15.09  0.003820918    1.837    0.456
       120  -8.7576    224.1063    139.5803   9.4407909182e+01   1.0858760489e+01     0.265606    0.1781769 -12.04  0.001107277    1.463    0.316
       121  -8.2347    208.4854    137.4973   9.6810655915e+01   1.4203463662e+01    0.1421234    0.1200139  15.40 -2.137034e-05    1.001    0.001
       122  -8.9826    233.8972    135.0681   9.1693402486e+01   9.5518420388e+00    0.3114602    0.1704674 -35.83  0.001374614    2.017    0.504
       123  -8.9437    225.7517    132.8982   9.2623883597e+01   1.1413222178e+01    0.3344302    0.1686273 -16.06  0.001413467    2.236    0.553
       124  -8.0356    121.9412    130.9515   1.1407414672e+02   3.2075819294e+01    0.1543598     0.148656  43.69            0    1.009    0.009
       125  -8.5830    233.4431    128.2807   9.0232035893e+01   1.0500767974e+01    0.2490031    0.1253173 -20.48  0.001110639    1.989    0.497
       126  -8.9475    220.9079    128.5433   9.2492228241e+01   1.2956985730e+01    0.2750435    0.1785653  -7.17  0.001356801    1.600    0.375
       127  -9.2465    227.7521    124.6962   9.0384728024e+01   1.2095704281e+01    0.3488536    0.1630406 -29.72  0.001456386    2.083    0.520
       128  -9.4858    179.8275    123.1152   9.9223447626e+01   2.2260663837e+01    0.4192604     0.196487 -28.04  0.001633305    2.476    0.596
       129  -8.7517    212.4740    122.4832   9.2613858510e+01   1.5520711748e+01    0.2830296    0.1347598 -28.74  0.001138154    2.100    0.524
       130  -9.0540    230.3479    118.5776   8.8489198206e+01   1.2376625957e+01    0.3500654    0.1928222 -33.60   0.00161272    1.851    0.460
       131  -8.8762    234.9311    123.5760   8.8888711726e+01   1.0808601202e+01    0.2664288    0.1836762 -26.35 0.0009877199    1.426    0.299
       132  -8.6516    185.5829    114.2205   9.5874639033e+01   2.2485692904e+01    0.2116995    0.1368537 -18.25 0.0009570429    1.702    0.412
       133  -9.1648    229.8594    111.3464   8.6822814773e+01   1.3431039076e+01     0.398058    0.1006671 -24.67  0.001101054    4.775    0.791
       134  -8.3362    212.7870    110.9983   8.9758816814e+01   1.7093172199e+01    0.1959334    0.1117884 -26.95 0.0008632268    1.715    0.417
       135  -8.8094    235.6019    112.2388   8.6074965680e+01   1.2129951108e+01    0.1958747    0.1216017 -11.14 0.0009374336    1.585    0.369
       136  -7.5016    218.6700    108.6989   8.8117880639e+01   1.6154941509e+01    0.1543714    0.1005982  16.83 0.0007032608    1.647    0.393
       137  -8.6889    205.6280    104.9870   8.9570825126e+01   1.9527720204e+01     0.320877    0.1352487 -30.06  0.001216888    2.339    0.572
       138 -11.7070    235.1893    209.9045   1.0576376330e+02   9.7197225035e-01     1.562841    0.8400096   4.79  0.008769079    2.163    0.538
       139  -8.2877    209.3174     99.8014   8.7537945494e+01   1.9468967801e+01    0.2145642    0.1290357 -17.13 0.0007804491    1.725    0.420
       140  -8.2304    224.9812     99.0204   8.4559057140e+01   1.6121925960e+01    0.1858764    0.1476823 -13.66 0.0007028686    1.158    0.136
       141  -8.1450    203.0000     97.9410   8.8228629913e+01   2.1161571177e+01    0.2435724   0.08203714 -30.28 0.0007996975    2.923    0.658
       142 -10.0796    224.2395     92.3026   8.2938518586e+01   1.7194683002e+01    0.4205995    0.3005054 -48.50  0.002033929    1.788    0.441
       143  -8.5420    221.7315     85.3046   8.1497347547e+01   1.8705750904e+01    0.3946297    0.2072818  -1.29  0.001432756    2.772    0.639
       144  -9.0517    217.8625     84.9803   8.2063353977e+01   1.9632969139e+01    0.3499404    0.2154556 -42.13 0.0009514422    1.832    0.454
       145  -9.2914    217.7149     89.9764   8.3435377467e+01   1.8976064576e+01    0.3591865    0.2533086 -15.19  0.001093144    1.359    0.264
       146  -8.2841     15.2700     96.6441   1.3692136371e+02   5.2431923116e+01    0.1174079    0.0718842  75.63 0.0006995832    1.638    0.390
       147  -9.2834    220.3896     93.7571   8.3976637440e+01   1.7852591078e+01    0.3018425     0.138872 -26.03 0.0007241584    2.090    0.522
       148  -8.3762    230.7921     90.9594   8.1504846554e+01   1.5927694261e+01    0.1962714    0.1078799 -23.48 0.0007204982    1.704    0.413
       149  -9.0564    141.2905    248.1422   1.2623209828e+02   1.0686973893e+01    0.1805277   0.09519182 -56.03  0.001213885    2.753    0.637
       150  -8.9217      9.4825     84.0286   1.3719700845e+02   5.5561858479e+01    0.1532537    0.1396797 -83.90   0.00118465    1.180    0.153
       151 -10.0288    176.4970    244.6438   1.2017094308e+02   6.1812516240e+00    0.3541971     0.218405 -12.72  0.002289918    2.629    0.620
       152  -8.8120    225.2402     81.4530   7.9880174519e+01   1.8424244280e+01     0.272342    0.1897132 -22.49   0.00084536    1.338    0.253
       153  -9.5811    234.3133     75.6938   7.6909667599e+01   1.7115672445e+01    0.2712034    0.1782139 -42.74 0.0006897796    1.705    0.414
       154  -9.0630    239.0000     76.0743   7.6314389689e+01   1.6020468126e+01    0.2853463     0.179257 -16.21 0.0009158908    1.494    0.330
       155  -8.6956    239.2812     72.6364   7.5358592870e+01   1.6383673036e+01    0.2792437    0.1824734 -43.53 0.0008750465    1.724    0.420
       156  -9.6420    215.6239     94.1788   8.4919587016e+01   1.8860391747e+01    0.3347666    0.2028611 -18.61  0.001154741    1.639    0.390
       157  -8.5619    200.9669     77.7263   8.3032198178e+01   2.4620062351e+01    0.2881655    0.1762756 -38.09  0.001255354    1.694    0.410
       158  -8.4467    183.9930     77.9764   8.6378479982e+01   2.8657919119e+01      0.23558     0.190336 -63.61 0.0007110607    1.657    0.397
       159 -10.0119    222.0000     71.0243   7.7535254102e+01   2.0549420045e+01    0.3823403    0.1737566 -20.49  0.001458692    2.231    0.552
       160 -10.1634    223.3544     66.7974   7.6140143693e+01   2.0779534492e+01    0.3844777    0.1897534 -20.63  0.001400336    1.990    0.498
       161  -8.0112     26.3047     70.3292   1.2981937266e+02   5.7574515088e+01    0.1268055   0.07345689 -44.77 0.0003127564    1.653    0.395
       162  -8.9263    194.9372     67.4642   8.1138099591e+01   2.7568045247e+01    0.2968815    0.2054036 -40.61  0.001216322    1.545    0.353
       163  -8.5019    203.2472     66.3936   7.9328804718e+01   2.5677706332e+01    0.2762584    0.1693188 -43.47  0.001179657    1.826    0.452
       164  -9.2887      7.7813     65.9868   1.3544625173e+02   5.9664242776e+01    0.1651967   0.07384069 -71.70 0.0004104359    1.707    0.414
       165 -11.0429    231.0370     61.6352   7.3553131154e+01   1.9624363630e+01     0.533942    0.3787119  19.48  0.002629802    1.493    0.330
       166  -8.3468     31.0010     61.9732   1.2655002620e+02   5.9103222090e+01    0.1433233    0.1220584 -57.34 0.0003319378    1.056    0.053
       167  -8.5911     26.1592     60.0278   1.2791079090e+02   5.9901652905e+01    0.1841496    0.1297612 -49.47 0.0003504678    1.224    0.183
       168  -9.2333    217.1718     58.2368   7.4653840032e+01   2.3357924618e+01    0.3180082    0.1924219 -26.53 0.0006658959    1.552    0.356
       169  -8.1262     32.9974     58.0025   1.2494567814e+02   5.9832936954e+01    0.1457409    0.1219997 -55.02            0    1.036    0.035
       170  -7.7493     63.5252     57.5335   1.1356144778e+02   5.6742650357e+01    0.1342032    0.1178847 -46.22 0.0001260403    1.048    0.046
       171  -9.2323      3.1850     54.7932   1.3542952010e+02   6.2361360986e+01    0.1635962     0.102543 -53.51 0.0007510935    1.322    0.244
       172 -11.2385    230.6184     49.8587   7.0316579822e+01   2.1140661728e+01    0.6862861    0.2097313 -29.88   0.00236677    2.784    0.641
       173  -8.2454    132.6991    245.6281   1.2738579812e+02   1.2139965371e+01   0.09542829   0.07045764  17.44 0.0007030531    1.748    0.428
       174 -10.9039    225.3972     42.0828   6.8797127341e+01   2.3303781907e+01    0.4751014    0.3005521 -16.16    0.0017673    1.538    0.350
       175  -8.4246     47.1354     42.1983   1.1507646726e+02   6.1952379120e+01    0.2075286    0.1464939 -35.78 0.0009467315    1.261    0.207
       176  -8.9505     92.3886     39.1977   9.6948155549e+01   5.5859585147e+01    0.3662222     0.154866 -36.64  0.001179772    2.199    0.545
       177  -8.6272     94.9206    244.4398   1.3336720738e+02   1.7134293148e+01    0.1553276   0.07076622  42.58  0.001024119    1.592    0.372
       178  -9.0101      2.7020     38.4217   1.3278464591e+02   6.5988918040e+01    0.2264474    0.1141991   4.87    0.0012987    2.631    0.620
       179 -10.4236    230.2034     82.7649   7.9437435422e+01   1.7130912425e+01    0.3893317    0.2389742   9.31  0.001704402    1.930    0.482
       180  -8.3081    149.4913     34.9290   7.9466818013e+01   4.3705212476e+01    0.2393663     0.148684 -24.45  0.001031205    1.585    0.369
       181  -7.8186     26.6619     33.7531   1.2114790700e+02   6.5632542186e+01    0.1226075   0.07569741 -32.40 0.0001957216    1.560    0.359
       182  -9.4698      8.8129     32.4039   1.2879947627e+02   6.7031817079e+01    0.2193696    0.1562833 -55.33 0.0005054603    1.046    0.044
       183  -8.2985     58.0000     27.0065   1.0491573890e+02   6.3672665706e+01    0.2238276   0.06604291 -44.79 0.0008013395    2.935    0.659
       184  -8.8144    136.9224     24.9865   7.8482486109e+01   4.8193027195e+01    0.2304769    0.2004819  13.43  0.000309668    1.068    0.064
       185  -9.1503     68.1104     23.4727   9.9229515915e+01   6.2826162969e+01    0.1827599    0.1305035  30.29 0.0005119965    1.496    0.332
       186  -9.2906      7.4625     23.1186   1.2700707653e+02   6.9081945627e+01    0.1716505    0.1530771 -35.07 0.0003416421    1.231    0.188
       187  -9.3559     84.7910     21.6225   9.2097388155e+01   6.0251414626e+01    0.2598316    0.2104401 -35.13 0.0006792211    1.279    0.218
       188  -8.9289     59.7016     21.0000   1.0157688143e+02   6.4531113692e+01     0.189724    0.1448262 -29.75 0.0003759155    1.106    0.096
       189  -8.0027    155.6788     20.6793   7.2835083307e+01   4.3890406942e+01    0.1667708    0.1058123  28.02 0.0005548261    1.671    0.402
       190  -8.3026    147.7035     18.6980   7.3649976236e+01   4.6202289666e+01    0.1609333     0.105846  26.97 0.0002933242    1.578    0.366
       191  -9.2964     91.8660     16.1283   8.7114518389e+01   5.9691958835e+01    0.2066109     0.152417   7.76 0.0005092358    1.339    0.253
       192  -9.1660    201.9304    241.2417   1.1565690534e+02   2.8922078924e+00    0.2556629    0.1563884 -30.12  0.001818933    2.135    0.532
       193  -8.8342      2.5208     16.0080   1.2745998967e+02   7.0794040541e+01    0.1624899    0.1275064 -42.74 0.0003209843    1.132    0.117
       194  -9.1598    105.1281     13.8069   8.1917643415e+01   5.7176072716e+01    0.2084996    0.1534847  17.96 0.0004482687    1.318    0.241
       195  -7.8536     45.9735     14.0366   1.0448545593e+02   6.7615186358e+01    0.1538336    0.1219308 -25.07 0.0003061693    1.005    0.005
       196  -8.5843    105.5105    240.4731   1.3136034571e+02   1.6339774229e+01    0.1016077   0.07420371  48.47 3.844455e-05    1.023    0.022
       197  -8.1810     69.5400    239.4552   1.3706134095e+02   2.0777927001e+01   0.09559953   0.06978715  54.71 0.0001010566    1.047    0.045
       198  -8.8418    183.9436    236.5131   1.1799716146e+02   5.9646976487e+00    0.2271644    0.1302768  -9.30  0.001215924    3.099    0.677
       199  -8.8851    148.8660    237.8758   1.2396934615e+02   1.0847347777e+01    0.1606635    0.1147733  31.72 0.0005908774    1.234    0.189
       200  -8.8172    229.6158    234.8980   1.1039878116e+02  -4.8501105795e-01    0.1996995   0.09723893 -24.31  0.001250072    2.464    0.594
       201  -9.8612    189.5911    233.0272   1.1663015563e+02   5.5052442700e+00    0.3770136    0.2820739 -16.16  0.002851127    1.653    0.395
       202  -8.9336    190.2503    225.2735   1.1551301669e+02   6.2351195447e+00    0.2113947    0.1488289 -20.00  0.001490645    1.763    0.433
       203  -8.5844    159.8475    234.7047   1.2179197286e+02   9.6585096126e+00    0.1747083    0.1057689  31.39 0.0007843608    1.410    0.291
       204  -8.9314    151.0893    249.5215   1.2478952320e+02   9.1976772337e+00    0.1435797    0.1153962  39.86 0.0007916981    1.140    0.123
       205  -9.6972    206.6461    233.9850   1.1395522857e+02   2.9086796374e+00    0.3999752    0.2239235  -8.46  0.002402925    2.556    0.609
       206  -8.4604    152.9620    233.0570   1.2276634695e+02   1.0842664981e+01     0.161895    0.1111438  20.25 0.0006993177    1.653    0.395
       207  -8.3711     23.6229     15.8728   1.1639008109e+02   6.9550263050e+01    0.1676004    0.1202116 -45.01 0.0004035718    1.097    0.089
       208  -9.0035    201.5362    231.2547   1.1442797663e+02   3.9274928894e+00    0.2146749    0.1574488  22.04  0.001603431    1.138    0.121
       209  -9.6061    198.9594    225.9732   1.1414523585e+02   4.8516077260e+00    0.2926172    0.1679051 -30.57  0.001894389    2.201    0.546
       210  -8.7849    201.5887    220.6779   1.1297157117e+02   5.0108647850e+00    0.2223108    0.1104108 -28.07  0.001285008    2.557    0.609
       211  -8.8526    156.9374    246.1204   1.2350225597e+02   8.7701076868e+00    0.1763305      0.12305   3.39  0.001233639    2.138    0.532
       212  -8.4804    158.0238    229.9662   1.2156229193e+02   1.0483294725e+01    0.1631616    0.1078609 -11.95  0.001009813    2.531    0.605
       213  -9.2022    211.8462    226.1691   1.1203696426e+02   2.9060168969e+00    0.2725506    0.1435771 -18.68  0.001625459    2.466    0.594
       214  -9.4327    206.5809    223.8588   1.1258319481e+02   3.9249081652e+00    0.2995609    0.1940604  -8.68  0.001970445    1.839    0.456
       215  -8.8861    225.8164     87.3186   8.1358571259e+01   1.7513128332e+01    0.2758447    0.1975535 -17.71  0.001213058    1.300    0.231
