#   1 NUMBER                 Running object number                                     
#   2 MAG_AUTO               Kron-like elliptical aperture magnitude                    [mag]
#   3 X_IMAGE                Object position along x                                    [pixel]
#   4 Y_IMAGE                Object position along y                                    [pixel]
#   5 X_WORLD                Barycenter position along world x axis                     [deg]
#   6 Y_WORLD                Barycenter position along world y axis                     [deg]
#   7 A_WORLD                Profile RMS along major axis (world units)                 [deg]
#   8 B_WORLD                Profile RMS along minor axis (world units)                 [deg]
#   9 THETA_WORLD            Position angle (CCW/world-x)                               [deg]
#  10 FWHM_WORLD             FWHM assuming a gaussian core                              [deg]
#  11 ELONGATION             A_IMAGE/B_IMAGE                                           
#  12 ELLIPTICITY            1 - B_IMAGE/A_IMAGE                                       
         1 -15.9151    182.1148    138.4501   1.0288292668e+02   1.7658706273e+01     4.050266     1.796588 -26.58   0.01222009    4.043    0.753
         2 -16.3257    202.3520    136.2285   9.8288862430e+01   1.3586551856e+01     4.353246     1.033812 -43.01   0.01204205    4.470    0.776
         3 -16.2313    164.4756    120.8503   1.0248754958e+02   2.5093728350e+01     3.806484      2.09146 -44.07   0.01547234    1.848    0.459
         4 -16.5222     96.1102    137.8297   1.2307534543e+02   3.5288372141e+01     3.277802      2.01736 -67.02    0.0145035    1.671    0.401
         5 -16.0368    217.3381    138.7419   9.6046713668e+01   9.9129987584e+00     2.412486      1.70564 -55.17  0.009471785    1.760    0.432
         6 -13.0926     21.2163     35.2128   1.2257474230e+02   6.7204120367e+01    0.5561168    0.4439498 -65.92  0.002798106    1.467    0.318
         7 -11.5078    250.0000     10.0206   6.0125640045e+01   2.1393545833e+01    0.2070265   0.06764477 -28.64 0.0008073648    2.977    0.664
         8 -11.8991    188.5248      2.0196   6.3622031513e+01   3.7430666465e+01    0.5134836    0.1859599  76.42  0.001902631    2.708    0.631
         9 -12.4210    196.5706    209.2288   1.1394099276e+02   2.7740185115e+00    0.7411144    0.2732211  36.94  0.002909086    2.548    0.607
        10 -13.3327    249.3799    248.3072   1.1104540946e+02  -1.0277446423e+01    0.3653823    0.2469831  -9.42  0.002326281    1.478    0.323
        11 -14.8754    223.2486    245.2631   1.1487362257e+02  -6.1581711893e+00     1.227734    0.5443041  45.75  0.006505696    2.129    0.530
        12 -14.8475    227.1147    236.3069   1.1287087576e+02  -5.7594056396e+00    0.7999839    0.6619064   1.22   0.00363995    1.216    0.177
        13 -11.7221    190.8779    250.0711   1.2106182044e+02  -1.6846969070e+00    0.4897416    0.1564724  45.18  0.002206016    2.565    0.610
        14 -12.2877    178.6700    249.3891   1.2308624422e+02   3.3961018682e-01    0.3412244     0.258403  37.53  0.001467181    1.020    0.020
        15 -14.4761    166.2475    248.5201   1.2514724684e+02   2.4440083853e+00     0.986433    0.3533678  41.63  0.004054646    2.141    0.533
        16 -19.7326     51.6973    146.6634   1.3572644951e+02   3.9626565531e+01      19.0534     3.721417 -67.67   0.05741909    4.935    0.797
        17 -12.7278     80.2510    203.6071   1.3607945569e+02   2.3592582849e+01    0.3876484    0.2648443 -46.29  0.001396401    2.117    0.528
        18 -13.0256    112.8568    204.0186   1.2957754916e+02   1.8455018731e+01    0.4351452    0.3923432 -82.73  0.002404699    1.210    0.173
        19 -12.8697    169.3840    202.0786   1.1796038936e+02   8.8052207008e+00    0.4723546    0.4127895  49.26  0.002074758    1.084    0.078
        20 -10.4035    107.3148    206.3030   1.3097793252e+02   1.8929496809e+01    0.1126667     0.100534   9.37 0.0002436158    1.617    0.382
        21 -12.5467     91.8770    203.1654   1.3370549770e+02   2.1952974333e+01    0.3554488    0.1925908 -81.99  0.001771742    2.248    0.555
        22 -10.8803     12.1595    204.3340   1.4903662483e+02   3.1613430211e+01    0.2483982    0.1079137 -71.99  0.001490144    2.064    0.516
        23 -14.8227    143.4512    165.6035   1.1702466679e+02   2.0463155221e+01     1.535142     1.027883  72.35  0.005862011    1.968    0.492
        24 -14.1374    129.2017    197.0934   1.2529443725e+02   1.6969395089e+01    0.8711481     0.584142  46.37  0.003530319    1.297    0.229
        25 -14.4882    147.2259    190.1427   1.2049373123e+02   1.4998070665e+01    0.9148695    0.7536504  25.57  0.003135243    1.357    0.263
        26 -13.4375    146.6868    182.2618   1.1929548402e+02   1.6574488443e+01    0.6354582    0.4638437  59.09  0.001947051    1.357    0.263
        27 -11.7186    223.2678    198.6058   1.0722084208e+02  -4.3964600781e-01    0.3612262    0.2143382  41.89  0.001949607    1.535    0.349
        28 -12.4887    119.0195    205.4664   1.2852304600e+02   1.7159067872e+01    0.3190134    0.1593658  41.31  0.001145817    1.789    0.441
        29 -11.6955     89.4416    196.9320   1.3348107177e+02   2.3549598727e+01    0.2243368    0.1416774  58.14 0.0003786574    1.387    0.279
        30 -11.9193    195.9368    194.7281   1.1156104727e+02   5.0573021817e+00    0.4632119    0.2620135  32.96  0.002268992    1.704    0.413
        31 -12.1187     77.0988    209.1256   1.3725978721e+02   2.2973486173e+01    0.2879034    0.2381488   5.10  0.001684786    2.149    0.535
        32 -11.4074     93.7657    187.9832   1.3147989198e+02   2.4690276282e+01     0.238975     0.151736  53.46 0.0004137127    1.390    0.281
        33 -12.9082     24.8397    187.3196   1.4562292436e+02   3.3733552747e+01    0.3602646     0.220378 -82.86  0.001355817    1.359    0.264
        34 -11.2668     19.6609    182.1937   1.4628196349e+02   3.5299087900e+01     0.300291    0.1599668 -84.97   0.00124614    1.539    0.350
        35 -15.1454    133.7628    181.3277   1.2190151911e+02   1.9176765645e+01      1.40157    0.8042999 -61.71  0.004793396    2.034    0.508
        36  -9.7382     12.2153    248.0146   1.5103483733e+02   2.3802105803e+01    0.1060315   0.06074191  88.23 0.0003543558    1.440    0.306
        37 -16.6734    197.0243    148.4065   1.0209785548e+02   1.2580540278e+01     4.198229     2.589114 -68.61   0.01441189    3.262    0.693
        38 -10.8201      7.8854    245.4895   1.5158967169e+02   2.4656139868e+01    0.1261761   0.07378867  50.27 0.0006801139    1.415    0.293
        39 -12.9617    241.1197    233.8424   1.1014228589e+02  -7.6130804893e+00     0.392742    0.2378706   9.37  0.001906305    1.718    0.418
        40 -15.8761    110.9963    166.1920   1.2447807943e+02   2.6408077006e+01     1.538235     1.483285 -68.96  0.005535671    1.185    0.156
        41 -13.9526     98.8364    115.5504   1.1770205896e+02   3.9930879981e+01     1.067449     0.526589 -57.40  0.003645743    2.027    0.507
        42 -13.5712     91.1924    156.9464   1.2762223448e+02   3.1763176401e+01    0.4625838    0.4268216 -47.85  0.001035499    1.302    0.232
        43 -11.5635    240.2889    228.9943   1.0950075646e+02  -6.9597206295e+00     0.216691    0.1461064  44.63  0.001015966    1.602    0.376
        44 -13.5085    165.1511    171.3876   1.1342077308e+02   1.5016668653e+01    0.6553555    0.4176901  18.97  0.002801925    2.370    0.578
        45 -12.0211    155.9834    167.9034   1.1471335297e+02   1.7518074170e+01    0.4570773    0.3099774 -60.53  0.001890982    1.745    0.427
        46 -11.9726    144.5560    231.3130   1.2691017592e+02   8.4739977317e+00    0.1959558    0.1218895 -60.60  0.001132942    2.064    0.515
        47 -10.8381     95.0944    175.6599   1.2953013432e+02   2.7052664393e+01    0.3297955    0.2133978 -42.06  0.001652374    2.121    0.529
        48 -12.8636     68.7191    144.2952   1.3115769894e+02   3.7987891670e+01    0.6868226    0.3701242  72.03  0.002963706    2.528    0.604
        49 -11.0324     97.5073    170.9524   1.2830518104e+02   2.7669355389e+01    0.2673523    0.1808194 -47.39  0.001070641    1.762    0.433
        50 -13.5939    112.9850    107.9138   1.1198494536e+02   3.9012930083e+01     1.466472    0.6882079 -44.28  0.005679694    2.146    0.534
        51 -13.5019    108.3307     99.6603   1.1113361542e+02   4.1744898273e+01    0.9272744    0.6191333  17.45  0.003900636    2.296    0.564
        52 -12.4328    222.4359    101.7108   8.6247647991e+01   1.4998600469e+01    0.5624657    0.3995353 -27.11  0.001852238    1.411    0.291
        53 -13.9120    209.6569     92.2651   8.5995923790e+01   1.9595615177e+01     1.133751    0.7913501 -62.80  0.003651656    1.745    0.427
        54 -14.1197    197.8122     72.8621   8.2793009511e+01   2.5766625699e+01     1.443299    0.7639003 -45.57  0.005196613    1.917    0.478
        55 -12.9645    181.1938     72.6722   8.5766152715e+01   3.0044194986e+01     1.166042    0.5567727 -21.13  0.003822876    3.128    0.680
        56 -14.2101    187.9373     60.0267   8.0833130505e+01   3.0352830896e+01     1.306499    0.7141324  57.65  0.003967178    1.780    0.438
        57 -13.6807    180.9949     52.1570   7.9703097762e+01   3.3364524493e+01    0.7577318    0.6107864 -81.27   0.00240903    1.363    0.266
        58 -11.3087     14.9407     68.4871   1.3396079117e+02   6.0830850594e+01    0.2815416    0.2230614 -38.27  0.001555891    1.254    0.203
        59 -11.6173    250.2374     63.1102   7.2689988660e+01   1.4590683387e+01    0.3326749    0.1565404 -38.69  0.001460944    1.849    0.459
        60 -12.7780    166.9810     56.5079   8.3647632470e+01   3.6358013001e+01    0.4111528    0.3372357  25.57  0.001722665    1.388    0.279
        61 -13.9406    166.2590     50.6293   8.1936324445e+01   3.7450280225e+01    0.6317925    0.5434349 -19.68  0.002751604    1.250    0.200
        62 -13.0418    160.3096     48.0942   8.2287106059e+01   3.9376433113e+01    0.5463585    0.3164252  44.20  0.001901558    1.789    0.441
        63 -11.9253     20.6597     55.7840   1.2887947721e+02   6.3140819062e+01    0.4432269    0.2781969  14.25  0.002492839    1.952    0.488
        64 -12.5608     25.6605     49.3402   1.2509484377e+02   6.4076331359e+01    0.5309773    0.3231604 -34.75  0.002533266    1.522    0.343
        65 -12.5036    248.1069     45.2479   6.8612507520e+01   1.7532890439e+01    0.3041522    0.2721936 -85.71  0.001855244    1.117    0.105
        66 -13.5966    189.4461    225.8559   1.1788428798e+02   1.6675083575e+00    0.8993676    0.6603863  -4.91  0.005184399    1.726    0.421
        67 -13.5711    171.8990     32.9981   7.5325106266e+01   3.8422504251e+01    0.6597145    0.5773516  58.79  0.002476947    1.095    0.087
        68 -12.6214    175.9416     26.1009   7.2513767557e+01   3.8205106286e+01    0.5647582    0.3716917  15.98  0.001543678    2.141    0.533
        69 -11.8011     12.5249     23.7721   1.2263582690e+02   6.9970605208e+01    0.3726178    0.1884726 -55.04  0.002165578    1.750    0.429
        70 -13.0325    187.6136    212.7678   1.1618973886e+02   3.8457688743e+00    0.5654753    0.4365722  46.41  0.002742094    1.200    0.167
