#   1 NUMBER                 Running object number                                     
#   2 MAG_AUTO               Kron-like elliptical aperture magnitude                    [mag]
#   3 X_IMAGE                Object position along x                                    [pixel]
#   4 Y_IMAGE                Object position along y                                    [pixel]
#   5 X_WORLD                Barycenter position along world x axis                     [deg]
#   6 Y_WORLD                Barycenter position along world y axis                     [deg]
#   7 A_WORLD                Profile RMS along major axis (world units)                 [deg]
#   8 B_WORLD                Profile RMS along minor axis (world units)                 [deg]
#   9 THETA_WORLD            Position angle (CCW/world-x)                               [deg]
#  10 FWHM_WORLD             FWHM assuming a gaussian core                              [deg]
#  11 ELONGATION             A_IMAGE/B_IMAGE                                           
#  12 ELLIPTICITY            1 - B_IMAGE/A_IMAGE                                       
         1 -14.9709      7.6449    149.0956   1.4408317223e+02   4.3010776798e+01     10.66436     4.585584  74.58   0.04720078    3.232    0.691
         2 -13.3155    195.2136     29.5620   6.8988098252e+01   3.2975834737e+01     1.329221     1.202984 -69.86  0.007110639    1.104    0.094
         3 -13.5435    210.5497     10.7557   6.2521047628e+01   3.1432375244e+01     1.349151     1.026472  31.35   0.00777883    1.850    0.460
         4 -11.9550      2.2719      4.1728   1.1450979807e+02   7.1699561556e+01    0.4312066     0.344294 -34.22  0.003580608    1.467    0.318
         5 -11.7634      2.0000     12.5113   1.1800817958e+02   7.0547066550e+01    0.7644698    0.1499698 -50.09   0.00285788    5.409    0.815
         6 -10.6554    199.3610    246.2463   1.1694476572e+02  -5.8968783869e+00    0.1991139    0.1737653 -50.83  0.001328305    1.488    0.328
         7 -11.9867    247.2981    247.1783   1.0840459223e+02  -1.3555894640e+01    0.6123146    0.4390571  11.56  0.004095837    1.189    0.159
         8 -10.8289    139.5598    249.8241   1.2870319799e+02   3.7593231749e+00    0.3065818     0.153678  37.35  0.001519066    1.892    0.472
         9 -10.7599    125.8750    249.8309   1.3125365296e+02   6.0540336009e+00    0.3114132    0.1335171  48.55  0.001492361    1.911    0.477
        10  -9.7132    111.8616    250.5460   1.3391560638e+02   8.2232046126e+00    0.1889013    0.1005941  45.10 0.0008018931    1.561    0.360
        11  -8.4188     66.7072    250.2955   1.4189726864e+02   1.5068957130e+01    0.1200632   0.06741016  68.66 0.0006978671    1.558    0.358
        12  -9.8105     28.6291    249.7953   1.4812747012e+02   2.0021443478e+01      0.19398     0.142536  82.81 0.0009635746    1.141    0.124
        13 -11.2255     35.1901    244.3794   1.4672331890e+02   2.0246242925e+01    0.4842133    0.3583069 -54.15  0.003376024    2.075    0.518
        14  -9.9561      3.0045    248.1835   1.5196469020e+02   2.3100708615e+01    0.2820573    0.1656988 -69.05  0.002044216    1.837    0.456
        15  -8.9996     19.9472    242.9297   1.4908205829e+02   2.2271359220e+01    0.1761227     0.087534  69.17 0.0004666689    1.601    0.375
        16  -9.4302      5.7266    240.9193   1.5118609607e+02   2.4151214474e+01    0.1509352    0.1184337  69.18 0.0003754116    1.288    0.224
        17  -9.8214     12.9346    239.9125   1.5001189404e+02   2.3591502129e+01     0.189217    0.1111473  57.47  0.001086261    1.376    0.273
        18  -9.8532    183.1665    238.8399   1.1885678250e+02  -2.0230451590e+00    0.1749348    0.1403441  17.86 0.0005673284    1.301    0.231
        19 -10.7438    119.9188    238.3246   1.3098478919e+02   9.0792145660e+00    0.2771962    0.1740697 -82.57  0.001410452    2.030    0.507
        20 -11.1557    231.2163    232.6699   1.0880825582e+02  -9.2288391286e+00    0.6645493    0.3810034 -60.89  0.002380089    5.917    0.831
        21 -10.3420     50.4081    234.8167   1.4343861802e+02   2.0174166850e+01    0.2258901    0.2006778 -56.83 0.0009989067    1.686    0.407
        22 -11.4270    238.3861    246.9339   1.0993462564e+02  -1.2209100705e+01    0.4744139    0.2394581 -42.52  0.002519902    2.539    0.606
        23  -9.4822    156.4018    249.7802   1.2553718184e+02   8.9484103246e-01    0.1546623    0.1200638 -33.56 0.0009502104    1.686    0.407
        24 -12.5967     34.1033    232.2007   1.4605169365e+02   2.2697189945e+01    0.2863585    0.2336168 -76.89 0.0007674343    1.414    0.293
        25  -9.7371    172.9503    222.5055   1.1825892775e+02   2.4955158151e+00    0.2190033    0.1187679  41.74  0.001041194    1.617    0.381
        26  -9.8494     54.5260    229.5905   1.4226905679e+02   2.0661866464e+01    0.2997971    0.1498823  64.14  0.001630225    1.821    0.451
        27  -9.2717     34.6664    215.2780   1.4465514072e+02   2.6015046547e+01    0.1901952    0.1151236 -82.68 0.0005892767    1.381    0.276
        28  -8.6267    152.4726    212.9289   1.2086695262e+02   8.0426712972e+00    0.1782811    0.1381208 -53.88 0.0003790824    1.438    0.304
        29 -12.5230      9.6438    206.7119   1.4849597199e+02   3.0431377043e+01    0.6747756    0.4225157  41.19  0.003230817    1.785    0.440
        30 -11.4399     60.8696    198.2941   1.3796361039e+02   2.6341897538e+01    0.2807601    0.2223601 -60.90 0.0004937809    1.412    0.292
        31  -9.5185    191.7977    192.8645   1.0913847881e+02   4.2298181985e+00    0.5147067    0.2496398 -63.81  0.001327348    6.880    0.855
        32 -11.3519     15.9787    197.4688   1.4667827751e+02   3.1733123518e+01    0.2887757    0.1719109  65.27  0.001847922    1.466    0.318
        33 -13.8529     39.6777    224.7506   1.4451739477e+02   2.3500950231e+01    0.8584027    0.8028812 -78.42  0.004479947    1.519    0.342
        34 -11.7517     67.0662    190.0761   1.3570277085e+02   2.7310078501e+01    0.2901605    0.2223244 -61.92 0.0004552859    1.354    0.261
        35 -10.0331    145.9810    230.0000   1.2478930534e+02   6.0689607640e+00    0.2284351   0.06603879  42.51 0.0008073301    2.976    0.664
        36 -10.5702     77.2638    177.3327   1.3175805576e+02   2.8736826360e+01    0.2380879    0.2065936 -77.64 0.0003368931    1.097    0.089
        37 -13.1208     64.0084    175.2918   1.3447192748e+02   3.1084272922e+01    0.5070888    0.2753061 -46.81  0.001786385    2.272    0.560
        38  -9.5494     97.7581    174.3179   1.2658006609e+02   2.6198530945e+01    0.2984511    0.1806008 -65.40 0.0009195302    1.634    0.388
        39 -11.6647     84.7926    168.1622   1.2862411829e+02   2.9720099618e+01    0.6055893    0.5930205  86.14   0.00376805    1.200    0.167
        40  -9.8898     97.4721    152.2782   1.2277230358e+02   3.1396076253e+01    0.3033789    0.2620179 -49.65 0.0008966633    1.211    0.174
        41 -11.9732     86.1012    151.2980   1.2544100067e+02   3.3484894246e+01    0.3024233    0.2466927 -47.18 0.0006148609    1.304    0.233
        42  -8.8004    100.5030    148.0480   1.2119468175e+02   3.1874923593e+01     0.214816    0.1367739 -54.85  0.000403695    1.496    0.332
        43 -12.2460     67.2701    143.6769   1.2887390753e+02   3.8049529098e+01    0.7115852    0.4630899  69.31  0.003093557    1.859    0.462
        44  -8.3075    192.1952    143.9510   9.8655877544e+01   1.3736152926e+01    0.1978979    0.1190464 -43.04  0.000428818    1.653    0.395
        45  -8.8889     60.0640    227.2685   1.4105649231e+02   2.0384472308e+01      0.20719   0.09978547  63.96  0.001055599    1.993    0.498
        46  -9.4895    109.4803    137.1334   1.1663586890e+02   3.2834886504e+01    0.4179756    0.2434493 -31.22  0.001606851    2.558    0.609
        47 -10.2381     96.5120    134.4164   1.1944713044e+02   3.5772078689e+01    0.2596659    0.2278565 -30.68 0.0005938598    1.290    0.225
        48 -10.7770     55.9845    129.4883   1.2934396961e+02   4.2837585654e+01    0.3557802      0.21852 -75.99   0.00177879    1.695    0.410
        49 -10.5391     33.3638    132.6643   1.3583496254e+02   4.4544059281e+01    0.3947763    0.1556062  50.25  0.001666748    3.295    0.696
        50  -8.7514     79.6468    131.7957   1.2340589090e+02   3.9090753146e+01     0.235701    0.1608829  62.76  0.000617053    1.753    0.429
        51  -9.4338     88.7142    129.7279   1.2053659225e+02   3.8165405549e+01    0.2686127    0.1959011  65.95  0.001014909    1.621    0.383
        52  -8.3359    115.6345    129.6805   1.1336515960e+02   3.3405400401e+01    0.1553066    0.1215564  -8.87 0.0007039334    1.781    0.439
        53 -11.5146     22.2067    126.3799   1.3780725165e+02   4.6974169769e+01    0.3290651    0.2263425  53.13  0.001161159    1.682    0.405
        54  -9.8142     53.3817    120.2055   1.2834477942e+02   4.5304660142e+01    0.1951135    0.1140321 -70.34 0.0008991107    1.699    0.411
        55  -9.9994    167.7071    112.8468   9.6370589403e+01   2.5796275594e+01    0.3604779    0.2787397 -74.73   0.00075735    1.577    0.366
        56  -9.5100    203.2041    111.7868   8.8721414520e+01   1.7601547047e+01    0.2116452    0.1856453   5.22 0.0007384619    1.360    0.265
        57  -8.8220    106.3715    123.8977   1.1447537246e+02   3.6478544706e+01    0.1989597    0.1734046 -51.71 0.0003787297    1.099    0.090
        58  -8.8596     38.6488     94.9390   1.2759001637e+02   5.2553727960e+01     0.177798    0.1349093 -57.69 0.0003781509    1.123    0.110
        59 -10.8605    242.0014     93.0198   7.7681942758e+01   1.2145368614e+01    0.2318023    0.2099683 -58.34   0.00134379    1.006    0.006
        60 -10.5915    241.0153     83.1880   7.5572476103e+01   1.4022823218e+01    0.2425641    0.1557709 -79.52  0.001096579    2.032    0.508
        61  -8.5202    184.4968     77.4908   8.3465277007e+01   2.8482095689e+01    0.1502249    0.1458579  66.75 0.0002596661    1.057    0.054
        62  -8.8611    157.6870     76.6699   8.8765078668e+01   3.5213127998e+01    0.1556964    0.1199465  16.25 0.0004634787    1.674    0.403
        63  -9.9131     43.0718     67.5194   1.1941156080e+02   5.7791728976e+01    0.2692795    0.1926263  53.31   0.00141919    2.065    0.516
        64  -9.5097     32.6514     62.2096   1.2162249802e+02   5.9831473414e+01    0.1811948    0.1597655  27.66  0.001093061    1.397    0.284
        65 -10.4638      2.5377     61.9590   1.3236014255e+02   6.1998006419e+01    0.2228813    0.1310407 -77.63  0.001301812    2.144    0.534
        66 -11.0514     14.5812     55.2982   1.2636966702e+02   6.2562451583e+01    0.2214503    0.1804952  33.24 0.0009597834    1.616    0.381
        67 -11.8371      2.6485     38.0712   1.2627287640e+02   6.6404816900e+01    0.5498456     0.125733 -56.26  0.002305618    3.605    0.723
        68 -10.8150     98.0102    248.0000   1.3616402320e+02   1.0869592444e+01    0.2751825    0.2336377  59.45  0.001911801    1.168    0.144
        69 -11.1337    100.8226    245.8120   1.3542178484e+02   1.0824264380e+01    0.2837377    0.2366455  89.02  0.001443496    1.207    0.171
        70  -8.7308     46.5795    249.4946   1.4521341471e+02   1.7892220260e+01    0.1136278   0.08134036  73.07 2.750343e-05    1.014    0.014
