#   1 NUMBER                 Running object number                                     
#   2 MAG_AUTO               Kron-like elliptical aperture magnitude                    [mag]
#   3 X_IMAGE                Object position along x                                    [pixel]
#   4 Y_IMAGE                Object position along y                                    [pixel]
#   5 X_WORLD                Barycenter position along world x axis                     [deg]
#   6 Y_WORLD                Barycenter position along world y axis                     [deg]
#   7 A_WORLD                Profile RMS along major axis (world units)                 [deg]
#   8 B_WORLD                Profile RMS along minor axis (world units)                 [deg]
#   9 THETA_WORLD            Position angle (CCW/world-x)                               [deg]
#  10 FWHM_WORLD             FWHM assuming a gaussian core                              [deg]
#  11 ELONGATION             A_IMAGE/B_IMAGE                                           
#  12 ELLIPTICITY            1 - B_IMAGE/A_IMAGE                                       
         1 -14.7869    165.7025     40.6846   7.7426697561e+01   3.8565058139e+01     1.382133     1.039742  -4.44  0.004063898    1.470    0.320
         2 -14.5097    181.2955      7.7575   6.4594762102e+01   3.8246175102e+01     1.322249    0.9027264  58.79  0.005766045    1.452    0.311
         3 -11.7473    125.0021    246.9078   1.2980450568e+02   1.1099767424e+01    0.2170153    0.1413231 -53.86  0.001529929    2.060    0.515
         4 -20.0720     68.3180    175.0309   1.3444587417e+02   3.0431512909e+01      15.7834     6.633346 -69.46   0.07265027    2.600    0.615
         5 -10.5524    139.1995    200.8806   1.2164737757e+02   1.5969757889e+01    0.1792127    0.1628231 -80.52 0.0006323063    1.475    0.322
         6 -10.2397    150.6626    247.1420   1.2511744339e+02   7.8677189346e+00     0.126735   0.09364706 -22.09  0.000752688    1.660    0.397
         7 -11.7498    161.4402    197.8194   1.1662494418e+02   1.3164910892e+01     0.238512    0.1835003  46.56  0.001486751    1.468    0.319
         8 -10.6741    139.5180    250.0669   1.2745433625e+02   8.8934102790e+00    0.2245822    0.1081748  42.85  0.001347923    1.793    0.442
         9 -12.8237    180.5390    193.1621   1.1209198728e+02   1.0978722365e+01    0.2941696    0.2711816 -65.55  0.001714202    1.696    0.410
        10 -13.0534    174.8925    193.2572   1.1321516696e+02   1.1818129344e+01    0.4847516    0.3862875 -82.41  0.002120032    2.581    0.613
        11 -13.2741    175.4246    186.1693   1.1193325207e+02   1.2783019175e+01     0.542303    0.3562294 -58.01  0.002400988    2.604    0.616
        12 -12.0869    163.4650    188.4604   1.1473568982e+02   1.4287932119e+01    0.2719413    0.2284349  -5.07 0.0009330661    1.174    0.148
        13 -11.5271    169.8039    195.3042   1.1455398354e+02   1.2286037826e+01    0.1909882    0.1374229  41.12  0.001152399    1.414    0.293
        14 -11.9123     12.7450    241.2406   1.5000792298e+02   2.3886476681e+01    0.2923743    0.2374371  44.28   0.00254953    1.236    0.191
        15 -11.4496    153.6562    185.1269   1.1623799718e+02   1.6340423162e+01    0.2290613    0.2121356 -72.68  0.001495713    1.470    0.320
        16 -10.9742    119.0183    182.0129   1.2337549639e+02   2.2181984285e+01    0.3127292    0.1845437  62.04  0.001139748    2.544    0.607
        17 -11.5725    113.7375    177.7423   1.2397254503e+02   2.3760131939e+01    0.5292741    0.2559946  57.76  0.002043702    3.421    0.708
        18 -12.7882    207.3273    178.0942   1.0439728302e+02   8.9850125000e+00    0.5312169    0.3344672   5.68   0.00250744    1.629    0.386
        19 -10.5705      3.7464    180.7977   1.4981373374e+02   3.5395095104e+01    0.3077379    0.1931933 -25.88  0.001835031    2.733    0.634
        20 -12.1191    203.3122    172.5090   1.0409736263e+02   1.0376482508e+01    0.4724517    0.2904508 -25.32  0.002629126    1.590    0.371
        21 -12.2038    170.4987    185.0801   1.1274047714e+02   1.3715518129e+01     0.316861    0.2452672 -30.27 0.0008182424    1.391    0.281
        22 -13.1184    195.7248    170.0291   1.0505648869e+02   1.1942321301e+01    0.5290591    0.3871686 -35.52  0.001877896    1.511    0.338
        23 -11.6331    193.8083    164.9684   1.0445366892e+02   1.2999207973e+01    0.2724384    0.2412544 -15.15  0.001259357    1.215    0.177
        24 -11.9936      9.4272    175.1317   1.4832957523e+02   3.6125006856e+01    0.1959669    0.1491631  48.85 0.0006261874    1.174    0.148
        25 -12.3647    137.8701    170.8002   1.1732849049e+02   2.1308206346e+01    0.4409744    0.3426643  54.50  0.001808993    1.476    0.323
        26 -11.7144    125.7628    171.8465   1.2027979615e+02   2.3038760567e+01     0.263441    0.2293241 -83.26  0.001123063    1.441    0.306
        27 -13.0354    166.8914    188.2894   1.1400765933e+02   1.3784826019e+01    0.4086981    0.3609716  11.83  0.001679357    1.101    0.091
        28 -12.0305    143.6994    168.2218   1.1556766288e+02   2.0823951142e+01    0.4309049    0.2963632  80.01  0.001875633    3.117    0.679
        29 -10.0592    131.9075    236.1327   1.2741278397e+02   1.1698930341e+01    0.1222193   0.09673309  33.09 0.0003529407    1.059    0.056
        30 -11.1517    133.6617    248.4180   1.2835733486e+02   9.8303688869e+00    0.1789999    0.1218606 -44.30  0.000766362    1.928    0.481
        31 -11.7277    230.2291    166.5985   9.8221945852e+01   6.9972907228e+00    0.2214663    0.1367061 -34.73 0.0009348444    1.734    0.423
        32 -11.3156    201.4538    166.2059   1.0324073701e+02   1.1565849281e+01    0.2434548    0.1613751 -40.66  0.001150289    1.772    0.436
        33 -12.2955    112.7662    169.6280   1.2299358854e+02   2.5464120423e+01    0.3829215    0.3444353  -5.90  0.001159066    1.215    0.177
        34 -10.2703     13.5832    164.7440   1.4686304578e+02   3.7981883707e+01    0.1991758    0.1525624 -22.85 0.0009988073    1.861    0.463
        35 -10.6359     17.0229    163.2998   1.4595624831e+02   3.8025783509e+01    0.1824515    0.1555521   8.09  0.000687279    1.493    0.330
        36 -10.6538      1.8443    165.3340   1.4965475634e+02   3.8693638280e+01    0.1339254    0.1206269  57.46 0.0003772778    1.187    0.158
        37 -10.5963    222.4595    161.7734   9.8596886161e+01   8.8176380136e+00    0.2180607    0.1101719 -34.76  0.000770403    1.975    0.494
        38 -11.9313    162.8186    154.8475   1.0881942525e+02   1.9931528014e+01    0.2583306    0.2427769  34.74 0.0008608303    1.206    0.171
        39 -14.5100    135.1855    127.7102   1.0954302936e+02   3.0078000963e+01     1.691006    0.4965793 -45.65  0.005389948    3.488    0.713
        40 -12.1706    134.6622    109.2622   1.0524471345e+02   3.3913716815e+01     1.158587    0.1561389 -44.68  0.002379871    7.663    0.870
        41 -14.0247    133.5372    145.2560   1.1366914229e+02   2.6874827282e+01      1.11771    0.4125981 -54.47  0.003781296    3.651    0.726
        42 -12.7271    128.2672    143.4022   1.1460099838e+02   2.8164944172e+01    0.4174088    0.2409532  49.37  0.001695644    1.894    0.472
        43 -10.5244    219.1588    224.1729   1.0996557447e+02   1.7596369850e+00    0.1370516     0.111982  14.90 0.0003651321    1.314    0.239
        44 -10.7960    174.6508    148.9131   1.0507929564e+02   1.8841727825e+01    0.2289839    0.2230562 -75.38 0.0008112427    1.373    0.272
        45 -13.5240    144.4156    145.9960   1.1120910869e+02   2.4804715167e+01    0.8790737    0.4367794 -60.46  0.003109591    3.700    0.730
        46 -11.2890    110.1363    222.9502   1.3028283706e+02   1.6443613706e+01    0.1656099    0.1369314  36.61 0.0004634887    1.039    0.037
        47 -10.1271    172.1129    138.1780   1.0331686240e+02   2.1132773395e+01    0.1791215    0.1739206  71.53 0.0006056838    1.326    0.246
        48 -11.3103      1.4514    214.7113   1.5132206718e+02   2.9208569808e+01    0.1497081   0.08980455 -73.99 0.0004998398    1.813    0.449
        49 -11.4708    108.1542    207.3940   1.2901333377e+02   1.9232109770e+01    0.2755907    0.1952423  28.08  0.001287875    1.269    0.212
        50 -11.5978    109.5140    210.5293   1.2907952158e+02   1.8526279218e+01    0.2689342    0.1660716  36.51 0.0009314903    1.320    0.243
        51 -11.9106    160.4461    128.0403   1.0358747384e+02   2.5163447471e+01    0.3591046    0.2740916 -50.99  0.001631983    1.534    0.348
        52 -12.4305     31.0687    118.6532   1.3835052837e+02   4.7143347641e+01    0.3286148    0.1918058 -68.53 0.0009157201    1.520    0.342
        53 -10.7313    167.6166    112.6244   9.8260680018e+01   2.6513193066e+01    0.2887767    0.2245279 -80.79  0.001335626    2.107    0.525
        54 -12.3444    116.1290    212.0057   1.2786948756e+02   1.7400936718e+01    0.2410958    0.1889906  70.61  0.001019323    1.594    0.373
        55 -10.7964    205.3478    110.2444   9.0253877988e+01   1.9239856518e+01    0.2855734    0.1885695  38.47 0.0009637116    1.548    0.354
        56 -10.6863    111.6590    213.3233   1.2894409860e+02   1.7782432773e+01    0.1740119    0.1376298  62.28 0.0006253118    1.415    0.293
        57 -11.7094    163.8191    203.1657   1.1695603890e+02   1.2021194050e+01    0.2212395    0.1959942  44.19 0.0007212898    1.373    0.272
        58 -11.6643    157.7072    202.0324   1.1801146852e+02   1.3084735136e+01    0.4454937    0.3037106  60.00  0.002134977    2.323    0.570
        59 -10.9295    154.6801    196.2320   1.1776148357e+02   1.4418073889e+01    0.3207437    0.2310681  65.25  0.001749288    2.283    0.562
        60 -10.6219     98.9092     80.9229   1.0768590889e+02   4.6979347189e+01     0.220629     0.216737 -12.40 0.0004154658    1.048    0.046
        61 -10.1439    145.3317     80.3097   9.4439335094e+01   3.7234447349e+01    0.1603985    0.1177912  11.32 0.0004427326    1.670    0.401
        62 -14.3598    154.1183     55.6053   8.4577682261e+01   3.9321172689e+01     1.103866     1.013085  62.60  0.001013335    1.159    0.137
        63 -10.5517    160.0110    248.8383   1.2361848595e+02   6.4880427339e+00    0.1622355    0.1426153  -0.89 0.0006900479    1.311    0.237
        64 -12.8993    169.7224     32.8805   7.4195901588e+01   3.8534970826e+01    0.4459825    0.3438061  -7.95 0.0009277367    1.388    0.280
        65 -10.8255     13.6665     60.0280   1.3628612559e+02   6.2848957572e+01    0.1907117    0.1732472  64.09 0.0005198416    1.264    0.209
        66 -10.9055    139.1524     31.9531   7.9335613884e+01   4.6453997630e+01    0.3830441    0.2198326  77.72  0.001510966    2.356    0.576
        67 -11.1681    168.9968    202.5176   1.1583444681e+02   1.1356531500e+01    0.1832969    0.1013662  34.03 0.0003555312    1.511    0.338
