#   1 NUMBER                 Running object number                                     
#   2 MAG_AUTO               Kron-like elliptical aperture magnitude                    [mag]
#   3 X_IMAGE                Object position along x                                    [pixel]
#   4 Y_IMAGE                Object position along y                                    [pixel]
#   5 X_WORLD                Barycenter position along world x axis                     [deg]
#   6 Y_WORLD                Barycenter position along world y axis                     [deg]
#   7 A_WORLD                Profile RMS along major axis (world units)                 [deg]
#   8 B_WORLD                Profile RMS along minor axis (world units)                 [deg]
#   9 THETA_WORLD            Position angle (CCW/world-x)                               [deg]
#  10 FWHM_WORLD             FWHM assuming a gaussian core                              [deg]
#  11 ELONGATION             A_IMAGE/B_IMAGE                                           
#  12 ELLIPTICITY            1 - B_IMAGE/A_IMAGE                                       
         1  99.0000    203.4353     18.7707   3.5786587394e+01   3.2148036531e+01     2.179978     1.412784  84.15   0.01241854    1.425    0.298
         2 -14.9529    239.7624      9.2026   3.0716189234e+01   2.5327351430e+01     4.470915          nan  61.95   0.01201991    8.984    0.889
         3 -15.9959    224.9598     49.5714   4.0652267578e+01   2.3505435109e+01     12.34115          nan -41.91   0.02877716    6.758    0.852
         4 -15.1655    181.9562     82.5327   5.5039458240e+01   2.8197220882e+01     9.191548     1.791968 -44.39   0.02276504    5.366    0.814
         5 -14.7549    140.5516     40.9185   5.0937062841e+01   4.4611839426e+01     3.591223     1.579802  64.98   0.01405295    2.395    0.582
         6 -12.1491    227.2760    121.7852   5.6830958729e+01   1.1469331492e+01    0.2812938    0.2595109  36.81 0.0008699222    1.217    0.178
         7 -14.5885     41.3227    170.4836   1.1134235013e+02   3.4424734520e+01     1.351193     1.164059 -17.12  0.003067704    1.524    0.344
         8 -11.6548    230.3706    167.9082   6.6266488092e+01   2.8502454154e+00    0.3649548    0.2120099 -48.14  0.001603321    1.922    0.480
         9 -13.5920    227.9566     62.1964   4.3169115473e+01   2.1069041510e+01     1.214156    0.6300006 -60.99 0.0007801885    2.199    0.545
        10  -9.3874    187.8421    234.2088   8.6848746307e+01  -1.3715493205e+00    0.1707097    0.1269906   6.70 0.0002391116    1.287    0.223
        11 -14.1513      5.8838    204.7553   1.2247191016e+02   2.9956384170e+01     2.591187    0.9441105 -74.33   0.01274053    2.309    0.567
        12 -15.1756     27.1309    180.0816   1.1587612031e+02   3.3598370243e+01     1.406124     1.255966   9.02  0.009286468    1.473    0.321
        13 -11.9078    214.8043    117.5053   5.7915217894e+01   1.4703154172e+01    0.2864879    0.1934758 -38.35  0.001417642    1.344    0.256
        14 -12.5045    228.1976    114.8131   5.5116320043e+01   1.2505541131e+01    0.4294986     0.253527 -58.94  0.001918738    2.135    0.532
        15 -12.1973    167.6927    113.8840   6.6160501179e+01   2.5580793470e+01    0.4172496    0.3771289 -41.48 0.0005612917    1.075    0.069
        16 -10.5250    134.8097    108.1696   7.2514870195e+01   3.4111958416e+01     0.841625    0.1552123 -47.02  0.001819825    6.151    0.837
        17  -9.9415    156.2183    112.2056   6.8321480230e+01   2.8500330703e+01    0.2129474    0.1843086 -81.15 0.0004315683    1.349    0.259
        18 -11.7958    249.1540    156.6600   6.0812035071e+01   1.6695969564e+00    0.3109631    0.1691995 -42.92  0.001293473    1.703    0.413
        19 -13.2783    236.0169     42.3547   3.7913579910e+01   2.2131519446e+01    0.4872837     0.319638  45.36  0.002013792    2.087    0.521
        20  -9.7443    143.8252    103.1344   6.8853261836e+01   3.3165798317e+01    0.2153372    0.1858016   4.13 0.0005213622    1.326    0.246
        21 -12.1899     67.8544    144.6299   1.0023742720e+02   3.7581071957e+01    0.6464858    0.3989123  60.06  0.002214452    2.000    0.500
        22 -12.0060    151.3432     97.6318   6.5527123220e+01   3.2562647409e+01    0.5250098    0.4443232 -13.90  0.001859921    1.330    0.248
        23 -10.6055    136.3791     95.2682   6.8512325072e+01   3.6450772231e+01    0.2903288    0.2449259  84.42 0.0003625848    1.437    0.304
        24 -11.4314    215.2831     93.1784   5.2114024579e+01   1.8872333410e+01    0.3463175    0.2428774 -87.84  0.001648955    1.898    0.473
        25 -12.8176    162.7325     90.2972   6.0948682449e+01   3.1321367481e+01    0.7073664    0.4171022  35.19  0.002859518    2.101    0.524
        26 -11.6068    144.9786     87.4703   6.4153926192e+01   3.6009930553e+01    0.3394922    0.3071961 -41.84 0.0006523209    1.105    0.095
        27 -12.9191    161.2026     79.9246   5.8378267970e+01   3.3567770032e+01    0.4840469    0.3242968 -23.54  0.001159176    1.769    0.435
        28 -14.0483    197.7297     98.4263   5.6285222824e+01   2.1785099472e+01     1.886547    0.8133989 -51.06  0.006408087    2.670    0.625
        29 -10.6663    148.6959     69.6839   5.8078735718e+01   3.8325920960e+01    0.2950133    0.2760409  15.33  0.001172086    1.143    0.125
        30 -12.2336    199.0128     66.2805   4.8004525908e+01   2.6880311213e+01    0.3722565    0.2569562  38.40  0.001830355    1.828    0.453
        31 -12.4888    205.2529     62.4377   4.6147987050e+01   2.6034745484e+01    0.4170189    0.2826858  41.05  0.002086246    1.848    0.459
        32  -9.0285    162.6392     66.2870   5.4209990855e+01   3.5526882289e+01    0.1526006     0.112167 -78.42 0.0007023037    1.686    0.407
        33 -11.2413    226.5620    131.6870   5.9158126301e+01   9.8608247441e+00    0.2233322    0.1775301  83.51  0.000977968    1.774    0.436
        34 -11.4779    192.2098     55.3634   4.6227611944e+01   3.0103304964e+01    0.4204975    0.2103201 -52.12  0.001220373    2.120    0.528
        35 -13.8906    179.3644     62.7120   5.0186603056e+01   3.2058830659e+01     1.405871      0.69301  69.79  0.004506166    2.398    0.583
        36 -11.1616    248.0130     53.5067   3.9113790984e+01   1.8189850940e+01     0.292554    0.1799086 -70.86  0.001368334    1.704    0.413
        37 -10.5986    245.2883     49.6503   3.8569799103e+01   1.9260609604e+01    0.2572491    0.1549534 -63.20 0.0008916946    1.590    0.371
        38 -10.1761    242.7659     46.9564   3.8244803861e+01   2.0133022448e+01    0.2219631    0.1651749 -50.04 0.0009249623    1.146    0.128
        39 -12.0204    188.2830     73.3034   5.1503859621e+01   2.8263370898e+01    0.2726966    0.2655402  76.45 0.0003609607    1.078    0.073
        40 -11.9701    201.4636     34.4597   3.9764449621e+01   3.0757903971e+01     0.375854    0.1940393 -43.38  0.001728722    1.812    0.448
        41  -9.6220    238.8002     35.0988   3.6109652989e+01   2.2490814710e+01    0.2814449    0.1487486 -19.57  0.001260318    3.115    0.679
        42 -11.2807    236.3185    197.8306   7.1138422896e+01  -2.9639127283e+00     0.276774    0.2149314   4.33  0.001717992    1.162    0.140
        43  -9.4462    249.3669     29.7604   3.4124752579e+01   2.1018959926e+01    0.1431757    0.1032807 -35.34 0.0001827304    1.454    0.312
        44 -11.3940    160.6287    128.3980   7.1425508242e+01   2.4127604607e+01    0.3686914    0.3146777 -78.37  0.001806598    1.405    0.288
        45 -11.4098    212.0721    123.9230   5.9877288686e+01   1.4090796280e+01    0.2886916    0.1968965 -45.49  0.000773014    1.381    0.276
        46 -11.1929    192.0637    193.9966   7.8872110405e+01   4.7593616634e+00    0.8370495    0.4228488 -61.70  0.002383213    6.268    0.840
        47 -10.2689    175.2987    123.3461   6.6899001276e+01   2.1981763250e+01    0.1576622     0.121154  -2.48 0.0002865859    1.678    0.404
