#   1 NUMBER                 Running object number                                     
#   2 MAG_AUTO               Kron-like elliptical aperture magnitude                    [mag]
#   3 X_IMAGE                Object position along x                                    [pixel]
#   4 Y_IMAGE                Object position along y                                    [pixel]
#   5 X_WORLD                Barycenter position along world x axis                     [deg]
#   6 Y_WORLD                Barycenter position along world y axis                     [deg]
#   7 A_WORLD                Profile RMS along major axis (world units)                 [deg]
#   8 B_WORLD                Profile RMS along minor axis (world units)                 [deg]
#   9 THETA_WORLD            Position angle (CCW/world-x)                               [deg]
#  10 FWHM_WORLD             FWHM assuming a gaussian core                              [deg]
#  11 ELONGATION             A_IMAGE/B_IMAGE                                           
#  12 ELLIPTICITY            1 - B_IMAGE/A_IMAGE                                       
         1 -12.4598    128.2508     51.0710   8.1074227081e+01   4.6107322087e+01     0.711986    0.3991966 -22.84  0.001106175    2.233    0.552
         2 -10.8609      9.6331     15.8966   1.0897910359e+02   6.9850145604e+01    0.2275713    0.1398156  -6.82 0.0008462704    1.402    0.287
         3 -11.0984      1.4045     25.3042   1.1643604858e+02   6.9083345082e+01    0.5624056   0.09177313 -48.22  0.002251796    4.185    0.761
         4 -11.7705      3.9136     18.9371   1.1290810546e+02   6.9864650916e+01    0.4377857    0.2506405 -33.96  0.003025948    1.361    0.265
         5 -11.8303      7.4364     29.6033   1.1516102974e+02   6.8005882968e+01    0.7215855    0.3496127 -26.80  0.002497571    1.806    0.446
         6 -11.3800     61.5097     24.5074   9.0988426371e+01   6.2474634848e+01    0.3574331     0.308846 -76.63  0.002271916    2.148    0.534
         7 -10.5162     24.0000     21.5772   1.0467968846e+02   6.7743811931e+01    0.3843883   0.09779226 -38.97  0.001654487    3.472    0.712
         8 -11.2295     19.4994     16.5961   1.0467178566e+02   6.8861470640e+01     0.359219    0.2671259 -12.75  0.002162906    1.055    0.052
         9 -11.9613    129.2113     23.5254   7.2370420653e+01   4.9319492673e+01    0.3882519    0.2723244 -39.22 0.0007085561    1.625    0.384
        10 -10.9054     34.8881     15.8661   9.7654317346e+01   6.7247654213e+01    0.3112082    0.1801612  -4.71  0.001005228    1.785    0.440
        11 -11.0878     75.6878     16.6059   8.3283914359e+01   6.0962057135e+01    0.4730365    0.2543574   1.79  0.001687039    2.591    0.614
        12 -11.2670     74.5423      4.0470   7.8751151349e+01   6.2327876399e+01    0.4537365     0.262059 -27.59  0.002730015    1.937    0.484
        13 -12.0297     81.1601      6.4063   7.7800608457e+01   6.0910405236e+01    0.2899161    0.1998304  -6.39 0.0002703815    1.543    0.352
        14 -10.6283     77.3278      9.7301   8.0153577476e+01   6.1327682668e+01    0.2099345    0.1678813  58.10 0.0009079771    1.462    0.316
        15 -11.0280     56.3559     15.1252   8.9060885038e+01   6.4343399929e+01    0.3468771    0.2124208 -43.17  0.001994366    2.344    0.573
        16 -11.2434    132.0908     15.6433   6.9409857756e+01   4.9463132967e+01    0.3203739    0.1947444 -48.96  0.001697946    2.028    0.507
        17 -10.7977     70.4980     14.4345   8.4048460628e+01   6.2094196002e+01     0.238914    0.1707323  -9.13  0.001246934    1.395    0.283
        18 -10.6199    115.0265     12.2932   7.1730963994e+01   5.3543843208e+01    0.3926479    0.2118499  64.82  0.001235712    1.790    0.441
        19 -10.4208     99.7831     13.0661   7.5428782524e+01   5.6676338873e+01    0.2185853    0.2143394  88.92  0.001353658    1.269    0.212
        20 -11.3755     62.1495     11.8891   8.5744637137e+01   6.3754918782e+01    0.3853953    0.2992624  75.11  0.001506333    2.455    0.593
        21 -10.3865     26.4152     13.7480   1.0038347541e+02   6.8497860235e+01    0.1917743    0.1284084   1.16 0.0002814101    1.245    0.197
        22  -9.9686    175.5048     11.9613   6.1715415239e+01   3.9780735848e+01    0.1673352    0.1253868 -33.87 0.0007621541    1.554    0.357
        23 -10.1208      3.7925     12.1386   1.1027717549e+02   7.0826070760e+01    0.1872643    0.1165094  -8.72  0.001346368    1.316    0.240
        24 -10.0327    108.3327     10.8327   7.2689238393e+01   5.5102026515e+01    0.1986328    0.1470522  62.77 0.0004252416    1.299    0.230
        25  -9.4333    154.7277      9.6802   6.3961272368e+01   4.4833108814e+01    0.1920142    0.1400055  62.60 0.0004540463    1.156    0.135
        26 -10.1341    155.9489      6.3194   6.2885136856e+01   4.4856543760e+01    0.1815161    0.1779452 -58.95 0.0002844923    1.220    0.181
        27 -10.4033     30.7278     13.1835   9.8273375766e+01   6.8070677115e+01     0.204868    0.1195208 -20.40 0.0008280484    1.530    0.347
        28 -10.2518      2.8778      7.9799   1.0899681749e+02   7.1448788567e+01    0.1985169    0.1166187   7.25 0.0003300423    1.514    0.340
        29 -13.4671     29.8123      2.7455   9.4061397396e+01   6.9337877652e+01    0.6796219    0.2883466  21.86  0.001632423    2.604    0.616
        30 -12.3821     11.2153      2.9172   1.0264301045e+02   7.1356084619e+01     0.544096      0.32246  -2.39  0.002419532    1.447    0.309
        31 -12.0529     18.2711      4.2492   9.9893858640e+01   7.0497968433e+01    0.3593801    0.2275648   8.28 0.0001912399    1.304    0.233
        32  -9.8205    148.5318      8.5100   6.4569507511e+01   4.6370267416e+01    0.1261588    0.1058675  69.21 -3.481911e-05    1.016    0.016
        33 -11.2905    115.4645      5.0210   6.9284100024e+01   5.4069342692e+01    0.3286271    0.2198375 -31.91  0.001019765    1.757    0.431
        34  -9.2877    178.6388      8.7161   6.0536269847e+01   3.9374975570e+01    0.1271643   0.08177393  48.46 0.0004081616    1.680    0.405
        35  -9.4358    183.0048      7.5087   5.9733964556e+01   3.8484374215e+01    0.1843866    0.1033086  70.68 -0.0002209742    1.488    0.328
        36  -9.8206     90.0026      7.3480   7.5813690734e+01   5.9135420422e+01    0.3177395    0.1028978  57.51 0.0009238877    2.908    0.656
        37  -9.7596     59.8441      5.7147   8.3981840229e+01   6.4719234168e+01    0.2466257     0.132805  50.34  0.001411512    1.918    0.479
        38  -9.5565     21.5756    220.4813   1.4307247922e+02   2.5481447979e+01    0.1217931   0.09008677  80.57 8.170443e-05    1.037    0.035
        39 -10.5447    247.3044    250.0788   1.0177193536e+02  -1.4306385257e+01    0.2651212    0.1644354  14.44  0.001608317    1.507    0.337
        40 -10.9290    250.4204    245.0795   1.0036836507e+02  -1.4042784054e+01     0.486951    0.1335331 -36.15  0.001988134    3.544    0.718
        41 -10.0966     72.5677    250.1673   1.3592177509e+02   1.2819469317e+01    0.1823115     0.170434   5.17  0.001243315    1.616    0.381
        42 -11.7773     27.7955    246.8497   1.4385014869e+02   1.9300620302e+01    0.4684242    0.2015989 -81.50  0.002483256    2.161    0.537
        43 -11.9569     15.4285    238.2581   1.4544486744e+02   2.2416087876e+01    0.9455476    0.2241487  37.16  0.004092638    3.747    0.733
        44 -12.9008     19.1783    247.8610   1.4540840081e+02   2.0080095018e+01     1.186754    0.3926667  50.36  0.006053335    2.379    0.580
        45 -12.3317      6.9217    244.1030   1.4725729427e+02   2.2137220828e+01    0.6999493    0.3786308 -88.12  0.004492566    1.491    0.329
        46  -9.5817    250.5448    219.2418   9.5762175901e+01  -1.0347655810e+01    0.1675465    0.1024653 -23.64 0.0004783925    1.532    0.347
        47 -11.0185      9.8800    217.0875   1.4502674741e+02   2.7421888865e+01    0.2779693     0.161856  65.59 0.0007116838    1.467    0.318
        48  -9.8406    191.4879    217.0603   1.0667624080e+02  -5.8223366513e-01    0.1990766    0.1339342 -42.12 0.0006708756    1.554    0.357
        49  -9.7125     37.9856    217.4966   1.3962271092e+02   2.4267812493e+01    0.1720338     0.112609  43.25 0.0004969644    1.547    0.354
        50 -11.1298    234.7041    216.3619   9.8094946646e+01  -7.5695744353e+00    0.2472682    0.1848979 -35.19  0.001131253    1.319    0.242
        51  -9.6979    201.4608    215.7349   1.0440669192e+02  -2.0667922877e+00    0.1817482    0.1232637 -26.17 0.0009271091    1.579    0.367
        52  -9.6129    137.0054    215.8271   1.1813015813e+02   9.4354200741e+00    0.2253532    0.1605113  14.21  0.001061343    1.946    0.486
        53 -10.2702     30.9295    215.8563   1.4088190166e+02   2.5452932220e+01    0.2180608     0.147172  56.26  0.001105433    1.342    0.255
        54  -9.7042    194.5302    215.4689   1.0576412859e+02  -8.2290104641e-01     0.136987    0.1248003  11.57 -1.767986e-05    1.001    0.001
        55  -8.9920    179.6928    215.7089   1.0888401524e+02   1.7516947240e+00    0.1388633    0.1053919   2.35 0.0003737939    1.578    0.366
        56 -10.1904     13.2004    221.8107   1.4474040210e+02   2.6076928529e+01    0.1749449    0.1208196  79.48 0.0005647801    1.112    0.101
        57  -9.7893    170.4699    213.4605   1.1043950489e+02   3.8459962861e+00    0.1402267    0.1307398  28.98 0.0002800047    1.004    0.004
        58  -9.4825    142.8317    213.3903   1.1644618904e+02   8.8946751537e+00    0.1982877    0.1299077  30.22 0.0006180702    1.631    0.387
        59 -10.1994    208.9705    212.0832   1.0223008922e+02  -2.6985905796e+00    0.2055901    0.1832353   1.85 0.0004563246    1.017    0.017
        60  -9.2661      2.2966    212.3169   1.4611395590e+02   2.9172834535e+01    0.1060889    0.0761788 -60.42  0.000417335    1.609    0.378
        61 -11.8971      4.6988    207.3537   1.4532065126e+02   3.0027472332e+01    0.4708065    0.2547604  84.55  0.002763894    1.552    0.356
        62  -9.4904    184.4592    208.5305   1.0657638178e+02   2.2612862511e+00     0.140795    0.1298908  11.49  0.000187958    1.031    0.030
        63 -10.9665     20.7858    211.8227   1.4254461215e+02   2.7455037492e+01    0.3225049    0.1708269  71.05 0.0009715298    1.771    0.435
        64 -10.9791    240.8371    211.1218   9.5994211893e+01  -7.6577413734e+00     0.187965    0.1781602 -18.44  0.001251157    1.264    0.209
        65 -10.9374     18.9992    202.4393   1.4212683390e+02   2.9730912967e+01    0.3511024    0.2214519 -78.90 0.0008950431    1.299    0.230
        66  -9.8729    175.1498    202.6283   1.0745816616e+02   5.1302237334e+00    0.2318538    0.2006941 -61.56 0.0006517042    1.307    0.235
        67  -9.5713    223.5705    201.7877   9.7429912598e+01  -3.3428202518e+00    0.1780563    0.1235797 -49.21 0.0005001703    1.627    0.385
        68  -9.5407     34.6732    200.9999   1.3874958149e+02   2.8369697856e+01    0.1741847    0.1359623 -87.44 0.0004017663    1.057    0.054
        69  -9.7490    227.1561    196.8430   9.5789615011e+01  -3.0722080064e+00    0.1928622    0.1478456  -4.75 0.0007241174    1.365    0.267
        70  -9.7017    192.7060    194.3451   1.0213961777e+02   3.4994955590e+00    0.1397457    0.1161651 -87.98 0.0005018164    1.665    0.399
        71  -9.5587    203.0035    195.9672   1.0034146485e+02   1.2969707866e+00    0.1711186    0.1586259   5.66 0.0006296436    1.022    0.022
        72 -10.0889    187.0000    190.9771   1.0267441468e+02   5.2404776910e+00    0.2380213   0.08176722 -45.20 0.0008007892    2.931    0.659
        73 -10.5735    215.4582    194.5260   9.7578963532e+01  -6.5278504325e-01    0.2360333     0.123073 -31.37 0.0006037829    2.063    0.515
        74  -9.3049      1.5275    188.4313   1.4454255841e+02   3.4509799180e+01     0.118593   0.09029848 -87.64 0.0002080896    1.032    0.031
        75  -9.4008     61.6214    184.7948   1.3082509892e+02   2.8841293743e+01    0.2012482    0.1180023 -79.10 0.0009514922    1.711    0.415
        76 -11.5355     16.0453    182.5942   1.4097575080e+02   3.4561182647e+01    0.4244583      0.21384  85.04  0.002118973    2.004    0.501
        77 -10.1421    166.9826    183.4908   1.0554423807e+02   1.0682780803e+01    0.2315895    0.1456335  41.71 0.0009078955    1.568    0.362
        78  -9.2332    236.4643    182.5191   9.1232135598e+01  -2.0929442720e+00    0.1360239     0.120354 -21.81 0.0002476392    1.014    0.014
        79  -9.6402     23.5347    180.4930   1.3911294639e+02   3.4331189072e+01    0.1282727    0.1010562 -88.96  9.44528e-05    1.031    0.030
        80 -10.0512      1.9919    180.2821   1.4379004990e+02   3.6319169624e+01     0.162214    0.1298808  85.60 0.0005540601    1.087    0.080
        81 -10.6004    244.5733    178.1664   8.8921966797e+01  -2.6734636938e+00    0.2783898    0.1501602 -28.03   0.00127393    1.951    0.487
        82 -10.8703    224.2331    178.3359   9.2637918857e+01   7.9280638551e-01    0.2511118    0.2270763 -47.26  0.000508079    1.184    0.155
        83  -9.4095     36.0587    178.4973   1.3603470205e+02   3.3494577848e+01    0.1666512     0.126347  40.13 0.0005211274    1.476    0.322
        84 -10.3796    200.1921    176.7979   9.7038279751e+01   5.5627127723e+00    0.2025377    0.1684742  -6.96 0.0005420654    1.318    0.241
        85  -9.6652     70.1638    177.6171   1.2774793722e+02   2.9394078098e+01    0.1722707    0.1374076  21.90 0.0005608662    1.585    0.369
        86  -9.7258    183.6642    172.6847   9.9646063943e+01   9.6621189814e+00    0.1549211    0.1185392  -1.51 0.0007047289    1.693    0.409
        87  -9.7863     74.7359    171.2570   1.2562796780e+02   3.0288646109e+01    0.1855612    0.1613189 -40.42 0.0007454907    1.332    0.249
        88 -10.9255     12.8228    170.7059   1.4053846277e+02   3.7625946627e+01    0.2638898    0.1292885  80.57   0.00124951    2.283    0.562
        89 -10.0043      4.6716    168.4955   1.4216676296e+02   3.8816323726e+01    0.2266764   0.08942546 -73.82  0.001085831    1.985    0.496
        90  -9.6796    209.8824    166.1902   9.2860479629e+01   5.8032733945e+00     0.201349    0.1689188  -1.46 0.0005487195    1.328    0.247
        91  -9.7342     67.1742    165.1778   1.2657550545e+02   3.2872561540e+01    0.2019982    0.1551737  75.91 0.0009652816    1.357    0.263
        92 -10.7400     51.5094    164.4428   1.3045139100e+02   3.5107490226e+01    0.3544307    0.1819869 -39.45  0.001467272    2.745    0.636
        93 -11.3263     36.9921    158.7820   1.3332758631e+02   3.8153971740e+01    0.4245941    0.1684242 -64.36  0.001840052    2.071    0.517
        94 -11.7588     43.6458    162.4974   1.3215893365e+02   3.6515063480e+01    0.4015809    0.2476261  50.62  0.002088972    1.732    0.423
        95  -9.4424    200.2475    162.6482   9.4023964897e+01   8.4147398185e+00    0.1948071    0.1388968  35.19 0.0004881383    1.504    0.335
        96 -10.3934    247.4824    158.5081   8.4436225168e+01   3.4112187687e-01    0.1365887    0.1190579 -38.05 0.0001597651    1.048    0.046
        97 -10.0391    238.7719    158.4026   8.5887563145e+01   1.8927123196e+00    0.1881177    0.1289364  29.24 0.0007666552    1.746    0.427
        98 -11.2200     22.7221    155.7634   1.3651994836e+02   4.0290750554e+01    0.3987438    0.3123164 -74.47  0.002523158    1.038    0.036
        99  -9.2252    147.5077    156.5086   1.0440892175e+02   2.0688897330e+01    0.1564163    0.1511084 -87.01 -1.119313e-05    1.033    0.032
       100  -9.1269    216.9520    155.0000   8.9097318016e+01   6.6349000040e+00    0.2318823   0.08394221  46.12 0.0008068802    2.973    0.664
       101  -9.3236    197.9874    154.3347   9.2664860255e+01   1.0580601156e+01    0.2454406    0.1240166  65.73 0.0007048506    4.482    0.777
       102  -9.3732    151.6616    153.3141   1.0270327952e+02   2.0557689865e+01    0.1624521    0.1246057  84.78 0.0004377532    1.696    0.410
       103  -9.4397     10.3458    153.3000   1.3928430565e+02   4.1924736253e+01    0.1242349   0.07867502 -47.00  0.000703725    1.681    0.405
       104  -9.6594    205.4882    152.4710   9.0752131180e+01   9.4272405822e+00    0.1484998    0.1400562 -32.70 0.0001458175    1.019    0.019
       105 -10.4816    178.1049    151.4205   9.6212222462e+01   1.5367029558e+01    0.2951069    0.2633313  86.17  0.001093059    1.254    0.203
       106  -9.0730    233.6988    146.6625   8.4286517199e+01   5.0174301538e+00    0.1419513    0.1075835  -9.37 0.0003402182    1.664    0.399
       107 -10.3223    206.9919    146.0293   8.9030185721e+01   1.0422506389e+01    0.2284983    0.2168486 -36.40 0.0007040571    1.022    0.021
       108 -10.4110     18.1014    146.2384   1.3649671663e+02   4.2969398158e+01    0.2512072    0.1609908 -20.07 0.0009196704    2.344    0.573
       109 -10.9361      9.7398    145.9970   1.3859797181e+02   4.3691335982e+01    0.4207193    0.1117592  41.57    0.0016601    4.049    0.753
       110 -10.4759      2.9465    143.7862   1.4005148133e+02   4.4697408490e+01    0.2420312    0.1134355 -59.61  0.001282888    1.689    0.408
       111 -10.0637    236.5509    138.9497   8.2156317655e+01   5.9254221030e+00    0.1959473     0.190848  57.85 0.0005559543    1.154    0.133
       112  -9.8829     58.0028    138.9883   1.2456366659e+02   4.0555335941e+01    0.2605827    0.2051196   9.58  0.001128831    1.615    0.381
       113 -10.0173     55.4930    136.4586   1.2480957344e+02   4.1488024425e+01    0.2730727    0.1767614  82.45 0.0007444467    2.092    0.522
       114 -11.2406     21.7802    136.2524   1.3417618098e+02   4.5037159984e+01    0.3433678    0.2673695 -70.31  0.001734116    1.053    0.050
       115 -11.2410      3.1067    137.0315   1.3923431127e+02   4.6257937159e+01    0.4222036     0.148272 -60.00  0.001503472    2.085    0.520
       116 -11.5148      9.5608    136.4945   1.3748231825e+02   4.5936931887e+01       0.2851    0.2044304 -31.30  0.001763293    1.689    0.408
       117  -9.7551    137.8624    135.3857   1.0195404149e+02   2.7598124417e+01    0.2290445    0.1497975  32.24 0.0009501049    1.761    0.432
       118 -10.4862    106.9593    133.2006   1.0959413933e+02   3.4274599375e+01    0.2718771    0.2600004  40.66  0.001006581    1.094    0.086
       119 -11.4112     36.5959    130.3976   1.2912748181e+02   4.5069632612e+01    0.4063497    0.3115095 -63.89  0.002405297    1.102    0.092
       120 -10.4482     74.4809    129.4265   1.1795438200e+02   4.0618725178e+01    0.3032943     0.230959  37.80  0.001579213    1.423    0.297
       121  -9.4294    243.0283    128.4892   7.8880925766e+01   6.6297503572e+00    0.1822232    0.1394868  54.04 0.0004881651    1.487    0.327
       122  -9.2067    106.7218    127.7092   1.0837327983e+02   3.5620685769e+01     0.148632    0.1191992 -17.73  0.000201185    1.523    0.344
       123 -10.9018      2.0965    125.1539   1.3803167394e+02   4.9067515470e+01    0.4001606    0.1328858 -59.89  0.001470549    2.120    0.528
       124  -9.5321     82.1733    124.8856   1.1471728284e+02   4.0531325138e+01    0.2002584    0.1630142 -31.27 0.0004197463    1.311    0.237
       125  -9.5849    219.5265    124.5121   8.1891569166e+01   1.2071952648e+01    0.1462153    0.1339713 -49.72 0.0008099225    1.016    0.016
       126 -11.2269     10.4382    122.6323   1.3536474351e+02   4.9105622052e+01    0.3155439    0.2777781  58.40  0.002136144    1.343    0.255
       127 -12.0766     18.1074    114.8009   1.3191879812e+02   5.0359816222e+01     0.600898    0.2238283 -50.09  0.002735619    2.174    0.540
       128 -12.1299     15.8730    109.2246   1.3165494332e+02   5.1800010826e+01     0.463407    0.2839905  12.03   0.00194377    2.068    0.516
       129 -11.7523     23.9534    107.6574   1.2887561118e+02   5.1535864193e+01    0.4690069    0.3019279  73.00  0.001843741    2.284    0.562
       130 -10.6360     20.2413    121.7536   1.3242094270e+02   4.8582482531e+01    0.2290843     0.169139  -8.58   0.00137967    1.735    0.424
       131  -9.7703    118.0008    118.7468   1.0307012974e+02   3.5510600991e+01    0.2045433    0.1331163  42.42  0.000515817    1.575    0.365
       132  -9.6280     86.2169    116.9199   1.1166833553e+02   4.1754104991e+01    0.2004504    0.1142564 -53.60 0.0008630232    1.668    0.400
       133  -9.1335    179.3319    116.6857   8.7736147813e+01   2.2478867983e+01    0.1603603    0.1206868 -81.94 0.0006580897    1.681    0.405
       134  -9.3114    166.3045    115.6930   9.0303935296e+01   2.5659313249e+01    0.1582024    0.1223654 -82.51 0.0002257596    1.605    0.377
       135  -9.6641     72.5718    115.6034   1.1544916603e+02   4.4180156164e+01    0.2695907    0.1374498  16.08 0.0009566424    3.427    0.708
       136 -11.9492     35.3480    110.1185   1.2578597555e+02   4.9961003214e+01    0.5416858    0.3615287 -68.41  0.001335706    1.435    0.303
       137 -10.2156     44.0908    109.5733   1.2293201109e+02   4.9195477614e+01    0.3179548    0.1882455 -13.85 0.0006247156    2.556    0.609
       138 -10.2694     56.1733    109.5977   1.1913798999e+02   4.7789319832e+01    0.1817107    0.1315722   7.66 0.0007131575    1.698    0.411
       139 -11.3689      6.3467    107.6963   1.3430252013e+02   5.2779548103e+01    0.2756696    0.2090468  -7.62 0.0009604039    1.617    0.382
       140 -10.2946      2.7885    105.2296   1.3499260361e+02   5.3541173307e+01    0.1981754    0.1299138 -64.96 0.0004461042    1.201    0.167
       141  -9.0638    133.2945    107.6678   9.6139104018e+01   3.4756929134e+01     0.156676    0.1229946 -83.72 0.0004350658    1.637    0.389
       142 -11.2525    243.7089    104.5616   7.3690580415e+01   1.0812103841e+01    0.2384449    0.1569646 -33.86  0.000650603    1.570    0.363
       143 -10.2460    223.2984    103.9802   7.6639404952e+01   1.5135526553e+01    0.2269256    0.2042928  82.62 0.0005219043    1.143    0.125
       144 -10.0377      9.4435    102.6662   1.3252139567e+02   5.3711537899e+01    0.2046985    0.1249503 -27.66  0.001176981    1.827    0.453
       145 -10.9299    247.8698    102.1577   7.2600074787e+01   1.0410697807e+01    0.2150033    0.1680852 -66.51 0.0007112883    1.233    0.189
       146 -10.2870    119.8280    101.4392   9.8023821990e+01   3.8931286839e+01    0.2815765    0.1977727  -5.82  0.001170916    2.172    0.540
       147 -10.7649     69.9759    102.5325   1.1309653575e+02   4.7537130544e+01    0.1994354    0.1391641  31.85 0.0004528638    1.548    0.354
       148  -9.9771     35.9545    101.7938   1.2388061189e+02   5.1794290478e+01    0.2414146    0.1590811  25.85  0.001347486    1.746    0.427
       149  -9.9233     27.6018    101.1608   1.2645526433e+02   5.2697049051e+01    0.2341984    0.1383138 -40.19  0.001003344    1.562    0.360
       150 -11.2163      3.4600    100.3869   1.3400787557e+02   5.4576324572e+01    0.2656519    0.2298329 -79.17 0.0009109559    1.222    0.182
       151 -10.6419     84.5438     99.2033   1.0767793703e+02   4.6013472583e+01     0.340238    0.2856683  19.10  0.001854706    1.269    0.212
       152 -11.6471     20.5879     97.7190   1.2804640804e+02   5.4030578178e+01    0.3282547    0.2229574 -72.90 0.0003281352    1.503    0.335
       153 -10.7590     63.6823     98.8439   1.1417827801e+02   4.9234922850e+01    0.4681626    0.2025278  26.00  0.001848647    2.867    0.651
       154 -10.6525    248.8768    112.1275   7.4550487553e+01   8.4621640663e+00     0.212545    0.1657046 -60.54 0.0004848246    1.210    0.174
       155 -10.4986      1.5420     93.8343   1.3351208733e+02   5.6113804155e+01     0.339081   0.05718056 -60.05  0.001286514    3.251    0.692
       156  -9.8158     66.9358     93.4501   1.1172981071e+02   4.9954941546e+01    0.1894597    0.1354806  28.57 0.0005443342    1.502    0.334
       157 -12.2200     11.4432     90.9885   1.2974356063e+02   5.6145583911e+01    0.3879493    0.2289031  19.81  0.002287976    2.028    0.507
       158  -8.9755     31.3087     92.3288   1.2334647743e+02   5.4318990420e+01    0.1356773   0.08015033 -34.18 0.0007039725    1.661    0.398
       159 -10.7716     26.0179     91.3607   1.2492019479e+02   5.4988572802e+01    0.2776857    0.2014968 -13.71  0.001453324    1.526    0.345
       160 -11.0895    104.4854     89.3919   9.8962545192e+01   4.4484475230e+01    0.5053877    0.3239397  66.65  0.001596468    2.470    0.595
       161 -10.7360     96.0683     90.1673   1.0166809046e+02   4.5909825279e+01    0.4518066    0.2817813   1.44  0.001715514    2.960    0.662
       162 -10.1285    171.3142     90.6646   8.2812851155e+01   2.9466932522e+01    0.1582737    0.1158065 -77.08 0.0004276223    1.690    0.408
       163  -9.4993    158.2357     89.9911   8.5414574978e+01   3.2668220569e+01     0.203663    0.1264355 -41.30 0.0008814506    1.627    0.385
       164 -12.0195     48.7285     85.6509   1.1577098531e+02   5.3950149094e+01      0.44941     0.346811  57.22   0.00165057    1.791    0.442
       165 -10.2306     23.1233     86.5911   1.2485753388e+02   5.6247956390e+01    0.2851207    0.1373376 -36.06   0.00141104    2.024    0.506
       166 -11.0139    112.6600     85.6948   9.5567687984e+01   4.3593192808e+01    0.3223848    0.2613167 -48.64  0.001672488    1.280    0.219
       167 -10.6252      3.1802     85.9197   1.3154326330e+02   5.7721219006e+01    0.2340914    0.1727008  18.62  0.001115387    1.661    0.398
       168 -10.5896     67.1466     85.0974   1.0938573456e+02   5.1675074950e+01    0.2214213    0.1718947 -21.71 0.0008791179    1.289    0.224
       169 -10.8462    117.9649     82.8458   9.3277966072e+01   4.3044170755e+01    0.3637427    0.1891056 -40.34  0.001510762    1.946    0.486
       170  -9.1667     88.2594     83.6436   1.0216833903e+02   4.8612553837e+01    0.1355918    0.1125542 -76.88  0.000697336    1.619    0.382
       171  -9.5035     30.0152     81.9718   1.2137082835e+02   5.6638686023e+01    0.1538979    0.1248287 -41.09 0.0005057513    1.015    0.015
       172 -10.6576     21.3201     76.7023   1.2320178357e+02   5.8451986158e+01    0.1902292    0.1616958  26.65 0.0005606448    1.427    0.299
       173 -11.1374     22.6493     80.4379   1.2361461479e+02   5.7578608910e+01    0.4288669    0.2068234 -29.56  0.001872069    2.299    0.565
       174 -10.2016     18.6271     79.7059   1.2487541113e+02   5.8038337028e+01    0.2305545    0.1359858 -38.58 0.0008857813    1.449    0.310
       175 -10.3573     74.5501     81.0567   1.0578638326e+02   5.1383190687e+01    0.2290866    0.1986607  17.91 0.0006819405    1.166    0.142
       176 -10.3887     71.1920     79.1354   1.0633094622e+02   5.2276528546e+01    0.2372424    0.1943725  30.22 0.0005528106    1.274    0.215
       177 -10.3277     39.8251     80.6898   1.1757861513e+02   5.5957069683e+01    0.2528046    0.2101146 -42.53  0.001030132    1.074    0.069
       178 -10.3331     12.3258     77.6908   1.2666849874e+02   5.8893772819e+01    0.2074994     0.138873 -73.41  0.001092419    1.710    0.415
       179 -11.6145      3.7542     78.5176   1.2988861966e+02   5.9238774680e+01    0.3895941     0.295166  26.45  0.001964726    1.650    0.394
       180 -11.2428      7.1968     74.0602   1.2771002427e+02   5.9955889573e+01     0.371137    0.1894717  11.85  0.002097314    2.327    0.570
       181 -11.1009      2.1238     72.7073   1.2925533576e+02   6.0513911766e+01    0.2510085     0.145668 -46.32 0.0002492868    1.303    0.232
       182  -9.8137     81.2072     79.0579   1.0303913184e+02   5.0707114674e+01    0.2037132    0.1693565 -11.99 0.0004142605    1.205    0.170
       183 -11.9579     58.9557     75.6411   1.0946026392e+02   5.4702630154e+01    0.5803682    0.4471143  72.44  0.003070904    2.180    0.541
       184 -10.7980     65.2245     73.7753   1.0674933491e+02   5.4194949809e+01     0.245507    0.2010365  -2.93 0.0004215993    1.208    0.172
       185 -11.1872     62.3657     71.7659   1.0712692263e+02   5.4982803114e+01    0.3765008    0.2187158 -34.88  0.001153352    1.638    0.389
       186 -10.7485    150.0986     77.5601   8.3818790248e+01   3.6843960317e+01      0.26499    0.2137567 -40.76  0.000514676    1.277    0.217
       187 -10.7227     92.1381     77.7299   9.9211860096e+01   4.9068534006e+01    0.2767036    0.1950626  19.54  0.001367864    1.615    0.381
       188  -9.8601    121.6231     76.7504   9.0506198150e+01   4.3395918658e+01    0.2070018     0.135071 -48.82 0.0009021286    1.661    0.398
       189 -10.3741     40.9857     63.9170   1.1245691562e+02   5.9123486750e+01    0.2051386    0.1708773 -50.41  0.001066052    1.328    0.247
       190 -11.4940     44.7933     75.1695   1.1432088752e+02   5.6536367863e+01    0.2169523    0.1954065   6.70  0.000269941    1.187    0.157
       191 -11.1270     38.4523     69.7905   1.1511144946e+02   5.8277380486e+01    0.5152072    0.3723024 -74.95  0.002845956    2.127    0.530
       192 -10.5361    152.2461     72.1201   8.1828522461e+01   3.7281931036e+01    0.3002719     0.231453 -38.78 0.0009323499    1.351    0.260
       193 -11.2979    102.6075     72.8783   9.4604166590e+01   4.7994003961e+01    0.2593622    0.2298167  21.43 0.0004461513    1.098    0.089
       194 -10.3385    102.6611     68.0464   9.3092052473e+01   4.8834852133e+01    0.2417741     0.198012 -56.81   0.00106301    1.459    0.315
       195 -10.6556     16.9304     72.6166   1.2381563757e+02   5.9608963974e+01    0.2348307    0.1573164 -63.76 0.0007391561    1.530    0.346
       196 -10.6293     19.0129     61.0218   1.2002787983e+02   6.1716081937e+01    0.3431822    0.2668956  80.80  0.002099334    2.252    0.556
       197 -11.0444     16.6682     67.9312   1.2275143427e+02   6.0559204689e+01    0.2322143    0.2264239  62.01  0.001026473    1.392    0.282
       198 -10.7771     20.3594     65.5684   1.2073890310e+02   6.0741919331e+01    0.3197607    0.1799303  31.10  0.001837046    2.101    0.524
       199 -11.1909     77.2771     71.6563   1.0206579681e+02   5.2752163389e+01    0.5061033    0.2660737  47.72  0.001382825    2.286    0.562
       200 -11.0291     27.2740     70.3020   1.1939404602e+02   5.9245790578e+01    0.2920408    0.2041343 -49.85  0.001211537    1.261    0.207
       201 -11.1350     30.9868     66.0896   1.1684905468e+02   5.9728590205e+01    0.3200886    0.2094711 -54.93 0.0009774115    1.526    0.345
       202 -11.8534     49.7251     69.3351   1.1086633932e+02   5.7095245555e+01    0.4330417    0.2947347 -16.10  0.001735817    1.548    0.354
       203 -10.7593    108.4579     72.7382   9.2886755920e+01   4.6857449477e+01     0.268426    0.2333263 -89.47   0.00145314    1.479    0.324
       204 -10.7081     68.7511     67.8704   1.0373480982e+02   5.4780251450e+01    0.3774879    0.2157582 -32.41  0.001064292    1.739    0.425
       205 -11.4525     95.8414     67.0374   9.4783156984e+01   5.0321783272e+01    0.4913887    0.3391637  22.46  0.002466039    1.608    0.378
       206  -9.8805      6.4553     67.9268   1.2658974083e+02   6.1229137031e+01    0.1890104    0.1621785 -39.65 0.0005549389    1.129    0.114
       207 -11.4719      2.8154     64.0843   1.2706352488e+02   6.2189194829e+01    0.3349402    0.2413847 -67.00  0.001672572    1.481    0.325
       208 -10.2383    129.6498     65.1174   8.4997210384e+01   4.3637990361e+01    0.9220168    0.2201634 -33.71   0.00242397    5.518    0.819
       209 -11.5810    123.5715     56.6054   8.3904322009e+01   4.6326327862e+01    0.4291198    0.3313414 -41.92 0.0007868503    1.393    0.282
       210 -12.2603    225.9850    245.8582   1.0494919256e+02  -1.0785830553e+01    0.6469219    0.3825171  -3.16  0.003318287    2.164    0.538
       211 -10.5531     77.0572     63.6291   9.9602311135e+01   5.4228344355e+01    0.3455887    0.2127105 -37.14  0.001050071    1.572    0.364
       212 -11.4179     84.2237     61.0877   9.6458713621e+01   5.3447151483e+01    0.6051111    0.3914169  13.00  0.002919582    1.947    0.486
       213  -9.3635     45.4584     64.8991   1.1109182206e+02   5.8436187392e+01    0.1655955     0.111511 -71.26 0.0008061755    2.606    0.616
       214  -9.5387    174.1297     63.8539   7.5245721723e+01   3.3429037418e+01    0.1878818    0.1643305  40.64 0.0003429072    1.271    0.213
       215  -9.7661    146.6037     66.0009   8.1329529565e+01   3.9618446493e+01    0.1925994    0.1801621 -43.82  0.001089323    1.121    0.108
       216 -12.4645     10.5133     62.3509   1.2368145924e+02   6.2066431709e+01    0.4116164    0.2905339  62.58 0.0007391982    2.531    0.605
       217 -11.3375      5.2849     52.2476   1.2309301906e+02   6.4288201169e+01    0.3680735    0.1909589 -24.24  0.002158132    1.852    0.460
       218  -9.8429    168.8778     63.1571   7.6027069893e+01   3.4795281644e+01    0.2098441    0.1810486 -89.84 0.0003168393    1.159    0.137
       219 -10.6166     56.8631     62.6485   1.0624057875e+02   5.7418938136e+01    0.1801309    0.1569051   8.20  0.001150348    1.129    0.114
       220 -10.6297     51.7087     62.4775   1.0805047013e+02   5.8122197821e+01    0.2706486     0.178833 -21.36 0.0007569392    1.513    0.339
       221  -9.3775    160.5322     61.4662   7.7166971003e+01   3.7052199951e+01    0.1426501    0.1334984  66.17 0.0002538399    1.030    0.029
       222 -10.3303     44.9719     51.5149   1.0701314685e+02   6.0867113193e+01    0.2713543    0.1693841 -26.39  0.000485417    1.483    0.326
       223 -11.5540     29.5144     60.8582   1.1590813984e+02   6.0853595498e+01    0.6005695    0.2256912  17.04  0.002390333    3.548    0.718
       224 -12.2879     37.8106     51.6243   1.0981603768e+02   6.1669105336e+01    0.6732029    0.4078435 -26.45  0.003083646    1.522    0.343
       225 -10.5396     69.9625     58.1468   1.0018842652e+02   5.6300334913e+01    0.3269883     0.220131 -32.46   0.00156498    1.412    0.292
       226 -10.6531     58.2234     56.9404   1.0390380476e+02   5.8232557762e+01    0.3044913    0.1699291 -50.70 0.0009220388    2.100    0.524
       227 -10.7457     44.5805     57.4605   1.0910481522e+02   5.9887659117e+01    0.2878506    0.2064949  33.27  0.001221909    1.566    0.362
       228 -10.8642     64.9382     59.9680   1.0252056206e+02   5.6751911586e+01    0.4051068    0.1808301  33.09  0.001822023    2.307    0.567
       229 -11.0913    115.6790     56.3073   8.5814506301e+01   4.8078395091e+01    0.6390421    0.3135114  26.73 0.0008803693    3.709    0.730
       230  -8.9452    146.3198     56.2720   7.8598811920e+01   4.1202896369e+01    0.1416309    0.1049247  30.42 0.0002746839    1.567    0.362
       231  -9.6959     75.2514     56.1721   9.7749536861e+01   5.5782125256e+01    0.1634654     0.159445 -80.24 0.0005084624    1.366    0.268
       232 -10.5548    100.7264     55.6177   8.9680041304e+01   5.1253305167e+01    0.4199844    0.1261161  48.42   0.00144381    3.270    0.694
       233 -10.7812     87.2020     52.5123   9.2679911106e+01   5.4296224906e+01    0.2161421     0.183619 -23.77 0.0008666034    1.174    0.148
       234 -10.7320     12.7797     51.3287   1.1977584106e+02   6.3966226814e+01    0.2832995    0.1600334 -46.50  0.001059644    1.426    0.299
       235 -11.1353    153.4299     47.9580   7.4792395143e+01   4.0728890960e+01     0.544012    0.2944437 -65.10  0.002082381    3.110    0.678
       236 -10.4351     71.1940     51.1732   9.7417364511e+01   5.7241506859e+01    0.3109566    0.2137889  50.77  0.000880858    1.834    0.455
       237  -9.6071     50.2720     51.7235   1.0507973709e+02   6.0173442821e+01    0.1746034     0.124004  -8.69  0.000486137    1.377    0.274
       238  -9.9386     52.3071     49.6976   1.0363136209e+02   6.0241697665e+01    0.1834195    0.1479636  11.60 0.0004326882    1.160    0.138
       239 -10.8456    114.2763     49.7764   8.4103273366e+01   4.9344848319e+01    0.3972687    0.2761529 -42.00  0.002090226    1.585    0.369
       240 -10.5492     77.3326     49.8861   9.4928977534e+01   5.6430742473e+01    0.2854345    0.1841342  -8.12  0.001313205    1.881    0.468
       241  -9.8310    196.9604     48.2696   6.7657272638e+01   3.0332807107e+01    0.1852706    0.1569646  83.65 0.0001792778    1.058    0.055
       242  -9.0910    147.6597     48.2779   7.6020340923e+01   4.2043483446e+01    0.1396135    0.1050146 -83.77 0.0004844898    1.620    0.383
       243 -10.6899     62.5150     47.4033   9.9121601583e+01   5.9170793489e+01    0.2295526    0.1796514  -1.43 0.0005590437    1.173    0.147
       244  -9.8944     19.1906     47.2974   1.1592158588e+02   6.4190047310e+01    0.1844535     0.148891 -75.65  0.001201953    2.021    0.505
       245 -11.2033     11.4984     43.7508   1.1803554533e+02   6.5391581021e+01    0.2988133    0.2031204 -14.11  0.001081725    1.320    0.242
       246 -10.9296      4.6046     47.1733   1.2196011601e+02   6.5245671305e+01    0.3792421    0.1771216 -14.82  0.002017718    2.490    0.598
       247 -10.8538      7.0514     41.3869   1.1920362919e+02   6.6101757499e+01    0.3412189     0.126649 -50.79  0.000836622    2.211    0.548
       248 -10.0488    104.3603     46.2970   8.5597921651e+01   5.1900657974e+01     0.251124    0.1160309  40.44  0.001080179    2.094    0.522
       249 -10.2428    142.9250     45.9881   7.6320279110e+01   4.3464457926e+01    0.2077814    0.1944451  62.72 0.0005271636    1.027    0.027
       250 -11.6817     85.6309     44.8801   9.0557648551e+01   5.5714161167e+01    0.2322655    0.2023948  15.84 0.0002629485    1.013    0.012
       251  -8.9566    233.3148     45.2970   6.2464180271e+01   2.2528640347e+01    0.1143965   0.09982932  41.73 0.0003828945    1.605    0.377
       252 -10.2961    121.8779     43.9836   8.0377246969e+01   4.8505568717e+01    0.3822513    0.1785073 -34.01  0.001235347    2.295    0.564
       253  -9.6865     91.6358     45.2031   8.8851283865e+01   5.4553952517e+01    0.1779653    0.1187296 -18.87 0.0003828801    1.629    0.386
       254 -10.3736     50.5311     44.4732   1.0247701138e+02   6.1308633337e+01    0.2054669    0.1709953  20.80 0.0007480764    1.235    0.190
       255 -10.6169     52.4748     41.5122   1.0068811851e+02   6.1501747687e+01    0.1978839    0.1332559  -4.06  0.001151154    1.514    0.340
       256  -9.1301    175.2605     43.6403   6.9779326884e+01   3.6119734588e+01    0.1403446   0.09636065 -67.92 0.0006976942    1.628    0.386
       257  -9.7498     64.2674     42.0134   9.6588438884e+01   5.9717612700e+01    0.2361348    0.1431677 -35.53  0.001305165    1.635    0.389
       258  -9.3300    163.3315     42.3106   7.1418870879e+01   3.9142982901e+01     0.139362    0.1000671  34.92 0.0004176161    1.672    0.402
       259  -9.8200    110.7526     42.0077   8.2493042795e+01   5.1162696991e+01    0.1781058    0.1652904  26.44 0.0002017135    1.041    0.040
       260 -11.2081     99.7146     30.0671   8.1357661995e+01   5.4923820239e+01    0.6269269    0.2867118  25.97  0.001863415    3.715    0.731
       261 -11.3159     97.2848     41.2130   8.5851972289e+01   5.4012807600e+01    0.3246285    0.2787183  68.88  0.001339992    1.456    0.313
       262 -10.9938     97.0698     36.9925   8.4465773147e+01   5.4606925119e+01    0.2170246    0.1992634  45.79 0.0003864784    1.174    0.149
       263 -10.7771    101.6246     36.8959   8.3185903878e+01   5.3708639410e+01    0.2391167    0.1734564  45.18 0.0005551129    1.250    0.200
       264 -10.8672    105.6583     34.6604   8.1366328068e+01   5.3161809026e+01    0.3521195    0.2934018 -77.94  0.001491211    1.671    0.401
       265 -10.0812     29.0381     40.9713   1.0975320887e+02   6.4354437955e+01    0.2321074    0.1852126   8.85 0.0003649334    1.236    0.191
       266 -10.4299     23.6585     41.3264   1.1211365792e+02   6.4810660400e+01    0.2097846    0.1862314  42.46  0.001010267    1.698    0.411
       267 -11.7532     20.6859     37.8545   1.1218556746e+02   6.5640583522e+01     0.242904    0.1733547 -20.53 0.0003419838    1.116    0.104
       268 -11.3765     24.2048     35.3775   1.0981389779e+02   6.5710173863e+01    0.2967641     0.211603  39.34 0.0009325547    1.975    0.494
       269 -10.1638    226.2068     40.1997   6.2173565863e+01   2.4785717436e+01    0.1809716    0.1587159 -86.46 0.0004735158    1.123    0.110
       270 -10.1278     89.7076     40.3583   8.7750670869e+01   5.5586502964e+01    0.1822253     0.157648 -85.22 0.0008276082    1.720    0.418
       271  -9.9049     43.3747     38.1092   1.0294219022e+02   6.3195870818e+01    0.3446721    0.2169275 -58.67  0.001722529    3.069    0.674
       272 -10.0631    149.5832     38.1276   7.2738091751e+01   4.2937595228e+01    0.2073891    0.1728424 -18.91 0.0008285338    1.408    0.290
       273  -9.4338    135.3138     65.3504   8.3707922344e+01   4.2324735381e+01    0.1492095     0.110981  16.60 0.0003250949    1.726    0.421
       274 -11.0694     80.1841     36.9862   8.9468611795e+01   5.7777777612e+01    0.2226715    0.1719199  37.04 0.0009423846    1.216    0.178
       275  -9.7595    154.8650     35.8264   7.1124711446e+01   4.1981077116e+01    0.1967809    0.1673119  44.81 0.0005575851    1.201    0.168
       276 -12.4059    232.6873    246.6120   1.0383332826e+02  -1.1848454006e+01    0.5188242    0.3425748   9.65  0.003102035    1.475    0.322
       277 -10.7948      9.4439     34.2556   1.1585570882e+02   6.7122042487e+01    0.3040151     0.180884   2.61  0.001984188    1.671    0.401
       278 -11.8585     74.3980    238.3782   1.3439154400e+02   1.4935551706e+01    0.4688638    0.3468833  82.56  0.002873763    1.242    0.195
       279 -10.2885      7.9995     21.2388   1.1184779709e+02   6.9226911338e+01    0.1892958    0.1332319 -37.26 0.0003760843    1.355    0.262
       280 -11.5067     73.9825    232.9937   1.3390726616e+02   1.6119835344e+01    0.2635148    0.2138467  69.82  0.001012817    1.021    0.021
       281 -11.6352     35.2708    241.6033   1.4213670250e+02   1.9473378527e+01     0.430195    0.2577156  44.50   0.00265163    1.580    0.367
       282 -10.5303      9.8214     25.0945   1.1244795646e+02   6.8517933590e+01    0.2943341    0.1756237  -2.33  0.001648726    1.578    0.366
       283 -10.5220    111.0133     35.0464   8.0137937515e+01   5.1994721069e+01    0.1918109    0.1759035  43.12 0.0003821494    1.072    0.067
       284 -10.4138     73.4983     31.6182   8.9648724920e+01   5.9634536068e+01    0.2416016    0.1703869  24.32 0.0006173371    1.289    0.224
       285 -11.3567     70.5708     26.7777   8.8790568404e+01   6.0725743206e+01    0.3890539    0.3010145  21.81  0.001799518    1.105    0.095
       286 -10.3386     31.7524     33.9679   1.0612002049e+02   6.5160828240e+01    0.2243839    0.1442195  25.42 0.0007766327    1.565    0.361
       287 -10.6943     18.7415     32.1890   1.1103125562e+02   6.6703362418e+01     0.306616     0.229098 -31.64  0.002209125    1.196    0.164
       288 -10.5839     16.6463     26.4666   1.0985564753e+02   6.7749911484e+01    0.2963029    0.1244647 -32.15  0.001053987    2.073    0.518
       289 -10.7139     78.1305     32.3841   8.8445903446e+01   5.8734395299e+01    0.2975853    0.1608273 -11.95  0.001393061    2.467    0.595
       290  -9.8297    118.0667     32.0961   7.7482866599e+01   5.0834131158e+01    0.1805229    0.1517993 -77.21 0.0003045179    1.513    0.339
       291  -9.8764     56.1601     30.8688   9.5362405072e+01   6.2486473562e+01    0.1717227    0.1209673   1.00 0.0003959978    1.343    0.256
       292 -10.0837    178.5945     31.7463   6.6231994261e+01   3.6855125506e+01    0.2297521    0.1463811 -88.17 0.0006338509    1.728    0.421
       293 -10.1869     49.9478     28.7501   9.6864075966e+01   6.3653159199e+01    0.2947935    0.1439669 -23.20  0.001294688    2.185    0.542
       294 -10.7856    213.1915     28.6406   6.1125571976e+01   2.9201813293e+01    0.2227603    0.1705856  50.17 0.0005479952    1.589    0.371
       295  -9.3541    191.5258     28.9800   6.3787987520e+01   3.4146741614e+01    0.1678114    0.1262025 -40.89 0.0001168983    1.438    0.305
       296  -9.3562    162.9919     28.9748   6.7882208851e+01   4.0881693746e+01    0.1531898    0.1411413  81.87            0    1.066    0.062
       297  -9.8100    140.3542     28.7802   7.1773332999e+01   4.6205229514e+01    0.1752779    0.1269541 -10.44 0.0009545272    1.744    0.427
       298 -10.4206    154.6582     27.4541   6.8833837813e+01   4.3021398334e+01    0.2093576    0.1581026  12.63 0.0009016742    1.792    0.442
       299 -10.1265    124.8975     27.8740   7.4617663921e+01   4.9813129290e+01     0.190533    0.1516417  38.56  0.001134068    1.185    0.156
       300  -9.7148     21.3822     28.0441   1.0834548280e+02   6.7086485353e+01    0.2065966   0.09728085 -48.33  0.001105076    2.435    0.589
       301  -9.6958    203.4538     27.4345   6.1964236894e+01   3.1568912685e+01    0.1287512    0.1081357  89.54 0.0001159726    1.025    0.025
       302 -10.2501     88.8706    241.2234   1.3180919293e+02   1.2196903701e+01    0.2227724    0.1594096 -39.39  0.001220614    2.073    0.518
       303  -9.6540     15.2215     13.9546   1.0554598206e+02   6.9617149390e+01    0.1528817    0.1077531 -20.91  0.000638612    1.152    0.132
       304 -10.7974    156.5001    241.0459   1.1791030261e+02   1.1097376194e+00    0.1859766    0.1335838 -51.00  0.001032171    1.590    0.371
       305 -10.0128     26.9750     19.5055   1.0253788432e+02   6.7706625325e+01    0.2133486    0.1206841  24.43 0.0006883597    1.662    0.398
       306  -9.3678     50.3068    240.3187   1.3924555817e+02   1.7852185563e+01    0.1059153   0.09340384 -49.35  0.000396515    1.634    0.388
       307 -10.2795    195.8839    238.4061   1.0949886620e+02  -5.0142919436e+00    0.2549728    0.1866302   1.24  0.001433904    1.519    0.342
       308 -10.0044    112.0022     24.6849   7.6473494401e+01   5.2972751118e+01    0.1798369    0.1492168  49.51 0.0004382477    1.077    0.072
       309  -9.5786    174.2025     24.3841   6.4999202459e+01   3.8759608969e+01    0.1827768    0.1109129  78.61 0.0003828087    1.586    0.369
       310  -9.6878    124.4314     22.4140   7.3001850372e+01   5.0504109509e+01    0.1683495    0.1158635 -41.50  0.000939278    1.688    0.407
       311 -10.7264    120.3680     21.2841   7.3499324102e+01   5.1517588422e+01    0.3321046    0.2445635  -4.35  0.001754729    1.621    0.383
       312  -9.4776     93.7519     24.0012   8.0830958921e+01   5.6793473281e+01     0.154563    0.1046773 -22.82 0.0008877345    1.592    0.372
       313 -10.0784     54.0593     23.3208   9.3193417466e+01   6.3753333787e+01    0.1628325    0.1284603  20.14 0.0003679017    1.122    0.109
       314  -9.7839     99.6884     21.9344   7.8544450104e+01   5.5827105457e+01    0.1675386    0.1521834  14.09 0.0004489196    1.115    0.103
       315 -11.1875     84.7534     20.7302   8.2155413802e+01   5.8873529610e+01    0.3233441    0.2169592  26.90  0.001492336    1.386    0.279
       316  -9.8020     36.2171     21.6713   9.9497471887e+01   6.6362199433e+01    0.2576315    0.1429967 -35.23  0.001214981    1.761    0.432
       317 -11.0144     31.6176    237.3117   1.4247885384e+02   2.0789380432e+01     0.280437    0.1933666 -87.76  0.001253693    1.222    0.182
       318  -9.6399    227.2944     20.5692   5.7990063473e+01   2.7066277254e+01    0.1951352    0.1130709 -69.69 0.0006455426    1.625    0.385
       319  -9.7809     65.7003     20.7515   8.8085492538e+01   6.2234982594e+01    0.1768847   0.09495971  53.34 0.0008945344    2.345    0.574
       320  -9.4393     45.5135     20.5172   9.5300110679e+01   6.5306717131e+01    0.1181732   0.09091233   4.09 0.0008100558    1.034    0.033
       321 -10.9185    108.2009     17.1462   7.4840338584e+01   5.4546879219e+01    0.2022836    0.1842599  60.43 0.0003772839    1.171    0.146
       322 -10.4896     29.3192    233.0365   1.4257836998e+02   2.1946132485e+01     0.280679    0.1537768  56.87  0.001069171    1.554    0.357
       323  -9.6314    115.4388    244.7047   1.2685156578e+02   7.3038285448e+00    0.1610469    0.1240833 -49.24 0.0007481496    1.553    0.356
       324 -10.1619    159.9220    235.8667   1.1640733841e+02   1.4655032808e+00    0.2066751    0.1733188  16.42 0.0006214101    1.255    0.203
       325  -9.4008    231.2993    235.3411   1.0214929705e+02  -1.0009978223e+01    0.1300501    0.0850177  -2.48 0.0004917705    1.668    0.400
       326 -10.3582    177.6160    234.8241   1.1258966990e+02  -1.3733035138e+00    0.2554952    0.1937657  11.22 0.0009802725    1.452    0.311
       327 -10.1907    217.3200     16.5255   5.8110113774e+01   2.9730806476e+01    0.2814257   0.09932615  67.60  0.001255205    2.440    0.590
       328 -10.5216    153.4387    233.8977   1.1745316544e+02   2.9488483572e+00    0.2673504    0.1973062 -24.10  0.001203564    1.754    0.430
       329 -10.1785    109.5797    242.8473   1.2781159960e+02   8.6152104436e+00    0.2651331    0.1614846  50.63 0.0008562937    1.437    0.304
       330 -10.0975    165.3179     14.8591   6.3809438916e+01   4.1866758632e+01    0.2573738    0.1362861  83.13  0.001212146    2.071    0.517
       331 -10.1578    167.0293    233.9330   1.1462594093e+02   5.9502067645e-01    0.2062642    0.1870432  30.78 0.0007328288    1.016    0.016
       332  -9.7368     24.0646    232.3017   1.4349044774e+02   2.2697493337e+01    0.1633196    0.1232899  74.93 0.0005794367    1.035    0.034
       333  -9.9245     79.7196    231.3984   1.3256499299e+02   1.5612675658e+01    0.2070511    0.1521599  40.23 0.0005720476    1.393    0.282
       334  -9.5714     12.8525    231.1720   1.4543888199e+02   2.4144409738e+01    0.1472122    0.1184979 -78.99    0.0010693    1.321    0.243
       335 -10.0798    137.0214    247.7061   1.2285552246e+02   3.1793270428e+00    0.1856428    0.1507075  43.08 0.0004093673    1.069    0.065
       336  -9.5527     58.4780    230.4473   1.3675514698e+02   1.8837040053e+01     0.127122    0.1027734  74.23 0.0001344199    1.009    0.009
       337 -10.3359    190.4367    227.3213   1.0870661976e+02  -2.2336049400e+00    0.3804117    0.1560823 -44.51  0.001585076    2.613    0.617
       338  -9.7682     85.9800    233.1740   1.3148277247e+02   1.4295204017e+01    0.1955017    0.1293783  79.83 0.0006620903    1.596    0.373
       339  -9.5881    249.3153    227.2971   9.7442235190e+01  -1.1380702400e+01    0.1259918   0.08199552  -2.05 0.0003808833    1.606    0.377
       340 -10.1768    129.7758    226.9331   1.2141875453e+02   8.4178556737e+00    0.3447233    0.1604036  53.87  0.001388451    2.406    0.584
       341 -10.2141     88.0275    227.2870   1.3036333796e+02   1.5226849341e+01    0.1935943    0.1580393  58.28  0.001162608    1.084    0.078
       342 -10.3944     66.4090    226.4174   1.3474636629e+02   1.8608568257e+01     0.269449    0.1757407  46.64 0.0007229784    1.418    0.295
       343 -10.4577     10.8208    226.7978   1.4551476010e+02   2.5265941758e+01    0.1665812    0.1005918  72.70 0.0004406621    1.336    0.251
       344 -10.5104      1.4315    245.0025   1.4821865854e+02   2.2517109199e+01    0.1835362    0.1108315 -82.96 0.0005107262    1.369    0.270
       345 -10.6721    115.9757    225.7743   1.2421743892e+02   1.1017101210e+01    0.2020082     0.144528  84.16 0.0006505697    1.649    0.393
       346  -9.7869     81.1546    224.0377   1.3141948379e+02   1.6976112411e+01    0.2322923     0.135483  79.77  0.001092251    2.061    0.515
       347 -10.3700    141.2532    221.3372   1.1808204039e+02   7.5420154738e+00    0.2757851    0.2216663   3.87  0.001059197    1.617    0.382
       348 -10.8472    123.0990    221.4739   1.2205385056e+02   1.0700202220e+01     0.353304    0.2510558  53.90  0.001576155    1.326    0.246
       349  -9.8210    174.0384    220.0051   1.1083098854e+02   1.9473734694e+00    0.1742817     0.149169  33.37 0.0006769738    1.080    0.074
