#   1 NUMBER                 Running object number                                     
#   2 MAG_AUTO               Kron-like elliptical aperture magnitude                    [mag]
#   3 X_IMAGE                Object position along x                                    [pixel]
#   4 Y_IMAGE                Object position along y                                    [pixel]
#   5 X_WORLD                Barycenter position along world x axis                     [deg]
#   6 Y_WORLD                Barycenter position along world y axis                     [deg]
#   7 A_WORLD                Profile RMS along major axis (world units)                 [deg]
#   8 B_WORLD                Profile RMS along minor axis (world units)                 [deg]
#   9 THETA_WORLD            Position angle (CCW/world-x)                               [deg]
#  10 FWHM_WORLD             FWHM assuming a gaussian core                              [deg]
#  11 ELONGATION             A_IMAGE/B_IMAGE                                           
#  12 ELLIPTICITY            1 - B_IMAGE/A_IMAGE                                       
         1 -12.4159    237.3188     56.6771   6.6556600793e+00   2.0355310444e+01    0.5763491    0.3131365 -49.48  0.003250181    1.535    0.349
         2 -11.8706    246.0256     24.4813   3.5998661838e+02   2.2958322750e+01    0.4866298    0.2578649 -46.73     0.003024    1.613    0.380
         3 -11.2534    245.9772     31.5812   1.2496825290e+00   2.2086350352e+01    0.3402425    0.2043032 -44.13  0.002012667    1.558    0.358
         4  -9.0435    190.3239    233.9924   4.9521893505e+01  -3.1727275842e+00    0.1890836    0.1115863 -66.19 0.0007050385    4.314    0.768
         5  -8.7633    216.8691    223.5694   4.2467587659e+01  -5.1400665692e+00    0.2037855    0.1707508 -84.94  0.001156954    2.288    0.563
         6  -9.8498    248.1617    217.6123   3.5802189095e+01  -8.1887408499e+00    0.3279516    0.2401635 -45.19  0.002093001    1.594    0.373
         7  -8.8778    232.9779    213.2310   3.7669646154e+01  -5.5897715597e+00    0.2209181    0.1504992 -46.76  0.001276181    1.648    0.393
         8  -9.1040    243.3472    201.2258   3.3715942892e+01  -4.9791609912e+00    0.2675882    0.2010703 -50.65  0.001637182    1.611    0.379
         9  -8.7928    250.3968    200.7659   3.2460694639e+01  -5.8081400404e+00    0.2381845   0.09985305 -42.89   0.00113824    2.115    0.527
        10  -8.6793    237.1816    198.0197   3.4187351215e+01  -3.6249067639e+00    0.1948281    0.1383915 -57.92  0.001072808    1.979    0.495
        11  -9.6666    246.7083    193.5999   3.1774934227e+01  -4.1632300033e+00    0.2995809    0.2289122 -57.44  0.001669856    1.764    0.433
        12  -8.2997    230.9844    193.7534   3.4483314999e+01  -2.0330758097e+00    0.1551211    0.1071552  30.76 0.0008806415    1.575    0.365
        13  -8.8060    224.3961    193.2273   3.5563887590e+01  -9.8785975440e-01     0.186399    0.1134973 -47.91 0.0009512807    1.697    0.411
        14  -9.0862    237.1286    187.3827   3.2233511499e+01  -1.8028045845e+00    0.2573446    0.1654142 -42.98  0.001012381    1.419    0.295
        15  -8.8951    230.5897    187.8458   3.3449282566e+01  -9.4420404240e-01    0.1845395    0.1109527 -49.10 0.0008853254    1.742    0.426
        16  -8.5880    224.2013    184.2129   3.3894430799e+01   6.5448327606e-01    0.1744977    0.1553741 -57.38  0.001071234    1.369    0.270
        17  -8.2630    203.3516    183.6900   3.7712774356e+01   4.0662131007e+00     0.132792    0.1126791 -89.39 0.0007044414    1.719    0.418
        18  -9.1386    241.7340    181.2122   3.0311533948e+01  -1.3909110023e+00    0.3778088     0.161941 -51.58  0.001553669    2.906    0.656
        19  -8.5721    211.2874    182.6702   3.5980685441e+01   2.9629675485e+00    0.1284138    0.1081479 -71.73 0.0004143412    1.617    0.382
        20  -8.4888    235.4235    181.1935   3.1362605894e+01  -4.8031390899e-01    0.1796263    0.1093588 -48.41 0.0009347901    1.645    0.392
        21  -9.1405    248.1846    178.5981   2.8781973229e+01  -1.8473118263e+00    0.2443137   0.08112694 -43.78 0.0009976362    2.585    0.613
        22  -8.5595    219.5164    178.4975   3.3640316020e+01   2.4264917298e+00    0.1350793    0.1186323 -29.25 0.0008101242    1.041    0.039
        23  -8.5228    230.2821    182.6153   3.2515302901e+01   2.6248862495e-02    0.1265311   0.09915451 -63.67 0.0007006978    1.733    0.423
        24  -8.8672    246.3914    169.2439   2.7318876401e+01   7.8692100664e-03    0.1880909     0.102388 -47.86 0.0009544273    1.719    0.418
        25  -9.1553    218.8242    168.1699   3.1738727337e+01   4.4643597719e+00    0.2080132    0.1815571 -53.46 0.0009369083    1.236    0.191
        26  -9.0287    191.8550    165.7154   3.6395803887e+01   9.6410082718e+00    0.2921683    0.1656091 -52.64  0.001260606    1.881    0.468
        27  -8.5472    240.5193    164.0252   2.7257337080e+01   1.7882113088e+00    0.1795943    0.1010458 -58.60 0.0008091527    2.450    0.592
        28  -9.2744    213.1061    163.4328   3.1826896428e+01   6.3240077675e+00    0.3201035     0.165253 -46.36  0.001437146    1.795    0.443
        29  -8.9092    205.6593    162.1460   3.2950920752e+01   7.8701553700e+00    0.2252405    0.1652127 -53.10 0.0009212144    1.403    0.287
        30  -9.1914    245.9192    157.7904   2.5224172207e+01   2.0676302044e+00    0.3516171    0.1626154 -53.09  0.001536464    2.482    0.597
        31  -8.8795    241.9169    153.7595   2.5065201548e+01   3.3893687819e+00    0.2452584    0.1531848 -61.88  0.001078759    2.120    0.528
        32  -8.7904    237.9115    159.1465   2.6734325080e+01   3.0556864705e+00    0.1972292    0.1653686 -56.89  0.001215228    1.294    0.227
        33  -8.3245    231.4913    159.5041   2.7846584209e+01   4.0067989849e+00    0.1339891    0.1141663 -35.15 -9.143729e-05    1.002    0.002
        34  -8.5750    197.3462    157.6489   3.3620630385e+01   1.0267269596e+01    0.1471292    0.1139557 -81.11 0.0007039767    1.817    0.450
        35  -8.2854    226.4801    156.4825   2.8085333644e+01   5.3785662532e+00    0.1354052    0.1172834 -40.08 0.0001625096    1.039    0.037
        36  -8.4435    216.4048    156.2240   2.9773610392e+01   7.1342843295e+00    0.2033391    0.1186524 -50.63 0.0009530977    1.688    0.407
        37  -8.1753    206.3173    155.3291   3.1423509013e+01   9.0906841020e+00    0.1439632    0.1074484 -10.29 0.0007046492    1.682    0.405
        38  -8.8951    233.6111    153.9496   2.6410424122e+01   4.6742090612e+00     0.262501     0.146399 -51.97  0.001268688    1.808    0.447
        39  -8.7205    250.4572    152.0260   2.3451245684e+01   2.3862416213e+00    0.2007023    0.1040124 -42.44  0.001023174    1.575    0.365
        40  -8.9916    221.4613    152.4889   2.8136428178e+01   6.9694818742e+00    0.2183935    0.1326028  58.29  0.001028898    2.232    0.552
        41  -8.2929    228.3090    151.6732   2.6823346933e+01   5.9619080554e+00    0.1321685    0.1003833 -68.61 0.0007038872    1.657    0.396
        42  -9.3442    244.3443    149.4711   2.3869847694e+01   3.7675470914e+00    0.2984319    0.1912607 -53.59  0.001387775    1.556    0.357
        43  -9.8835    235.4907    147.5706   2.4857262541e+01   5.5218781456e+00    0.3960781    0.2806276 -75.15  0.001932893    2.094    0.522
        44  -8.6775    215.4066    149.2080   2.8516467596e+01   8.6484626081e+00    0.2013173    0.1187242 -51.37 0.0007228162    1.667    0.400
        45  -8.8667    223.8552    147.1368   2.6650094208e+01   7.5591105663e+00     0.211373    0.1750532 -61.46 0.0009388297    1.289    0.224
        46  -9.0505    230.4009    141.4090   2.4434288412e+01   7.4919853123e+00    0.3247479    0.1087019 -46.68   0.00121912    2.681    0.627
        47  -9.4663    243.8685    140.5760   2.2222444667e+01   5.4080571948e+00    0.2691954     0.157749 -47.05  0.001208905    1.454    0.312
        48  -8.8397    238.7073    140.2089   2.2915936068e+01   6.3139606120e+00    0.2102985    0.1420159 -53.27 0.0008196726    1.404    0.288
        49  -8.5646    224.5344    140.0482   2.5099935773e+01   8.7594445379e+00    0.2166238    0.1183591 -43.65  0.001029041    1.589    0.371
        50  -8.7370    218.8685    138.5485   2.5726464430e+01   1.0050487179e+01      0.28763    0.1633061 -56.11  0.001309269    1.919    0.479
        51  -8.7888    248.9640    135.5259   2.0521084102e+01   5.4735836853e+00    0.2083325    0.1445097 -44.16 0.0008993197    1.179    0.152
        52  -9.5668    234.8200    135.3964   2.2550468103e+01   7.8278488857e+00     0.316263    0.2349984 -75.47   0.00132407    1.726    0.421
        53  -9.3875    242.2362    134.2138   2.1222040820e+01   6.7939780734e+00    0.2921222    0.1749045 -49.48  0.001168268    1.461    0.315
        54  -8.2435    225.6719    133.3216   2.3546727662e+01   9.8007097055e+00      0.13701    0.0995077 -71.01 0.0005334228    1.690    0.408
        55  -9.6057    248.2210    129.9874   1.9560584067e+01   6.5506461465e+00    0.3054796    0.1909494 -54.05  0.001377127    1.489    0.328
        56  -8.9581    233.6944    129.4941   2.1541259977e+01   9.0816502536e+00    0.2405165    0.1044019 -43.11 0.0008921285    1.955    0.489
        57  -9.2424    221.2238    129.1651   2.3399923601e+01   1.1373572947e+01    0.2550453    0.1783623 -88.41   0.00124281    2.111    0.526
        58  -8.2858    212.4003    129.2063   2.4857578727e+01   1.3016422965e+01    0.2084044    0.1172156 -52.21 0.0009454094    1.726    0.420
        59  -9.7991    241.2090    126.8019   1.9917576566e+01   8.2683243713e+00     0.385412    0.1895704 -49.76   0.00174903    1.804    0.446
        60  -9.0313    227.9738    125.4626   2.1587058564e+01   1.0822131731e+01    0.2750334    0.1618624 -53.89  0.001275582    1.631    0.387
        61  -9.1254    249.7938    124.1582   1.8228948306e+01   7.2958423489e+00    0.2502055    0.1461837 -53.59  0.001110867    1.565    0.361
        62  -9.9357    247.8931    118.6439   1.7420004724e+01   8.5525431662e+00    0.2906328    0.1519301 -47.56  0.001240653    1.581    0.368
        63  -8.4500    188.4786    123.5017   2.7898275801e+01   1.8898910037e+01    0.1482551    0.1352194 -64.35 0.0002231325    1.058    0.055
        64  -8.1915    192.3214    129.6507   2.8546126753e+01   1.6882934980e+01    0.1522147    0.1118228 -76.47 0.0007048744    1.743    0.426
        65  -8.4495    194.4257    121.2057   2.6270833457e+01   1.8120148352e+01    0.2114962    0.1266355 -53.52 0.0009441089    1.665    0.399
        66  -8.6864    243.1598    119.0215   1.8123703093e+01   9.2898227396e+00    0.2214227     0.122253 -59.60 0.0009760549    2.005    0.501
        67 -10.0351    231.3300    116.0406   1.9177153946e+01   1.1899956286e+01     0.236547     0.175199 -77.83  0.001316884    1.582    0.368
        68  -8.5382    195.4436    113.9390   2.4457721112e+01   1.9312748545e+01    0.2140501    0.1115776 -61.23 0.0008078335    2.559    0.609
        69  -8.6298    235.1569    123.7130   2.0170035436e+01   9.8569933315e+00    0.1977242    0.1584057 -83.08   0.00116698    1.460    0.315
        70 -10.4735    241.6169    111.6289   1.6881412271e+01   1.0828100270e+01    0.3479131    0.1854609 -67.85  0.001487692    2.875    0.652
        71  -8.4501    213.2147    111.2595   2.0900217628e+01   1.6199555470e+01    0.2269603   0.09137216 -50.11 0.0008744611    2.399    0.583
        72  -8.3668    248.3109    106.6966   1.5066774124e+01   1.0497918093e+01     0.127842   0.08427722 -66.76 0.0003723439    1.610    0.379
        73  -8.6091    222.5097    105.0491   1.8187834921e+01   1.5493862444e+01    0.2150811    0.1176748 -43.95 0.0009445014    1.607    0.378
        74  -8.1650    205.6865    105.2990   2.0805054596e+01   1.8803886361e+01    0.1424344     0.101444 -74.03 0.0004448031    1.607    0.378
        75  -9.1540    230.6801    103.5521   1.6734817100e+01   1.4199415677e+01    0.2376285    0.1347625 -57.95  0.001168636    1.751    0.429
        76  -9.7029    242.0469     92.7995   1.3140111458e+01   1.3902914865e+01    0.2916558    0.1440317 -50.87  0.001461078    1.721    0.419
        77  -8.3165    195.3274     97.6704   2.0796297068e+01   2.2366656375e+01    0.1497232    0.1031554 -74.50 0.0004237728    1.707    0.414
        78  -8.5021    229.6554     95.3215   1.5199131809e+01   1.5794807057e+01    0.1386619   0.08921568 -70.49 0.0007049963    1.731    0.422
        79  -8.1144    215.6692     94.3280   1.6913049278e+01   1.8713121206e+01    0.1432525   0.09425317 -71.43 0.0007051426    1.712    0.416
        80  -8.4536    188.5878     92.7704   2.0804941108e+01   2.4714891174e+01    0.2071744    0.1224764 -52.86 0.0009453257    1.656    0.396
        81  -8.3697    225.2971     92.6641   1.5232328512e+01   1.7083883394e+01    0.1384119   0.08907118 -67.74 0.0005106005    1.651    0.394
        82  -9.1181    236.9346     90.4821   1.3303835921e+01   1.5223774471e+01    0.2645311    0.1437938 -54.73 0.0009742239    1.645    0.392
        83  -8.2196    231.6680     91.3092   1.4126037175e+01   1.6081070678e+01    0.1356339   0.08742896 -70.06 0.0007041716    1.670    0.401
        84  -9.5774    249.4239     87.7336   1.1313492874e+01   1.3393414150e+01    0.2366215   0.09460859 -46.25  0.001110262    2.014    0.503
        85 -10.3674    239.5576     76.8154   1.0313771232e+01   1.6914323560e+01     0.225183    0.1255911 -57.28  0.001030524    1.588    0.370
        86  -8.7877    206.2876     84.9962   1.6249883742e+01   2.2244691936e+01    0.1989955    0.1590109 -56.09 0.0009185614    1.123    0.110
        87  -8.5697    179.0145     85.1951   2.0669600049e+01   2.8198556854e+01    0.2236678    0.1482284 -63.48  0.001056082    1.638    0.389
        88  -8.3996    193.4688     82.9886   1.7740110971e+01   2.5349869590e+01    0.2025919    0.1022339 -60.52 0.0008077055    2.412    0.585
        89  -8.7368    159.3991     82.1744   2.3602300456e+01   3.3246301987e+01    0.2138915    0.1298674 -52.56 0.0009517948    1.723    0.420
        90 -10.1754    239.0802     81.0528   1.1193867180e+01   1.6339488576e+01    0.2068888    0.1238677 -65.35  0.001028698    1.661    0.398
        91  -8.5413    249.6832     80.7033   9.9563462509e+00   1.4450974783e+01    0.1053053   0.09621999 -12.36 0.0003971041    1.609    0.378
        92 -10.4549    234.9265     77.8416   1.1039131695e+01   1.7632954312e+01    0.3690006      0.15115 -54.01  0.001633035    2.315    0.568
        93  -8.5625    201.3608     78.2162   1.5465116411e+01   2.4427510856e+01    0.2057218    0.1089383 -51.01 0.0009506107    1.771    0.435
        94  -9.3141    230.6094     81.7495   1.2330079416e+01   1.7844497038e+01    0.3954821    0.1267644 -53.52  0.001413644    3.458    0.711
        95  -9.4550    166.8038     77.9668   2.1097291759e+01   3.2255097726e+01    0.2461839    0.1528359 -65.34  0.001083855    1.951    0.487
        96  -8.0177    223.4663     76.4624   1.2127485528e+01   2.0099191781e+01    0.1322142    0.1073479 -67.57 0.0002149209    1.042    0.040
        97  -8.5180    211.4850     76.4990   1.3676128094e+01   2.2552043479e+01    0.1344472    0.1142597 -70.15  0.000405989    1.005    0.005
        98  -8.5232    157.5108     76.0067   2.2376653866e+01   3.4758684128e+01    0.2116633    0.1415648 -42.02 0.0007066395    1.540    0.351
        99 -10.1730    248.1688     73.9460   8.8427281132e+00   1.5762768532e+01    0.2514056    0.1284278 -47.71 0.0008577489    1.590    0.371
       100 -10.5985    238.8746     71.9701   9.4472281581e+00   1.7790570084e+01    0.2457509    0.1366661 -58.17  0.001240028    1.598    0.374
       101  -8.7532    163.4930     72.0027   2.0195122451e+01   3.4028861896e+01    0.2177097    0.1385378 -41.78  0.001039899    1.611    0.379
       102  -8.5308    218.3264    247.6578   4.6250173305e+01  -9.1265656110e+00    0.1042254   0.09822317  53.31 0.0004847044    1.737    0.424
       103  -9.9048    249.0000     51.9748   4.6867252942e+00   1.8812358033e+01    0.3351495    0.1463874 -38.85  0.001710424    2.218    0.549
       104  -7.9197    210.6976     71.3560   1.2674517594e+01   2.3537156001e+01    0.1425599   0.08784688 -68.67 0.0007038828    1.711    0.416
       105 -11.3210    248.9107     64.3912   6.9821450491e+00   1.7054325599e+01     0.596599    0.2206452 -49.06  0.002848614    2.173    0.540
       106  -8.2421    194.2483     68.0094   1.4190216110e+01   2.7628253273e+01    0.1710276    0.1087899 -43.21  0.000871104    1.536    0.349
       107  -8.8441    146.5095     67.2328   2.2254535570e+01   3.8805501991e+01    0.2733621    0.1335165 -44.25  0.001139148    2.131    0.531
       108  -8.8365    203.5938     66.8039   1.2622897353e+01   2.5766680439e+01    0.1939427    0.1065831 -52.38 0.0009437623    1.693    0.409
       109 -12.1035    243.3721     68.4289   8.2923483556e+00   1.7480081995e+01    0.7467095    0.1965713 -42.15  0.002962412    3.101    0.678
       110  -8.1868    212.4649     66.4711   1.1403424751e+01   2.3923847030e+01    0.1332371     0.109072 -71.97 8.119665e-05    1.040    0.038
       111  -8.5811    171.3658     64.2093   1.6837317211e+01   3.3438600390e+01    0.1957295    0.1193967 -50.67 0.0006227218    1.644    0.392
       112 -10.9308    244.3608     51.4664   5.0071180985e+00   1.9748419607e+01    0.4604562   0.08066227 -46.62  0.001653074    3.992    0.749
       113  -8.2372    221.3346     59.6791   8.9333752930e+00   2.3101712668e+01    0.1367365   0.08126941 -70.15 0.0004234393    1.704    0.413
       114  -8.9657    206.5234     59.0761   1.0558041439e+01   2.6304081956e+01    0.1928583    0.1195226 -41.94  0.001027226    1.584    0.369
       115 -10.0393    246.2404     47.4206   4.0946411250e+00   1.9953615145e+01    0.2565612    0.1372327 -77.82  0.001327871    1.961    0.490
       116  -8.5270    163.3680     46.1260   1.3577887339e+01   3.7949905488e+01      0.18964    0.1132706 -50.32 0.0006616454    1.729    0.422
       117  -9.9948    246.5069     56.0303   5.6575624203e+00   1.8704656249e+01    0.2296384    0.1410375 -53.88  0.001013045    1.309    0.236
       118  -8.1798    169.2877     44.6596   1.2293988200e+01   3.6758503233e+01    0.1394906   0.09184384 -71.59 0.0007020488    1.641    0.391
       119 -10.7942    248.0299     42.2078   2.9956836881e+00   2.0322591413e+01    0.3177666      0.26777  64.77  0.002306804    1.559    0.359
       120 -10.9433    247.1093     37.6918   2.2565462305e+00   2.1089495868e+01    0.2932775    0.2379925 -39.48  0.002085691    1.544    0.352
       121 -11.2785    242.2262     38.4854   2.7968377918e+00   2.1908186911e+01    0.3715954    0.1752612 -59.49  0.002026128    1.836    0.455
       122 -10.3482    238.0940     43.1060   4.0073790645e+00   2.2089517862e+01    0.1702664    0.1456896 -74.88  0.001218601    1.186    0.157
       123  -9.9291    234.3170     39.6659   3.6925955152e+00   2.3284164536e+01    0.2431412   0.09873568 -54.34  0.001197777    2.132    0.531
       124  -9.7469    250.4840     56.0365   5.2965870545e+00   1.7969486554e+01    0.3261064    0.1268938 -42.81  0.001567075    2.156    0.536
       125  -8.9718    230.2346    236.2759   4.2153445018e+01  -8.8771254073e+00    0.1601226    0.1473287  88.58   0.00105455    2.030    0.507
       126  -9.7548    250.5021     26.0213   3.5993940397e+02   2.1935985742e+01    0.1869815    0.1214291 -44.08  0.001256482    1.518    0.341
       127  -8.8363    234.7638     19.9500   3.5999139053e+02   2.5661128589e+01    0.1392126   0.08282971 -44.40 0.0008391652    1.592    0.372
