#   1 NUMBER                 Running object number                                     
#   2 MAG_AUTO               Kron-like elliptical aperture magnitude                    [mag]
#   3 X_IMAGE                Object position along x                                    [pixel]
#   4 Y_IMAGE                Object position along y                                    [pixel]
#   5 X_WORLD                Barycenter position along world x axis                     [deg]
#   6 Y_WORLD                Barycenter position along world y axis                     [deg]
#   7 A_WORLD                Profile RMS along major axis (world units)                 [deg]
#   8 B_WORLD                Profile RMS along minor axis (world units)                 [deg]
#   9 THETA_WORLD            Position angle (CCW/world-x)                               [deg]
#  10 FWHM_WORLD             FWHM assuming a gaussian core                              [deg]
#  11 ELONGATION             A_IMAGE/B_IMAGE                                           
#  12 ELLIPTICITY            1 - B_IMAGE/A_IMAGE                                       
         1 -13.8456    193.2978     47.8627   3.7193999658e+01   3.1064477628e+01     1.160475     0.925186  41.19  0.004102776    1.586    0.369
         2 -13.9872    219.6065     18.8468   2.8042128992e+01   2.9015073068e+01    0.8845353    0.7560498 -59.74  0.003772612    1.146    0.127
         3 -12.4245     58.5286      3.4137   4.9222480322e+01   6.7040329647e+01     0.566635    0.2199648  49.11  0.002649721    2.055    0.513
         4  -9.7128     68.3373    245.1310   1.0528960390e+02   1.3773405559e+01    0.1129967   0.07462187  22.88  0.000371053    1.560    0.359
         5 -13.1651    249.0766    240.8607   6.7998730276e+01  -8.5204529092e+00     1.714816    0.3234296 -39.33  0.006340599    5.109    0.804
         6 -10.0296    166.2243    249.6997   8.4720445971e+01  -8.7894975951e-03    0.3096473    0.2171312  56.84  0.001129428    2.388    0.581
         7 -19.4940     20.7278    144.2440   1.0744591831e+02   4.2798042106e+01     20.07568     6.603279 -77.06   0.07000767    3.124    0.680
         8 -12.1500     55.7045    185.8696   1.0226289656e+02   2.8497302039e+01    0.4344152     0.385377  73.17  0.001391796    1.068    0.063
         9 -12.1258    148.3700    182.0698   7.7551268231e+01   1.5125918998e+01    0.4594301    0.3743118 -70.21    0.0023703    1.589    0.371
        10 -10.7339    179.5927    173.7968   6.8933844707e+01   1.1472029666e+01    0.4039251    0.2092825 -53.29  0.001446759    2.398    0.583
        11 -10.8710    181.5041    177.7337   6.9316117118e+01   1.0394275333e+01    0.5465493    0.2662424 -37.13  0.002174454    1.995    0.499
        12  -9.0636    200.1379    174.1285   6.4861452335e+01   8.0277951656e+00    0.1780464    0.1519755 -45.29  0.000519833    1.308    0.236
        13 -11.6569    242.1960    248.8122   7.0386418149e+01  -8.8178004076e+00    0.2956515    0.1772229 -17.57   0.00173004    1.345    0.257
        14  -9.8540     90.6928    227.8905   9.8480923529e+01   1.4339090510e+01    0.1983964    0.1664555  23.44 0.0003404552    1.168    0.144
        15 -11.4100    231.0181    170.2648   5.8590519519e+01   3.9969661884e+00    0.3070623    0.1533006 -31.40  0.001507766    1.786    0.440
        16  -9.9190    187.7257    170.1050   6.6507439011e+01   1.0807811118e+01    0.3323202    0.1776023 -44.10  0.001245539    1.809    0.447
        17  -9.7508    144.4910    168.4922   7.5821037583e+01   1.8716569230e+01    0.1489572    0.1413771  -2.27 -5.926131e-05    1.010    0.010
        18  -9.5528    121.4935    167.5018   8.1441561796e+01   2.3025235208e+01    0.1511577    0.1445442   0.02 0.0008105063    1.027    0.026
        19 -11.2387     88.7713    152.8328   8.7719665719e+01   3.2139531260e+01    0.3157278    0.2884362 -18.25 0.0003770051    1.169    0.144
        20 -11.9143     94.7083    147.0244   8.4811150869e+01   3.2618287399e+01    0.6915033    0.5202991 -30.01  0.003235702    1.503    0.334
        21 -11.0695    133.8162    146.0197   7.3716575132e+01   2.5726033307e+01     1.254238    0.3093573 -53.60  0.002846501    6.042    0.834
        22 -10.1381    111.4841    149.5001   8.0495343891e+01   2.9077546563e+01    0.3349999    0.2395128  63.98 0.0008518074    1.805    0.446
        23 -11.0406    117.8806    135.6810   7.5631699466e+01   3.1190398648e+01    0.6209868    0.4166019  87.53  0.001476724    2.765    0.638
        24 -11.4579    107.1806    135.5172   7.8643753671e+01   3.3246043396e+01    0.5708799    0.4704915 -77.74  0.002748938    1.432    0.301
        25 -11.0087    105.4958    130.4869   7.7970169943e+01   3.4774401568e+01    0.4885851    0.3622429  51.48  0.001471729    1.467    0.318
        26  -9.2265    143.9804    137.2177   6.9130692385e+01   2.5709253615e+01    0.2045317    0.1980025  -2.25 -0.000430966    1.022    0.021
        27 -11.7887     94.6480    133.6582   8.1961784206e+01   3.5958415837e+01    0.3662601    0.2941793  32.55 0.0005189482    1.266    0.210
        28  -9.4955    131.2324    131.9395   7.1127870007e+01   2.9437282506e+01     0.220891    0.2057165 -69.28 0.0002989953    1.160    0.138
        29 -10.6594    135.8014    128.5345   6.9116972617e+01   2.9280596775e+01    0.4979868     0.195558 -48.39  0.001681258    2.564    0.610
        30 -10.2137    101.9735    122.3258   7.7060081679e+01   3.7396189665e+01    0.2905942    0.2466158  -6.93 0.0007965012    1.330    0.248
        31  -9.1671    119.4610    122.4602   7.1995148862e+01   3.3962940557e+01    0.1562684    0.1506986 -13.86 7.339429e-05    1.031    0.030
        32 -10.1231    114.2792    127.0850   7.4602357500e+01   3.3911664597e+01    0.2884504    0.2528023  -0.19 0.0005739183    1.252    0.201
        33  -9.2424    109.6991    116.9423   7.3395233365e+01   3.7179915154e+01    0.2144583    0.1934544 -44.33  0.000411645    1.096    0.088
        34  -8.8119    183.3562    116.3002   5.5504285860e+01   2.1974738662e+01    0.1465535     0.113193   4.63 0.0007037089    1.706    0.414
        35 -11.7008    116.2816    107.0099   6.8862171017e+01   3.8099705550e+01    0.6265193    0.4506477 -73.16  0.002685976    1.925    0.481
        36 -11.3526    119.9972    104.0013   6.6994468976e+01   3.7979013646e+01    0.3737383    0.2909035 -24.02  0.001626799    1.443    0.307
        37 -10.4031    134.6273    109.5770   6.4598611548e+01   3.3661496161e+01    0.5485075    0.1413745 -47.05  0.001478161    4.049    0.753
        38 -10.0533    205.3988    110.3042   5.0231896284e+01   1.8678798135e+01    0.2587663    0.2418166  40.47 0.0008139984    1.206    0.171
        39  -9.6318    108.4804    106.4933   7.0993371541e+01   3.9812724907e+01    0.1552239    0.1505545 -10.76 2.752555e-05    1.017    0.017
        40 -10.9275     55.9067    208.7060   1.0472886393e+02   2.3042782122e+01    0.4585494    0.2117461 -81.65  0.001198633    2.700    0.630
        41  -9.0828    168.1439    206.8528   7.7581865318e+01   7.0268790650e+00     0.183546    0.1763613 -11.66  0.000612204    1.214    0.176
        42 -10.4514     99.9087     85.7834   6.7640517955e+01   4.6052125231e+01    0.3761089    0.2831908  72.17  0.001579022    1.817    0.450
        43  -9.4760     73.1274    204.4156   9.9958914259e+01   2.1835550949e+01    0.1851868    0.1483684  48.59 0.0007596415    1.157    0.136
        44 -12.2186     57.6890     78.1637   8.0403232419e+01   5.5301250432e+01    0.6796029    0.3425655  28.79  0.001229916    2.075    0.518
        45 -10.0480     94.0153    247.8489   9.9931702333e+01   9.9828953426e+00     0.424342     0.203622 -46.61  0.002057166    2.578    0.612
        46  -9.0909    103.1567     73.8823   6.2903027680e+01   4.7736138275e+01    0.2092397    0.1981348  80.25  0.000342526    1.175    0.149
        47 -12.6765    177.0532     60.8409   4.2704963878e+01   3.2876811700e+01    0.5190988    0.4536455 -39.09 0.0007998379    1.179    0.152
        48  -9.0537     83.0020     61.4988   6.5221338416e+01   5.4220047473e+01     0.213233    0.1377651  44.57 0.0005785353    1.518    0.341
        49 -10.4058    192.4797    193.9676   7.0181354880e+01   5.6595452158e+00    0.5132433    0.2799848 -61.22  0.001835528    4.346    0.770
        50  -9.9372     77.5960     59.0894   6.6269524378e+01   5.5717388884e+01    0.2272473    0.1905434  47.22 0.0004312988    1.259    0.205
        51 -12.0137     50.9057    246.3299   1.0915135013e+02   1.5611335130e+01    0.2953398    0.1534064 -69.06  0.001608731    2.102    0.524
        52 -12.4892    198.5260     42.0032   3.5174949329e+01   3.0690519625e+01    0.4552318    0.4190502 -87.70  0.001375566    1.133    0.117
        53 -10.1547     83.1106    195.1473   9.6205878885e+01   2.2613483974e+01    0.3501081    0.2722211  35.14  0.001266168    1.219    0.179
        54 -10.9665     51.7997     50.7859   7.3478665931e+01   6.1764701621e+01    0.3077955    0.2160299  29.53 0.0005272679    1.376    0.273
        55 -11.2067     48.0180     46.7865   7.3614845214e+01   6.3076191056e+01    0.4587897    0.2582582  47.09   0.00212209    2.232    0.552
        56  -9.9260     58.7828    196.0738   1.0264440008e+02   2.5644238799e+01    0.1671414    0.1534813 -83.88 0.0002830769    1.092    0.084
        57 -10.3376     71.3408     27.8482   5.6105408563e+01   6.1806834224e+01     0.216048    0.1698561  51.03 0.0004220191    1.280    0.219
        58  -9.9069     76.0537    245.0513   1.0359326821e+02   1.2828246083e+01    0.1410545   0.09516044 -68.71 0.0004721294    1.701    0.412
        59 -10.8519     60.4008     20.9487   5.7035334507e+01   6.4834980863e+01    0.2495934    0.1982006  44.45 0.0008429555    1.227    0.185
        60 -10.2035    189.6392     14.8882   2.9627740431e+01   3.5815195276e+01    0.2041045    0.1531259  71.00 0.0007718903    1.293    0.227
        61 -12.6836     73.0985    230.2932   1.0282128646e+02   1.6168923479e+01    0.3866659    0.1830654 -69.00  0.001521902    2.411    0.585
