#   1 NUMBER                 Running object number                                     
#   2 MAG_AUTO               Kron-like elliptical aperture magnitude                    [mag]
#   3 X_IMAGE                Object position along x                                    [pixel]
#   4 Y_IMAGE                Object position along y                                    [pixel]
#   5 X_WORLD                Barycenter position along world x axis                     [deg]
#   6 Y_WORLD                Barycenter position along world y axis                     [deg]
#   7 A_WORLD                Profile RMS along major axis (world units)                 [deg]
#   8 B_WORLD                Profile RMS along minor axis (world units)                 [deg]
#   9 THETA_WORLD            Position angle (CCW/world-x)                               [deg]
#  10 FWHM_WORLD             FWHM assuming a gaussian core                              [deg]
#  11 ELONGATION             A_IMAGE/B_IMAGE                                           
#  12 ELLIPTICITY            1 - B_IMAGE/A_IMAGE                                       
         1 -13.2752    191.3983     45.8461   1.2579571903e+01   3.5106758763e+01    0.8035207    0.5961216 -68.76  0.003905938    1.103    0.093
         2 -13.9319    217.7930     15.0786   5.4448234893e+00   3.4651227158e+01     1.041548    0.7511347 -54.50   0.00631177    1.447    0.309
         3 -10.2584    189.8488     15.1690   7.2563518584e+00   3.9191547111e+01    0.1640402   0.09883422 -71.64 0.0007642645    1.192    0.161
         4 -11.5555      3.9691      5.2580   5.0523789514e+01   7.5350953532e+01    0.3831708    0.3418005 -34.29  0.002999553    1.397    0.284
         5 -11.2657    119.3559      9.5431   1.3031640559e+01   5.3124280548e+01    0.4566526    0.3022912  58.19  0.003055036    1.623    0.384
         6  -8.4038     86.7642     23.3618   2.2670665240e+01   5.8285843161e+01    0.1164492   0.07991224 -77.62 0.0006285734    1.590    0.371
         7 -14.5465    240.0466    235.0080   3.5313828003e+01  -1.3636965713e+00      2.38996     1.002016 -37.82   0.01544978    1.730    0.422
         8 -11.2300     30.1040    205.3804   7.7877461726e+01   2.4993428085e+01    0.3736682    0.2843599 -48.97  0.001795572    1.383    0.277
         9  -9.1331     64.4937    205.3177   6.7692482207e+01   2.1524849524e+01    0.1781324     0.137994  79.64 0.0008122624    1.460    0.315
        10 -10.8845     38.6541    200.2547   7.4813188381e+01   2.5582768131e+01    0.2511734    0.2271359  26.18 0.0004720555    1.084    0.077
        11 -10.8039     61.3889    199.2260   6.7881592261e+01   2.3473928146e+01    0.2841559    0.2341461 -49.46 0.0007177338    1.233    0.189
        12  -9.6262     52.2577    196.6687   7.0306601376e+01   2.5160129920e+01    0.2455629    0.1571302  23.11 0.0005290263    1.529    0.346
        13  -9.6852    192.2346    193.3828   3.6843015350e+01   9.5440209025e+00      0.41588    0.2148573 -72.18  0.001611926    4.579    0.782
        14 -10.0204     87.0998    206.2956   6.1518126330e+01   1.8707784620e+01    0.2414836    0.2149944 -71.15 0.0004010414    1.173    0.148
        15  -9.9385     66.7590    194.2796   6.5701241984e+01   2.4176690325e+01    0.2678988    0.2199662  19.70  0.001082313    1.221    0.181
        16 -10.9989      7.3171    193.2717   8.3980341591e+01   3.0212956806e+01    0.4549337    0.1688821  18.47  0.001647342    2.595    0.615
        17 -11.8043     58.1571    188.7092   6.7578978203e+01   2.6663393572e+01    0.4895426     0.354879 -54.67  0.001266361    1.376    0.273
        18 -12.1348    145.2721    184.4330   4.4245371453e+01   1.6702626247e+01     0.542165    0.3118638 -68.18  0.001791957    2.064    0.515
        19  -9.0440     86.5033    187.5300   5.9131540818e+01   2.3537774124e+01    0.2209871    0.1703781  60.00 0.0005622469    1.453    0.312
        20 -16.1206     66.4118    140.2280   5.7751168774e+01   3.8725592217e+01     7.035999     3.851537  56.90   0.02738135    2.256    0.557
        21 -14.6133     10.9035    207.1888   8.3800059733e+01   2.6111261479e+01      0.69664    0.5366135  18.61  0.002499755    1.293    0.227
        22  -9.4272     19.1388    184.0776   7.9477396029e+01   3.1869334388e+01    0.1800904     0.174963  59.85            0    1.017    0.017
        23  -9.2995     59.0055    217.2963   7.0570891738e+01   1.9010245658e+01    0.1716714     0.154693 -73.03 0.0003335911    1.160    0.138
        24 -11.5801     95.1218    181.7823   5.5914874097e+01   2.3886788440e+01     0.384571    0.3464319 -53.65  0.001900475    1.079    0.073
        25 -11.1917     89.8315    181.1723   5.7276671720e+01   2.4739795784e+01    0.3612649    0.2664782 -61.09   0.00133098    1.326    0.246
        26 -11.2508     92.6064    178.8090   5.6152338611e+01   2.4975896633e+01    0.3395635    0.2613027  75.23 0.0007093141    1.539    0.350
        27 -10.1822     89.9695    186.7276   5.8055549405e+01   2.3301369919e+01      0.32199    0.2179215  21.80  0.001394656    1.544    0.352
        28  -9.9851     40.7079    170.9961   7.0966653563e+01   3.3508283655e+01    0.3957601    0.3037818 -20.32  0.001891858    1.487    0.327
        29  -8.6963     49.3404    178.6862   6.9091010527e+01   3.0412929005e+01    0.2348223    0.1493037 -79.34 0.0007257601    1.679    0.404
        30 -10.4909     44.9270    174.7321   7.0030253174e+01   3.2003387012e+01    0.6285956    0.4786324  63.11  0.002764353    1.389    0.280
        31  -8.7894     14.2928    176.2369   8.0405907713e+01   3.4488390728e+01    0.2975841    0.1328117  44.71  0.001123968    2.208    0.547
        32  -8.8922      7.0999    175.1403   8.2741817117e+01   3.5342771024e+01    0.4994744    0.1403074  14.70  0.001518501    3.653    0.726
        33 -18.2630     18.9530    232.5747   8.3096084395e+01   1.8803662156e+01     7.252907      3.45697 -78.31   0.03040693    2.210    0.547
        34 -15.3085    118.8790    236.0857   5.7376798939e+01   8.3714069929e+00     6.023965      4.47501 -60.28   0.03493259    1.434    0.303
        35 -10.7636    144.7815    168.4447   4.1791465631e+01   2.0270791856e+01    0.2993074    0.2189521 -66.53 0.0009904675    1.372    0.271
        36 -10.2879     56.5906    165.4074   6.4984372681e+01   3.3233574149e+01    0.5943364    0.3882826  48.95  0.002647363    1.585    0.369
        37 -10.4846    120.3994    165.8979   4.6866872972e+01   2.4278033876e+01    0.3175059    0.2385078 -80.69  0.001516209    1.516    0.340
        38 -11.3610    133.8719    145.7460   4.0243666659e+01   2.6892541027e+01    0.9526159    0.2811116 -60.68  0.002772808    4.538    0.780
        39 -13.0136     96.7817    149.8501   5.0219771971e+01   3.1701981503e+01     1.019033    0.7032623  73.09  0.002266678    1.839    0.456
        40 -11.5024     89.8878    154.2007   5.2932875482e+01   3.1648294325e+01    0.4234002    0.3295378  70.11 0.0004821572    1.443    0.307
        41 -12.1603    109.2885    149.0167   4.6715742162e+01   2.9970609749e+01    0.8578154    0.4697575  64.36  0.003229009    2.901    0.655
        42 -11.9310    119.6295    149.6040   4.4232309554e+01   2.8224062849e+01     0.499177     0.417951  58.62  0.002782201    1.263    0.208
        43 -12.2821    106.4790    136.7930   4.5192092650e+01   3.3335371692e+01    0.6749399    0.4650363 -37.93   0.00217548    1.701    0.412
        44 -10.5823    144.2803    146.6335   3.8180955274e+01   2.5102078197e+01    0.2917542    0.2108266  85.17  0.001526812    1.756    0.430
        45 -11.4585     95.6803    134.9889   4.7789229496e+01   3.5530560033e+01    0.3031649    0.2667837 -42.72 0.0003423873    1.219    0.180
        46 -11.1497    100.1823    132.7804   4.6113643664e+01   3.5323397369e+01    0.3886335    0.2397309  65.69  0.001660317    2.110    0.526
        47  -8.2542    157.2748    135.3308   3.3634909727e+01   2.5491668567e+01    0.1249263   0.09523231 -33.35 0.0003540631    1.595    0.373
        48 -10.9256     57.4920    211.4059   7.0380559914e+01   2.0688732976e+01    0.3245609    0.2637285  86.53  0.001203651    1.340    0.254
        49 -10.9275     40.9371    206.9620   7.4772329847e+01   2.3544558919e+01    0.3064947    0.1938555 -49.45 0.0004126559    1.648    0.393
        50 -10.3877    102.5777    123.4238   4.3617223141e+01   3.7114409036e+01    0.2889821    0.2516861  24.26 0.0009673001    1.357    0.263
        51 -10.5600    114.6398    127.8560   4.1385579520e+01   3.4044185760e+01     0.297855      0.22605 -31.61  0.000904721    1.680    0.405
        52 -10.4596     92.0522    124.5422   4.6779224876e+01   3.8640174570e+01    0.3787024    0.2273346  62.90  0.001192125    2.094    0.522
        53 -11.2094     87.7478    121.5903   4.7446215750e+01   4.0065503919e+01    0.5188473    0.3221675  79.75  0.002097851    2.431    0.589
        54  -9.0534    110.0495    117.6763   4.0498037735e+01   3.7117310439e+01    0.1890494    0.1740219  68.95 0.0003559451    1.081    0.075
        55  -9.5978    120.9561    122.2001   3.8747617328e+01   3.4221911318e+01    0.2146409    0.1696359   1.20  0.001082576    2.012    0.503
        56 -11.5782    118.4088    109.9500   3.6861370882e+01   3.7302529433e+01    0.5289913    0.3743064  82.44    0.0026963    1.646    0.392
        57 -10.4246     66.0319    100.3847   4.9916748954e+01   4.8674869957e+01    0.3232758    0.1318642  36.85  0.001115297    2.337    0.572
        58  -9.5657     73.4235    205.5155   6.5179856616e+01   2.0475554597e+01    0.3169473    0.1931159 -87.85  0.001308534    2.114    0.527
        59 -12.1378     75.3387    249.4532   6.9443667713e+01   9.6612838121e+00    0.2592328    0.1966269 -46.54 0.0006495835    1.366    0.268
        60  -8.9549     47.4051    208.5111   7.3010438869e+01   2.2488711319e+01    0.1535061    0.1282694  55.41 0.0007955051    1.205    0.170
        61 -12.7257    175.5551     59.6960   1.6785339612e+01   3.5866594847e+01     1.059379    0.7918132  36.67  0.005140337    2.767    0.639
        62 -10.2030     68.2176    247.3976   7.1060749491e+01   1.0796437342e+01    0.1592208    0.1428847   0.33  0.000399592    1.065    0.061
        63 -12.2176    196.7611     40.4979   1.1158705769e+01   3.4924407086e+01    0.3662558     0.272028 -65.16  0.001163537    1.176    0.150
        64  -9.0993     35.1589    208.5573   7.6639845110e+01   2.3668668650e+01    0.1875426    0.1338017  30.41 0.0002841422    1.319    0.242
        65 -10.9333     54.1492    205.6485   7.0732612666e+01   2.2553207330e+01    0.2646415    0.2361381  70.93 0.0006642303    1.161    0.138
        66 -11.9231     45.9413    241.9504   7.6424886427e+01   1.4144901129e+01    0.2482084    0.1853592 -71.94  0.001347224    1.450    0.310
        67  -9.6767     67.5004    240.7654   7.0617390327e+01   1.2399448539e+01    0.2124679    0.1387559 -81.19  0.001049046    1.832    0.454
        68 -11.5815     62.4430    237.3821   7.1625684567e+01   1.3689394576e+01    0.2874644    0.2144764  78.30 0.0008875661    1.590    0.371
