#   1 NUMBER                 Running object number                                     
#   2 MAG_AUTO               Kron-like elliptical aperture magnitude                    [mag]
#   3 X_IMAGE                Object position along x                                    [pixel]
#   4 Y_IMAGE                Object position along y                                    [pixel]
#   5 X_WORLD                Barycenter position along world x axis                     [deg]
#   6 Y_WORLD                Barycenter position along world y axis                     [deg]
#   7 A_WORLD                Profile RMS along major axis (world units)                 [deg]
#   8 B_WORLD                Profile RMS along minor axis (world units)                 [deg]
#   9 THETA_WORLD            Position angle (CCW/world-x)                               [deg]
#  10 FWHM_WORLD             FWHM assuming a gaussian core                              [deg]
#  11 ELONGATION             A_IMAGE/B_IMAGE                                           
#  12 ELLIPTICITY            1 - B_IMAGE/A_IMAGE                                       
         1 -15.1688    247.3049     88.0178   6.5802708484e+01   1.3668835762e+01      1.02704    0.5741735 -34.18  0.005058746    2.060    0.515
         2 -11.4047    224.0360     44.0000   5.9710794125e+01   2.5142199881e+01    0.1992814   0.06444623  66.47 0.0008077736    2.980    0.664
         3 -11.0415    145.0114    232.9934   1.1450629126e+02   3.8401042442e+00    0.2236883    0.1664552  70.59  0.001138928    1.732    0.423
         4 -11.0348     72.8785    227.5811   1.2958729391e+02   1.6606201355e+01    0.2735577    0.1491589  72.00  0.001199233    2.302    0.566
         5 -11.0728    162.8096    225.0506   1.0932922091e+02   2.4054738147e+00    0.2603858    0.1939918 -24.77  0.001349637    1.536    0.349
         6 -11.3480    149.1140    223.2592   1.1202501026e+02   5.1264419500e+00    0.2669029    0.1909885 -88.80  0.001239435    2.127    0.530
         7 -10.8914    143.9695    216.4931   1.1203222817e+02   7.4504748600e+00    0.2281659      0.19478 -52.06  0.001248379    1.222    0.182
         8 -10.6238    199.4702    215.4751   9.9886991424e+01  -1.9067670579e+00     0.136044     0.124873  -6.16 0.0001051373    1.031    0.030
         9 -10.9593    185.9818    214.9338   1.0257486679e+02   4.4639981820e-01    0.2124717    0.1776088  80.16  0.000976294    1.697    0.411
        10 -10.7563    132.0000    213.0017   1.1416425127e+02   1.0318706556e+01    0.2353908   0.08253916 -53.66 0.0008042501    2.955    0.662
        11 -10.9802     76.3901    213.1989   1.2702195093e+02   1.9407194237e+01    0.2020144    0.1239168 -79.85 0.0009539743    1.740    0.425
        12 -11.7279    116.4055    209.9371   1.1726939389e+02   1.3725697508e+01    0.3593659    0.2684473 -86.47  0.001563664    1.577    0.366
        13 -10.7897    177.3298    210.6579   1.0362449147e+02   2.7864613457e+00    0.1417577    0.1147807  80.39 0.0004811995    1.746    0.427
        14 -10.6579    112.2993    216.6654   1.1927770797e+02   1.2889177217e+01    0.1483057    0.1058725  73.42 0.0004478615    1.653    0.395
        15 -10.5985    139.3233    207.6538   1.1156373985e+02   1.0208444403e+01    0.1525838    0.1138975  76.09 0.0006603278    1.739    0.425
        16 -12.2206    186.1637    204.3138   1.0054757961e+02   2.5211527869e+00    0.3485214    0.2546564 -67.70  0.001534898    1.874    0.467
        17 -11.0063    198.6785    204.3508   9.7952929300e+01   3.5320648500e-01       0.2084     0.174634  86.42  0.001050714    1.741    0.426
        18 -13.2025    164.7845    202.0302   1.0475730968e+02   6.8235768234e+00    0.7350143    0.3621129 -50.57  0.002993025    2.091    0.522
        19 -12.3193    162.5798    193.6586   1.0364880597e+02   9.0463975549e+00    0.4640554    0.3504305 -78.18  0.001939209    1.782    0.439
        20 -11.4875    148.8963    197.5454   1.0751902475e+02   1.0726468366e+01    0.4091575    0.2192953 -66.96  0.001476695    2.852    0.649
        21 -11.9325     88.3587    197.7231   1.2200942527e+02   2.1283617567e+01    0.4336985    0.1435717 -67.47  0.001255902    4.235    0.764
        22 -12.1595    124.0016    197.0665   1.1329497259e+02   1.5385799485e+01    0.3695155    0.2241984 -65.04  0.001587429    1.853    0.460
        23 -10.2432    203.3302    197.6628   9.5714919339e+01   8.6731988653e-01    0.1369568    0.1143086 -87.39 0.0005374905    1.734    0.423
        24 -11.4991    112.4205    196.7696   1.1602904857e+02   1.7503649930e+01    0.2911188    0.1452427 -62.04  0.001141146    2.157    0.536
        25 -10.4249    193.6604    196.3195   9.7429400512e+01   2.8158011271e+00    0.1403185    0.1162218  86.34 0.0007049739    1.713    0.416
        26 -11.3006    186.4876    193.5337   9.8385758522e+01   4.6675437212e+00     0.257853    0.1372564 -55.92  0.001031766    2.260    0.557
        27 -10.7293    102.6678    193.3334   1.1781960469e+02   2.0007136184e+01    0.1582124    0.1106768  73.93  0.000705222    1.729    0.422
        28 -11.4719    172.4895    190.9715   1.0090824734e+02   7.7828249823e+00     0.231269    0.1438135 -48.17  0.000888786    1.595    0.373
        29 -10.2271    179.5012    190.5304   9.9287360408e+01   6.5753895031e+00    0.1457038    0.1404927 -19.56 0.0001871569    1.018    0.018
        30 -11.6728    138.9044    188.7968   1.0820654131e+02   1.4589656039e+01    0.4321442    0.2119257 -58.19  0.001628829    2.264    0.558
        31 -10.4319    210.6566    189.3216   9.2613180038e+01   1.2464720085e+00    0.1368179     0.113618 -85.43 0.0007050161    1.728    0.421
        32 -10.6896    192.5976    187.8196   9.5962069977e+01   4.7417528302e+00    0.2112539    0.1340337 -54.57 0.0009517352    1.733    0.423
        33 -11.2867    129.1831    187.3537   1.1027013356e+02   1.6739203641e+01    0.3521234    0.2076447 -55.52  0.001498595    1.708    0.415
        34 -11.2256    177.4872    197.9481   1.0118169673e+02   5.3784458229e+00    0.2238924    0.1410385 -47.07 0.0008629119    1.579    0.367
        35 -10.3872    217.6665    187.3376   9.0862825756e+01   4.3957854010e-01     0.135846    0.1114855 -79.56 0.0007051924    1.743    0.426
        36 -11.1468    165.3162    186.6277   1.0164396419e+02   1.0082668034e+01    0.3202211    0.2525118  88.93  0.001342969    1.716    0.417
        37 -10.9610    155.8870    186.0432   1.0368015275e+02   1.2008489166e+01    0.3588158    0.1705281 -55.32  0.001330075    2.313    0.568
        38 -12.2939    120.1845    183.3611   1.1172357878e+02   1.9350358389e+01    0.7298461    0.2296453 -57.67  0.002155781    3.581    0.721
        39 -12.0375     95.0249    184.5319   1.1822454368e+02   2.3450898915e+01    0.6305895     0.216471 -61.12  0.002051848    3.062    0.673
        40 -11.2739    204.1031    184.2178   9.2886615316e+01   3.4067167838e+00    0.2743411    0.1891174 -67.72  0.001240287    2.101    0.524
        41 -10.6910    183.3746    184.1850   9.7175457999e+01   7.2041262741e+00    0.2165562    0.1360223 -55.37 0.0009491699    1.743    0.426
        42 -11.7745    174.2061    183.2202   9.8972523134e+01   9.1418477164e+00    0.3362776    0.2463611 -57.61  0.001234188    1.472    0.321
        43 -12.1911    147.4166    179.6210   1.0437588816e+02   1.5108642614e+01     0.464752    0.2293551 -52.73  0.001782668    2.052    0.513
        44 -11.6096    137.8945    178.6091   1.0645630545e+02   1.7177082965e+01    0.3148902    0.2278942 -61.12  0.001450187    1.447    0.309
        45 -11.0959    192.4070    177.6766   9.3932634333e+01   6.8897464778e+00    0.2891854    0.1365405 -49.56   0.00112506    2.124    0.529
        46 -11.2991    183.0935    175.6958   9.5487053692e+01   9.0763940726e+00    0.2703191    0.2055335 -55.65  0.001320843    1.371    0.271
        47 -12.3733     77.5927    175.9035   1.2121159623e+02   2.8380744711e+01    0.4241401    0.1958623  56.02  0.001512434    2.928    0.659
        48 -11.3445    105.3228    174.1558   1.1373714380e+02   2.4276485807e+01    0.3974775    0.1440683 -64.67  0.001092597    4.172    0.760
        49 -11.2399    177.0172    170.8390   9.5781985557e+01   1.1312187953e+01    0.3618579    0.2090738 -62.49  0.001396723    2.316    0.568
        50 -10.7951    134.4975    170.5120   1.0564301039e+02   1.9762669745e+01     0.332505    0.1513633 -51.63  0.001208925    2.158    0.537
        51 -12.3461    121.1302    167.3239   1.0834278223e+02   2.3089383738e+01    0.5992332    0.2347193 -54.53  0.002023965    2.553    0.608
        52 -11.0084    168.3015    168.8053   9.7284095533e+01   1.3484809386e+01     0.316863     0.134707 -53.77  0.001075089    2.612    0.617
        53 -10.8840    149.5829    168.8096   1.0162506103e+02   1.7207066218e+01    0.2277156    0.1473655 -60.70 0.0009543474    1.708    0.414
        54 -11.2138     88.4113    167.7175   1.1694616258e+02   2.8753405371e+01    0.2984228    0.1430917 -63.26  0.001134856    2.137    0.532
        55 -11.2959    192.4807    165.0539   9.1263934417e+01   9.5444339642e+00    0.3488223    0.1382431 -50.25  0.001209451    2.597    0.615
        56 -12.1319    139.0582    163.6936   1.0308614788e+02   2.0502032715e+01    0.6355454    0.2830887 -57.82  0.002154615    2.605    0.616
        57 -11.0711     98.6634    165.3339   1.1378414800e+02   2.7639980075e+01    0.1616607    0.1167059  77.12 0.0007052026    1.742    0.426
        58 -11.4142    213.0099    163.3512   8.6849194714e+01   6.0092890266e+00    0.2663293    0.1988556 -64.63  0.001326172    1.593    0.372
        59 -10.7148    159.4729    163.4763   9.8155663660e+01   1.6463199031e+01    0.2878728    0.1465022 -58.30  0.001034779    2.343    0.573
        60 -11.5780     79.1247    162.9839   1.1855725642e+02   3.1418742740e+01      0.36653    0.1962775 -83.67  0.001244617    3.208    0.688
        61 -12.1428    205.1676    162.0222   8.8074371474e+01   7.7455908180e+00    0.3640905    0.1990649 -43.89  0.001419114    1.679    0.404
        62 -11.3743    177.4465    159.2984   9.3202172534e+01   1.3769796348e+01    0.3830579    0.1450199 -48.59  0.001287273    2.588    0.614
        63 -10.7575    151.5041    160.0087   9.9272778546e+01   1.8876775931e+01    0.2500292      0.15164 -50.21  0.001037498    1.611    0.379
        64 -11.5453     92.2300    159.3471   1.1433375376e+02   3.0236743381e+01    0.3705211    0.1807006 -63.70  0.001386496    2.211    0.548
        65 -11.7317    196.4056    156.8820   8.8707504691e+01   1.0508215486e+01     0.423361    0.2565739 -53.59  0.001494265    1.693    0.409
        66 -11.2919    104.9053    156.6740   1.1038623746e+02   2.8710638574e+01    0.4259244    0.2216247 -62.36  0.001618573    2.102    0.524
        67 -10.9853    218.2340    156.9714   8.4540977726e+01   6.3271317763e+00    0.2007397    0.1092391 -43.93 0.0008836371    1.644    0.392
        68 -10.6694    188.4547    157.0088   9.0360190848e+01   1.2056636442e+01    0.2411319    0.1416668 -45.82  0.001031705    1.601    0.375
        69 -11.0982    167.5534    155.8185   9.4625284747e+01   1.6560111688e+01    0.4007204     0.148192 -48.94  0.001311767    2.662    0.624
        70 -10.3720    157.5009    155.5005   9.6861988227e+01   1.8697088162e+01    0.1564436    0.1503046 -65.95 0.0008104603    1.034    0.033
        71 -11.3740    118.9236    154.0716   1.0612358504e+02   2.6757149050e+01    0.4099996    0.2225384 -62.49  0.001544252    2.130    0.531
        72 -10.6736    144.4044    154.2070   9.9702406079e+01   2.1678579674e+01    0.2308149    0.1477035 -59.87 0.0009515388    1.700    0.412
        73 -11.1478    132.7899    151.9094   1.0207712197e+02   2.4569099996e+01     0.399082    0.2195972 -62.48   0.00147821    2.214    0.548
        74 -11.2399    249.3043    150.6638   7.8004437213e+01   2.0958737221e+00    0.1337133   0.09645854 -66.06 0.0007038961    1.668    0.400
        75 -11.7225    190.3751    149.1522   8.8236408570e+01   1.3352491405e+01    0.4327682    0.2779644 -45.42  0.001963273    1.456    0.313
        76 -10.5768    182.0000    149.9977   9.0166932576e+01   1.4880482115e+01    0.2598112    0.0835953 -45.31 0.0008019276    2.939    0.660
        77 -12.0192    200.1286    147.5661   8.5940382987e+01   1.1724053125e+01    0.4467963    0.2065589 -44.22  0.001713056    1.994    0.499
        78 -11.9956    234.2598    147.1539   7.9708381910e+01   5.3408211669e+00    0.2827125    0.1499963 -46.25  0.001246781    1.646    0.392
        79 -11.7432    148.3255    142.4137   9.6061308087e+01   2.3619182694e+01    0.7081679    0.2695565 -50.69  0.002308792    2.663    0.624
        80 -12.1516    106.2773    143.0287   1.0707491017e+02   3.1834526397e+01    0.6507353    0.2774799 -58.93  0.002197001    2.640    0.621
        81 -12.0798     54.8602    143.6043   1.2176042001e+02   3.9716740847e+01    0.5108598    0.1807388 -64.65  0.001770989    2.856    0.650
        82 -11.5181    204.4518    154.2767   8.6558412082e+01   9.4814893599e+00     0.291836    0.1343799 -40.57  0.001136811    2.056    0.514
        83 -11.6112    124.2250    140.9507   1.0178928710e+02   2.8900052347e+01    0.6425736    0.2710578 -60.16  0.001958092    3.282    0.695
        84 -11.7491     87.5420    141.7752   1.1202608597e+02   3.5413351831e+01    0.4822547    0.1360521 -53.62  0.001462964    3.219    0.689
        85 -10.6464    181.9787    141.0073   8.8144069070e+01   1.6832044067e+01    0.2482117    0.1874627 -78.08  0.001133145    1.678    0.404
        86 -10.6325    235.3209    138.3186   7.7715111458e+01   6.8375630206e+00    0.1351826    0.1056794 -12.35 0.0007043001    1.665    0.400
        87 -10.9241    219.5863    137.2639   8.0120549647e+01   9.9900005568e+00    0.2925787    0.1238424 -46.92  0.001143301    2.133    0.531
        88 -11.3370    197.7320    135.3936   8.3706758436e+01   1.4737536096e+01    0.5641423    0.1749041 -42.76  0.001797776    3.029    0.670
        89 -10.5629    172.0000    137.0337   8.9362794093e+01   1.9805550462e+01    0.2653401   0.08530316 -45.16 0.0008068643    2.973    0.664
        90 -11.2251     68.0000    136.9887   1.1666108538e+02   3.9602747342e+01    0.2522889   0.07709011 -57.55 0.0008076292    2.979    0.664
        91 -12.4996    249.2431    135.2605   7.4945859696e+01   4.9445505142e+00    0.2608249    0.1445132 -41.45  0.001288741    1.537    0.349
        92 -10.4595    188.0000    134.9466   8.5523761263e+01   1.6859023011e+01    0.2568203   0.08226335 -44.20 0.0008008691    2.932    0.659
        93 -10.9357    179.4851    132.5632   8.6724167615e+01   1.9171617615e+01    0.3333376    0.1451943 -44.80  0.001214462    2.179    0.541
        94 -12.5145     82.8452    128.7646   1.1050696272e+02   3.9363418494e+01    0.8999165    0.1924986 -54.18   0.00237816    4.437    0.775
        95 -10.9845    142.6388    129.9352   9.4479828336e+01   2.7672697407e+01    0.3744693     0.145901 -46.41  0.001250455    2.498    0.600
        96 -11.5492    131.3456    128.8007   9.7043581587e+01   3.0301321119e+01    0.5540388    0.2051893 -49.24  0.001806442    2.672    0.626
        97 -11.1445    212.0000    129.0123   7.9660610857e+01   1.3118975827e+01    0.2461114   0.07615028 -43.21 0.0008001137    2.926    0.658
        98 -10.6965    192.9613    129.0271   8.3190093445e+01   1.7047604852e+01    0.2335777    0.1879599  -9.21  0.001131896    1.650    0.394
        99 -10.7684    168.5395    128.2594   8.8054064035e+01   2.2456276829e+01    0.3131458    0.1451293 -49.11  0.001149344    2.128    0.530
       100 -11.1520    152.5354    127.2927   9.1455431024e+01   2.6141892555e+01    0.4847331    0.1498452 -47.21   0.00144683    3.179    0.685
       101 -12.5836     98.0873    124.9413   1.0516690209e+02   3.7676591144e+01    0.8621863    0.2675014 -54.35  0.002564031    3.466    0.711
       102 -11.3758     72.4100    128.2137   1.1348511160e+02   4.1111790181e+01    0.2160266    0.1355329 -66.64 0.0009570431    1.733    0.423
       103 -11.9584    160.2704    239.1436   1.1220431680e+02   9.3723182791e-02    0.2631009    0.1666608  58.13   0.00124128    2.076    0.518
       104 -10.4663    188.4979    122.9990   8.2674586108e+01   1.9238822500e+01    0.2399455    0.1412372 -45.10  0.001035199    1.598    0.374
       105 -11.6409     58.4019    122.6175   1.1652156543e+02   4.4412532369e+01    0.2846614    0.1317452 -71.35  0.000957856    3.399    0.706
       106 -11.8963     42.8079    121.5212   1.2112745783e+02   4.6546890094e+01    0.4019623    0.1882743 -75.25   0.00144905    3.276    0.695
       107 -10.6255    172.4676    119.9775   8.5226116904e+01   2.3356883399e+01    0.2445337    0.1460004 -44.86  0.001037734    1.611    0.379
       108 -10.7807    158.4659    119.6932   8.8224741886e+01   2.6500459941e+01     0.335644    0.1485843 -39.64  0.001185139    2.368    0.578
       109 -10.9809    193.2921    114.1590   7.9706582065e+01   1.9986402071e+01    0.3041445    0.1283344 -37.06  0.001079413    2.594    0.615
       110 -10.5794    185.8260    114.5861   8.1229043589e+01   2.1527292428e+01    0.2976916     0.108962 -40.73   0.00100072    2.713    0.631
       111 -12.1129     91.9200    109.0414   1.0299027622e+02   4.2420843344e+01    0.8357891    0.2122461 -49.47  0.002427027    3.800    0.737
       112 -11.9494     78.1595    110.9098   1.0765308101e+02   4.4301099927e+01     0.590611    0.2659891 -64.38  0.001910807    3.623    0.724
       113 -11.1166    121.5946    110.7202   9.5029100268e+01   3.6359611816e+01    0.3113349    0.1440012 -41.98  0.001151392    2.184    0.542
       114 -10.7621    174.4998    109.9903   8.2388091171e+01   2.4956072884e+01    0.2403101    0.1446552 -43.69  0.001039716    1.610    0.379
       115 -11.5485    141.1058    115.9421   9.1382149110e+01   3.1101407656e+01    0.7030435    0.2212553 -46.05   0.00215329    3.129    0.680
       116 -11.2191     13.5648    109.2840   1.2802714283e+02   5.2057629019e+01     0.255156    0.1106821 -68.60   0.00115002    2.169    0.539
       117 -11.4776     66.0000    108.0471   1.1076364950e+02   4.6777687314e+01    0.4068426   0.07520702 -53.38  0.001057528    4.991    0.800
       118 -10.4515    189.0000    106.9878   7.8832828422e+01   2.2332604402e+01    0.2489217   0.08052077 -42.27 0.0008034754    2.950    0.661
       119 -10.9361    204.6095    129.8215   8.1168650578e+01   1.4459837717e+01    0.2210276    0.1265401 -52.88 0.0009498177    1.718    0.418
       120 -11.2254    149.6676    100.3914   8.5349391181e+01   3.2447408707e+01    0.4403661     0.135587 -44.45  0.001365921    3.220    0.689
       121 -11.0514    128.4047     99.8632   9.0365400058e+01   3.7215042457e+01    0.3688198    0.1397581 -35.72  0.001148483    3.351    0.702
       122 -12.4855    107.7400     95.4601   9.4720148695e+01   4.2362454639e+01    0.6748525    0.2006791 -46.36  0.002107555    3.401    0.706
       123 -14.9056    246.2151    113.6083   7.1041619547e+01   9.4245189152e+00    0.7827568    0.5484477 -44.73  0.004418393    1.233    0.189
       124 -11.4426     94.7598     94.2116   9.8142421193e+01   4.5084619056e+01    0.5375128    0.1761307 -39.57  0.001716555    3.372    0.703
       125 -11.9302    108.3182    111.1432   9.8779875716e+01   3.8920120440e+01    0.6744424    0.2371682 -50.03  0.002205912    2.899    0.655
       126 -11.1366    138.3814     89.4278   8.5074536231e+01   3.7091254743e+01    0.2933821    0.1368873 -28.21 0.0009581574    3.386    0.705
       127 -11.2549    116.9826    123.5352   9.9539403353e+01   3.4426596467e+01    0.4398592    0.2124562 -57.85  0.001558462    2.465    0.594
       128 -11.9032    103.9287     80.0248   9.1388971646e+01   4.6103893067e+01     0.544951    0.1909051 -39.41  0.001912958    2.965    0.663
       129 -11.6017    124.4862     87.2106   8.7898450621e+01   4.0536995466e+01    0.5795705    0.3023645 -24.75  0.002058036    3.070    0.674
       130 -10.7998    224.3121     75.3219   6.6133063865e+01   2.0362215136e+01    0.1193893    0.1077074  12.47 0.0005392854    1.653    0.395
       131 -10.4822    211.6622     75.6743   6.7938980837e+01   2.2991624940e+01    0.1273511    0.1094211  20.56 0.0005712271    1.724    0.420
       132 -11.1678    179.8048    122.8986   8.4394119863e+01   2.1141333878e+01     0.404639    0.2012011 -34.81  0.001502278    2.339    0.573
       133 -11.2112    127.8164     71.8890   8.2722948437e+01   4.2555869843e+01    0.3717675    0.2003663 -26.69  0.001522081    2.412    0.585
       134 -16.1942    247.0482    100.3585   6.8279155086e+01   1.1611732228e+01     2.289982    0.8718598 -42.06  0.009682647    2.289    0.563
       135 -11.2214    234.6816     65.6840   6.2872200851e+01   1.9761317406e+01    0.1121239    0.1035164  20.12  0.000513211    1.654    0.395
       136 -10.5198    203.5070     65.5019   6.6844823822e+01   2.6411230360e+01    0.1352627    0.1186442 -79.69 0.0008105564    1.022    0.021
       137 -11.2189     82.3302     66.0070   9.3583324651e+01   5.2601722483e+01    0.2242627    0.1025172 -22.24 0.0007052028    4.389    0.772
       138 -11.0189    100.3450     55.3450   8.4854442981e+01   5.0926665019e+01    0.3331695     0.127297 -29.90  0.001229843    3.273    0.695
