#   1 NUMBER                 Running object number                                     
#   2 MAG_AUTO               Kron-like elliptical aperture magnitude                    [mag]
#   3 X_IMAGE                Object position along x                                    [pixel]
#   4 Y_IMAGE                Object position along y                                    [pixel]
#   5 X_WORLD                Barycenter position along world x axis                     [deg]
#   6 Y_WORLD                Barycenter position along world y axis                     [deg]
#   7 A_WORLD                Profile RMS along major axis (world units)                 [deg]
#   8 B_WORLD                Profile RMS along minor axis (world units)                 [deg]
#   9 THETA_WORLD            Position angle (CCW/world-x)                               [deg]
#  10 FWHM_WORLD             FWHM assuming a gaussian core                              [deg]
#  11 ELONGATION             A_IMAGE/B_IMAGE                                           
#  12 ELLIPTICITY            1 - B_IMAGE/A_IMAGE                                       
         1 -13.4205      3.5104     43.5238   9.9675897527e+01   6.7543019983e+01     1.414462    0.4226903 -59.18   0.00602715    2.982    0.665
         2 -13.4920     10.2009     35.9400   9.3736435176e+01   6.8542712025e+01    0.9753687    0.5000694 -52.12  0.004521807    1.793    0.442
         3 -11.8546     83.5910     39.9949   6.3599169340e+01   5.7633639890e+01    0.7124493    0.4122864 -24.28  0.003442623    1.905    0.475
         4 -13.8816    232.7066     28.5422   3.4051643197e+01   2.5226765443e+01    0.8770878    0.8285216  -6.75  0.002164644    1.539    0.350
         5 -12.7902     33.2580     19.8779   7.5142453806e+01   6.8789395794e+01    0.7737229    0.4963744  14.28    0.0046987    1.454    0.312
         6 -11.4728    102.6023     18.0449   4.9843384045e+01   5.6293803837e+01    0.6541086    0.3327233  75.07  0.002688746    2.954    0.662
         7 -11.2426     48.3699     17.9386   6.7343086824e+01   6.6850852930e+01    0.3637011     0.288781   9.95  0.002414931    1.038    0.036
         8 -12.7772    121.2949      3.0273   4.0723222276e+01   5.3377007424e+01    0.6794091    0.2952681  57.89  0.003277945    1.836    0.455
         9 -12.2578    204.0189      4.7114   3.1349913156e+01   3.4049312342e+01    0.5358774    0.3458875 -83.31  0.003270417    1.349    0.259
        10 -11.1113    239.3039      2.2732   2.8335590761e+01   2.6903853732e+01    0.3802717    0.1784196 -86.24  0.002098004    2.023    0.506
        11 -12.2388     58.0229    218.9772   1.1104285369e+02   2.0568359317e+01    0.7125566    0.3643269 -64.34  0.003556125    1.948    0.487
        12  -9.0921     61.2889    250.6525   1.1318382483e+02   1.3543405497e+01    0.1285181   0.07389949  63.96 0.0007024701    1.659    0.397
        13 -11.9947     42.8523    248.6106   1.1665951980e+02   1.6207771963e+01      0.45636    0.2805422  55.20  0.001615811    1.317    0.241
        14 -13.0439      2.9952     69.4273   1.0650671403e+02   6.2154957869e+01     1.707848    0.3863736 -66.94  0.005793608    4.161    0.760
        15 -13.1157     49.4719    196.2962   1.1070125310e+02   2.6874695959e+01    0.8601725    0.6612225  72.98  0.003334423    1.192    0.161
        16 -13.5911     19.8535     89.1028   1.0384268622e+02   5.6613610104e+01     1.196692    0.5390865 -47.72  0.005640728    1.825    0.452
        17 -13.0352      8.0794     88.9239   1.0830312971e+02   5.7430597804e+01     1.049137    0.5012302 -57.16  0.004560065    1.603    0.376
        18 -11.5496     43.1120    180.7253   1.1055829988e+02   3.1417481796e+01    0.3253132    0.2722521  23.76 0.0005393999    1.425    0.298
        19 -14.5848      3.7479    124.2323   1.1495770825e+02   4.9097557788e+01     4.118088    0.8233969 -76.55   0.01126849    5.638    0.823
        20 -16.0818     13.5698    202.6334   1.1947412195e+02   2.9229547623e+01     4.051575     1.477404 -76.51   0.01847512    2.376    0.579
        21 -11.8130    111.8859    216.5653   9.8484409903e+01   1.3334575382e+01    0.6195208    0.3615318  52.46  0.002917423    1.781    0.438
        22 -10.4929     80.3480    206.6536   1.0453684711e+02   2.0322510613e+01    0.3443647    0.2454966  63.03  0.001829082    1.398    0.285
        23 -11.1415     65.6046    204.9601   1.0782276042e+02   2.2766084189e+01    0.5124402    0.1968429  35.65  0.002109206    2.424    0.588
        24 -13.6957      9.4859    103.2273   1.1021000924e+02   5.3924502608e+01     1.770682    0.8137264  -2.47   0.00779601    3.149    0.682
        25 -11.5575     51.0877    174.0626   1.0770109701e+02   3.2142163278e+01    0.2691808    0.2497746 -54.53  0.000415757    1.200    0.167
        26 -12.1485     60.0254    213.1529   1.1000739749e+02   2.1618016194e+01    0.7934244    0.2325076  52.02   0.00261189    4.022    0.751
        27 -10.5771     63.9738    163.9662   1.0281401859e+02   3.3058780861e+01    0.2131902    0.1961307 -74.79 0.0003504613    1.044    0.042
        28 -12.9139     49.1272    160.4179   1.0640556400e+02   3.5844208341e+01    0.5398767    0.3062262 -38.83  0.001696823    2.254    0.556
        29  -9.8703    133.6638    160.7384   8.3422527694e+01   2.2256523546e+01     0.250167    0.1933375 -65.05 0.0004451744    1.424    0.298
        30 -11.7522     72.8828    157.2599   9.9239383002e+01   3.3534828919e+01    0.4982134    0.4491471  -9.54  0.002514988    1.315    0.240
        31 -11.4437     28.0946    150.3295   1.1096506664e+02   4.0655119372e+01     0.371052    0.1687933  52.96  0.001563205    2.567    0.610
        32 -12.2088     67.8835    143.4001   9.8238676102e+01   3.7813863111e+01    0.7347212    0.4229861  61.01  0.002911202    2.323    0.569
        33 -13.5368     28.4906    141.5256   1.0970708682e+02   4.2866845046e+01    0.9967144    0.6196555  33.98  0.003914102    1.769    0.435
        34 -12.2243     24.5911    137.7834   1.1035998568e+02   4.4170224205e+01    0.3702633    0.3119398 -82.71  0.001312755    1.074    0.068
        35  -9.7380     89.2642    144.0202   9.2043981843e+01   3.4389924195e+01    0.2210383     0.196201 -62.17  0.000602748    1.079    0.073
        36 -11.6070     76.8494    141.9631   9.5290526934e+01   3.6877056146e+01    0.2950319     0.258349 -51.80 0.0003300874    1.104    0.094
        37 -10.2467    105.5213    131.3291   8.4527893482e+01   3.4715514298e+01     0.293117    0.2734608 -11.89 0.0007570834    1.148    0.129
        38 -10.1660     90.3837    127.9919   8.8240305051e+01   3.8240591833e+01    0.2559728    0.2253077  19.37 0.0004280733    1.239    0.193
        39 -11.8488     18.7277    126.3736   1.1058998107e+02   4.7544322667e+01    0.2675587    0.2096634 -52.32  0.001150832    1.189    0.159
        40 -12.8497     74.7355    118.6488   9.0985552582e+01   4.3106694115e+01    0.8782624    0.5078287 -37.63  0.003685123    1.912    0.477
        41 -11.5748     47.4245    120.2295   1.0028131736e+02   4.6369107816e+01    0.4551634    0.3102592   7.70  0.002234988    1.853    0.460
        42  -9.2495    102.8342    119.8535   8.2541764072e+01   3.8005497088e+01    0.1997688    0.1792087  87.47 0.0002346835    1.250    0.200
        43 -10.8066     60.7159    115.2267   9.4816165840e+01   4.5975756501e+01    0.3570024    0.2574728 -59.74  0.001788069    1.292    0.226
        44 -14.8470     28.7914    188.5903   1.1488224166e+02   3.1044854521e+01     2.680688     1.315674  78.04   0.01149493    2.287    0.563
        45 -11.0127     67.4208    104.2058   8.9942236505e+01   4.7737022580e+01    0.3017277    0.2276078 -21.12  0.001493679    1.502    0.334
        46 -11.3428     53.7027     98.1670   9.3262595001e+01   5.1056952947e+01    0.2769552    0.2088794  -1.31  0.001433257    1.542    0.352
        47 -11.4048     52.4985     89.9683   9.1613744037e+01   5.3133550209e+01    0.3354229    0.1967314 -59.73   0.00155527    1.716    0.417
        48 -11.5037     38.5356     92.0065   9.7366018931e+01   5.4265927387e+01    0.3793574    0.2881071 -17.61  0.001614826    1.410    0.291
        49 -12.0256     36.9631     86.3966   9.6609155358e+01   5.5737793356e+01    0.5599196    0.4734504  28.46  0.002846099    1.336    0.252
        50 -12.7502     71.1357     81.3222   8.2309460370e+01   5.2389983415e+01    0.9954048     0.909662  75.10   0.00562923    1.370    0.270
        51 -12.3732     54.2074     82.0197   8.8791028272e+01   5.4712027070e+01    0.5526282    0.3721557   1.49  0.002702689    1.820    0.451
        52 -11.5345     40.6634     80.1541   9.3543330346e+01   5.6766979708e+01    0.5246435    0.3077514  15.17  0.002562265    1.965    0.491
        53 -14.1625     18.6988     72.3289   1.0051507620e+02   6.0536550262e+01     1.577028     1.010599 -22.26  0.007331945    1.595    0.373
        54 -13.3668     16.6226     59.1411   9.7945603323e+01   6.3526786530e+01    0.8448437    0.6449162  40.13  0.004447707    1.702    0.412
        55 -11.7750     61.5194     69.1643   8.2066522410e+01   5.6411484608e+01    0.4449726    0.3083698  -5.21  0.002054918    1.721    0.419
        56 -12.4963    117.4239     50.7214   5.7712436388e+01   4.8841593454e+01     0.449149    0.3548187 -39.36  0.002420654    1.340    0.254
        57 -11.8313     13.5557     23.3003   8.6986983817e+01   7.0450027851e+01    0.4278793    0.2299629 -26.52   0.00241549    1.650    0.394
        58 -12.0012     30.0905    245.5807   1.1892286191e+02   1.8271228744e+01    0.4826531    0.2115366  70.22   0.00240282    2.348    0.574
        59 -12.3042     25.0606    240.7605   1.1959240897e+02   1.9793108954e+01    0.3191422    0.2958303 -41.12  0.001723981    1.587    0.370
        60 -11.4646     97.4546     44.2870   6.0917746988e+01   5.4179668284e+01    0.2842448    0.2562792  30.27  0.001691116    1.018    0.018
        61 -12.1936    114.2362     42.9600   5.5889697663e+01   5.0688497912e+01    0.5735498    0.3475738  69.85   0.00257996    2.072    0.517
        62 -12.6912    157.2811    242.9136   9.2326610157e+01   1.1841948482e+00    0.4963427    0.3519946  53.96  0.002789968    1.703    0.413
        63 -11.6223    101.4837     39.6955   5.8104760879e+01   5.3966360789e+01    0.2812368    0.2535226  32.89  0.001689619    1.011    0.011
        64 -11.1177     63.9313     36.8615   6.9305465737e+01   6.1716641162e+01     0.327808    0.1904199 -30.32  0.001685096    1.726    0.421
        65 -10.8345     36.4009    231.1927   1.1669864420e+02   2.0525448839e+01    0.3847286    0.2103932 -69.32   0.00215698    1.803    0.445
        66 -12.2415     28.0866     39.4876   8.6008919426e+01   6.6297977153e+01    0.6715942    0.3694639  26.03  0.002976066    1.849    0.459
        67 -11.4338     42.6862     25.3589   7.3224709895e+01   6.6726716942e+01     0.534154     0.327645  41.20  0.003026631    1.795    0.443
        68 -11.1965     33.1150    228.8730   1.1720278144e+02   2.1389506633e+01     0.513794    0.2200362 -79.52   0.00191389    2.291    0.564
        69 -12.1885     72.3989    219.3875   1.0786799844e+02   1.8571375627e+01    0.6951688    0.3802594  53.12   0.00342304    1.733    0.423
        70 -14.1983     88.7916    221.7113   1.0443223264e+02   1.5741083531e+01     1.518322      1.03735  52.73  0.005792401    1.354    0.262
        71 -11.2276     61.4542     28.0024   6.6562208985e+01   6.3390881110e+01    0.2678184    0.1584178  27.05  0.001401055    1.667    0.400
        72 -13.3877    101.4891    219.8937   1.0131911127e+02   1.4236171840e+01    0.9942352    0.6999715  81.33  0.003752091    1.734    0.423
        73 -11.2017     57.5502    226.0457   1.1181924532e+02   1.9078926633e+01    0.4956862    0.2341575  57.23   0.00185664    2.101    0.524
