#   1 NUMBER                 Running object number                                     
#   2 MAG_AUTO               Kron-like elliptical aperture magnitude                    [mag]
#   3 X_IMAGE                Object position along x                                    [pixel]
#   4 Y_IMAGE                Object position along y                                    [pixel]
#   5 X_WORLD                Barycenter position along world x axis                     [deg]
#   6 Y_WORLD                Barycenter position along world y axis                     [deg]
#   7 A_WORLD                Profile RMS along major axis (world units)                 [deg]
#   8 B_WORLD                Profile RMS along minor axis (world units)                 [deg]
#   9 THETA_WORLD            Position angle (CCW/world-x)                               [deg]
#  10 FWHM_WORLD             FWHM assuming a gaussian core                              [deg]
#  11 ELONGATION             A_IMAGE/B_IMAGE                                           
#  12 ELLIPTICITY            1 - B_IMAGE/A_IMAGE                                       
         1 -10.3327     24.5344     16.6604   2.9174481222e+02   7.4504794677e+00   0.02338618   0.01808369  20.71 0.0007832006    1.229    0.186
         2  -9.0218     31.6301     10.6983   2.9162361245e+02   7.4793821278e+00    0.0213778   0.01130154 -43.49  0.001812898    2.084    0.520
         3 -10.1099      9.4598     19.7470   2.9195027749e+02   7.5002374807e+00   0.02393187   0.01381318   8.59   0.00124286    2.004    0.501
         4  -9.6897     64.0232     14.3678   2.9123813914e+02   7.2523877674e+00   0.02220221   0.01470989  -4.41 0.0007753733    1.823    0.451
         5  -9.5529     74.6415     13.2173   2.9109903134e+02   7.2052115994e+00    0.0182897   0.01414414 -43.26  0.001945648    1.364    0.267
         6  -8.8023    134.7707     13.2071   2.9034710791e+02   6.8617212159e+00    0.0111039  0.007677125 -26.22 0.0003993742    1.694    0.410
         7  -8.8480     97.4532     12.0958   2.9080758966e+02   7.0880306733e+00   0.01473826   0.01135903  -0.65  0.001022169    1.397    0.284
         8  -8.2725    157.6791     11.3509   2.9005077312e+02   6.7520166112e+00   0.01138609  0.007362618  55.76 0.0006880261    1.770    0.435
         9  -8.1627    105.9745     10.4991   2.9069233512e+02   7.0578792602e+00  0.009913454  0.009514639 -60.26  0.000507376    1.110    0.099
        10 -10.7253     20.0363      8.8901   2.9175893849e+02   7.5662605970e+00   0.02016105   0.01282659   9.84 0.0004615115    1.703    0.413
        11  -8.2784      2.2894      8.2440   2.9197764606e+02   7.6744967947e+00   0.01311338   0.01110135  72.79  0.001496561    1.325    0.245
        12  -8.2132    128.3673      7.7866   2.9039760480e+02   6.9612890243e+00  0.009433899  0.006025974 -51.40 0.0003309593    1.622    0.384
        13  -7.7794     39.4871      8.4635   2.9151311860e+02   7.4606457797e+00  0.006817553  0.006390329  15.40 8.239529e-05    1.023    0.023
        14  -7.6137    119.3205      7.2873   2.9050797562e+02   7.0188492119e+00   0.00698007  0.005056672 -21.20 0.0005191182    1.598    0.374
        15  -8.8149     80.2062     12.7749   2.9102701001e+02   7.1786049212e+00   0.01505222   0.01318765  43.36  0.001003157    1.127    0.112
        16  -9.0114     56.6696      4.7650   2.9127795037e+02   7.4057735743e+00   0.02094315   0.01250543 -25.61  0.001486804    2.180    0.541
        17  -8.6942    249.3286      5.8446   2.8887727399e+02   6.2891983971e+00   0.01340096  0.006714444 -76.08  0.001103269    2.584    0.613
        18  -9.3153    235.4300      4.1601   2.8904128623e+02   6.3887508953e+00   0.01930792   0.01259878 -61.74  0.001534696    1.610    0.379
        19  -9.9459     49.1448      4.6452   2.9137148043e+02   7.4500150154e+00   0.01422611   0.01211619  -7.34 0.0003468981    1.229    0.187
        20  -8.8530    111.0071      4.6762   2.9059769637e+02   7.0966991410e+00   0.01116677   0.01000092 -80.63 0.0003300924    1.222    0.182
        21  -8.6547     69.0919      3.5799   2.9111604699e+02   7.3487400571e+00    0.0209559  0.008397311 -47.52  0.001644995    2.667    0.625
        22  -8.5847     13.4127      4.7127   2.9181919342e+02   7.6523757916e+00   0.01359918    0.0104488  -9.35  0.001428572    1.444    0.307
        23  -8.6214    125.4592      3.7307   2.9041185732e+02   7.0250038172e+00   0.01050536  0.009825933  79.03 0.0005410044    1.156    0.135
        24  -8.7357    104.6651      2.5088   2.9066519993e+02   7.1581072543e+00   0.02030589  0.009067953 -45.84  0.001669378    2.445    0.591
        25  -8.1104    153.8476      2.9282   2.9005271095e+02   6.8717152185e+00   0.01017548  0.008708685 -22.83 0.0003406275    1.243    0.195
        26  -7.7035    182.2184      2.1576   2.8969418576e+02   6.7178894453e+00  0.009410763  0.007369258  49.08 0.0003800465    1.306    0.234
        27  -7.9146    143.0791      2.2428   2.9018352297e+02   6.9413795165e+00  0.009674512  0.008139655  28.80 0.0003315813    1.109    0.099
        28  -7.8261      3.0341      1.3775   2.9193105810e+02   7.7499928668e+00   0.01019116   0.00618737  24.85 0.0003371476    1.540    0.351
        29  -9.4490    247.4793    226.2974   2.9010076901e+02   3.7401253538e+00   0.02599177   0.01146318 -59.54  0.002205478    2.283    0.562
        30  -9.0148    249.9848    245.1811   2.9017207680e+02   3.5063746552e+00   0.01934655  0.007270664 -52.18  0.001512199    2.648    0.622
        31  -7.6608    233.2969    250.6800   2.9040941851e+02   3.5380002583e+00  0.007094848  0.004935108  56.78 0.0002654686    1.616    0.381
        32  -9.7095    208.2222    247.8203   2.9070586195e+02   3.7146879348e+00   0.02434989   0.01611779 -89.02  0.002369548    1.941    0.485
        33  -9.7540    200.7720    248.8849   2.9080434317e+02   3.7449187780e+00   0.02070074    0.0157743 -11.05  0.001287818    1.473    0.321
        34  -8.7705    185.0141    250.4790   2.9100911002e+02   3.8164730004e+00   0.01079241  0.006392904  24.91 0.0008219561    1.579    0.367
        35  -9.0402    150.8204    249.7815   2.9143109569e+02   4.0199197806e+00   0.01521313  0.009590665   2.02   0.00116222    1.893    0.472
        36  -7.7401    123.5208    250.5109   2.9177509168e+02   4.1672242289e+00   0.01163397  0.006530692   9.14 0.0007454699    2.084    0.520
        37  -8.3279    228.8094    227.7638   2.9034096752e+02   3.8299948595e+00    0.0248107   0.01127729 -30.73   0.00171772    3.680    0.728
        38  -7.9330    195.1368    228.9630   2.9076655068e+02   4.0087461617e+00   0.01088866  0.007634727 -24.61 0.0006366969    1.667    0.400
        39  -7.5950    133.3701    229.2908   2.9153767229e+02   4.3578666699e+00  0.007232948  0.005023477 -19.84 0.0007024416    1.718    0.418
        40  -7.4308    100.6530    229.6847   2.9194755812e+02   4.5398946862e+00   0.00726481  0.005011895 -22.97 0.0007047654    1.721    0.419
        41  -7.3878    175.0082    228.0086   2.9101201887e+02   4.1349392290e+00  0.008336104  0.007441157  23.87 0.0004394534    1.050    0.048
        42  -8.2912    186.7032    226.6960   2.9085927121e+02   4.0833368271e+00   0.01301491  0.008305296   6.63  0.001091088    1.766    0.434
        43  -8.2217    237.3176    225.6362   2.9022357579e+02   3.8060055586e+00    0.0140047  0.008842646 -23.19  0.001151076    2.007    0.502
        44  -7.5704     69.5200    226.5217   2.9231861545e+02   4.7540232559e+00  0.006820586  0.006411599  16.53 0.0001037803    1.020    0.020
        45  -7.8722    223.9789    224.9530   2.9038582316e+02   3.8903166843e+00   0.01138364  0.007770542 -27.77  0.001128281    1.714    0.417
        46  -9.0172    239.3456    219.6279   2.9016574124e+02   3.8642098747e+00    0.0199107  0.009414532 -57.62   0.00174205    2.129    0.530
        47  -7.7816     51.7827    221.4029   2.9251218423e+02   4.9144993402e+00  0.009561963  0.006359637   9.45  0.000471299    1.609    0.379
        48  -8.4065    182.2883    219.8221   2.9087700296e+02   4.1885079155e+00   0.01388284  0.009246233   4.15  0.001108072    1.695    0.410
        49  -7.7460    130.2116    220.5742   2.9152988577e+02   4.4772900043e+00   0.01005011  0.006408642   8.60 0.0008786407    1.727    0.421
        50  -7.5936     39.9822    220.6901   2.9265550926e+02   4.9898777678e+00   0.01121401  0.005337534  -2.57 0.0007040165    4.198    0.762
        51  -7.8487    173.0795    219.4294   2.9098956875e+02   4.2457269497e+00  0.009742102   0.00564437  -7.86 0.0008053694    2.455    0.593
        52  -7.8033    227.7621    217.2318   2.9029685656e+02   3.9583939122e+00  0.009431534  0.007628482 -22.32 0.0005228415    1.347    0.258
        53  -7.8035    203.7950    216.3755   2.9059052175e+02   4.1055468242e+00  0.009634959  0.006293587  10.09 0.0005945808    1.643    0.391
        54  -8.5178    193.6602    215.2676   2.9071070183e+02   4.1764180257e+00   0.01298336   0.01054397   1.30  0.001106732    1.284    0.221
        55  -9.2437    248.1778    213.4019   2.9002207829e+02   3.8859590959e+00   0.01950424   0.01201047 -62.89  0.001786994    1.710    0.415
        56  -7.2612    210.3825    215.2829   2.9050258887e+02   4.0805464282e+00  0.007238557  0.005017459 -18.63 0.0007009431    1.729    0.422
        57  -7.5456     83.9522    215.0000   2.9207645744e+02   4.8059174863e+00   0.01123296  0.003700874  24.60  0.000572652    2.847    0.649
        58  -8.3177    232.2447    212.1931   2.9021373360e+02   3.9912804140e+00   0.01334257  0.009567888 -31.63  0.001092378    1.564    0.361
        59  -7.9705    122.0883    213.1709   2.9159109016e+02   4.6097714264e+00   0.01079302  0.008814647 -16.39 0.0005901773    1.328    0.247
        60  -7.5958    186.4876    210.4679   2.9077400213e+02   4.2732554512e+00  0.006830354  0.006403287  10.17 6.631394e-05    1.040    0.039
        61  -7.4142     54.6971    210.6876   2.9241803665e+02   5.0226229923e+00  0.007034911  0.005029367 -25.13 0.0003318404    1.612    0.380
        62  -7.5528    132.6997    209.6513   2.9143977294e+02   4.5901477815e+00  0.007210853  0.004969483 -27.78 0.0007037764    1.688    0.408
        63  -7.8164    162.9556    207.8421   2.9105291580e+02   4.4383500699e+00   0.01120404  0.007314038  -9.58 0.0005797217    1.922    0.480
        64  -8.2894    236.1001    205.2774   2.9012821941e+02   4.0495635409e+00   0.01164863  0.008920086 -49.40 0.0006162126    1.364    0.267
        65  -7.5698    246.6328    205.1607   2.8999654407e+02   3.9905684473e+00    0.0101184  0.005849796 -51.36 0.0009536037    1.784    0.440
        66  -9.2722    227.6386    202.7882   2.9022000095e+02   4.1269655106e+00    0.0258938   0.01105333 -43.75  0.002039737    2.693    0.629
        67  -7.9802    215.7685    205.5614   2.9038279867e+02   4.1627145034e+00   0.01289511  0.006601358  18.50  0.001114348    2.004    0.501
        68  -8.1411    117.7404    205.1328   2.9160181141e+02   4.7280908642e+00   0.01305055  0.008314989 -11.95 0.0008812882    2.024    0.506
        69  -7.4172    156.3988    204.2856   2.9111535041e+02   4.5171873229e+00  0.007318601  0.004989088 -18.77 0.0001936062    1.778    0.438
        70  -8.1593    250.4576    198.7856   2.8991433765e+02   4.0427210661e+00   0.01525313  0.006457329 -61.53  0.001126618    2.406    0.584
        71  -7.9965    196.0069    200.4775   2.9060126990e+02   4.3349416344e+00   0.01066224  0.006416799  24.27 0.0006801155    1.562    0.360
        72  -7.9153    184.9932    200.0007   2.9073586240e+02   4.4035089585e+00   0.01144922  0.007812562 -23.93  0.001127137    1.747    0.428
        73  -7.9051    243.8607    197.8949   2.8999156758e+02   4.0908805734e+00   0.01055845  0.008808805 -27.65 0.0006199175    1.283    0.221
        74  -8.2491    166.2574    197.1897   2.9095404601e+02   4.5433562609e+00   0.01184766   0.00895623   8.69 0.0007813329    1.362    0.266
        75  -7.3083    140.6680    197.6516   2.9127548033e+02   4.6842257543e+00  0.007367107   0.00495956 -25.92 0.0007048668    1.769    0.435
        76  -8.3041    192.8777    194.0473   2.9060536015e+02   4.4276097484e+00   0.01679647  0.008948561 -55.73  0.001548566    1.908    0.476
        77  -7.8792    237.4794    193.9801   2.9004970487e+02   4.1729431027e+00  0.009892794  0.006779656 -62.91 0.0005095594    1.542    0.351
        78  -7.3482    124.5447    193.5096   2.9145406832e+02   4.8244736947e+00  0.006805385  0.006414822  10.21 0.0002084533    1.036    0.035
        79  -7.7534    231.3838    191.7256   2.9011331983e+02   4.2340743143e+00  0.009169621  0.006171607 -51.49 0.0009294686    1.542    0.351
        80  -7.6182     90.0285    192.4683   2.9187890986e+02   5.0334659733e+00  0.009651507  0.005655845  -8.86 0.0005406418    2.398    0.583
        81  -8.0798    246.2575    190.1050   2.8991942848e+02   4.1676577806e+00   0.01003429  0.008863606 -19.34 0.0005002588    1.188    0.158
        82  -8.1773    224.4556    189.7760   2.9018896749e+02   4.2964305614e+00    0.0129579  0.007982452 -23.11 0.0007570283    2.104    0.525
        83  -7.7483    186.1684    188.8727   2.9066086393e+02   4.5261716910e+00  0.009465544  0.007860899 -21.86  0.001058732    1.297    0.229
        84  -7.9013     64.8408    189.5511   2.9217737711e+02   5.2108692621e+00   0.01301212  0.006624527  18.09  0.001119676    2.027    0.507
        85  -7.9178    161.7208    189.6502   2.9096971240e+02   4.6569742238e+00  0.007106606  0.004958715 -29.43 0.0002736418    1.644    0.392
        86  -7.2725     45.3364    187.3118   2.9240866504e+02   5.3478855932e+00  0.007195867   0.00502201 -23.18 0.0005536374    1.686    0.407
        87  -7.6391    249.8572    182.1302   2.8983130479e+02   4.2396761441e+00  0.009457586  0.007759193 -23.31 0.0004650628    1.319    0.242
        88  -7.5676    156.3323    181.3065   2.9099164279e+02   4.7848158776e+00  0.007149468  0.005038952 -22.72 0.0007039458    1.664    0.399
        89  -7.3549    183.3542    180.7028   2.9065159877e+02   4.6372673410e+00  0.007359914   0.00478379  52.80 0.0006747362    1.694    0.410
        90  -7.4166     96.5237    178.4169   2.9172187758e+02   5.1599241082e+00  0.006821583  0.006329233  10.52 0.0001314939    1.048    0.046
        91  -7.2870     68.5058    178.4474   2.9207164292e+02   5.3192087784e+00  0.006827347   0.00638164  11.05 0.0001550583    1.040    0.038
        92  -8.1253    148.2081    174.9164   2.9105828374e+02   4.9055747066e+00   0.01378297  0.008412889  -9.95  0.001220108    2.204    0.546
        93  -7.4025    138.3040    175.3468   2.9118411349e+02   4.9571657740e+00  0.007220209  0.004974525 -27.40 0.0007040852    1.693    0.409
        94  -7.8289     46.9430    175.5401   2.9232504955e+02   5.4757361138e+00   0.01062888  0.006416373  23.61 0.0006646836    1.564    0.361
        95  -7.6113    184.3230    171.3179   2.9058859402e+02   4.7408363559e+00  0.007165287  0.005026989 -24.18 0.0007043873    1.669    0.401
        96  -8.1604    177.3167    167.1527   2.9065330124e+02   4.8293664589e+00   0.01098908  0.008210707 -39.42  0.001171635    1.435    0.303
        97  -7.6239    199.3088    166.3683   2.9037500161e+02   4.7125686753e+00   0.00734577  0.004926295 -28.13 0.0007036194    1.759    0.432
        98  -7.4528    150.6127    165.7023   2.9097833736e+02   4.9989864488e+00  0.007341806  0.004992237 -20.17 0.0007015231    1.781    0.438
        99  -7.4402    169.5420    163.4286   2.9072999730e+02   4.9171581022e+00  0.006808218  0.006351286  20.65 7.055247e-05    1.012    0.011
       100  -7.6082    122.0409    163.0000   2.9132004659e+02   5.1936672885e+00   0.01143368  0.003701558  24.66  0.000795807    2.897    0.655
       101  -7.3584    138.5038    158.4794   2.9109017902e+02   5.1522019864e+00  0.006836493  0.006406419  22.90 9.960173e-05    1.001    0.001
       102  -7.9412    133.1567    147.5440   2.9109757448e+02   5.3099348851e+00   0.01115678  0.007859305 -56.06 0.0007933794    1.475    0.322
       103  -6.9307    120.6513    148.6695   2.9125970854e+02   5.3682837324e+00  0.007353767  0.004983294 -24.04 0.0007048841    1.766    0.434
       104  -7.9079    214.2569    145.9855   2.9007802704e+02   4.8638132156e+00  0.008775825  0.005986513 -65.48 0.0008912429    1.569    0.362
       105  -9.3722     67.1291    144.5186   2.9190531988e+02   5.7218030993e+00   0.02987745   0.01262968  43.65  0.002390047    2.427    0.588
       106  -7.2346    107.9874    137.0000   2.9135449046e+02   5.5763104152e+00   0.01139538  0.003701146  24.65 0.0007944411    2.887    0.654
       107  -7.4163    125.0174    135.5052   2.9113383283e+02   5.4964453314e+00  0.009726702  0.005667896  -8.61 0.0008087086    2.431    0.589
       108  -7.8575     55.3161    135.2853   2.9200287665e+02   5.8964663837e+00  0.006953632  0.005057467 -21.46 0.0005199453    1.585    0.369
       109  -8.5984      5.1718    133.9993   2.9262233194e+02   6.1963441909e+00   0.01678551  0.009335159   0.35  0.001396749    2.452    0.592
       110  -8.3801     23.5911    130.2364   2.9237187390e+02   6.1355724748e+00   0.02517577   0.01213751  -4.54  0.001634872    4.193    0.762
       111  -9.7572    236.1175    128.1892   2.8970895286e+02   4.9451848259e+00   0.01328767   0.01152251  26.48 0.0003084773    1.079    0.073
       112  -7.3124    122.6633    129.7461   2.9113196871e+02   5.5768665455e+00  0.006882182  0.005057708 -15.95 0.0004798662    1.569    0.363
       113  -7.5985    132.7870    124.4667   2.9097696894e+02   5.5804054162e+00  0.009580789  0.006419119   6.82 0.0009373586    1.637    0.389
       114  -7.4077     84.6805    121.6778   2.9156243597e+02   5.8874769623e+00  0.007170924  0.005015801 -24.81 0.0005304382    1.671    0.401
       115  -9.5006     14.0811    119.5228   2.9243279252e+02   6.3142000163e+00   0.02126464   0.01226119 -16.14  0.001792723    2.501    0.600
       116  -7.9100    118.8500    119.3543   2.9112318096e+02   5.7194897735e+00   0.01030039  0.006231998   9.57 0.0009470995    1.844    0.458
       117  -7.9956     99.6901    119.2872   2.9136203561e+02   5.8296633131e+00   0.01395868  0.007905046  -4.37  0.001152161    2.514    0.602
       118  -7.7485    183.0626    113.5380   2.9029038757e+02   5.4197044463e+00   0.01021904  0.006333987  26.41  0.000485795    1.497    0.332
       119  -7.7085    193.2342    112.1676   2.9015610738e+02   5.3773314842e+00   0.01208194  0.006301426 -28.10 0.0009456592    2.798    0.643
       120  -8.9751      2.4544    109.5068   2.9252396744e+02   6.4966734761e+00   0.02073523    0.0110348 -28.97  0.001698845    2.615    0.618
       121  -8.3057    133.8263    107.0148   2.9086923416e+02   5.7773653487e+00   0.01936681  0.007892793 -57.14  0.001584787    2.421    0.587
       122  -8.0204    124.2921    106.9834   2.9098808602e+02   5.8322306813e+00   0.01225756  0.006373843 -18.15 0.0008872123    3.314    0.698
       123  -7.2801    109.3301    106.2797   2.9117108470e+02   5.9258856858e+00  0.006991073  0.005061468 -19.91 0.0006999946    1.602    0.376
       124  -9.1815     15.1150    104.7691   2.9234009542e+02   6.4799377101e+00   0.02859404     0.014648 -16.11  0.002047916    3.524    0.716
       125  -7.8688     93.8411    103.7155   2.9135061765e+02   6.0441103335e+00   0.01107709  0.008360171  -2.68  0.001169978    1.456    0.313
       126  -7.4086     64.4790    101.4933   2.9170539985e+02   6.2373341820e+00  0.006826716  0.006407367  22.82 0.0008102811    1.001    0.001
       127  -7.9805    129.9919     97.0235   2.9086282863e+02   5.9154343244e+00   0.01260881  0.007093716  -7.46   0.00101874    2.633    0.620
       128  -9.7516      9.5406     95.9968   2.9236233150e+02   6.6135970707e+00   0.02196803  0.009979374  14.45  0.001716102    2.582    0.613
       129  -9.3772     20.0879     92.6758   2.9221249547e+02   6.5923407696e+00   0.02250507   0.01000354 -41.40  0.001778432    2.696    0.629
       130  -8.7582     44.0378     92.0896   2.9190991573e+02   6.4630334940e+00   0.01663643   0.01109955   1.77  0.001614335    1.721    0.419
       131  -7.5456     83.0294     93.7439   2.9143158819e+02   6.2217214350e+00  0.009000373  0.005563933  25.59 0.0008386646    1.507    0.336
       132  -7.9196    109.7691     91.1926   2.9108369494e+02   6.0987772153e+00   0.01170356  0.007132526 -24.67  0.001052267    2.119    0.528
       133  -8.0288     96.4245     90.3981   2.9124607680e+02   6.1842031341e+00   0.01312727  0.007775864 -11.43  0.001124222    2.362    0.577
       134  -8.4908     67.1503     85.9577   2.9158778555e+02   6.4027546983e+00   0.02320765  0.009431508  13.10  0.001602611    3.344    0.701
       135  -9.3967     35.6215     82.3913   2.9196258982e+02   6.6236607071e+00   0.03340947   0.01554383 -34.42  0.002533645    3.037    0.671
       136  -8.0883    126.1942     84.2163   2.9084065893e+02   6.0860068077e+00   0.01212309  0.006466013 -24.81 0.0008874317    2.808    0.644
       137  -9.8376      7.5502     77.8914   2.9228925298e+02   6.8354160708e+00   0.02776541   0.01531714 -26.92  0.002334038    2.507    0.601
       138  -8.4025     88.2544     78.7152   2.9128473771e+02   6.3666314481e+00   0.01809125   0.01001358 -19.30  0.001458557    2.730    0.634
       139  -7.8467    184.5001     78.0308   2.9007925903e+02   5.8240188023e+00  0.009790918  0.006843668 -65.20 0.0004958285    1.529    0.346
       140  -8.8108     48.8037     76.8538   2.9176776111e+02   6.6130579838e+00    0.0186812   0.01298711  15.01  0.001931331    1.441    0.306
       141  -7.3376    105.3353     76.3400   2.9105840998e+02   6.2967393615e+00  0.007337621  0.004973404 -25.21 0.0007051172    1.755    0.430
       142  -9.8239     24.5858     72.7239   2.9204821311e+02   6.7987704619e+00   0.04334669   0.02044707 -27.56  0.003031723    3.672    0.728
       143  -8.3334     23.4731     69.4806   2.9204455873e+02   6.8427948892e+00   0.01308772   0.01073994 -45.53 0.0006810171    1.277    0.217
       144  -8.0847     75.0600     74.8721   2.9142877840e+02   6.4865475613e+00   0.01080833  0.007671531 -24.49 0.0005261036    1.634    0.388
       145  -8.7575     62.0000     66.9698   2.9154915909e+02   6.6528195582e+00   0.01895084  0.009047681 -58.44  0.001325502    2.115    0.527
       146  -9.5556     65.6589     61.0467   2.9147126518e+02   6.7008145935e+00   0.02009137   0.01469989 -36.59 0.0003294777    1.487    0.328
       147  -7.5542    152.7827     69.7551   2.9043002893e+02   6.1019139481e+00   0.01101092  0.006047689 -28.08 0.0007267777    2.502    0.600
       148  -7.9673    248.3026     69.3254   2.8923652888e+02   5.5587133452e+00  0.007093408  0.005017907 -25.91  0.000703129    1.640    0.390
       149  -7.5773    129.3093     69.3363   2.9072086374e+02   6.2411137152e+00   0.00719084  0.004994323 -26.34 0.0004151927    1.680    0.405
       150  -8.6740     42.9421     68.3291   2.9179483368e+02   6.7455039434e+00    0.0205316    0.0112945 -14.08  0.001626166    2.841    0.648
       151  -7.9923    105.8959     67.6544   2.9100421452e+02   6.3944791636e+00   0.01122102  0.008378902  -2.14  0.001177476    1.477    0.323
       152  -8.2377     80.5018     68.0157   2.9132353942e+02   6.5352126411e+00   0.01236961    0.0089693 -40.85 0.0005752802    1.477    0.323
       153  -8.5334     83.8399     64.0541   2.9126030136e+02   6.5622151542e+00   0.01705891   0.01069107 -15.46  0.001346301    2.092    0.522
       154  -7.3736    190.8271     65.6534   2.8993292986e+02   5.9314878953e+00  0.009302267   0.00574208  33.81 0.0002828791    1.491    0.330
       155  -9.7073     17.8739     62.2450   2.9207539030e+02   6.9587012372e+00   0.02406028   0.01453544 -40.62  0.001600971    1.833    0.455
       156  -8.9970     51.3633     60.3805   2.9164640965e+02   6.7899701913e+00   0.02061638   0.01390125  63.06  0.001800758    1.796    0.443
       157  -9.1820     33.4833     60.5300   2.9187084317e+02   6.8899444365e+00   0.01609324    0.0129692  42.18  0.001169005    1.213    0.175
       158 -10.6193     39.0390     57.2023   2.9178330780e+02   6.8970289523e+00    0.0167917   0.01266052 -26.00 0.0002963165    1.482    0.325
       159  -7.7743    111.0269     58.4857   2.9089026350e+02   6.4717050533e+00   0.00962532  0.005658328  -8.94 0.0007601506    2.386    0.581
       160  -9.6588      2.6113     44.1526   2.9216832362e+02   7.2555806223e+00   0.03472347   0.01280261 -56.92  0.002741135    2.631    0.620
       161  -9.8999     17.2004     39.0788   2.9195824528e+02   7.2317348115e+00   0.02886073   0.01218938 -38.19  0.002108054    3.222    0.690
       162  -9.3255      2.2308     55.4302   2.9223418009e+02   7.1266840869e+00   0.02461572   0.02234073 -26.63  0.002946217    1.148    0.129
       163 -10.2289      9.8462     47.7458   2.9209725807e+02   7.1727792938e+00   0.03658659   0.02211071 -17.69  0.002065344    2.237    0.553
       164  -8.2401     99.4473     54.1386   2.9101134529e+02   6.5883571988e+00   0.01208737   0.01038987 -73.59  0.001269508    1.266    0.210
       165  -9.7904    246.3356     52.7244   2.8917048445e+02   5.7626863615e+00   0.01409467   0.01264975  -4.79 0.0002819466    1.139    0.122
       166  -8.2955    250.0009     48.7453   2.8910311843e+02   5.7877710500e+00   0.01094698  0.008958812 -22.44 0.0005423826    1.327    0.246
       167  -9.2107     74.9388     50.5410   2.9129818606e+02   6.7700038174e+00   0.01932863   0.01242496 -26.88 0.0004611671    1.895    0.472
       168  -7.8230    118.2619     51.3785   2.9076120994e+02   6.5129233342e+00  0.009911098  0.005725645  34.64 0.0006234371    1.591    0.371
       169 -10.2552     45.2716     49.0901   2.9166133820e+02   6.9558441694e+00   0.01443498   0.01219954  -0.57 0.0005868417    1.220    0.180
       170  -8.2713    106.9539     48.0890   2.9088463291e+02   6.6157637555e+00   0.01000733  0.009164512  20.31  0.001190781    1.030    0.029
       171  -9.8811     24.6159     47.0698   2.9190878729e+02   7.0967663017e+00   0.04195804   0.01672853  10.45    0.0026676    4.075    0.755
       172  -8.9301     31.3937     44.2780   2.9180884406e+02   7.0906866282e+00   0.01381442   0.00925098  -3.95 0.0008947336    1.781    0.439
       173 -10.1909     83.2298     40.0442   2.9113747776e+02   6.8446663958e+00   0.01439905   0.01230875 -16.55  0.000196665    1.241    0.194
       174  -8.3313     94.6230     42.4546   2.9100813192e+02   6.7516427881e+00   0.02233412  0.006847349  22.05  0.001480237    3.387    0.705
       175  -9.2219     39.0202     41.5958   2.9169887403e+02   7.0784866802e+00    0.0246552   0.01272206  -7.05  0.001793153    3.360    0.702
       176  -7.3983    123.4876     40.5132   2.9063679858e+02   6.6092479272e+00  0.006852052  0.006381903   0.97 0.0001258158    1.071    0.067
       177  -8.8612     46.5051     39.2223   2.9159234810e+02   7.0634778509e+00   0.01677886  0.008801728 -21.81  0.001276772    3.059    0.673
       178  -9.5168     54.8296     36.6802   2.9147440476e+02   7.0456219209e+00   0.01547466   0.01232573  -6.75 0.0008560329    1.358    0.263
       179  -8.6072    106.0155     36.7970   2.9083494585e+02   6.7522898437e+00   0.01711441   0.01059069   2.07  0.001343619    1.954    0.488
       180  -8.7756     92.4913     36.5633   2.9100274945e+02   6.8322446994e+00   0.01666337   0.01137482   5.64 0.0007814026    1.608    0.378
       181  -9.1339     96.1218     33.1987   2.9093905921e+02   6.8505947916e+00   0.01246064   0.01132682  -5.41 0.0003549202    1.119    0.106
       182  -8.8833     70.0237     36.1469   2.9128145046e+02   6.9652504703e+00   0.01555706  0.009101523 -24.74  0.001358938    2.288    0.563
       183  -9.0502     37.8323     35.5506   2.9168092813e+02   7.1554736851e+00   0.01693599   0.01246597  -4.31  0.001192977    1.523    0.344
       184  -8.6220     76.5241     34.1584   2.9118934343e+02   6.9512852185e+00   0.01328966   0.01093547  45.12  0.001442358    1.208    0.172
       185  -7.6966    143.7274     33.9804   2.9034836135e+02   6.5692769725e+00  0.009011024  0.008726488 -55.65 0.0003328104    1.098    0.089
       186  -9.0448      7.4962     33.3422   2.9204859069e+02   7.3534659663e+00   0.02352734   0.01412897  13.47  0.001989025    1.761    0.432
       187  -7.2699    159.4422     32.5226   2.9014414698e+02   6.4961692921e+00   0.00678675  0.006399493  22.36 8.443133e-05    1.006    0.006
       188  -8.1071    104.8994     31.8348   2.9082190166e+02   6.8162981968e+00     0.010883  0.008939815 -22.86   0.00105565    1.316    0.240
       189  -8.3749    127.9237     30.1938   2.9052519295e+02   6.7037080893e+00   0.01052831  0.009407165 -51.12 0.0002808427    1.177    0.150
       190  -8.1930    112.0599     30.3599   2.9072436547e+02   6.7925044235e+00   0.01964072   0.01049285  -9.81  0.001487321    3.095    0.677
       191  -8.9621      1.6436     29.8596   2.9210296730e+02   7.4271250691e+00   0.01414074  0.009506714 -62.17  0.001142926    1.564    0.361
       192  -7.5244    153.0329     27.0293   2.9019426092e+02   6.5966731484e+00  0.008354396  0.007477866  23.46 0.0004295791    1.048    0.046
       193 -10.3236     73.0433     25.4683   2.9118564140e+02   7.0720656056e+00   0.03409149   0.01603925   9.94  0.001495854    2.807    0.644
       194  -9.1332     84.3638     21.8398   2.9102431332e+02   7.0496279564e+00   0.02039447   0.01258278  12.08  0.001456304    1.733    0.423
       195  -7.8204     61.9952     27.2098   2.9133331480e+02   7.1148124132e+00  0.009682565  0.007927869 -10.38 0.0005048533    1.312    0.238
       196  -8.9890     57.6600     25.1368   2.9137628830e+02   7.1635842698e+00   0.02234867  0.009401201  27.16 0.0009737031    2.152    0.535
       197  -7.4530    123.7247     26.6944   2.9055861465e+02   6.7683629980e+00  0.006849224  0.005021241 -26.56 0.0002518388    1.546    0.353
       198  -8.9473     47.8819     25.8098   2.9150228948e+02   7.2114429851e+00   0.01964172   0.01013503  10.16   0.00106361    2.346    0.574
       199  -8.2812     82.0222     32.2813   2.9111037829e+02   6.9417264807e+00  0.009814207  0.008453706  21.32 0.0004461564    1.095    0.087
       200  -8.5115     27.3047     22.7844   2.9174338065e+02   7.3636152930e+00   0.01955847  0.008638904 -36.12  0.001435647    3.187    0.686
       201  -9.4386    243.1909    245.4367   2.9025794077e+02   3.5422982028e+00   0.02579522    0.0101749 -53.89  0.002080244    2.504    0.601
       202  -7.4328     62.6821    248.3253   2.9252143618e+02   4.5392146170e+00  0.007257065  0.004880989  55.86 0.0007045107    1.674    0.403
       203  -7.8358    131.1162     21.6390   2.9043871235e+02   6.7847626199e+00  0.009452139  0.006227807   9.82 0.0003979423    1.627    0.385
       204  -8.3053     92.4673     21.0907   2.9091889129e+02   7.0120713113e+00   0.01264884   0.01109759  30.98  0.001481472    1.071    0.066
       205  -7.3985     73.9995    247.5103   2.9237598411e+02   4.4843000465e+00  0.009684658  0.005660442  -8.87 0.0006261418    2.411    0.585
       206  -7.7562    117.0449     20.0127   2.9060572711e+02   6.8841457671e+00  0.008089479  0.007683016  22.03 0.0003865231    1.013    0.013
       207  -7.5911     46.0203     20.2296   2.9149527395e+02   7.2868465059e+00  0.009235686  0.005402196  23.91 0.0006114786    1.610    0.379
       208  -7.6651    161.5273     19.4591   2.9004691151e+02   6.6358550146e+00  0.006821299  0.006384283   8.25 1.069895e-06    1.048    0.045
       209  -8.2545     32.4192     20.0000   2.9166424887e+02   7.3668807525e+00   0.01514887  0.003695372  24.59 0.0009233794    3.844    0.740
       210  -8.2534    127.8119     16.9344   2.9045438309e+02   6.8582881475e+00   0.01004379  0.008867359 -11.80  0.000427672    1.179    0.152
       211  -7.3756     32.2966    247.3390   2.9289487447e+02   4.7234112925e+00  0.007138755  0.004981429 -27.61 0.0003053259    1.657    0.397
       212  -8.7596     50.3093     15.1354   2.9141392049e+02   7.3215893372e+00   0.01605608   0.01061017   5.63  0.001013547    1.687    0.407
       213  -7.3281    207.2864     15.7063   2.8945528077e+02   6.4167179621e+00  0.006915719  0.004929344  55.49 0.0002574957    1.543    0.352
       214  -7.5243    189.5097     15.4876   2.8967589887e+02   6.5213796251e+00  0.006838897  0.006392702  26.40 0.0008104669    1.010    0.009
       215  -7.3711    142.3159     15.6704   2.9026624744e+02   6.7899222968e+00  0.007253093  0.004890181  56.31 0.0003580665    1.679    0.405
       216  -8.2159    218.3429    245.5204   2.9056747099e+02   3.6835261457e+00    0.0135373  0.008295958 -57.95  0.001329144    1.684    0.406
       217  -7.5438    150.6962     13.3015   2.9014863558e+02   6.7694044938e+00  0.007065522  0.004904651  54.99  0.000184547    1.592    0.372
       218  -9.8895    193.0409    243.8980   2.9087355742e+02   3.8470991862e+00   0.01881524   0.01238655 -15.85  0.001232115    1.903    0.475
       219  -9.4638    156.9118    244.6651   2.9132755804e+02   4.0446389590e+00   0.01178723  0.009162255 -45.97 0.0009160741    1.350    0.259
       220  -8.3949     89.0850     12.9576   2.9091694153e+02   7.1258118098e+00   0.01686015  0.009218722   5.97  0.001354567    2.313    0.568
       221  -8.4660    233.7659    243.3186   2.9036367106e+02   3.6208584439e+00   0.01119801  0.009986915 -49.72 0.0005001954    1.177    0.150
       222  -8.2770    176.4595    243.5183   2.9107792937e+02   3.9462974684e+00  0.006822162  0.006397252  26.35 6.274994e-05    1.010    0.010
       223  -8.0734     95.9748    243.5243   2.9208059803e+02   4.4055348026e+00   0.01054707  0.006395513  24.71 0.0004244228    1.544    0.353
       224  -8.6377    170.5479    239.5025   2.9112980156e+02   4.0267754162e+00   0.01501398    0.0104618 -10.70  0.001012869    1.710    0.415
       225  -7.2541     25.9082    241.0000   2.9294039680e+02   4.8334609874e+00   0.01125679  0.003699079  24.54 0.0006376681    2.855    0.650
       226  -8.5510    249.3719    238.5212   2.9014356628e+02   3.5872610312e+00   0.01273025  0.008230941 -59.66  0.000718498    1.609    0.379
       227  -7.6293    214.5507    239.4810   2.9058192045e+02   3.7754175622e+00  0.006802687  0.006403507   6.61  0.000172895    1.047    0.045
       228  -7.5718    147.8434    238.1558   2.9140529839e+02   4.1721282875e+00  0.009697743  0.007796534 -17.46 0.0006429698    1.361    0.265
       229  -7.8975    124.8155    238.3735   2.9169337508e+02   4.3010275344e+00  0.009379945  0.006272961   9.59  0.000276247    1.596    0.373
       230  -7.8439     79.5057    238.5085   2.9225879910e+02   4.5576985995e+00  0.006834436  0.006407491  23.50 0.0008106102    1.001    0.001
       231  -9.1376    242.2930    236.4199   2.9022019877e+02   3.6522077929e+00   0.01452233   0.01015807 -24.45 0.0008749494    1.675    0.403
       232  -8.0727    146.6431     14.1138   2.9020369891e+02   6.7832017166e+00  0.009040476  0.008419165 -49.65 0.0003628611    1.132    0.116
       233  -8.2979    230.2841    237.0830   2.9037316779e+02   3.7132506620e+00  0.009285998  0.009015379 -82.58 0.0005255792    1.105    0.095
       234  -7.9457    195.3246    236.4570   2.9080482101e+02   3.9205473640e+00   0.01410508  0.009402635 -33.19 0.0009236803    1.717    0.417
       235  -7.3393    111.9866    237.5362   2.9184871523e+02   4.3839374439e+00  0.009623086  0.005650443  -8.94 0.0007026535    2.389    0.581
       236  -9.7605    188.8644    234.5549   2.9087494068e+02   3.9796034028e+00   0.01606894   0.01307859  40.69  0.001016388    1.189    0.159
       237  -8.1306    162.0246    234.1642   2.9120705503e+02   4.1375546932e+00   0.01052876  0.008828464 -10.59 0.0006413248    1.268    0.212
       238  -7.6784    138.0132    235.0000   2.9151069521e+02   4.2649550680e+00   0.01135283  0.003701113  24.65 0.0007009776    2.876    0.652
       239  -8.4773    248.4987    233.1348   2.9012519871e+02   3.6548441741e+00   0.01071937    0.0089861 -19.55 0.0005267294    1.279    0.218
       240  -8.1308    236.4962    230.0877   2.9025794552e+02   3.7589792008e+00  0.009772907  0.006812794 -63.89 0.0006517428    1.523    0.343
       241  -7.1579    204.6899    230.7175   2.9065713896e+02   3.9337016221e+00  0.006907939  0.005064291 -21.34 0.0002485023    1.567    0.362
