#   1 NUMBER                 Running object number                                     
#   2 MAG_AUTO               Kron-like elliptical aperture magnitude                    [mag]
#   3 X_IMAGE                Object position along x                                    [pixel]
#   4 Y_IMAGE                Object position along y                                    [pixel]
#   5 X_WORLD                Barycenter position along world x axis                     [deg]
#   6 Y_WORLD                Barycenter position along world y axis                     [deg]
#   7 A_WORLD                Profile RMS along major axis (world units)                 [deg]
#   8 B_WORLD                Profile RMS along minor axis (world units)                 [deg]
#   9 THETA_WORLD            Position angle (CCW/world-x)                               [deg]
#  10 FWHM_WORLD             FWHM assuming a gaussian core                              [deg]
#  11 ELONGATION             A_IMAGE/B_IMAGE                                           
#  12 ELLIPTICITY            1 - B_IMAGE/A_IMAGE                                       
         1 -14.3431     68.7109    145.1479   9.8677766592e+01   3.7146842323e+01      4.19961     2.149126  70.23  0.002696718    4.567    0.781
         2 -13.8564    227.6170     23.3202   3.2799502398e+01   2.6680546830e+01     1.052586    0.9122061  50.42   0.00399833    1.528    0.346
         3 -13.9027    202.0110     44.6668   4.0258164242e+01   2.9580326615e+01     1.285074     1.162776   6.53   0.00334746    1.471    0.320
         4 -13.8964    210.6992     39.2233   3.7951933661e+01   2.8354915079e+01     1.391228    0.9607266 -31.03   0.00622363    1.601    0.375
         5 -12.3724    248.1995      3.9344   2.7501354923e+01   2.4713023511e+01    0.4735413    0.3006423 -63.88  0.002994815    1.229    0.186
         6 -13.1404     56.8412    238.8557   1.1350999581e+02   1.6401287275e+01    0.4463085    0.3113117  87.05  0.000461604    1.423    0.297
         7 -13.5210     44.9984    216.9812   1.1415549770e+02   2.2504151564e+01     1.215323    0.9091809  19.14  0.007217341    1.690    0.408
         8 -13.5592      6.2146    186.0023   1.2040448275e+02   3.3507804113e+01     1.547698    0.7748832  82.73  0.002244954    1.871    0.465
         9 -13.2498     84.0935    218.3392   1.0545518680e+02   1.7112246298e+01     1.315521    0.7461364  79.50  0.002009748    2.580    0.612
        10 -15.3895      9.7293    208.2683   1.2110549126e+02   2.8099253364e+01     2.147617     1.352845 -82.80   0.01322275    1.360    0.265
        11 -16.2615     35.4135    186.6858   1.1354808452e+02   3.0635875929e+01     11.17909     4.499238  73.12   0.03652732    4.397    0.773
        12  -9.5251     99.2069    181.0185   9.6417786513e+01   2.3461859723e+01    0.2204608    0.1964601 -27.49 0.0006083031    1.254    0.202
        13  -9.5669    189.7450    178.4377   7.4025862092e+01   7.8688662890e+00    0.3489477      0.20135 -58.65  0.001391882    2.612    0.617
        14 -12.1092     59.4621    175.4817   1.0609376113e+02   3.0613068733e+01    0.4595732    0.3043421 -32.30  0.001250912    2.035    0.509
        15 -12.0964     64.6765    170.3444   1.0396845872e+02   3.1230489819e+01    0.3440337    0.2781571 -36.25  0.001678618    1.425    0.298
        16 -10.0047     89.0309    173.5525   9.7869048699e+01   2.6909315622e+01    0.2097108    0.1934063  46.92 0.0005000943    1.083    0.077
        17 -11.4411    114.7933    173.4874   9.0991102107e+01   2.2657435021e+01     1.042596    0.2096299  36.99  0.002680176    4.670    0.786
        18 -13.5421     61.8910    156.8357   1.0268160141e+02   3.5046577785e+01    0.5682123    0.3748647 -39.78  0.001490809    1.709    0.415
        19 -13.5756     70.3829    131.7817   9.5567254028e+01   4.0350899377e+01      5.11286     2.679939  82.97  0.001992732    8.745    0.886
        20 -11.0096    139.2633    249.2044   9.7174935802e+01   2.8197076644e+00    0.2794325    0.1709037  33.07  0.001525106    1.381    0.276
        21  -9.7960     48.6415    169.7054   1.0821945675e+02   3.3384939072e+01    0.2404057    0.1630835 -83.90 0.0006147635    1.450    0.310
        22  -9.8747    230.2968    166.3359   6.3601549278e+01   3.1837957913e+00    0.1409675   0.09600578 -10.35  0.000338306    1.650    0.394
        23  -9.6809     42.2213    164.7009   1.0931482569e+02   3.5374231234e+01    0.3069557    0.1731034  17.13  0.001402024    2.291    0.564
        24 -13.1824     30.8771    201.6618   1.1599409026e+02   2.7555787002e+01    0.4955927    0.4243078 -34.57  0.001265909    1.556    0.357
        25 -11.6383     32.5145    156.4184   1.1094939657e+02   3.8478223061e+01    0.4274251    0.3027266  76.45 0.0008402313    1.454    0.312
        26  -9.6050    174.8306    149.1643   7.0932218886e+01   1.6698274791e+01     0.231453    0.2135447 -71.80 0.0005982437    1.255    0.203
        27 -10.4556    133.7625    144.8824   7.9969029572e+01   2.5962784189e+01      1.08828    0.2420129 -53.99  0.002045456    8.245    0.879
        28 -13.8102     11.5184    233.8844   1.2222320808e+02   2.2441025267e+01    0.7643322    0.5502607  70.41  0.001649632    1.077    0.072
        29 -16.1553     20.6064    247.6347   1.2125275500e+02   1.8770395104e+01     9.148931     2.619608  24.17   0.02584919    8.348    0.880
        30 -10.5174     29.8337    143.0324   1.0999113477e+02   4.2150038618e+01    0.3773924     0.264335  -9.97  0.001382418    1.906    0.475
        31 -10.1825     97.3060    141.3314   8.9373794726e+01   3.3663801543e+01    0.3164858     0.292889   4.77  0.000848821    1.154    0.133
        32  -9.5742    100.0261    137.9739   8.7834022404e+01   3.4030593716e+01    0.4081735    0.2946853 -11.97   0.00175298    1.888    0.470
        33 -12.3725     84.9857    139.6676   9.2692837602e+01   3.6129558310e+01    0.3174245    0.2783083 -41.79  0.000365188    1.128    0.113
        34 -10.8130     20.8288    132.0900   1.1122377728e+02   4.5701210126e+01    0.4099252    0.2139881 -41.17  0.000377835    2.044    0.511
        35 -10.8122     17.0605    129.6613   1.1205763982e+02   4.6599988993e+01    0.2802637    0.2012103  58.99  0.001576186    1.568    0.362
        36 -10.8600    107.2187    130.6584   8.4024647204e+01   3.4534429474e+01    0.5060202    0.3427072  29.74  0.001587041    1.590    0.371
        37 -10.1943    136.0000    129.0720   7.5583418489e+01   2.9195787470e+01     0.451319   0.08970056 -46.65  0.001051967    4.940    0.798
        38  -9.4709     96.1567    125.9349   8.6213901438e+01   3.7704695411e+01    0.2557758    0.1867539 -16.30  0.001115979    1.750    0.428
        39  -9.2420    115.5022    124.5171   8.0107719475e+01   3.4428835018e+01    0.1613381    0.1504284 -16.33 -8.447355e-05    1.089    0.082
        40  -9.0908     89.5632    211.9953   1.0338998457e+02   1.7720222873e+01    0.1945601     0.133261 -68.13 0.0005032869    1.549    0.354
        41  -9.8117    105.9961    119.0597   8.1524075954e+01   3.7570666690e+01    0.2241424    0.2149435 -18.57            0    1.027    0.026
        42 -12.1640     74.8602    160.9761   9.9667047366e+01   3.2207803981e+01    0.5450885    0.3867967 -42.00 0.0004487413    1.517    0.341
        43  -9.5316    134.6817    112.1674   7.1558032643e+01   3.3291673873e+01    0.3367146    0.1405655 -50.83  0.001099491    2.648    0.622
        44  -9.0318     77.7763    112.8061   8.8883401527e+01   4.4010102672e+01    0.2006816    0.1769792  85.52 0.0005610177    1.346    0.257
        45 -12.4678    245.3804    110.1500   4.9338176902e+01   1.0387175550e+01    0.4310366    0.3035521 -44.58  0.002456055    1.197    0.164
        46 -12.6015     82.1697    154.8351   9.6497669225e+01   3.2693559007e+01    0.8995757    0.5387173 -36.77  0.001718387    2.011    0.503
        47 -10.1443    205.3264    110.3012   5.5615313194e+01   1.8164229502e+01    0.3173955    0.2490726  38.95  0.001049466    1.440    0.305
        48 -11.0500     53.1072     92.4018   9.2406777331e+01   5.2395088542e+01     0.440284      0.19788 -55.05   0.00180335    2.046    0.511
        49 -10.2234    246.3231     93.3256   4.5650256359e+01   1.2983007587e+01    0.1236014    0.1000266  -4.68  0.000591083    1.687    0.407
        50 -10.7890    111.5921    204.6591   9.7081173873e+01   1.5957634389e+01    0.3592491    0.2441987 -85.67 0.0009137121    2.027    0.507
        51  -9.7922    161.1729     83.1577   5.7165069836e+01   3.3104734921e+01     0.207469    0.1771502 -74.84 0.0004387797    1.291    0.225
        52 -11.3079    243.5183     77.8446   4.2715980991e+01   1.5957619522e+01     0.214436    0.1823457  79.78   0.00075184    1.285    0.222
        53  -8.6471    184.3644     77.2907   5.1101120131e+01   2.8698427462e+01    0.1456678    0.1131372  23.79 0.0007026437    1.704    0.413
        54  -9.4961     35.9350     63.3460   9.1088274043e+01   6.0796373696e+01     0.190025    0.1536779  33.35 0.0007861539    1.471    0.320
        55 -11.4704     13.0543     59.6591   1.0029912458e+02   6.3507624262e+01    0.3237822    0.2662813  63.79 0.0006492581    1.792    0.442
        56 -12.1692    161.7297    224.7132   8.8712270205e+01   3.7315448624e+00    0.4388424    0.3088732  32.84  0.002286445    1.278    0.218
        57 -12.7382    219.1550     31.2299   3.5268988709e+01   2.7521860064e+01    0.5659679    0.4424332  53.28  0.001101036    1.543    0.352
        58 -10.9632    192.4932    193.9800   7.6554125983e+01   4.4130862661e+00    0.7079524    0.3957832 -65.92  0.002064771    6.066    0.835
        59  -9.5552    172.5301    239.1501   8.8704667050e+01  -4.5417438167e-01    0.2596494    0.1304261 -53.06   0.00118693    2.715    0.632
        60  -9.4437     39.8081     58.1168   8.7698390400e+01   6.1433689225e+01    0.1785891    0.1645203 -21.97 0.0003800032    1.185    0.156
        61  -9.5355     21.5076     56.5169   9.5490565286e+01   6.3547762950e+01    0.1941579    0.1669561  31.30 0.0005633404    1.464    0.317
        62  -9.9755     17.7116     54.9994   9.6808730497e+01   6.4155208327e+01    0.1912508    0.1622159  10.23 0.0004640913    1.311    0.237
        63 -10.6825     11.6665     52.7792   9.9025803262e+01   6.5031865974e+01    0.2011619    0.1676987 -11.43  0.001069151    1.188    0.158
        64 -10.5110      4.7979     49.7831   1.0149626995e+02   6.6049942551e+01    0.2133023    0.1525623  17.86 0.0009195718    1.605    0.377
        65  -9.9298    132.0787     39.0417   5.0144238448e+01   4.6982909634e+01    0.2331167    0.1935687  81.07 0.0004812836    1.299    0.230
        66  -9.0086    132.0891     31.1624   4.7588594323e+01   4.7950838265e+01    0.1737311    0.1518631 -84.78 0.0003081516    1.250    0.200
        67  -9.8411    189.3434     15.0324   3.4551716433e+01   3.6050063872e+01    0.1744335    0.1476782 -59.81 0.0006088566    1.157    0.136
