#   1 NUMBER                 Running object number                                     
#   2 MAG_AUTO               Kron-like elliptical aperture magnitude                    [mag]
#   3 X_IMAGE                Object position along x                                    [pixel]
#   4 Y_IMAGE                Object position along y                                    [pixel]
#   5 X_WORLD                Barycenter position along world x axis                     [deg]
#   6 Y_WORLD                Barycenter position along world y axis                     [deg]
#   7 A_WORLD                Profile RMS along major axis (world units)                 [deg]
#   8 B_WORLD                Profile RMS along minor axis (world units)                 [deg]
#   9 THETA_WORLD            Position angle (CCW/world-x)                               [deg]
#  10 FWHM_WORLD             FWHM assuming a gaussian core                              [deg]
#  11 ELONGATION             A_IMAGE/B_IMAGE                                           
#  12 ELLIPTICITY            1 - B_IMAGE/A_IMAGE                                       
         1 -15.7575     75.9902    155.4881   1.0844265298e+02   3.3369673888e+01     4.987264     2.418967  62.27    0.0194336    2.872    0.652
         2 -14.3458    202.4265     94.1383   6.4043179874e+01   2.1118036133e+01     2.544553     1.638422 -28.85  0.008360122    1.597    0.374
         3 -13.5419     50.8374     33.3981   8.5548965241e+01   6.4114156266e+01     1.418533     1.161086  20.36  0.009109473    1.282    0.220
         4 -16.4954     13.8830     32.2348   1.0183543912e+02   6.8050591693e+01       2.5462     1.279672 -45.74  0.008613616    1.491    0.329
         5 -13.8402      8.0094      4.7945   9.3673011373e+01   7.3235619486e+01     1.027578    0.4570922  11.27  0.005622706    2.628    0.619
         6 -14.3459     84.1470     40.2199   7.5750513155e+01   5.7684713877e+01     1.901404     1.231854 -30.15  0.006347553    1.469    0.319
         7 -14.0536     85.4393     14.9834   6.4663562266e+01   6.0949111742e+01     1.167274     1.085116 -26.14  0.004684316    1.269    0.212
         8 -12.6653    140.7403     43.2894   6.1196729266e+01   4.4867987117e+01     1.162016    0.6833135 -47.85  0.003606111    1.931    0.482
         9 -11.8681    248.0835     38.5232   4.3643984175e+01   1.9268162956e+01     1.028639    0.3282788 -47.74  0.003925192    2.841    0.648
        10 -13.2700    232.5890     35.6986   4.4560643052e+01   2.3123700851e+01     1.315287    0.9121917  -5.48  0.005160718    2.121    0.528
        11 -12.2414    244.0188     21.7697   4.0158782737e+01   2.2291060856e+01    0.5303242    0.4146782  68.71  0.001957585    1.361    0.265
        12 -12.6657    212.0087     21.0531   4.3091339284e+01   2.9838014668e+01    0.8072661    0.5403723 -50.68  0.003479994    1.407    0.289
        13 -11.0913    202.5093     19.4536   4.3727398237e+01   3.2353855116e+01    0.4701325     0.429604 -65.95  0.002468514    1.056    0.053
        14 -12.4294    227.9611      3.9655   3.7366711412e+01   2.7950811810e+01    0.8291225      0.42838  89.10  0.003267054    1.951    0.487
        15 -12.4886    222.5535     15.2691   4.0561758225e+01   2.7979893495e+01    0.7222297    0.5138043 -62.15  0.004107776    1.292    0.226
        16 -12.0809    230.9904     12.9763   3.9242276301e+01   2.6270258253e+01    0.4705735    0.3057834 -67.42  0.002600663    1.445    0.308
        17 -13.0075     46.4729      4.4032   7.3851288937e+01   6.8951536439e+01     1.053234    0.4698458  25.89  0.004978107    2.570    0.611
        18 -11.5350    245.2907      2.6842   3.5773479478e+01   2.4183083565e+01    0.5933419    0.2756603  79.36  0.002970089    2.094    0.522
        19  -8.9991      1.0000    178.8147   1.2785085185e+02   3.6168123568e+01    0.1732526   0.04996939 -78.81 0.0005929425    2.735    0.634
        20 -14.1541     59.0941    239.6791   1.2106587828e+02   1.7841725511e+01     1.289956     0.698534  83.57  0.005587951    1.878    0.468
        21 -14.8480     93.4524    218.1455   1.1266842533e+02   1.7172639025e+01     1.496753    0.8357539 -67.07  0.005920572    1.925    0.481
        22 -14.1183    125.7460    242.1764   1.0911843602e+02   7.9867425907e+00     2.469743    0.8236016  35.24   0.00998371    3.125    0.680
        23 -14.6607    105.6168    192.2090   1.0690502146e+02   2.0531145362e+01     2.542484     1.117707 -58.92   0.01080463    2.367    0.578
        24 -16.9454    128.8931    183.4859   1.0040387470e+02   1.8415725480e+01     4.111428     3.433447  52.65   0.01968912    1.117    0.105
        25 -16.2047    124.8489    218.6800   1.0644164092e+02   1.2192424736e+01     2.668507     1.837937  34.67   0.01295627    1.424    0.298
        26 -15.2474    121.4866    198.3971   1.0434758890e+02   1.6639823394e+01     1.728452     1.054078 -78.99  0.006242252    2.278    0.561
        27 -13.3007      6.1994    247.2932   1.3022575123e+02   2.2379337949e+01     1.643989    0.7503624  34.91    0.0098728    2.435    0.589
        28 -12.6349     42.4846    249.8482   1.2456479978e+02   1.8056318254e+01    0.8923019    0.2125669  41.47  0.003824634    3.021    0.669
        29 -15.1498      8.5832    214.8467   1.2839960062e+02   2.8123913099e+01     1.262217    0.5246683  80.63  0.006061005    2.123    0.529
        30 -15.1545     22.9920    233.0388   1.2687227698e+02   2.3231074517e+01     1.076226    0.3798063 -89.47  0.004443416    2.936    0.659
        31 -16.0473     20.7008    215.3329   1.2628632214e+02   2.6844165807e+01     1.875034    0.6959096 -87.59  0.008015093    2.590    0.614
        32  -9.3777      1.5035    172.2707   1.2735227480e+02   3.7539358263e+01    0.2054871   0.08268077 -74.01  0.001097246    1.940    0.485
        33 -12.5103    216.6843    164.2956   7.8122336685e+01   5.3926729359e+00    0.8403958    0.4548713 -37.14  0.003614438    1.796    0.443
        34 -12.0082    198.8727    162.3751   8.1185559775e+01   9.1678639904e+00    0.6962122    0.5445258  21.81  0.003650879    1.312    0.238
        35 -11.2668    234.0275    158.0224   7.3606073865e+01   3.2180228045e+00    0.3905306     0.281694  65.53  0.001940715    2.155    0.536
        36 -11.9611      1.3253    148.3362   1.2573426716e+02   4.2872250191e+01    0.3492607     0.132608 -77.62  0.001592137    2.018    0.504
        37 -12.7115      1.5103    144.0133   1.2535369020e+02   4.3842263950e+01    0.7262821     0.137378 -75.54  0.002592654    3.927    0.745
        38 -10.6631    133.6376    140.1887   9.0942839044e+01   2.7033140517e+01      0.29549    0.2880659 -85.06  0.001616508    1.009    0.009
        39 -11.5690    130.8946    134.5421   9.0360844894e+01   2.8864529966e+01    0.5826001    0.4430208  54.92  0.002793994    1.382    0.276
        40 -10.5727    169.5328    135.8537   8.1434806402e+01   2.0454186506e+01    0.8506598    0.4400465 -23.89   0.00272733    3.395    0.705
        41 -11.0909    175.6136    129.4122   7.8533172031e+01   2.0450953426e+01    0.5275736    0.4078832 -17.04   0.00213884    1.498    0.332
        42 -10.0416    176.5799    135.8390   7.9871901448e+01   1.8930168653e+01    0.3029797    0.2443322   8.70  0.001003382    1.468    0.319
        43 -11.4410     23.0119    132.6184   1.1891676906e+02   4.4877408588e+01    0.6002243     0.498732  50.68   0.00403983    1.352    0.261
        44 -14.9845     63.5189    193.6124   1.1617993197e+02   2.6392666310e+01     2.183833     1.904182 -50.88   0.01441645    1.483    0.326
        45  -9.9905    180.6387    119.8926   7.5073590874e+01   2.1253056425e+01    0.2718739    0.2181261  30.84  0.001007651    1.344    0.256
        46 -12.9069     74.3787     71.3497   9.0190600761e+01   5.3453383967e+01     1.064729    0.8485287  17.39  0.004695937    1.383    0.277
        47 -12.6723    108.8617     58.3045   7.4704331791e+01   4.9720063605e+01     1.026328    0.8482362 -23.73  0.003705884    1.185    0.156
        48 -14.0554     71.2590     89.6894   9.6496222582e+01   4.9850067481e+01     2.491778     1.576969   0.97   0.01066991    2.599    0.615
        49 -13.8534     93.1719    105.8866   9.3828261778e+01   4.2625689803e+01     1.633993     1.145861  65.98  0.006650518    1.879    0.468
        50 -14.1952     97.1055     90.9016   8.8646123183e+01   4.5376244736e+01      1.54776     0.909216 -52.70  0.004767565    1.671    0.402
        51 -14.4299    107.2938     90.4764   8.5476144496e+01   4.3560182717e+01     1.696011     1.251969 -59.39  0.004906328    1.468    0.319
        52 -14.4884    105.0649     75.1446   8.1477580092e+01   4.7250104012e+01     1.243909     1.109606 -49.11  0.003680383    1.144    0.126
        53 -12.7646    216.7316     86.6072   5.9617840367e+01   1.9104026810e+01     1.600848    0.4433306 -39.17  0.004913781    3.155    0.683
        54 -14.6640     11.3301     87.2095   1.1605269006e+02   5.6430509741e+01     1.096674    0.8997045   8.64  0.004478625    1.556    0.358
        55 -12.3415    147.6567     77.8752   7.0839613879e+01   3.7331086827e+01     1.213128    0.7958109   5.07  0.004303101    2.636    0.621
        56  -9.3816     76.8620    110.7276   9.9849160329e+01   4.4069544114e+01    0.2688989    0.1786375 -47.83  0.001312561    1.405    0.288
        57 -10.5132     33.0886     77.7288   1.0666030883e+02   5.7014298854e+01    0.2956611    0.1469787 -55.74  0.001032345    1.590    0.371
        58 -11.4621    246.3714     74.0345   5.2209649273e+01   1.4534399072e+01    0.5691097    0.4447666 -75.14  0.002023548    1.421    0.297
        59 -12.4653    161.5743    229.8472   1.0072191104e+02   4.2607311091e+00    0.5769022    0.3379436  19.79  0.002802544    2.337    0.572
        60 -10.4689     81.7411     62.6423   8.4828988983e+01   5.4052093055e+01    0.3354616    0.2594762  26.57  0.001234213    1.370    0.270
        61 -14.9733     97.8282    244.1972   1.1448955774e+02   1.1809332095e+01     1.284087    0.8612587 -34.18  0.007279314    2.777    0.640
        62 -12.8766     24.1425     55.3646   1.0443124967e+02   6.2662002057e+01    0.7372766    0.5408009 -78.84  0.003293111    1.718    0.418
        63 -12.3343    157.8210    211.8826   9.8801131061e+01   7.8724638485e+00    0.9111511    0.4757729  28.02  0.004066045    2.266    0.559
        64 -11.6965    179.6369    209.5382   9.4051906383e+01   4.4903840758e+00    0.4873247    0.2871853 -46.08  0.002504943    1.949    0.487
        65 -11.6718    154.5039     53.1287   6.1480398809e+01   3.9969861492e+01    0.7693695    0.7179509  81.38  0.003667786    1.113    0.102
        66 -10.5636    174.9992    206.4785   9.4465313664e+01   5.8091382207e+00    0.3177295    0.2365881 -56.13  0.001606433    1.672    0.402
        67 -12.8684     87.2658    135.6224   1.0207009743e+02   3.6457961988e+01     1.132276    0.4997545 -57.95  0.004525688    2.108    0.526
        68 -15.5525     85.9200    245.3656   1.1674941266e+02   1.3289658096e+01     1.484912    0.7436816  51.13  0.006949932    1.583    0.368
        69 -11.0453    219.8615     45.9953   4.8627257877e+01   2.4712373381e+01    0.4815338    0.3396956 -24.06  0.001818744    1.556    0.357
        70 -16.3340     38.8967    161.0670   1.1819581779e+02   3.6653231908e+01     2.272274     1.410265  59.44  0.008567194    1.574    0.365
        71 -15.6762     41.9416    137.8588   1.1461688235e+02   4.1837301559e+01     1.980636    0.8161487 -72.70  0.008378781    2.227    0.551
        72  -9.1791     39.3850    206.7103   1.2223690479e+02   2.6571610842e+01    0.1495305   0.09352063 -71.07  0.000670632    1.536    0.349
        73  -7.7889     43.3380    188.8235   1.1995823090e+02   2.9902170143e+01    0.2525508      0.13749 -71.68 0.0005755187    1.644    0.392
        74 -11.0766     40.0333    199.2653   1.2152567313e+02   2.8043664787e+01    0.5169116    0.3122329 -81.56  0.002484246    1.451    0.311
        75  -9.2234     43.5308    193.4929   1.2033367830e+02   2.8871159659e+01    0.2219156    0.1696155 -86.25 0.0009168406    1.139    0.122
        76  -9.7379     17.7740    187.9491   1.2510565482e+02   3.2754465340e+01    0.2322381    0.1310576 -78.69 0.0006461714    1.466    0.318
        77  -9.4323     18.9845    184.7586   1.2463924991e+02   3.3325043569e+01     0.180959    0.1232105  73.55 0.0007064466    1.186    0.157
        78 -13.4925    228.2051    174.6370   7.8140040394e+01   1.5847895329e+00     1.440121     0.877328  13.00  0.005083257    2.103    0.525
