#   1 NUMBER                 Running object number                                     
#   2 MAG_AUTO               Kron-like elliptical aperture magnitude                    [mag]
#   3 X_IMAGE                Object position along x                                    [pixel]
#   4 Y_IMAGE                Object position along y                                    [pixel]
#   5 X_WORLD                Barycenter position along world x axis                     [deg]
#   6 Y_WORLD                Barycenter position along world y axis                     [deg]
#   7 A_WORLD                Profile RMS along major axis (world units)                 [deg]
#   8 B_WORLD                Profile RMS along minor axis (world units)                 [deg]
#   9 THETA_WORLD            Position angle (CCW/world-x)                               [deg]
#  10 FWHM_WORLD             FWHM assuming a gaussian core                              [deg]
#  11 ELONGATION             A_IMAGE/B_IMAGE                                           
#  12 ELLIPTICITY            1 - B_IMAGE/A_IMAGE                                       
         1 -14.0504    201.1029      5.2064   5.9269732815e+01   3.4374766588e+01     1.818127     1.249867  67.13   0.01104452    1.301    0.231
         2 -14.0057    171.5491     43.1361   7.2700329768e+01   3.7004117168e+01    0.9963375    0.8522263  -6.47  0.001084676    1.469    0.319
         3 -14.0954    183.4889     32.0860   6.7914525847e+01   3.5536842168e+01    0.9721012    0.8463099  79.17  0.003422767    1.017    0.016
         4 -14.2773    188.8109     23.3873   6.4995946740e+01   3.5301213004e+01    0.9825199    0.7344022  50.23  0.001453598    1.435    0.303
         5 -11.9467     57.7852      6.3982   8.7799028166e+01   6.5086253566e+01    0.2199078    0.1782141  23.51  0.001000471    1.134    0.118
         6 -11.1692      4.4992    236.5235   1.4889687701e+02   2.4364290692e+01    0.1384854    0.1098201  53.90 0.0002677388    1.422    0.297
         7 -16.3619    114.3339    240.4708   1.2896133658e+02   8.7199193588e+00     6.558443     3.886927  47.22   0.03031317    1.435    0.303
         8 -10.1827     10.2937    213.6640   1.4646495219e+02   2.8440144406e+01    0.1206142    0.1009369  50.16 0.0002987456    1.438    0.304
         9 -12.5831    107.1800    204.4672   1.2556920322e+02   1.7369299357e+01    0.5310696    0.4532837   9.58   0.00293676    1.610    0.379
        10 -11.6506    112.2896    196.6234   1.2321517020e+02   1.8232555142e+01    0.4640975    0.3091951  10.08  0.001891287    2.904    0.656
        11 -10.6877    103.3942    194.6595   1.2493480662e+02   2.0222109010e+01    0.3477509    0.2509021  25.21  0.001285092    1.774    0.436
        12 -10.2743    180.4017    193.1977   1.0740668846e+02   6.0117194533e+00     0.199257    0.1388859 -57.69 0.0007423917    1.680    0.405
        13 -10.4840    157.1523    192.1280   1.1227463328e+02   1.0785926977e+01    0.2013111    0.1717906  76.14 0.0003840943    1.310    0.236
        14  -9.8486     99.8321    187.1742   1.2458218463e+02   2.2554721674e+01    0.1832098    0.1753375  -9.09 0.0005309928    1.316    0.240
        15 -10.9821     39.8226    186.6928   1.3819184486e+02   3.1252019439e+01    0.3007388    0.1586345  51.48   0.00155938    1.865    0.464
        16 -11.7417    207.7947    184.5488   1.0000715470e+02   2.3959092443e+00    0.3885414    0.2962779 -28.99   0.00145554    1.320    0.243
        17 -11.6730    211.3446    181.4014   9.8657406555e+01   2.3130922016e+00     0.395381    0.2771021 -30.98  0.001721115    1.439    0.305
        18 -10.4220     92.9725    206.7744   1.2902631414e+02   1.9221138973e+01    0.2454565    0.1887102 -62.03 0.0006727081    1.345    0.257
        19 -10.5526     90.5357    183.9089   1.2624912565e+02   2.4860872540e+01    0.3208434    0.2011926  72.48  0.001265387    1.920    0.479
        20  -9.4836     83.5665    206.2491   1.3100323095e+02   2.0823950619e+01    0.1772369    0.1207781 -58.40 0.0007466532    1.529    0.346
        21 -11.0832     99.3877    180.6336   1.2362404970e+02   2.4164401882e+01    0.2501649    0.2441009 -83.54 0.0006137601    1.147    0.128
        22 -11.5269     93.8145    178.5325   1.2461184726e+02   2.5596835523e+01    0.4842761    0.2673981  54.70  0.001314522    1.924    0.480
        23 -11.7288     84.1518    179.8162   1.2712598106e+02   2.6847061104e+01    0.3221094    0.2394235 -58.92 0.0005632386    1.322    0.243
        24 -12.5361     87.3670    174.4115   1.2549591858e+02   2.7629323720e+01    0.4933984    0.3279403 -44.14  0.002377647    1.743    0.426
        25 -10.7111    197.7793    175.8306   1.0024403520e+02   6.0329086610e+00    0.3571655    0.2524385 -60.07   0.00135193    1.732    0.422
        26 -10.0967     57.5684    177.0632   1.3301160738e+02   3.1325629761e+01    0.2536961    0.1544768  55.34 0.0006240694    1.669    0.401
        27 -10.6904    228.5027    171.5021   9.3310331262e+01   9.2268997451e-01    0.1399043    0.1294694 -22.18 -8.877846e-05    1.029    0.029
        28 -11.0311    204.3189    168.2112   9.7298445709e+01   6.2300190229e+00    0.4082675     0.372806  50.47  0.002195992    1.163    0.140
        29 -11.5106    145.6680    168.6316   1.1029672553e+02   1.8245152608e+01    0.3590364    0.2427078 -36.68  0.001282216    1.690    0.408
        30 -11.4042    182.1068    233.2909   1.1421743775e+02  -1.6988089060e+00     0.413272    0.1853427  51.47  0.001675829    2.678    0.627
        31 -12.7592     99.2114    156.9828   1.1944535701e+02   2.9865541547e+01    0.6981047    0.4284637 -37.80   0.00298921    2.035    0.509
        32 -11.7892    133.7515    144.6611   1.0803598627e+02   2.6226162694e+01     1.163742    0.2790065 -53.80  0.002692872    5.544    0.820
        33 -10.9273    174.5535    149.1713   9.9397379151e+01   1.6451140994e+01    0.2953965    0.2233595  47.45 0.0008085637    1.334    0.250
        34 -12.0413    144.9345    145.6790   1.0550249923e+02   2.3647670066e+01    0.4002733    0.3426316  74.30  0.001073544    1.271    0.213
        35 -12.1252    109.4505    141.1522   1.1352288124e+02   3.1840923122e+01    0.5604205    0.3570847 -31.93  0.002332601    2.054    0.513
        36 -12.4654     98.1646    141.7173   1.1665067725e+02   3.3739899027e+01    0.2860554    0.2748939 -38.55 0.0004313579    1.119    0.106
        37  -9.3734     92.3388    142.6702   1.1841202178e+02   3.4504985005e+01    0.1556915    0.1124549  79.05 0.0007051853    1.737    0.424
        38 -12.1242    115.3365    210.9880   1.2474296178e+02   1.4537878050e+01    0.3382327    0.2224755  74.64 0.0002978743    1.835    0.455
        39 -11.8930    116.5419    130.9780   1.0933021756e+02   3.2894457737e+01    0.4310394     0.331255  -5.73  0.001257895    1.841    0.457
        40 -11.9046    104.9779    129.0724   1.1200821890e+02   3.5538161492e+01    0.5767998    0.3720244 -70.28  0.000906473    1.921    0.479
        41 -11.0322    160.3340    127.9539   9.7612731077e+01   2.4240970698e+01    0.3367852    0.3038646 -63.59  0.001701225    1.121    0.108
        42 -11.5399    135.4712    123.7539   1.0263578220e+02   3.0666398109e+01    0.6941839    0.1506887 -48.53  0.001695971    4.787    0.791
        43 -10.7581    125.8477    127.6890   1.0608797837e+02   3.1791080518e+01    0.3023654    0.2044443 -76.90 0.0007461536    2.107    0.525
        44  -9.6253    139.6938    125.3362   1.0196121581e+02   2.9400640733e+01    0.1622472    0.1249646 -87.30 0.0007040745    1.672    0.402
        45  -9.3911     72.4722    237.4208   1.3681769813e+02   1.5847712129e+01    0.1230814    0.1020211  69.41 0.0008034759    1.077    0.071
        46 -10.4532    111.1844    119.9405   1.0811980543e+02   3.6493716415e+01    0.2396113    0.2237694  15.94 0.0003047455    1.159    0.137
        47 -11.8672     67.5198    116.5958   1.1987824485e+02   4.4527433148e+01    0.2790217    0.1931559 -63.01 0.0008898934    1.394    0.283
        48 -10.5466    168.4626    113.2297   9.2072632101e+01   2.5511068158e+01    0.3860071    0.2645338 -65.80  0.001097783    1.798    0.444
        49 -10.4080    205.4611    110.1527   8.3809137185e+01   1.7523714831e+01    0.3211401    0.2187124  44.44   0.00112119    1.603    0.376
        50 -12.2709    108.3113    210.8226   1.2624892983e+02   1.5784782888e+01    0.5383471    0.2663333  47.11  0.002404712    1.851    0.460
        51  -9.9644    134.4171    102.7587   9.7448853315e+01   3.5469274130e+01    0.2206044    0.1472285 -33.28 0.0009517884    1.638    0.389
        52 -10.5123    150.4042    101.2165   9.3082591187e+01   3.2181695862e+01    0.2824633    0.2357951  77.61 0.0006929689    1.345    0.257
        53  -9.6929    151.6758     78.6854   8.6571406735e+01   3.6213090098e+01    0.1532589    0.1185538  17.74 0.0007042156    1.664    0.399
        54 -10.1694    176.6003     74.8724   8.0321800601e+01   3.0879737245e+01    0.2369063    0.1931006  89.08 0.0003217565    1.309    0.236
        55  -9.3926    168.3095    248.2884   1.1929757698e+02  -1.8262263228e+00    0.1250547   0.09345353  13.25 0.0001816842    1.577    0.366
        56 -13.1339    195.6143    195.2034   1.0460834644e+02   2.6968764067e+00    0.9098247    0.7024217  80.25  0.003485469    1.960    0.490
        57 -19.3186     25.4266    138.6884   1.3569889498e+02   4.4028693899e+01     19.66806     2.966668 -68.26   0.05023824    6.569    0.848
        58 -10.2948      1.2439    238.3754   1.4953007190e+02   2.4327229021e+01    0.1172565   0.08757513  65.65 0.0003319211    1.215    0.177
