#   1 NUMBER                 Running object number                                     
#   2 MAG_AUTO               Kron-like elliptical aperture magnitude                    [mag]
#   3 X_IMAGE                Object position along x                                    [pixel]
#   4 Y_IMAGE                Object position along y                                    [pixel]
#   5 X_WORLD                Barycenter position along world x axis                     [deg]
#   6 Y_WORLD                Barycenter position along world y axis                     [deg]
#   7 A_WORLD                Profile RMS along major axis (world units)                 [deg]
#   8 B_WORLD                Profile RMS along minor axis (world units)                 [deg]
#   9 THETA_WORLD            Position angle (CCW/world-x)                               [deg]
#  10 FWHM_WORLD             FWHM assuming a gaussian core                              [deg]
#  11 ELONGATION             A_IMAGE/B_IMAGE                                           
#  12 ELLIPTICITY            1 - B_IMAGE/A_IMAGE                                       
         1 -14.9879    170.3612     47.0074   6.5581089576e+01   3.6814002348e+01     1.384089     1.051645  10.29   0.00398349    1.582    0.368
         2 -14.9876    187.3488     16.6635   5.2946001431e+01   3.6138268095e+01     1.053598    0.9704019 -26.07  0.003723135    1.122    0.109
         3 -11.7826     97.4810    237.5009   1.1886474676e+02   1.6824640397e+01    0.2254077    0.1299756  57.35 0.0007772103    1.379    0.275
         4 -13.7745    190.7048    248.5663   1.0449287685e+02   1.7892903831e+00    0.3386658    0.2631793  27.51  0.002671908    1.153    0.133
         5 -10.4866    108.2331    250.0540   1.1810353042e+02   1.3589450095e+01    0.1171519   0.09605923  64.33  0.000208323    1.202    0.168
         6 -19.3894     64.5910    157.7880   1.1760776677e+02   3.5441575411e+01     15.34825     4.972092 -70.71   0.06250454    3.264    0.694
         7 -13.8652    185.3459    222.9280   1.0211142160e+02   5.5104771426e+00    0.3592227    0.2356103  22.87  0.001813999    1.579    0.367
         8 -11.4314    113.0804    205.7664   1.1304913578e+02   1.9523665140e+01    0.2111375    0.1608537  64.48 0.0009660129    1.173    0.147
         9 -11.4063     11.6818    206.0992   1.3153287325e+02   3.1896659683e+01    0.1979274    0.1213618  42.03  0.001509102    1.580    0.367
        10 -11.8697    133.5854    195.5892   1.0788267137e+02   1.7948562627e+01    0.2269804     0.173905  58.07 0.0006853043    1.174    0.148
        11 -13.4237    103.0367    239.9915   1.1813633537e+02   1.5703626980e+01    0.4682918    0.2328912 -55.97  0.002955254    2.651    0.623
        12 -13.4030    151.6482    181.3680   1.0227820598e+02   1.7197001043e+01    0.3680492     0.296093 -66.59 0.0008460708    1.509    0.337
        13 -13.2958    152.1790    193.6666   1.0402614624e+02   1.5120592898e+01    0.4441445    0.2332851  51.10  0.002277805    1.734    0.423
        14 -13.3933    150.1538    188.1947   1.0361464213e+02   1.6343323793e+01    0.3868473    0.3099457  60.70  0.001362006    1.240    0.193
        15  -7.5178     12.4588    190.7203   1.3072680498e+02   3.4564077813e+01    0.2811051    0.1112423 -82.06  0.001674122    2.175    0.540
        16 -10.7035    135.6544    240.2776   1.1267091823e+02   1.0999628532e+01    0.2197084   0.08813393  40.53  0.001184066    1.930    0.482
        17 -10.9874    135.1182    237.1570   1.1244547754e+02   1.1496315310e+01    0.2122619    0.1571101  76.78   0.00105615    1.609    0.379
        18 -11.9993     28.6811    183.8205   1.2733247335e+02   3.4311692453e+01    0.1859722    0.1438393  48.55 0.0008317688    1.341    0.254
        19 -12.2609    162.7185    181.1800   1.0006567632e+02   1.5238741066e+01    0.2092419    0.1656198 -52.31  0.001266644    1.505    0.336
        20 -11.2123    152.6753    237.4610   1.0949370703e+02   8.8137175462e+00    0.2136551    0.1373677  26.03 0.0006887335    1.776    0.437
        21 -13.1459    187.4519    176.1746   9.4457364836e+01   1.1463255412e+01    0.3710847    0.3436905 -42.80  0.001089499    1.296    0.228
        22 -12.5080    186.0065    170.2651   9.3668585449e+01   1.2623006993e+01    0.2950678     0.243053 -85.82   0.00168081    1.778    0.438
        23 -10.7448     10.4792    174.8073   1.3032115353e+02   3.7716736444e+01    0.1129256   0.08117998 -85.88 0.0008572875    1.238    0.193
        24 -12.0229    193.8627    171.3306   9.2378151150e+01   1.0980111731e+01     0.227077    0.2142796  47.64 0.0007039029    1.202    0.168
        25 -11.6208    125.2737    237.2872   1.1413470519e+02   1.2929552161e+01    0.1507127    0.1304006  82.82 0.0003963316    1.333    0.250
        26 -11.1732    160.2938    235.0429   1.0792583141e+02   7.9542486503e+00    0.1476573    0.1235006  42.08 0.0005157504    1.123    0.109
        27 -10.6643    111.0000    234.8484   1.1634180879e+02   1.5331661531e+01    0.1354728   0.06173134 -61.51 0.0007777344    2.774    0.639
        28 -15.1721    133.6924    145.8644   1.0000513659e+02   2.6917824331e+01     1.399256    0.5181523 -58.47  0.004683265    3.919    0.745
        29 -13.2719    128.0254    154.8709   1.0288753261e+02   2.6209949044e+01    0.4169297     0.184058 -55.87  0.001757795    2.551    0.608
        30 -10.5143     16.8595    156.2190   1.2794662126e+02   4.0838521197e+01    0.1298427    0.1153793 -77.75 0.0004851994    1.352    0.260
        31 -10.6635    110.4689    229.9191   1.1598090883e+02   1.6129488994e+01    0.2514546    0.1451149 -73.41 0.0008278999    2.233    0.552
        32 -14.5922    143.2225    143.5647   9.7430677074e+01   2.5537783989e+01     1.102281    0.4449231 -59.97  0.003460636    4.470    0.776
        33 -11.6434    174.8623    149.1374   9.1805627139e+01   1.8214178813e+01    0.2114811    0.1894144  71.06 0.0006360242    1.268    0.211
        34 -10.2871    107.8944    235.2218   1.1690566888e+02   1.5716566986e+01    0.1374627    0.1062538  53.09 0.0004868796    1.073    0.068
        35 -10.6536    132.9984    228.7398   1.1193293362e+02   1.2976517207e+01    0.1564073    0.1130602  48.11  0.000211293    1.045    0.043
        36 -13.4214      6.3628    137.5602   1.2901765918e+02   4.5526432080e+01    0.3668644    0.2430532 -81.38  0.001586076    1.217    0.178
        37 -14.1997    135.7254    128.0470   9.5970292370e+01   3.0058864574e+01     1.459947    0.2686503 -51.20  0.003251404    7.599    0.868
        38 -13.9169    134.3692    121.2238   9.4800768251e+01   3.1707479092e+01    0.5554119    0.3417291 -45.02  0.002565985    1.690    0.408
        39 -12.6531    160.5416    127.8774   9.0296620194e+01   2.4979424134e+01     0.362135    0.2748797 -61.45  0.001465687    1.563    0.360
        40 -13.8622      2.4925    125.8268   1.2912735417e+02   4.8270623952e+01    0.7993687    0.2767378 -89.25  0.003808685    2.631    0.620
        41 -13.4914    113.7605    118.6807   9.9330751630e+01   3.6213877896e+01    0.5108991    0.2475834 -56.07  0.002054092    2.158    0.537
        42 -13.5930      4.7029    120.4893   1.2819853590e+02   4.9265159655e+01    0.4054558    0.2849887  31.03  0.002594427    1.728    0.421
        43 -11.0292    231.1821    113.9227   7.3442430942e+01   1.1903808422e+01    0.2344613    0.1984016  39.12 0.0007655926    1.185    0.156
        44 -11.9891    167.4901    112.6428   8.5188202443e+01   2.6286600837e+01    0.3741401    0.2931545 -85.59  0.001105585    1.732    0.423
        45 -12.6132      4.5216    112.3717   1.2759866854e+02   5.1031720370e+01     0.309685     0.232215  -9.29  0.002166177    2.029    0.507
        46 -10.8914    127.0598    228.1142   1.1290658923e+02   1.3960177268e+01    0.2660571    0.1268653  38.34   0.00148721    1.811    0.448
        47 -11.0977    205.7754    110.0427   7.6895301947e+01   1.8052599679e+01     0.256521    0.2088617  44.20 0.0006516959    1.207    0.171
        48 -12.8083     15.1670    109.8636   1.2454260324e+02   5.0856428370e+01     0.345035    0.1757579   8.70  0.001781852    3.316    0.698
        49 -13.3362    153.4913    219.0001   1.0718417453e+02   1.1149257831e+01    0.4351988    0.2495766  27.27  0.001268819    2.097    0.523
        50 -12.7081    129.9555    109.8172   9.3236245134e+01   3.4935280204e+01    0.3351493    0.2173827 -42.27 0.0007074559    1.601    0.375
        51 -13.8085    157.7849     61.0810   7.2707009195e+01   3.7843478880e+01    0.5515021    0.4511334  54.21  0.001045184    1.217    0.178
        52 -10.5122     13.5034     59.9255   1.1819504207e+02   6.2095042508e+01     0.176009   0.09337021 -68.46 0.0004045287    1.490    0.329
        53 -10.7799     98.6592    247.7531   1.1948006431e+02   1.5200036714e+01    0.1302341   0.08817617  56.50 0.0002777035    1.091    0.083
        54 -13.1208    175.1848     39.4006   6.2214899963e+01   3.6618385093e+01    0.4562664    0.4065039  33.50 0.0009047767    1.153    0.132
