#   1 NUMBER                 Running object number                                     
#   2 MAG_AUTO               Kron-like elliptical aperture magnitude                    [mag]
#   3 X_IMAGE                Object position along x                                    [pixel]
#   4 Y_IMAGE                Object position along y                                    [pixel]
#   5 X_WORLD                Barycenter position along world x axis                     [deg]
#   6 Y_WORLD                Barycenter position along world y axis                     [deg]
#   7 A_WORLD                Profile RMS along major axis (world units)                 [deg]
#   8 B_WORLD                Profile RMS along minor axis (world units)                 [deg]
#   9 THETA_WORLD            Position angle (CCW/world-x)                               [deg]
#  10 FWHM_WORLD             FWHM assuming a gaussian core                              [deg]
#  11 ELONGATION             A_IMAGE/B_IMAGE                                           
#  12 ELLIPTICITY            1 - B_IMAGE/A_IMAGE                                       
         1 -11.9763    136.4666     20.4500   3.6656317126e+01   4.7594818059e+01    0.3911134     0.271388  17.71  0.001035918    1.988    0.497
         2 -13.2314     31.4633     19.8683   6.8387286079e+01   6.8094089842e+01    0.4325043    0.3015633  -1.98  0.001729341    1.223    0.182
         3 -12.5772    149.2531      6.5514   3.0880780740e+01   4.5978004678e+01    0.3929681    0.3309449 -14.19 0.0007926915    1.529    0.346
         4 -11.5983     12.1805      4.2991   7.1294744900e+01   7.2349306956e+01    0.2163747    0.1573307   8.42 0.0003898929    1.117    0.105
         5 -11.1903     87.8707      4.7419   4.1595599426e+01   5.9736446739e+01    0.3098916    0.1683912  63.14 0.0009531268    1.747    0.428
         6 -12.3732    236.0606    229.5988   6.5633001966e+01  -7.5271238950e+00    0.3342305    0.2950988 -18.51  0.002337547    1.345    0.256
         7 -10.4395     72.3791    228.2224   1.0144855500e+02   1.6207241242e+01    0.1851567    0.1226877 -84.86 0.0008080948    1.713    0.416
         8 -11.4129    105.1022    225.4266   9.3356378576e+01   1.2200457828e+01     0.328132    0.2221601  38.41   0.00119923    1.348    0.258
         9 -10.2597     22.4068    218.8233   1.1196351771e+02   2.4158267942e+01    0.1758638    0.1007235 -64.81 0.0009502448    1.691    0.409
        10 -10.9803     95.9859    224.9846   9.5474813909e+01   1.3638225666e+01    0.3888656    0.1169117  48.09  0.001154169    4.331    0.769
        11 -12.3576     36.1754    210.6362   1.0814242260e+02   2.4634612448e+01    0.4156587    0.2955375  -7.00  0.001676383    2.107    0.525
        12 -10.3869    192.3367    209.6587   7.0649721561e+01   1.8090587475e+00    0.1280363    0.1132498  77.67 0.0007050484    1.762    0.433
        13 -10.6293    148.0188    209.2380   8.0520373436e+01   8.9405821788e+00    0.2029125    0.1699042 -83.97 0.0008395026    1.640    0.390
        14  -9.7187    172.6877    207.6736   7.4553381771e+01   5.2616215279e+00     0.149227    0.1031313  -9.19 0.0007041544    1.664    0.399
        15 -11.5596      4.8743    200.4651   1.1455089298e+02   2.9989758883e+01    0.2502182    0.1569977  65.27  0.001219234    1.477    0.323
        16 -11.1640    246.4496    198.3805   5.8231001540e+01  -3.8203544723e+00    0.2261702    0.1875172 -26.52 0.0006906881    1.150    0.131
        17 -12.6380     13.3969    195.6991   1.1222532475e+02   3.0407125556e+01    0.4759896    0.1427088 -72.77  0.001878314    2.838    0.648
        18 -10.3013    155.6022    185.4176   7.4292663549e+01   1.2802257485e+01    0.2924867      0.14193 -61.96 0.0009550715    3.432    0.709
        19 -10.3480     94.5136    186.0126   9.0085817724e+01   2.3007443840e+01    0.2161351    0.1321227  89.99 0.0008104681    2.661    0.624
        20 -10.2848    210.9759    184.2506   6.2013694034e+01   3.7103811976e+00    0.1724237    0.1158694  33.45 0.0008895298    1.589    0.371
        21 -10.1459    183.4807    184.5003   6.7734086756e+01   8.1603436119e+00    0.1444153    0.1334786 -15.29 2.229899e-05    1.057    0.054
        22 -10.9041     66.3951    194.2309   9.8788343921e+01   2.5003621453e+01    0.2036846    0.1312697 -81.96 0.0008588851    1.725    0.420
        23 -10.4036    147.6571    180.3336   7.5216843928e+01   1.5343674819e+01    0.1539914     0.122613  75.11 0.0007050635    1.758    0.431
        24 -10.9131    191.9902    177.2910   6.4464176302e+01   8.1716922404e+00    0.3299562    0.1953718 -50.62  0.001486577    1.806    0.446
        25 -11.9619      6.8700    190.9069   1.1339431349e+02   3.2098586275e+01    0.2426695    0.1533517 -87.00  0.001221784    1.381    0.276
        26 -10.4740    159.4737    174.6257   7.1199962474e+01   1.4489021229e+01    0.2980705    0.2210096 -84.28  0.001284832    2.202    0.546
        27 -12.0463    121.1665    167.0521   7.9373361713e+01   2.3217417775e+01    0.7112707    0.2879733 -57.11  0.002355089    2.800    0.643
        28 -11.9290     93.1569    159.4039   8.5685820471e+01   2.9906039375e+01    0.5212072     0.428515  70.15  0.001852827    1.425    0.298
        29 -10.3392    105.3074    157.6657   8.1850371355e+01   2.8315186657e+01    0.1589148    0.1234521  75.43 0.0005620492    1.671    0.402
        30 -11.8515    119.2615    156.2734   7.7652501406e+01   2.6181869855e+01    0.5952539    0.3224122 -53.26  0.002351657    1.866    0.464
        31 -11.0021    189.6275    150.7409   5.9375667710e+01   1.3997033546e+01    0.3290463    0.2690275  53.20  0.001207114    1.410    0.291
        32 -11.1098    106.8545    144.7995   7.8668656314e+01   3.1238617426e+01    0.4523045    0.2774913  70.16   0.00154505    3.124    0.680
        33 -10.9928    148.7021    144.7323   6.7330506693e+01   2.3261126478e+01    0.3184122    0.1962435 -67.90  0.001181847    2.508    0.601
        34 -10.8015    125.1752    143.0352   7.3095949316e+01   2.8266057824e+01    0.2619251    0.1904736 -81.63  0.001083814    2.024    0.506
        35 -11.3264     22.8062    137.1561   1.0337331992e+02   4.4312359740e+01    0.2930306    0.1508223  84.78  0.001161888    2.797    0.642
        36 -11.0628     39.3889    136.1882   9.7951243434e+01   4.3061327578e+01    0.2080548    0.1284745 -77.85 0.0009516377    1.757    0.431
        37 -11.1800    131.4692    126.9510   6.7558166882e+01   3.0767705448e+01    0.3359345    0.1995809 -45.57  0.001387066    1.661    0.398
        38 -11.2130     46.4248    130.1057   9.4580767649e+01   4.3873851302e+01    0.3520045    0.2325133  63.00  0.001233396    2.038    0.509
        39 -12.1723     12.7073    125.7971   1.0498983297e+02   4.7915893312e+01    0.7660891    0.2759811 -73.18  0.002970265    2.662    0.624
        40 -10.9208     98.5983    127.5006   7.7153996247e+01   3.6940741853e+01    0.6028064    0.3324882 -73.22  0.001892497    3.656    0.726
        41 -11.6119    101.3003    120.7642   7.4682092581e+01   3.8061541374e+01    0.6280558    0.3250657  30.98  0.002412638    2.092    0.522
        42 -11.2602     69.6271    127.9677   8.6479557036e+01   4.1481793432e+01    0.4616883    0.2391816  33.97  0.001906205    1.986    0.497
        43 -11.5582     28.7608    124.3758   9.9459283896e+01   4.7060264832e+01    0.5216556     0.269941 -82.97  0.002127326    2.546    0.607
        44 -11.0743    179.8977    123.5450   5.5255542172e+01   2.1451244449e+01    0.4390626     0.182266 -50.73  0.001544432    2.637    0.621
        45 -10.9909     57.1861    122.0817   8.9368736114e+01   4.4627149590e+01    0.5079876    0.3196515  66.29  0.002078031    2.558    0.609
        46 -11.5218     43.0174    121.5990   9.4110687256e+01   4.6392592899e+01    0.6248834    0.2794439 -78.31  0.001966376    4.082    0.755
        47 -11.3186    141.7772    120.2723   6.3205820966e+01   3.0124014090e+01    0.4414512    0.2248354 -53.17  0.001155608    2.201    0.546
        48 -10.6804     82.8892    131.5832   8.2999407098e+01   3.8580452590e+01    0.3124232    0.2120641 -75.95  0.001324616    1.952    0.488
        49 -11.4994      2.7505    115.4837   1.0684110152e+02   5.1047200740e+01     0.622086     0.248025 -84.45  0.002349654    3.279    0.695
        50 -11.8065     68.3582    113.3475   8.3571752082e+01   4.5261488304e+01    0.6711834     0.392659 -78.09  0.002430446    3.104    0.678
        51 -12.0101     73.8044    113.1664   8.1670554491e+01   4.4498110429e+01     0.426825    0.2756705  -2.38  0.001137287    2.142    0.533
        52 -12.1946    109.3620    110.7589   6.9677327622e+01   3.8836833454e+01    0.9585766     0.416542 -50.43  0.003416662    2.411    0.585
        53 -11.2855     92.0180    111.4802   7.5230756894e+01   4.1899088363e+01    0.5100639    0.2672672 -57.93  0.001953206    2.234    0.552
        54 -11.5207     91.6677    105.8258   7.3857640959e+01   4.3253504361e+01    0.5017323    0.1902177 -40.48  0.001661161    2.845    0.648
        55 -10.5079    140.5448    105.1951   5.9649309850e+01   3.3573280293e+01    0.3180183    0.2056141  64.41    0.0013147    2.025    0.506
        56 -11.8543     22.8582    103.2950   9.7733336055e+01   5.2737104868e+01    0.6234005    0.3649262  86.71  0.002684473    2.766    0.638
        57 -11.5872     44.9121    101.6440   8.9178033559e+01   5.1060463228e+01     0.486869    0.2936888  70.53  0.001816544    3.606    0.723
        58 -11.6219      7.0687    102.6606   1.0341086184e+02   5.3924188664e+01     0.406388    0.1974194 -73.93  0.001893514    2.042    0.510
        59 -13.6333    216.9983     94.1180   4.2073413237e+01   1.9373457794e+01     1.539865    0.8554791 -78.49  0.005789395    3.682    0.728
        60 -11.5967    109.6073     99.4970   6.6558621569e+01   4.1239906416e+01    0.5965877    0.3953885  73.16  0.002280003    2.740    0.635
        61 -10.5454     71.0511    101.5635   7.9679339550e+01   4.7633982007e+01    0.2225596    0.1425026  30.27  0.001025145    1.593    0.372
        62 -11.3108     54.6030    100.3046   8.5272803541e+01   5.0220377053e+01    0.2534775    0.2347222 -10.34  0.000531027    1.068    0.064
        63 -11.6862     13.6338    110.1932   1.0230153167e+02   5.1714842859e+01    0.3287689    0.1891242  87.81  0.001505159    2.357    0.576
        64 -11.4483    229.6863     97.2756   4.0939365216e+01   1.6413931294e+01    0.2485346    0.2211012 -36.76  0.001590502    1.190    0.160
        65 -11.2127    161.4349    110.7766   5.6138307561e+01   2.7918712925e+01    0.4914662    0.2673038  51.69  0.002023448    1.935    0.483
        66 -11.4868     63.4003     95.9177   8.0921047594e+01   5.0042295588e+01    0.3695308    0.2492879  89.54  0.001463397    3.039    0.671
        67 -10.7239    174.7868     92.2397   4.8754097988e+01   2.8542569030e+01    0.2321244    0.1802659  85.46  0.001076225    1.518    0.341
        68 -10.6934    124.7985     91.2109   5.9939261624e+01   3.9774340958e+01    0.2526131    0.1715123 -86.73 0.0009553001    2.823    0.646
        69 -10.9205     34.4012     88.3412   9.0031538234e+01   5.5234530137e+01    0.4629871    0.1441782 -63.88  0.001405605    4.506    0.778
        70 -10.9091     86.1493     86.4796   7.0246541447e+01   4.8414038111e+01    0.3351747    0.2130185  73.89  0.001097149    4.278    0.766
        71 -10.9285     48.0675     83.9610   8.3485475732e+01   5.4713848344e+01    0.3157275    0.2217212  80.96  0.001380826    2.857    0.650
        72 -11.0787    104.8216     83.5460   6.3416798658e+01   4.5434535642e+01    0.2785209    0.2052925 -83.12  0.001208781    2.294    0.564
        73 -11.0560    218.0773     80.8324   3.9076725308e+01   2.1344200086e+01    0.2133127    0.1618329 -69.10 0.0009697344    1.291    0.226
        74 -10.0332     64.4883     81.5043   7.6468474961e+01   5.3009155321e+01    0.1440084    0.1274552 -11.07 1.083509e-05    1.010    0.010
        75 -10.7319     23.8868     80.0149   9.2255707028e+01   5.8033768007e+01    0.2942556    0.1767676 -86.32  0.001242387    3.207    0.688
        76  -9.8816     98.0583     77.9609   6.3812182102e+01   4.7848666217e+01    0.1727607    0.1575951  22.59 0.0002981756    1.034    0.033
        77 -10.7821    159.6869     75.5177   4.7471174285e+01   3.4831978474e+01    0.4249964    0.2063542  44.76   0.00173709    2.187    0.543
        78 -11.2053     82.1767     72.4366   6.7302103967e+01   5.1880987476e+01    0.3701038    0.2620783 -74.41  0.001601108    2.670    0.625
        79 -12.3424     62.9171     68.7091   7.3119064428e+01   5.5795312575e+01    0.8620613    0.1705843 -43.78  0.002468687    4.812    0.792
        80 -12.3515    208.4532     68.3251   3.7676738901e+01   2.5258096344e+01    0.5991946    0.3999523 -22.15  0.003068782    2.098    0.523
        81  -9.9263    174.5264     72.5023   4.3905766789e+01   3.1972335240e+01    0.1378202    0.1295521 -86.60 0.0003304386    1.008    0.008
        82 -10.9590    105.5042     70.5276   5.9261984680e+01   4.7693116523e+01    0.2621827    0.1335018 -50.04  0.001044055    2.439    0.590
        83 -10.9881     50.9013     68.7021   7.7865771044e+01   5.7514499344e+01    0.4119404    0.1874234 -60.37  0.001445805    3.930    0.746
        84 -11.4400    137.8770     79.6425   5.3368580141e+01   3.9058160344e+01    0.3432584     0.279062  45.20  0.001797154    1.193    0.162
        85 -10.8633    109.1745     64.1645   5.6223407417e+01   4.8001589382e+01    0.2187124    0.1869638  16.68 0.0005406411    1.193    0.162
        86 -11.3132     26.7073     61.1375   8.5900679383e+01   6.1744834462e+01    0.3492177    0.2453423  86.99  0.001630543    3.235    0.691
        87 -10.5655    141.9744     59.6534   4.6809920741e+01   4.1406911458e+01    0.1964788    0.1649269  58.68 0.0003836807    1.115    0.103
        88  -9.9331    176.2026     55.4058   3.9383654442e+01   3.4193042996e+01    0.1862642    0.1206294  76.04 0.0007337404    1.613    0.380
        89 -12.5150    241.2860     72.1621   3.4462389682e+01   1.8231851271e+01    0.2606596    0.1815693 -52.46 0.0006275095    1.196    0.164
        90 -12.0238     51.8231     54.0205   7.2623374541e+01   6.0110118922e+01    0.3702953    0.2621704  18.11 0.0008748295    1.313    0.238
        91 -11.6536     94.1788     52.3065   5.6768335837e+01   5.2984785431e+01    0.3130102    0.2546198  72.44   0.00170168    1.643    0.391
        92 -11.4450    100.8830     51.9113   5.4645958123e+01   5.1664248577e+01    0.2174666    0.1921508  29.26 0.0003053962    1.022    0.022
        93 -10.5586     30.5059     50.5622   8.0783483845e+01   6.3374438230e+01    0.2147429    0.1221648 -58.45  0.001040697    2.443    0.591
        94 -10.8054    122.4226     46.1382   4.7184641630e+01   4.7787543704e+01    0.2409037    0.1832968  62.07 0.0004767851    1.279    0.218
        95 -13.0482     57.9863     40.3932   6.5132410833e+01   6.1376164832e+01     0.424015    0.3369309  20.52 0.0007862158    1.096    0.088
        96 -11.0069      5.4145     42.1390   9.0264681220e+01   6.7036492398e+01    0.2577063    0.1168034 -64.64   0.00114677    3.284    0.695
        97 -12.2450     60.0914     26.4989   5.8855137652e+01   6.2916395301e+01    0.2481503    0.1975007  13.96 0.0003480132    1.063    0.060
        98 -11.6350    113.2777    243.0011   9.3801697339e+01   7.3358565078e+00    0.4887269    0.3131281 -77.24  0.002405948    2.235    0.553
        99  -9.8825    122.3411    241.6954   9.1567292587e+01   6.2688378493e+00    0.1376891   0.09647258  56.94 0.0003063345    1.680    0.405
       100 -10.2640     49.3191     21.6826   6.1139759716e+01   6.5285845847e+01    0.1053423   0.09915479  58.57 0.0004201638    1.659    0.397
       101 -11.6812    117.2240    236.8412   9.2077406565e+01   7.9970006971e+00    0.3581039     0.197994  32.67  0.001030027    1.618    0.382
       102 -11.5378     46.8093    234.4154   1.0785649368e+02   1.8033301454e+01    0.2560877    0.1806348  56.98 0.0005561382    1.269    0.212
