#   1 NUMBER                 Running object number                                     
#   2 MAG_AUTO               Kron-like elliptical aperture magnitude                    [mag]
#   3 X_IMAGE                Object position along x                                    [pixel]
#   4 Y_IMAGE                Object position along y                                    [pixel]
#   5 X_WORLD                Barycenter position along world x axis                     [deg]
#   6 Y_WORLD                Barycenter position along world y axis                     [deg]
#   7 A_WORLD                Profile RMS along major axis (world units)                 [deg]
#   8 B_WORLD                Profile RMS along minor axis (world units)                 [deg]
#   9 THETA_WORLD            Position angle (CCW/world-x)                               [deg]
#  10 FWHM_WORLD             FWHM assuming a gaussian core                              [deg]
#  11 ELONGATION             A_IMAGE/B_IMAGE                                           
#  12 ELLIPTICITY            1 - B_IMAGE/A_IMAGE                                       
         1 -11.4079     13.5049     73.6077   1.2715281723e+02   5.9775990226e+01    0.9517558    0.6646899 -45.64  0.006268996    1.117    0.105
         2 -10.7453     83.5236     47.1067   9.3458403195e+01   5.6007564102e+01     1.087372    0.5536237 -46.24   0.00492046    2.480    0.597
         3  -9.0153     12.3398     33.7894   1.1640289624e+02   6.7138938216e+01    0.3891175    0.2379009 -32.53  0.001895552    1.266    0.210
         4  -9.3058     39.0784      7.2151   9.3925439971e+01   6.7944573780e+01    0.3298446    0.2028679   9.35  0.001597779    1.462    0.316
         5 -10.2320     39.2119     29.6047   1.0319956672e+02   6.5169021010e+01    0.5004822      0.29843 -42.91  0.002965817    1.897    0.473
         6 -11.8814     43.5840     20.8959   9.7928858379e+01   6.5774307955e+01    0.9537481    0.9068019  83.48  0.006866135    1.974    0.493
         7 -11.1342    128.4326     15.2009   7.0943209003e+01   5.0423571671e+01    0.8462836    0.7146741 -10.10    0.0054026    1.388    0.279
         8 -11.1394    131.6335      3.1904   6.6654571306e+01   5.0730375332e+01     1.265366    0.2836649  61.81  0.004595384    3.220    0.689
         9 -12.1293     84.2000      3.8330   7.7216202453e+01   6.0798015130e+01     2.055784     1.065559  12.09   0.01030706    2.500    0.600
        10 -11.5573    110.1080      4.0892   7.1080113596e+01   5.5459612699e+01     1.567515    0.5630485  52.61  0.007203025    2.085    0.520
        11 -10.5096    121.3931      3.9310   6.8751203168e+01   5.2989555001e+01    0.5352698    0.3934388  66.77  0.002658593    1.237    0.191
        12 -13.3400    168.1425     17.0589   6.4797499018e+01   4.0842379687e+01      2.67631    0.9227783  56.64   0.01034169    2.367    0.578
        13 -13.2647    164.9798      6.1856   6.2403952718e+01   4.2655103308e+01     3.691852    0.7162555  63.39   0.01276682    3.482    0.713
        14  -9.8844    111.6874     15.8079   7.4687310715e+01   5.4106923017e+01    0.5130898    0.2325554  41.58   0.00166783    2.010    0.502
        15  -9.6895    116.6712     18.1561   7.4349853286e+01   5.2789361574e+01    0.4360704    0.2797019 -32.55  0.002198758    1.794    0.443
        16  -9.6594     94.1034     17.8432   7.9765179446e+01   5.7592220713e+01    0.3703251    0.3485529  65.93  0.002001464    1.315    0.239
        17  -9.6286     64.6326     16.9432   8.8421977887e+01   6.3097468750e+01    0.2932526    0.2233583 -32.63  0.001560212    1.579    0.367
        18  -8.3850     20.1607     14.3643   1.0538231754e+02   6.9300071445e+01    0.4367774    0.2037308 -20.07   0.00240879    2.205    0.546
        19 -10.4046    248.6145     14.9452   5.5704589028e+01   2.2589079267e+01    0.2953892    0.2365107 -61.24  0.002062416    1.204    0.169
        20  -8.8925     70.0242     13.9078   8.5397281827e+01   6.2498568184e+01    0.2666613    0.2165999  36.76  0.001819715    1.208    0.172
        21  -8.1675     13.1641     15.0412   1.0896915522e+02   6.9855657190e+01    0.2056569    0.1375323  42.98  0.001297467    2.724    0.633
        22 -10.3579     71.5194      5.5924   8.1577808132e+01   6.3010271943e+01    0.5577132    0.3820556  40.30   0.00256048    1.218    0.179
        23 -10.2958    249.6137      5.4693   5.3880899122e+01   2.3480886258e+01     0.476379    0.2015845 -46.49    0.0025829    2.041    0.510
        24  -9.2281     55.5548      7.4353   8.7670759236e+01   6.5525926582e+01    0.4479141    0.1690905  49.18  0.002090152    2.885    0.653
        25 -10.0455     60.6948      2.6214   8.3834157276e+01   6.5132758161e+01    0.5249907    0.3611064  25.47  0.003541737    1.159    0.137
        26  -8.8748     52.2477      2.0516   8.6538143723e+01   6.6541691676e+01    0.2762146    0.1655034  27.83  0.001765473    1.362    0.266
        27 -10.9630    200.4646      7.9573   5.8643031557e+01   3.4084992750e+01    0.4911401     0.191564  68.16  0.002271469    2.097    0.523
        28  -9.2628    229.4428      5.7377   5.5492226117e+01   2.7752893289e+01    0.1997482    0.1240197  59.53  0.001031119    1.736    0.424
        29  -9.5914    222.5423      2.9104   5.5507740646e+01   2.9578278014e+01    0.3607277    0.1653875 -42.18  0.001921956    2.115    0.527
        30  -8.9855     16.9521      2.2034   1.0152107477e+02   7.1096067353e+01    0.2185844    0.1928011 -25.84  0.001765342    1.765    0.434
        31  -8.6958     26.3705      2.5264   9.7278501753e+01   7.0030616632e+01    0.2357694    0.1605235  12.62   0.00172287    1.154    0.134
        32  -8.2579     40.4930      1.4437   9.0756447994e+01   6.8329963513e+01    0.2154245    0.0916964  40.24  0.001189654    2.123    0.529
        33  -9.1291    198.8825     54.9342   6.9836527690e+01   2.8574895140e+01    0.2547325    0.2036122  56.02 0.0004388668    1.292    0.226
        34  -9.0353     66.1916     53.2268   1.0146855196e+02   5.7928731971e+01    0.3500849    0.1774343 -49.53  0.001593621    2.482    0.597
        35  -8.4377     36.7647     53.2637   1.1258331927e+02   6.1694079635e+01    0.3740579    0.1822115  42.27  0.001792578    2.943    0.660
        36  -8.3028    101.0046     53.5099   9.0281801675e+01   5.1724051826e+01    0.2093415    0.1277113  45.77 0.0006224825    1.552    0.355
        37  -9.3140    227.6624     78.9467   7.1251332549e+01   1.8041506495e+01    0.3811969    0.3079207  14.99  0.001992602    1.924    0.480
        38 -10.5572    172.0291    242.7881   1.1636749790e+02  -1.7662594861e+00    0.4169527    0.1758841  34.12  0.001746276    2.264    0.558
        39  -7.9802    111.8573     46.0973   8.4797988974e+01   5.0549553582e+01    0.2044484    0.1898031  78.55   0.00122573    1.277    0.217
        40  -9.4316    159.7953    240.6064   1.1854886056e+02   7.3673955076e-01    0.2002553    0.1094485  47.19 0.0009525624    1.677    0.404
        41  -8.6357      5.3355     35.3716   1.2006438746e+02   6.7357810179e+01     0.286946    0.1880475  45.13  0.001776283    2.711    0.631
        42 -10.0864    205.4072    224.6172   1.0650865832e+02  -4.4555466484e+00    0.3370407    0.1161278  35.65  0.001257934    2.828    0.646
        43 -10.2635     50.4568     35.7823   1.0105507928e+02   6.2859090528e+01     0.562673    0.4785327 -62.72  0.003592114    2.006    0.501
        44  -9.8950    124.0102    206.0046   1.2090209530e+02   1.4075474978e+01    0.2042566    0.1863702  59.27            0    1.013    0.012
        45  -8.6559    238.9237    202.1615   9.5797488727e+01  -6.3182289860e+00    0.1908906     0.184406 -34.60  0.001232881    1.305    0.234
        46  -8.1625    103.6392     39.3202   8.4743399679e+01   5.3190087327e+01    0.1295841    0.1068236 -85.76 0.0007042863    1.770    0.435
        47  -8.5230     69.4511     36.6686   9.4401211811e+01   5.9902116806e+01    0.2813748    0.2012762  -6.82  0.001666707    1.378    0.274
        48  -9.7415     66.2616     30.7701   9.3291997652e+01   6.1201715597e+01    0.4957045    0.2587477 -26.54  0.002592315    1.949    0.487
        49  -8.7634     39.6927     37.1491   1.0585204370e+02   6.4009134231e+01    0.4024765    0.1472301  37.29  0.001843485    3.014    0.668
        50  -8.5542     27.3116     35.4998   1.1043448016e+02   6.5586482914e+01    0.2094389    0.1525087 -20.81 0.0009828957    1.088    0.081
        51  -9.9698     87.4293     30.4906   8.6287161437e+01   5.7511514182e+01    0.4626209    0.2684391  20.55  0.002281371    2.020    0.505
        52 -10.4261    225.0790     28.8488   6.0613594070e+01   2.6006540569e+01    0.4200255    0.3801116 -81.32  0.001573019    1.193    0.162
        53  -9.0033     97.5454     28.1396   8.2526702400e+01   5.5801015675e+01    0.5093122    0.2422121 -14.43  0.002153041    3.011    0.668
        54  -9.6278     79.5875     28.8861   8.8119088422e+01   5.9157167167e+01    0.4683925    0.2450508 -13.91  0.002211684    2.437    0.590
        55 -11.4303     11.5365    141.1881   1.3914399901e+02   4.4896931478e+01    0.5931362    0.3805168 -77.51  0.003542759    1.297    0.229
        56 -12.6648    241.1158    132.9088   8.1100984297e+01   5.5979946225e+00     1.479189     1.211168  55.63  0.005496351    1.366    0.268
        57  -9.0298     41.3302    142.4637   1.3139736447e+02   4.1890478513e+01    0.2330206    0.1498042 -89.33  0.001175523    1.735    0.424
        58 -10.7199     11.9962    127.0443   1.3719320296e+02   4.8148941305e+01     0.456313    0.1953374 -48.64  0.002236399    2.108    0.526
        59  -9.3850     16.9912    125.9472   1.3564455076e+02   4.8036518526e+01    0.2875033    0.1502717  86.72  0.001313306    2.586    0.613
        60  -7.9813     22.4511    125.4958   1.3402963728e+02   4.7711064325e+01    0.1279038    0.1037984 -63.70 0.0001520782    1.014    0.014
        61 -10.2341     12.8196    120.6438   1.3605228791e+02   4.9565371211e+01    0.3151646    0.1995785 -46.37  0.001625331    1.462    0.316
        62 -10.2124      2.9970     39.9650   1.2252474827e+02   6.6721262567e+01    0.3961834    0.3638456  11.03  0.002793405    1.455    0.313
        63  -8.2784     19.2857     21.9512   1.0888545238e+02   6.8355881120e+01    0.1836419    0.1365297  18.27  0.001237416    1.412    0.292
        64  -9.5882     10.2434    116.9896   1.3625580486e+02   5.0576332496e+01    0.2032483    0.1489836 -23.47  0.001290317    1.616    0.381
        65  -9.6256     17.7715    105.6042   1.3215198050e+02   5.2632157986e+01    0.4203738    0.3009854  81.25  0.002492697    1.748    0.428
        66  -8.9166    117.3110     14.3294   7.2949398473e+01   5.3010522002e+01       0.2069    0.1596222  49.76 0.0005974449    1.077    0.072
        67  -9.1543     30.0990    102.1149   1.2757425525e+02   5.2431316301e+01    0.2946782    0.1439821 -34.41  0.001367072    2.297    0.565
        68  -9.5187     56.4428     98.5849   1.1815827206e+02   5.0433884007e+01    0.3733672    0.2806087  78.35  0.001931241    1.974    0.493
        69  -8.1250     63.6870     98.5061   1.1576475780e+02   4.9509270354e+01    0.2629024    0.1167463 -52.83  0.001095174    2.070    0.517
        70  -8.1769      8.0287     17.0229   1.1224506868e+02   6.9998878988e+01    0.1787256   0.09295638 -19.61 0.0006713801    1.697    0.411
        71  -8.9763      2.1250     88.7959   1.3420325917e+02   5.7275997769e+01    0.3359192    0.1838817 -78.81  0.001833602    2.024    0.506
        72  -8.7414     19.6733     89.0141   1.2834890165e+02   5.6138830191e+01    0.2220542    0.1728196 -16.77  0.001021683    1.362    0.266
        73 -11.3908     41.9807     84.0115   1.1944241451e+02   5.5224191118e+01    0.8652766      0.57943  46.64  0.004743704    1.964    0.491
        74 -11.4999     45.7871     81.1078   1.1734534687e+02   5.5415024370e+01     0.850605    0.5938085 -51.49  0.004478515    1.329    0.247
        75  -7.9506     70.2464     79.3939   1.0836848223e+02   5.2579933101e+01    0.1854334    0.1254165  43.43 0.0009466224    1.678    0.404
        76  -9.5848     74.0902     68.5497   1.0376144433e+02   5.4053660501e+01    0.3520839     0.296787 -29.70  0.001452129    1.127    0.113
        77 -10.0264     24.5288     65.8672   1.2108575449e+02   6.0501620737e+01     0.579364    0.2014145 -46.30  0.002691157    2.219    0.549
        78  -8.7116     83.3662     68.6849   1.0071815627e+02   5.2496363813e+01    0.3419229    0.2175404 -63.27  0.001485827    2.647    0.622
        79  -9.9562    186.5455    246.4408   1.1400328581e+02  -4.8311068237e+00    0.3308854    0.1917258  54.66  0.001431441    2.244    0.554
        80  -8.4055    125.5102     28.9997   7.5912496750e+01   4.9667921445e+01    0.2710554    0.1606572  44.02  0.001345786    1.525    0.344
        81  -8.0300     33.1860     68.5802   1.1854273206e+02   5.9212738168e+01    0.1691722    0.1086821   0.62  0.000954541    1.743    0.426
        82  -8.9870    132.4437     25.9473   7.3481117808e+01   4.8411793190e+01    0.2565393    0.2364226 -48.34 0.0009882957    1.254    0.202
        83  -8.6612    227.5479     14.5249   5.7410421982e+01   2.7186286194e+01    0.3839125    0.1046955  71.31   0.00148826    3.250    0.692
        84 -10.4189      3.8553     75.7719   1.3111711024e+02   5.9903886521e+01    0.5415099     0.336068 -51.43  0.002976215    1.216    0.178
        85  -9.0618    104.4300     25.9209   7.9914207368e+01   5.4629383170e+01    0.3760526    0.2384942  63.58  0.001962671    1.759    0.432
        86  -9.4028     48.8624     61.9212   1.1067627336e+02   5.8784877634e+01    0.3317614    0.2874671  -7.22  0.001644728    1.078    0.072
        87  -8.1917     93.0475     56.8497   9.3781972736e+01   5.2754899242e+01    0.2012995    0.1876393  53.96  0.001213898    1.266    0.210
