#   1 NUMBER                 Running object number                                     
#   2 MAG_AUTO               Kron-like elliptical aperture magnitude                    [mag]
#   3 X_IMAGE                Object position along x                                    [pixel]
#   4 Y_IMAGE                Object position along y                                    [pixel]
#   5 X_WORLD                Barycenter position along world x axis                     [deg]
#   6 Y_WORLD                Barycenter position along world y axis                     [deg]
#   7 A_WORLD                Profile RMS along major axis (world units)                 [deg]
#   8 B_WORLD                Profile RMS along minor axis (world units)                 [deg]
#   9 THETA_WORLD            Position angle (CCW/world-x)                               [deg]
#  10 FWHM_WORLD             FWHM assuming a gaussian core                              [deg]
#  11 ELONGATION             A_IMAGE/B_IMAGE                                           
#  12 ELLIPTICITY            1 - B_IMAGE/A_IMAGE                                       
         1 -15.0366      6.8609    145.8864   1.4399039468e+02   4.3789271749e+01     6.214581      1.88064 -80.13   0.02376859    3.609    0.723
         2 -12.8107      2.4880    156.2659   1.4597267353e+02   4.1821376431e+01      2.42258     0.263002 -73.36   0.00622709    7.954    0.874
         3 -13.4817    210.5379      9.9146   6.2449658543e+01   3.1470108217e+01     1.169605    0.8963372  43.03  0.006004471    1.621    0.383
         4 -13.4060    195.3168     29.1824   6.9011903991e+01   3.2945349234e+01     1.386754     1.316531  68.09  0.007665677    1.150    0.130
         5 -11.6109      2.2124     22.4541   1.2136506429e+02   6.9037295560e+01      0.61567   0.05796016 -50.03  0.002109503    5.689    0.824
         6 -12.2988      2.2536      5.6813   1.1492569471e+02   7.1501193975e+01    0.6835226    0.3688049 -29.84   0.00482097    1.372    0.271
         7 -10.9160    100.8737    246.0920   1.3564210030e+02   1.0733240664e+01     0.364581    0.1919161 -55.86  0.001082573    2.239    0.553
         8 -12.2906    247.0327    247.9776   1.0891669404e+02  -1.3690025980e+01      0.69597    0.4414226  20.88  0.004364137    1.368    0.269
         9  -9.6881    111.9272    250.5425   1.3411526787e+02   8.1793845628e+00     0.189764    0.1009634  44.80 0.0006504752    1.578    0.366
        10 -11.4486     34.5495    245.9181   1.4706674637e+02   2.0024952770e+01    0.5532823    0.3680799 -62.57  0.003825763    1.874    0.466
        11 -10.0215     28.9982    249.7086   1.4819592809e+02   1.9985044198e+01    0.2218213    0.1447766 -77.55   0.00105357    1.468    0.319
        12 -10.3648      2.7563    248.4930   1.5212796497e+02   2.3070490365e+01     0.288874    0.1754311 -75.25  0.002166357    1.591    0.371
        13 -10.2816     81.5440    248.9836   1.3938524283e+02   1.3159944245e+01    0.1934877    0.1316579  54.38 0.0009662581    1.205    0.170
        14  -9.6718     47.0327    249.3200   1.4527372972e+02   1.7851141985e+01    0.1597312    0.1094844  63.25 0.0004296301    1.127    0.113
        15 -10.2317     20.8087    243.5908   1.4910884687e+02   2.2046365254e+01    0.3365106    0.1333427  69.61  0.001657054    2.332    0.571
        16  -9.7100      5.8599    240.9162   1.5127659227e+02   2.4137148026e+01    0.1453906    0.1092504  88.54 0.0003976444    1.252    0.201
        17  -9.9030     12.8511    240.1602   1.5015524090e+02   2.3550165961e+01    0.1336806    0.1061903 -88.77 0.0006542957    1.338    0.253
        18 -10.9146    183.8391    238.6524   1.1898208204e+02  -2.1682896282e+00    0.3301891    0.1767751  45.30  0.001431491    1.627    0.385
        19 -11.4583    230.6010    231.8883   1.0910294183e+02  -9.0989981418e+00    0.7284816    0.4061476 -60.21  0.002494979    6.371    0.843
        20 -10.6333    225.4452    249.6722   1.1301798700e+02  -1.0643258012e+01    0.1883151    0.1816526  41.93  0.001376544    1.429    0.300
        21  -9.0936     22.7200    236.2241   1.4834590443e+02   2.3218559789e+01    0.1337942    0.1099289 -87.72 0.0009713662    1.352    0.260
        22 -14.2734    104.6782    229.1776   1.3301140438e+02   1.3285827999e+01     8.228813    0.6204364  47.29   0.01668839   10.594    0.906
        23 -12.6982      9.2669    207.0853   1.4868826655e+02   3.0388894597e+01    0.6854286    0.5587642  39.78  0.004176639    1.652    0.395
        24 -10.1958     54.4403    229.4116   1.4241808061e+02   2.0687673962e+01    0.2535872    0.1560456  71.18 0.0009607312    1.374    0.272
        25  -8.6219     91.5367    214.0035   1.3375347437e+02   1.8445698109e+01    0.1798798    0.0999385  86.01 0.0006315982    2.360    0.576
        26  -8.6193    152.4823    212.9309   1.2111397562e+02   7.9848697284e+00    0.1780969    0.1379652 -53.40 0.0003390806    1.435    0.303
        27 -11.4887     61.2782    198.3352   1.3803032793e+02   2.6251643891e+01    0.2871639    0.2303388 -55.46 0.0005514388    1.508    0.337
        28  -9.7758    193.4663    196.2099   1.0972167505e+02   3.2176169042e+00    0.7795938    0.3547366 -61.79  0.001840266    8.402    0.881
        29 -11.0244     17.0206    198.0408   1.4663170762e+02   3.1503749820e+01    0.2514253    0.1694658  65.42 0.0004860883    1.289    0.224
        30  -8.8513     50.0250    196.3228   1.4009030528e+02   2.8159863782e+01    0.1636961    0.1319314  73.44 0.0002089734    1.095    0.087
        31 -11.1226      3.0919    192.7866   1.4879960901e+02   3.3916659514e+01    0.4957655    0.2079539 -83.44  0.002721073    1.922    0.480
        32 -11.3791      6.9042    188.7198   1.4779869497e+02   3.4433173333e+01    0.3334707     0.222936  86.53   0.00231151    1.123    0.110
        33 -11.5582    123.7267    249.8262   1.3187548507e+02   6.3737752531e+00    0.5942214    0.1357222  42.44   0.00209098    3.653    0.726
        34 -11.7628     67.4319    190.1453   1.3578244145e+02   2.7214509403e+01    0.2877875    0.2313292 -60.72 0.0005094756    1.352    0.261
        35 -13.1137     64.2480    175.4793   1.3458231655e+02   3.0981119779e+01    0.4943757    0.2739255 -46.90  0.001497609    2.218    0.549
        36 -10.6062     77.5104    177.4087   1.3186810987e+02   2.8649299687e+01    0.2445328     0.213469 -85.57  0.000256006    1.054    0.051
        37 -10.2019     98.0102    174.4342   1.2671797407e+02   2.6087709172e+01     0.343401    0.1960406 -62.70 0.0003810458    1.711    0.415
        38 -11.7386     85.1857    168.1499   1.2868903071e+02   2.9625296431e+01    0.6290713    0.6097601 -85.06  0.003894918    1.187    0.158
        39 -10.8998    217.0780    248.6562   1.1436681178e+02  -9.1898210302e+00    0.3439807    0.1750221  20.39  0.001588103    2.594    0.615
        40  -9.8675     97.8298    152.3208   1.2285748509e+02   3.1284799760e+01    0.3039715    0.2627083  59.37 0.0008164189    1.164    0.141
        41 -11.9282     86.2647    151.3569   1.2556275513e+02   3.3409511714e+01    0.3019148    0.2432085 -47.71 0.0006172355    1.311    0.237
        42 -12.3669     67.3080    143.8127   1.2901209640e+02   3.7985935620e+01    0.7303203    0.4972016  77.58  0.003335013    1.736    0.424
        43  -8.6346    100.5412    148.0208   1.2134703161e+02   3.1833581914e+01    0.2126764    0.1360183 -54.63 0.0003336675    1.486    0.327
        44  -8.1864    192.0000    144.0030   9.8958497346e+01   1.3694053117e+01     0.233894   0.08687112 -42.04 0.0003964081    2.674    0.626
        45 -14.1376     40.1914    224.6840   1.4455520481e+02   2.3436224915e+01     1.697655     1.076708 -49.19   0.00639455    2.449    0.592
        46  -9.4238    109.3911    137.2778   1.1686152143e+02   3.2774567720e+01     0.440175    0.2677806 -27.12  0.001683344    2.695    0.629
        47  -8.8690     60.0383    227.0374   1.4119391295e+02   2.0410858805e+01    0.2091119    0.1118683  70.13   0.00112931    1.790    0.441
        48 -10.3203     96.6188    134.4425   1.1957848843e+02   3.5710069775e+01    0.2627233    0.2278618 -32.35 0.0006646233    1.299    0.230
        49 -11.1228     56.9703    131.4173   1.2952661080e+02   4.2246817809e+01    0.5603807    0.2552932 -69.72  0.002350651    2.309    0.567
        50 -10.5954     32.4193    132.3667   1.3610922334e+02   4.4695911649e+01    0.2659675    0.1791022  76.46 0.0009019772    1.672    0.402
        51  -9.5618     89.7222    130.3802   1.2054597415e+02   3.7815011422e+01    0.2279924    0.1946217  85.94 0.0006918334    1.246    0.198
        52  -9.1431     79.3697    131.4626   1.2354411182e+02   3.9180619929e+01    0.2248797    0.1240373  50.25 0.0005323288    2.057    0.514
        53 -11.1748     22.3835    126.4789   1.3783428773e+02   4.6937280665e+01    0.3364959    0.1677881  49.32  0.001535217    2.426    0.588
        54  -8.7830    106.6280    123.9135   1.1456876630e+02   3.6388194603e+01     0.199642    0.1702342 -56.32 0.0003722113    1.116    0.104
        55 -10.0736    167.7110    112.8193   9.6571189279e+01   2.5742542677e+01    0.3587283    0.2784583 -75.67 0.0008178481    1.570    0.363
        56  -9.3162    203.1791    111.7658   8.8948067189e+01   1.7538043978e+01    0.2087111    0.1842915  11.69 0.0006619594    1.337    0.252
        57  -8.8009     38.5205     94.9681   1.2767775235e+02   5.2555304964e+01    0.1878174    0.1061827 -58.76 0.0003876841    1.488    0.328
        58 -10.9454    241.6814     92.2812   7.7777207510e+01   1.2254089386e+01    0.2691601    0.2106485 -64.65  0.001436882    1.279    0.218
        59 -12.5769     34.7037    232.2634   1.4608571892e+02   2.2600949268e+01    0.2771006    0.2278241 -87.80 0.0007596599    1.296    0.228
        60  -9.3103    157.5143     76.5357   8.8929781275e+01   3.5232950422e+01    0.1510644    0.1468551  70.78 5.269018e-05    1.011    0.010
        61  -9.9656     43.4042     67.6963   1.1935351273e+02   5.7716759089e+01    0.2549771    0.1948148  51.27 0.0009192821    1.824    0.452
        62  -9.0733     36.9252     64.4632   1.2071455509e+02   5.8997743124e+01     0.184951    0.1692743  41.00 0.0007270644    1.420    0.296
        63  -9.6011     32.9603     62.5159   1.2157968560e+02   5.9744862476e+01    0.2101085    0.1855754  31.13 0.0007512685    1.419    0.295
        64 -10.8778     15.2067     55.3768   1.2610055170e+02   6.2516507937e+01    0.1962353    0.1831097 -15.48 0.0007228327    1.277    0.217
        65 -10.1022    173.5020    222.3461   1.1839367898e+02   2.3622996821e+00    0.2827817    0.1537259  40.27  0.001352785    1.634    0.388
        66 -11.0703    199.4199    247.6040   1.1744273507e+02  -6.1576048142e+00    0.3395929    0.2503325 -70.51   0.00191587    2.364    0.577
        67 -10.9336    106.1083    248.2378   1.3492069509e+02   9.5184266459e+00    0.3117848    0.2153645  85.12   0.00190632    1.523    0.343
        68 -10.7320     97.6791    247.6914   1.3638883432e+02   1.0945703189e+01    0.2639034     0.206431 -61.10  0.001752052    1.553    0.356
