#   1 NUMBER                 Running object number                                     
#   2 MAG_AUTO               Kron-like elliptical aperture magnitude                    [mag]
#   3 X_IMAGE                Object position along x                                    [pixel]
#   4 Y_IMAGE                Object position along y                                    [pixel]
#   5 X_WORLD                Barycenter position along world x axis                     [deg]
#   6 Y_WORLD                Barycenter position along world y axis                     [deg]
#   7 A_WORLD                Profile RMS along major axis (world units)                 [deg]
#   8 B_WORLD                Profile RMS along minor axis (world units)                 [deg]
#   9 THETA_WORLD            Position angle (CCW/world-x)                               [deg]
#  10 FWHM_WORLD             FWHM assuming a gaussian core                              [deg]
#  11 ELONGATION             A_IMAGE/B_IMAGE                                           
#  12 ELLIPTICITY            1 - B_IMAGE/A_IMAGE                                       
         1 -14.0779    198.7243     76.0784   1.8033637738e+01   2.7671478876e+01     2.035325     1.684985 -32.33  0.009990877    1.377    0.274
         2 -14.7020    243.8507     96.6817   1.7202188946e+01   1.7754379506e+01     2.234304    0.2606536 -40.96  0.005202579    5.712    0.825
         3 -14.0550    225.9088     67.8480   1.3663029351e+01   2.4309549671e+01     2.401471     1.384206 -76.81  0.005871499    2.076    0.518
         4 -14.1566    246.6909     56.2446   9.9472244481e+00   2.2647754682e+01     2.551808     1.339722 -59.88  0.006837353    1.621    0.383
         5 -13.8884    209.4688     90.3136   1.9637958373e+01   2.3756111199e+01     1.736111     1.255028  -8.32  0.006133292    2.400    0.583
         6 -11.3156    178.8251     50.1612   1.4715204759e+01   3.5027347512e+01    0.6789303    0.4229581  -9.85   0.00300094    3.905    0.744
         7  -7.4171    245.6830     11.7184   2.3573599497e+00   2.7810681245e+01   0.07629418   0.07244314 -69.49 0.0006989745    1.579    0.367
         8 -11.9193    245.5076    247.4337   4.0543017118e+01  -3.4490084940e+00    0.8542112    0.6104019 -13.30  0.007357644    1.127    0.113
         9  -9.0211    181.3084    249.5058   5.1330023664e+01   1.3085135345e+00    0.2248496    0.1532803 -10.11 0.0009432166    1.177    0.151
        10  -9.6164    196.8338    242.9637   4.7648956710e+01   9.0853507668e-01    0.3502755    0.1677131 -13.38  0.001859457    2.391    0.582
        11  -8.5135    153.6788    232.9032   5.4504166711e+01   6.6227989745e+00    0.1714831    0.1403328 -18.74  0.001068078    1.110    0.099
        12  -8.4046    213.8169    231.3742   4.3161461669e+01   1.1119597769e+00    0.1822995   0.09862623 -33.18  0.001090062    1.472    0.321
        13 -10.7636    230.6317    248.2016   4.2840337191e+01  -2.4961161070e+00    0.3089634    0.1985408 -18.30  0.002409258    1.100    0.091
        14  -8.7086    157.2492    244.5896   5.5344930208e+01   4.3128165735e+00    0.2186917   0.09666444  25.69  0.001128814    2.022    0.505
        15 -10.6153    249.0123    236.5872   3.8585533574e+01  -2.3383794960e+00    0.4128247    0.1948361 -35.03  0.002465078    1.563    0.360
        16  -8.3548    222.7651    225.9202   4.0958492215e+01   1.1217232071e+00    0.3485636    0.1539996  -0.74  0.001572708    3.991    0.749
        17  -8.4839    227.4937    225.4960   4.0169806213e+01   7.8420910396e-01    0.2994816    0.1499536  44.93  0.001417844    5.185    0.807
        18  -8.0277    162.3625    223.8389   5.1439479171e+01   7.2600769440e+00    0.1730782   0.09579004 -35.52 0.0005797287    1.665    0.399
        19  -9.2852    240.4454    217.7664   3.7152242886e+01   7.7864588772e-01    0.2619214     0.108172 -36.61   0.00105611    1.810    0.447
        20  -8.4652    234.5654    215.6682   3.7694431292e+01   1.5553706780e+00    0.2068913   0.07413537 -37.58  0.001135179    2.123    0.529
        21  -8.4007    229.7881    213.0738   3.8017304688e+01   2.3314839785e+00     0.149337    0.1243985 -26.92 0.0005226432    1.307    0.235
        22  -8.2964    237.0828    207.7828   3.6171466007e+01   2.4397609370e+00    0.2871843   0.07805878 -36.35  0.001283427    2.948    0.661
        23  -8.3049    227.2683    209.4567   3.7856345738e+01   3.0733536496e+00    0.1741226   0.09633641  18.34 0.0007029934    1.997    0.499
        24 -10.3068    249.9554    202.0984   3.3560959810e+01   2.1201449472e+00    0.5216364    0.1844856 -31.70  0.001212284    2.435    0.589
        25  -8.2203    244.7079    201.3722   3.4157498195e+01   2.6694141186e+00    0.1837226    0.1327689 -52.69 0.0007627345    1.930    0.482
        26  -9.1397    243.4884    198.0416   3.3825504825e+01   3.2402362046e+00     0.295332    0.1362089 -35.92  0.001231912    1.608    0.378
        27  -8.9403    124.0198    206.0428   5.7281860361e+01   1.5083305023e+01    0.1919529    0.1690102  -2.72  0.001160565    1.011    0.011
        28  -7.8226    217.4358    203.9535   3.8529720493e+01   4.8067400576e+00    0.2107971    0.1579373 -61.06  0.001240166    2.201    0.546
        29  -9.9523    218.5835    198.7078   3.7541275818e+01   5.4869646157e+00    0.2372572    0.2044024 -36.03 0.0002321679    1.349    0.259
        30  -9.2581    208.1034    202.0321   3.9726948834e+01   6.0316294085e+00    0.3238793    0.2083533 -22.69  0.001808843    1.339    0.253
        31  -8.4280    196.9773    203.8585   4.1887123352e+01   6.8991001333e+00    0.1919952    0.1459798  20.23  0.001192504    1.400    0.285
        32  -9.5659    235.6928    195.1363   3.4463799567e+01   4.3641138015e+00    0.2859833    0.1941135   4.89  0.001126726    1.593    0.372
        33  -8.1709    200.7158    195.3177   3.9895621344e+01   7.8801315724e+00    0.1631859    0.1118656  29.86 0.0004921305    1.652    0.395
        34  -8.5984    198.9444    192.0052   3.9662527930e+01   8.6162160747e+00    0.2835991    0.1784514 -52.84 0.0007121107    1.873    0.466
        35  -8.8240    192.9946    248.3554   4.9057384270e+01   4.6054770104e-01    0.2300211     0.104115 -28.71   0.00129717    1.989    0.497
        36 -13.9320    228.7839    114.6046   2.1939137908e+01   1.7231244060e+01    0.8258321    0.4047437 -46.94  0.003141393    1.622    0.383
        37 -12.9199    250.3190    141.8675   2.4140876311e+01   1.0564694169e+01    0.5317634    0.1585258 -39.50 0.0005496482    2.524    0.604
        38 -13.8162    226.0502    138.6503   2.6524040103e+01   1.3937685516e+01    0.6568099    0.5595812  51.67  0.004986623    1.544    0.352
        39 -13.7253    237.3991     88.4976   1.6374471766e+01   1.9779277557e+01    0.6041828    0.3472483 -71.84  0.003345093    2.306    0.566
        40 -13.0826    240.0387     81.3280   1.4862739852e+01   2.0380213569e+01    0.3519026    0.3402048 -69.85  0.001787836    1.368    0.269
        41 -12.8994    250.0743    119.3552   2.0448902193e+01   1.3787901852e+01    0.5086721    0.1489796 -40.17 0.0003938812    2.546    0.607
        42 -14.6019    236.4168    127.6401   2.3344954195e+01   1.4286927043e+01    0.9583368    0.6108054 -25.98  0.004580071    1.688    0.408
        43 -12.6770    241.6341    107.0641   1.9219215216e+01   1.6596418054e+01    0.2521601     0.197142 -33.69 0.0003345204    1.253    0.202
        44 -13.3937    236.1703    105.9563   1.9590171052e+01   1.7487883584e+01    0.4192253    0.2719302 -24.80  0.001733326    1.871    0.465
        45 -13.5579    239.9640    141.3982   2.5264248670e+01   1.1819901241e+01    0.5579737    0.3708291 -38.65  0.001337632    1.130    0.115
        46 -13.6641    248.0396    135.3176   2.3320698013e+01   1.1761053194e+01    0.4946267    0.3549515 -16.51  0.003595702    1.651    0.394
        47 -13.3476    246.7585    128.9536   2.2404165656e+01   1.2824473068e+01    0.4290801    0.2495996 -34.35  0.002872729    1.434    0.303
        48 -13.5174    244.3284    122.5852   2.1596387830e+01   1.4034237658e+01    0.5262703    0.2803634 -40.73   0.00215135    1.398    0.285
        49 -14.1036    246.3513     86.6617   1.5240615946e+01   1.8779962680e+01    0.4602039    0.2601314 -61.00  0.003033154    1.755    0.430
        50 -12.9907    249.5392     82.2843   1.4216160913e+01   1.8927003526e+01    0.3783149    0.2027466 -60.71  0.001188371    1.846    0.458
        51 -13.8645    240.9836    113.3555   2.0374763791e+01   1.5784143479e+01    0.4413188       0.4021  60.39     0.003694    1.455    0.313
        52 -14.0279    249.2013    110.5867   1.9063592056e+01   1.5124492110e+01    0.6144075    0.2317252 -39.52  0.002625326    2.009    0.502
        53 -13.3660    249.7782     99.5911   1.7146611320e+01   1.6569721189e+01    0.5016487    0.1563819 -46.00  0.002054808    2.367    0.578
        54  -9.4733    176.6513    244.3792   5.1515181376e+01   2.5019082755e+00    0.2904102    0.1715825  -9.59  0.001224824    1.593    0.372
        55  -7.4372    219.4339    190.4327   3.6111953424e+01   6.6631611096e+00    0.1130018   0.08539782 -25.50 9.602538e-05    1.017    0.017
        56 -13.3550    225.3516    124.0105   2.4028569501e+01   1.6278387058e+01    0.5751015    0.4623126 -15.98  0.002475166    1.466    0.318
        57  -8.6361    230.4421    186.1917   3.3819774163e+01   6.1830375404e+00    0.2203691    0.1456572   7.75 0.0008537626    1.755    0.430
        58  -9.3343    233.4049    181.8278   3.2714209049e+01   6.5321985273e+00    0.2582469    0.1813419  -6.17  0.001288932    1.505    0.335
        59 -10.3937    223.8946    184.1036   3.4436462456e+01   7.1678210581e+00    0.1986727    0.1728355 -21.53 0.0003198745    1.199    0.166
        60 -13.6067    241.1324    150.1520   2.6577669100e+01   1.0395137424e+01     0.717597     0.502147  43.96   0.00276448    1.931    0.482
        61  -7.7378    201.3942    182.2128   3.7644230809e+01   9.9505099044e+00    0.1671286   0.09840547 -48.36 0.0009533858    1.675    0.403
        62  -8.2470    192.8464    178.8235   3.8523660680e+01   1.1539679858e+01    0.1510695    0.1304995 -47.13 0.0002582341    1.304    0.233
        63  -8.4581    224.0001    176.9236   3.3263572854e+01   8.2558817001e+00    0.2324631    0.1462668  43.76  0.000853551    2.211    0.548
        64  -9.5848    223.5786    170.8224   3.2325635653e+01   9.2434423849e+00    0.2111871    0.1706368 -17.19 0.0004337659    1.160    0.138
        65  -7.9812     47.8462    171.8603   7.3958904613e+01   3.2783642298e+01     0.219563    0.1953958 -20.87 0.0005485014    1.198    0.165
        66  -9.4199    192.0313    167.9954   3.6795933770e+01   1.3507803713e+01    0.2365505    0.1525537 -46.87 0.0003613729    1.438    0.304
        67  -8.0914    183.2359    169.0005   3.8520720763e+01   1.4484855758e+01     0.175515    0.1339718 -34.03  0.001084107    1.124    0.110
        68  -9.0332    216.7781    166.9082   3.2664324956e+01   1.0635482842e+01    0.1697517    0.1550402 -11.42 0.0002962907    1.215    0.177
        69  -9.4145    225.3899    158.0116   2.9934061140e+01   1.1021113293e+01    0.2700326    0.1940726 -58.85 0.0005064767    1.723    0.420
        70  -8.0035    190.7370    159.0334   3.5423345648e+01   1.5240780339e+01    0.1702945    0.1323568 -34.21 0.0004107204    1.090    0.083
        71  -8.3915    196.9764    157.6674   3.4137973906e+01   1.4638399653e+01    0.2368871    0.1380613 -31.38 0.0007203542    1.631    0.387
        72  -7.5759    218.2430    157.6458   3.0876426622e+01   1.1932599718e+01    0.1098258   0.07795649 -55.40 0.0002495129    1.586    0.369
        73  -8.4625    207.2710    157.1725   3.2421567715e+01   1.3377650251e+01    0.1766015    0.1318387 -28.05 0.0006047029    1.187    0.157
        74  -8.2472    221.6925    154.6659   2.9877900500e+01   1.1984336297e+01    0.2205368    0.0888357 -39.16  0.001097293    1.996    0.499
        75  -8.7138    220.0469    150.5577   2.9399928412e+01   1.2833581756e+01    0.2469811    0.1440722 -53.17 0.0005415366    1.800    0.444
        76  -7.6350    210.7732    151.6413   3.0920619010e+01   1.3835251623e+01    0.1326005    0.1114068  56.09 0.0002775415    1.606    0.377
        77  -8.3705    212.3711    148.3445   3.0103752500e+01   1.4164430880e+01    0.1838062     0.151501 -49.44 0.0001264652    1.215    0.177
        78 -10.4049    186.5452    145.6676   3.3672751690e+01   1.8189378004e+01    0.2881006    0.2326472 -70.58  0.001766799    1.564    0.360
        79  -7.7259    133.3574    147.7967   4.4886413237e+01   2.6168879348e+01    0.2068489    0.1234424 -40.55 0.0008427278    1.665    0.399
        80  -9.0374    186.4154    136.2365   3.1895242141e+01   1.9878861955e+01    0.2483886    0.1966243 -47.02 0.0005743009    1.126    0.112
        81  -8.3872    195.7719    136.2079   3.0382561638e+01   1.8483435971e+01    0.1801133    0.1623687  73.63  0.000817965    1.388    0.280
        82 -10.1011    199.7995    124.5995   2.7564083626e+01   1.9840281955e+01    0.3104638     0.232068  79.73  0.001297425    1.906    0.475
        83  -9.3313    199.5769    132.7165   2.9140079125e+01   1.8516393064e+01    0.3566094    0.1848425 -52.89  0.001383958    1.945    0.486
        84  -8.6521    199.9048    128.8343   2.8356336375e+01   1.9118556042e+01    0.2396882    0.1669513 -40.65 0.0007431606    1.204    0.169
        85  -8.4136      8.0109    135.0942   8.4076553229e+01   4.6479845440e+01    0.2129799    0.2063144 -59.25 0.0003432196    1.030    0.029
        86 -12.5138    192.1941    128.5778   2.9481089410e+01   2.0327396643e+01    0.2861701    0.2205908 -41.93  0.000327327    1.102    0.092
        87  -8.0799    141.3296    127.8858   3.8877876380e+01   2.8985043149e+01    0.1964921    0.1663071 -46.15 0.0003775961    1.119    0.106
        88  -8.4163    150.8002    121.1032   3.5369893436e+01   2.8640062484e+01    0.2183255     0.191168  46.67 0.0004032491    1.227    0.185
        89 -13.9795    217.8285    110.4749   2.2483113247e+01   1.9409959970e+01     1.328006    0.9446124 -26.40 0.0005175693    1.567    0.362
        90  -8.2409    202.2299    250.6306   4.7754316586e+01  -6.3019682601e-01    0.1488038   0.08140683   6.57 0.0007357732    1.670    0.401
        91  -7.8035    176.3203    112.6673   2.8829984573e+01   2.5685375604e+01    0.1318174   0.09462178 -72.16 0.0005949897    1.698    0.411
        92  -7.7224    146.3845    112.1985   3.4300827549e+01   3.1190078748e+01    0.1954558    0.1225378 -54.99 0.0003225403    1.607    0.378
        93  -9.3523    139.2450    245.8606   5.9265524513e+01   5.8917940896e+00    0.2428257    0.1338849  -5.98 0.0008356483    2.038    0.509
        94  -8.3432    154.5826    107.2667   3.1540373114e+01   3.0586176855e+01    0.2691506    0.1199957 -48.65  0.001130153    2.123    0.529
        95  -8.4738    169.8612    106.5760   2.8618166105e+01   2.7898891855e+01    0.2835645    0.1906444  85.78  0.001099019    2.211    0.548
        96  -7.5956    166.5386    107.5728   2.9409685867e+01   2.8322052011e+01    0.1727042    0.1288057  36.78 5.406843e-05    1.627    0.385
        97  -8.1875    178.7772    103.0232   2.6397536335e+01   2.6924546393e+01    0.2320571    0.1529175 -31.71 0.0005526303    1.653    0.395
        98  -8.6540    179.5086     99.5194   2.5538149024e+01   2.7386896337e+01    0.2350435    0.1498059 -69.98 0.0008219951    1.981    0.495
        99  -8.2658    167.9794    100.9979   2.7718213212e+01   2.9222388754e+01    0.2176755    0.1509858 -72.28  0.001143893    1.735    0.424
       100  -9.6284    171.3669     94.9631   2.5826754834e+01   2.9634843622e+01    0.4133243    0.1661552 -55.72  0.001564649    3.144    0.682
       101  -8.9162    164.9230     94.4138   2.6764196663e+01   3.0937282226e+01    0.2593829    0.1615245 -56.87  0.001027738    1.593    0.372
       102  -7.9674    159.6669     95.3424   2.7883699554e+01   3.1778888701e+01    0.1404529   0.09742178 -74.71  0.000705087    1.756    0.430
       103  -7.8189    155.3020     95.6640   2.8744637025e+01   3.2565103471e+01    0.1389989   0.09874117 -73.82 0.0007036611    1.662    0.398
       104  -8.7014    128.7845     89.1746   3.2550179738e+01   3.9100185196e+01    0.2470651    0.1517119 -82.25  0.000956079    2.880    0.653
       105  -9.3331    206.7777    239.8707   4.5517840436e+01   5.0251526158e-01    0.2084962    0.1509663 -18.00 0.0007339746    1.045    0.044
       106  -8.8415    151.0368     88.2139   2.7769034788e+01   3.4724257196e+01    0.2231863    0.1496331 -88.48 0.0008920803    2.012    0.503
       107 -13.0211    231.2412     98.9057   1.8849380241e+01   1.9189118065e+01     0.614698    0.5037493 -21.29  0.003298143    1.502    0.334
       108  -8.9884    134.4210     81.5531   2.9361863548e+01   3.9316709285e+01    0.3720763    0.1344417 -38.22  0.001328241    3.078    0.675
       109  -9.5100    175.9844     80.9432   2.2011635393e+01   3.1067948249e+01    0.3014863    0.1782404 -53.04 0.0003955197    1.537    0.350
       110 -10.3648    174.9425     75.6928   2.0984018365e+01   3.2088673412e+01    0.3676251    0.2525478 -47.90  0.001259585    1.284    0.221
       111 -10.4524    170.4822     70.5825   2.0447908689e+01   3.3741404989e+01    0.3881383    0.2046608 -52.66  0.001066936    1.761    0.432
       112 -12.0401    157.8383     74.5111   2.3289199754e+01   3.5653414963e+01    0.7411821    0.5280151  78.62 0.0004935076    1.506    0.336
       113  -8.5427    142.9802     80.9479   2.7498395865e+01   3.7633596145e+01    0.2229391    0.1560177 -75.88  0.001041369    1.680    0.405
       114  -9.1720    164.9876     80.0137   2.3451542265e+01   3.3336321919e+01    0.2128328    0.1423123 -71.28   0.00112634    1.676    0.403
       115  -9.4213    150.3912     78.9515   2.5634300125e+01   3.6444141154e+01    0.3646253    0.1963576 -61.25  0.001614793    2.225    0.551
       116  -9.5904    128.4080     73.2607   2.8429031011e+01   4.2052202019e+01    0.3547854    0.1362796 -36.28  0.001242299    3.081    0.675
       117 -10.2550    182.3426     67.6607   1.8211487375e+01   3.1888701252e+01    0.2602338    0.2354475  10.20  0.001743702    1.602    0.376
       118 -10.3043    174.9341     68.3817   1.9331628155e+01   3.3203696760e+01    0.3499237    0.1848089 -34.77  0.001508881    2.001    0.500
       119 -14.0132    243.2452     73.4483   1.3203951578e+01   2.0966146784e+01    0.8926433    0.5464488  52.27  0.002059636    2.296    0.564
       120 -10.1369    145.6340     67.5353   2.3603808909e+01   3.9305075250e+01    0.3714619    0.1847766 -43.71  0.001415133    1.910    0.477
       121  -8.1334    123.2924     68.3270   2.8168884961e+01   4.4008990490e+01    0.1313747    0.1113312  15.32 0.0007019051    1.622    0.383
       122 -10.3750    150.7234     65.4680   2.2219250343e+01   3.8554741749e+01    0.4904546    0.1569575 -49.21  0.001793767    3.199    0.687
       123  -9.2949    133.8469     67.1733   2.5678620897e+01   4.1895490704e+01    0.1785003    0.1651909  30.25  0.001071307    1.341    0.254
       124 -10.6960    161.6486     71.5025   2.1966032082e+01   3.5359602045e+01    0.3219902    0.3022645  57.49 0.0005328741    1.262    0.208
       125 -10.5715    171.5728     61.8909   1.8288769346e+01   3.4822158855e+01    0.3488234    0.2811214 -16.64 0.0004347691    1.749    0.428
       126  -8.1404    202.5339    239.4900   4.6183861160e+01   9.1836710955e-01    0.1749354    0.1013053 -13.58 0.0005178087    1.544    0.352
       127  -9.8263    164.0929     58.3677   1.8463547355e+01   3.6842087063e+01     0.206347    0.1725996 -40.97  0.001095181    1.283    0.221
       128  -9.5834    132.2544     58.7702   2.3690861749e+01   4.3581180237e+01    0.2397594    0.1588914 -46.18  0.001262403    1.487    0.328
       129  -9.3128    152.9745     57.4495   1.9841462894e+01   3.9291150994e+01    0.2079555    0.1790924 -12.23  0.001262963    1.608    0.378
       130  -9.9473    158.5701     55.1574   1.8450673321e+01   3.8446456401e+01    0.2649594    0.1634345 -48.58  0.001056615    1.479    0.324
       131  -9.8045    148.3894     51.7971   1.9089861604e+01   4.1088793294e+01    0.2958643    0.1762473 -19.00  0.001331077    2.886    0.654
       132  -9.7661    169.2385     54.9056   1.6958892372e+01   3.6288366824e+01    0.2185436    0.1781109 -24.15  0.001365609    1.588    0.370
       133  -7.5762     63.2103     55.0625   4.1705071192e+01   5.9310419378e+01    0.1698341    0.1157388 -42.98 0.0002940028    1.600    0.375
       134  -8.6137    143.5120     52.4935   2.0033393250e+01   4.2046707798e+01    0.1307778    0.1147237 -80.94 0.0008105107    1.012    0.012
       135  -9.7098    153.8431     50.6657   1.7997533558e+01   4.0079731198e+01    0.2238673    0.1785245  -6.83  0.001210424    1.939    0.484
       136 -10.0847    193.5892     48.9596   1.2905850767e+01   3.2361308721e+01     0.264973    0.1983983  49.91  0.001741066    1.808    0.447
       137  -8.3107    203.7060     35.4606   9.2084233153e+00   3.2188824770e+01     0.229533    0.1504142 -18.28  0.001000599    2.486    0.598
       138  -9.9086    197.5710     44.2303   1.1534542059e+01   3.2231169307e+01    0.2282107    0.1752186 -28.12  0.001182381    1.633    0.388
       139  -9.5124    201.1812     40.7789   1.0502812204e+01   3.2001456243e+01    0.2353814    0.1835543  35.34   0.00138375    2.152    0.535
       140  -9.8734    188.2007     49.3828   1.3536099332e+01   3.3318802642e+01    0.2120272    0.1948403  12.10  0.001499875    1.641    0.391
       141  -9.8542    185.6552     44.2455   1.2669550455e+01   3.4473512095e+01    0.3947808   0.08709847 -41.34  0.001563161    3.344    0.701
       142  -9.9304    167.5742     49.7136   1.5938261921e+01   3.7344338083e+01    0.3042997     0.177095 -67.84  0.001617731    1.787    0.440
       143  -8.5024     94.1875     48.1917   2.9010373081e+01   5.3806222871e+01    0.1924697     0.156286 -86.21 0.0006402841    1.329    0.248
       144  -9.7275    189.3768     42.7896   1.1987973379e+01   3.3946287816e+01    0.1869182    0.1336756 -65.73 0.0005235227    1.163    0.140
       145  -9.6228    163.4268     43.6734   1.4993570919e+01   3.9008643425e+01    0.2538836      0.19556 -17.48  0.001173817    1.857    0.462
       146  -8.3168    112.6834     43.5240   2.3088004947e+01   5.0264719012e+01    0.2279745    0.1231258 -37.26  0.001078238    1.996    0.499
       147  -8.6984    179.1443     41.5100   1.2719733399e+01   3.6094490563e+01    0.2221121    0.1580865 -20.42   0.00131983    2.014    0.503
       148  -9.0764    173.7204     40.4882   1.3056159245e+01   3.7308428901e+01    0.2625068    0.1881567   3.30  0.001385501    2.887    0.654
       149 -10.4673    208.9765     35.2941   8.7720217943e+00   3.1266907744e+01    0.3698848    0.2174762 -34.27  0.002347271    1.752    0.429
       150  -9.0374    198.5709     34.5895   9.4375358391e+00   3.3230374140e+01    0.2927702    0.1895976  27.32  0.001426539    4.172    0.760
       151  -9.5657    158.6504     61.7319   2.0056100007e+01   3.7468498438e+01    0.2339409    0.1495873  54.12  0.001273518    1.706    0.414
       152  -8.6565    229.1830     26.9934   5.8577548752e+00   2.8788830992e+01    0.2553792    0.2106883   2.18   0.00189756    2.282    0.562
       153  -9.6152    243.1838     26.3563   4.9801298411e+00   2.6646824620e+01    0.1821853    0.1208481 -56.83 0.0002628512    1.042    0.040
       154 -13.2637    223.9411     92.2310   1.8396570258e+01   2.1220071588e+01    0.7210794    0.5564734  50.41   0.00334746    1.697    0.411
       155 -14.0221    245.9799    159.6034   2.7522019410e+01   8.4868485342e+00     2.469898    0.9765439 -36.97   0.01041698    1.960    0.490
