#   1 NUMBER                 Running object number                                     
#   2 MAG_AUTO               Kron-like elliptical aperture magnitude                    [mag]
#   3 X_IMAGE                Object position along x                                    [pixel]
#   4 Y_IMAGE                Object position along y                                    [pixel]
#   5 X_WORLD                Barycenter position along world x axis                     [deg]
#   6 Y_WORLD                Barycenter position along world y axis                     [deg]
#   7 A_WORLD                Profile RMS along major axis (world units)                 [deg]
#   8 B_WORLD                Profile RMS along minor axis (world units)                 [deg]
#   9 THETA_WORLD            Position angle (CCW/world-x)                               [deg]
#  10 FWHM_WORLD             FWHM assuming a gaussian core                              [deg]
#  11 ELONGATION             A_IMAGE/B_IMAGE                                           
#  12 ELLIPTICITY            1 - B_IMAGE/A_IMAGE                                       
         1 -14.4899    135.8469    127.9982   9.8746495674e+01   2.9681056621e+01     1.839562    0.2802027 -50.60  0.003612511    9.571    0.896
         2 -14.8891    165.8067     49.6562   6.9814310499e+01   3.7534307501e+01     1.288726    0.9738603  -1.75  0.003867814    1.518    0.341
         3 -15.0341    181.1305     20.2726   5.7131762535e+01   3.7411383479e+01    0.9906567    0.9327465  -3.12   0.00457389    1.073    0.068
         4 -10.3924    128.1783    245.3375   1.1714635824e+02   1.1224257010e+01   0.07852453   0.07402164  12.75 0.0001963034    1.503    0.335
         5 -11.3708    114.6755    250.6516   1.1970711675e+02   1.2401834722e+01    0.1171274   0.07076631  48.49 0.0004455523    1.203    0.169
         6 -19.9086     70.5939    166.4717   1.1940671682e+02   3.2402674416e+01     14.46286     4.614073 -68.47   0.06076183    3.183    0.686
         7 -13.5449    204.1035    199.8145   9.8871611430e+01   5.1953528577e+00    0.4394687    0.2419973  52.33  0.002365779    1.969    0.492
         8 -12.5403    117.1744    233.9504   1.1783949102e+02   1.4311351578e+01    0.1867233    0.1585476 -73.52 0.0006999981    1.436    0.304
         9 -12.1788    133.1929    195.0738   1.1071645709e+02   1.7778528931e+01    0.2098518    0.1511996  56.45 0.0004253587    1.225    0.183
        10 -11.6078    150.6180    230.0852   1.1197522561e+02   9.9240787332e+00    0.2541143    0.1908363 -56.34  0.001874049    1.717    0.418
        11 -13.7324    166.1238    217.5279   1.0786480468e+02   9.1614935378e+00    0.3311683    0.2365159 -46.73 0.0005625397    1.760    0.432
        12 -14.4311    164.8622    226.0862   1.0915998500e+02   8.2547374371e+00    0.4450785    0.3701195  52.57  0.002600428    1.158    0.136
        13 -13.0150    158.8736    227.6789   1.1033902776e+02   8.9760094603e+00    0.2794553    0.2386039  77.02  0.001169276    1.400    0.286
        14 -12.9783    174.4586    184.1976   1.0151079961e+02   1.2446009866e+01    0.2749157    0.1241515 -45.33  0.001295139    2.579    0.612
        15 -12.7228    158.8574    223.1174   1.0979011487e+02   9.5705654874e+00    0.2069142     0.170519 -78.60  0.001342923    1.603    0.376
        16 -12.9306     29.9231    181.6933   1.2871615218e+02   3.4135878525e+01    0.3941347    0.1827184  65.71  0.001335184    1.858    0.462
        17 -13.1285    162.6189    180.8079   1.0314006711e+02   1.5069782713e+01    0.2383032    0.1881267  81.52 0.0005472941    1.633    0.387
        18 -13.7688    186.9511    175.1637   9.7690732528e+01   1.1535446378e+01    0.3668628    0.3215367  38.89 0.0008928321    1.061    0.057
        19 -13.4006    185.5153    169.9945   9.7017811640e+01   1.2573872211e+01    0.3308688    0.2466983 -49.44  0.001573448    1.596    0.373
        20 -11.5532     18.2618    173.3948   1.3035728459e+02   3.6868226473e+01    0.1498319    0.1281878  83.76 0.0007413213    1.302    0.232
        21 -11.8370     25.9937    172.3209   1.2882233545e+02   3.6340412815e+01    0.2451706    0.1489667  60.38  0.001237086    1.356    0.263
        22 -12.4715    193.4488    170.4893   9.5664349005e+01   1.1024677524e+01    0.2307509    0.2067005  22.18  0.000725203    1.032    0.031
        23 -11.9998     34.0436    169.5823   1.2706470516e+02   3.6070204767e+01    0.2345535    0.1681634  87.98  0.001139408    1.104    0.094
        24 -13.0010    176.9102    169.6336   9.8548164948e+01   1.4232087007e+01    0.2199524    0.1818055 -18.58 0.0009337855    1.369    0.270
        25 -11.3197    126.9679    228.2287   1.1567292338e+02   1.3705639676e+01    0.2853936    0.1688684  37.82  0.001834042    1.583    0.368
        26 -12.7201     12.1902    173.8094   1.3151468208e+02   3.7338977190e+01    0.4043293    0.2080658  66.65  0.002211662    1.539    0.350
        27 -10.5892     17.8197    159.1354   1.2951737760e+02   3.9741773132e+01    0.1604116     0.124855 -79.35 0.0007045453    1.276    0.216
        28 -11.8045     18.0609    154.8366   1.2916617797e+02   4.0597754551e+01    0.2736548    0.1576138 -89.27   0.00115953    1.356    0.262
        29 -10.8610     98.5849    249.3073   1.2206520969e+02   1.4723792642e+01    0.1000591   0.08964901  83.20 0.0003182207    1.378    0.274
        30 -11.3892     23.0221    156.0947   1.2824182984e+02   3.9885756871e+01    0.1691311    0.1274402  82.76 0.0004989423    1.032    0.031
        31 -12.3227    207.7629    223.9632   1.0192158644e+02   1.8268224940e+00      0.19412    0.1307104 -30.42  0.001027088    1.799    0.444
        32 -12.2976    188.0219    153.5041   9.3371112022e+01   1.4656520435e+01    0.2143444     0.125755  46.06  0.001037235    1.604    0.377
        33 -15.1962    147.6621    148.3506   1.0034606932e+02   2.3435574546e+01     1.042404    0.6026095  74.65  0.003835039    3.578    0.720
        34 -11.0818      7.3564    149.7634   1.3101891735e+02   4.2549196346e+01    0.2034895    0.1275293 -44.84  0.001006418    2.483    0.597
        35 -12.3137    174.8653    149.1275   9.5002584571e+01   1.7978024830e+01    0.2092767     0.190067  80.57 0.0006970384    1.273    0.214
        36 -15.2401    175.9515    219.3401   1.0645829523e+02   7.3649684935e+00     0.820344    0.4813208  24.74  0.004697104    2.050    0.512
        37 -15.0517    187.5029    213.1738   1.0368045916e+02   6.2806242404e+00    0.4961131     0.373552  38.02  0.002195077    1.065    0.061
        38 -12.9175    160.3808    127.9952   9.3395298729e+01   2.4710635072e+01    0.3503336    0.2522235 -61.23  0.001700849    1.650    0.394
        39 -12.9242    139.9241    218.5660   1.1243790665e+02   1.3129979748e+01    0.3971687    0.2077786 -64.24  0.001363763    2.733    0.634
        40 -13.2624    109.3283    122.2584   1.0372027942e+02   3.5826556053e+01    0.3446687    0.2372585 -52.69 0.0005832611    1.406    0.289
        41 -12.8248    161.6508    149.4729   9.7697644621e+01   2.0524902626e+01    0.2901811    0.2127217  82.45 0.0008148566    1.948    0.487
        42 -12.2994    152.1102    218.7371   1.1038696217e+02   1.1212684321e+01    0.2010147    0.1644667  63.09 0.0009238441    1.236    0.191
        43 -12.7173    114.0732    116.8212   1.0140456907e+02   3.6146771911e+01    0.2516956    0.1973128 -57.79 0.0005434756    1.221    0.181
        44 -11.0256    231.1455    113.8439   7.6771276586e+01   1.1832036166e+01      0.20675    0.1900971 -33.86  0.000803209    1.191    0.160
        45 -12.3614    168.3558    113.3172   8.8210027546e+01   2.5735123880e+01     0.380255     0.284509 -72.38 0.0009364221    1.806    0.446
        46 -15.4104    133.8539    145.9180   1.0280468690e+02   2.6497604851e+01     1.424611    0.4823532 -58.20  0.004416102    4.545    0.780
        47 -11.1939    205.7964    110.2005   8.0161818636e+01   1.7897944619e+01    0.2071857    0.1665896  15.10 0.0005454668    1.319    0.242
        48 -10.9222    109.5064    244.5712   1.2000077756e+02   1.3909390919e+01    0.1036229    0.0947908  79.88 0.0009036554    1.346    0.257
        49 -12.5687    101.5558    243.0379   1.2111767811e+02   1.5190340693e+01    0.1890297     0.149774  74.68  0.001035589    1.219    0.180
        50 -13.3332    183.5082    206.1492   1.0333341151e+02   7.8269600743e+00    0.2310505    0.2277855 -19.93 0.0007647448    1.257    0.205
        51 -13.6873    153.7939     63.4114   7.6908568959e+01   3.8303876797e+01    0.4458319    0.4141848  43.86 0.0008765035    1.115    0.103
        52 -12.1111     11.3533    206.2135   1.3324306599e+02   3.1486819370e+01    0.2243049    0.1498479  48.24  0.001822134    1.457    0.314
        53 -11.6810    135.8040    237.5116   1.1517805951e+02   1.1151299606e+01    0.2444028    0.2278551 -68.76  0.002088586    1.395    0.283
        54 -13.1793    170.7101     41.2933   6.6040244677e+01   3.7496699940e+01     0.465712    0.3907789  -0.31 0.0008256062    1.263    0.209
