#   1 NUMBER                 Running object number                                     
#   2 MAG_AUTO               Kron-like elliptical aperture magnitude                    [mag]
#   3 X_IMAGE                Object position along x                                    [pixel]
#   4 Y_IMAGE                Object position along y                                    [pixel]
#   5 X_WORLD                Barycenter position along world x axis                     [deg]
#   6 Y_WORLD                Barycenter position along world y axis                     [deg]
#   7 A_WORLD                Profile RMS along major axis (world units)                 [deg]
#   8 B_WORLD                Profile RMS along minor axis (world units)                 [deg]
#   9 THETA_WORLD            Position angle (CCW/world-x)                               [deg]
#  10 FWHM_WORLD             FWHM assuming a gaussian core                              [deg]
#  11 ELONGATION             A_IMAGE/B_IMAGE                                           
#  12 ELLIPTICITY            1 - B_IMAGE/A_IMAGE                                       
         1 -14.7335      8.2326     21.0877   1.1836454718e+02   6.8848489728e+01     1.381713    0.5681504 -32.77  0.007913103    1.990    0.498
         2 -12.3212     84.0061     22.1848   8.9785824377e+01   5.9148054730e+01    0.4448161    0.3075362  -2.10  0.002599584    1.481    0.325
         3 -12.1903     73.2396      1.5133   8.4770800421e+01   6.3165712459e+01    0.2642078    0.1343902  48.66 0.0006101425    1.805    0.446
         4 -12.3738     75.5249     13.3398   8.8917654869e+01   6.1627849722e+01    0.3356828     0.223689  36.77  0.001116377    1.326    0.246
         5 -13.6968     94.1811      2.9703   7.9535977829e+01   5.9140587346e+01     1.204724    0.2686103  54.47  0.004436866    3.579    0.721
         6 -11.8257     82.1933     13.8089   8.7068328478e+01   6.0399141138e+01     0.256126    0.1903792  46.90 0.0007354541    1.362    0.266
         7 -12.8491     86.9544     11.4397   8.4755229666e+01   5.9761523880e+01    0.6434737    0.5071262  85.73  0.002928545    2.129    0.530
         8 -11.3369    123.9637     10.2726   7.5332506718e+01   5.2214113849e+01    0.2241849    0.1825674  10.83 0.0006421535    1.312    0.238
         9 -11.5589    137.3691      5.7191   7.1269150075e+01   4.9562486513e+01    0.2977915    0.1661399  67.35  0.001505242    1.657    0.396
        10 -12.6883     79.1207      2.6160   8.3483120926e+01   6.2024173004e+01    0.4676201    0.3931181  22.54  0.001828654    1.074    0.069
        11 -11.4759     33.1866      3.9336   1.0028939026e+02   6.8822504910e+01     0.230202    0.1327176  23.52   0.00121737    1.577    0.366
        12 -12.7788     70.9303    198.4547   1.3590653102e+02   2.4911125465e+01    0.3250375    0.2127025  31.70  0.001751101    1.925    0.481
        13 -14.2736    193.4126    198.3984   1.0986857393e+02   2.9054550247e+00     1.494628     1.154194  -6.78  0.007845368    1.563    0.360
        14 -11.7147     34.1433    177.3457   1.4124809686e+02   3.4240288588e+01    0.2971779    0.1929687 -41.02  0.001655487    2.251    0.556
        15 -11.3140    216.8158    174.6324   1.0044637291e+02   2.6282906401e+00    0.2748336    0.2305218  86.95  0.001439378    1.652    0.395
        16 -11.8753     89.8689    168.6162   1.2749765679e+02   2.8812760510e+01    0.2870288    0.1961004 -71.53  0.001415314    1.423    0.297
        17 -12.5740     74.5407    158.4778   1.2952681531e+02   3.3531908165e+01    0.3767761    0.2381126 -59.53  0.001920798    1.450    0.311
        18 -12.6087    200.5023    155.4578   9.9552783333e+01   9.6185274552e+00    0.8080803     0.327596 -39.11  0.002882248    2.527    0.604
        19 -13.1257    191.0427    155.3402   1.0148328933e+02   1.1683856552e+01    0.8799422    0.5240323 -35.03  0.003733852    1.802    0.445
        20 -10.7417     40.9995    157.8268   1.3744574594e+02   3.7941174261e+01    0.2123394    0.1194268  64.18 0.0008565258    2.011    0.503
        21 -11.3535    138.9920    151.5050   1.1238875811e+02   2.3718849951e+01    0.2549548     0.207845 -54.21   0.00126214    1.228    0.186
        22 -13.1838     58.8455    145.4068   1.3130651212e+02   3.8743964489e+01    0.8194329     0.478773  63.34  0.003921916    2.105    0.525
        23 -13.1276     51.9918    143.4792   1.3273140253e+02   4.0034989119e+01    0.5431975    0.3586306  58.13  0.002957884    1.675    0.403
        24 -12.0963     76.7695    141.2394   1.2598650845e+02   3.7286285571e+01    0.5151222    0.3356572 -62.96  0.002597572    1.403    0.287
        25 -11.0384    107.3033    146.6674   1.1919762102e+02   3.0997927999e+01    0.1535219    0.1126816  83.66 0.0007036412    1.657    0.397
        26 -15.0769    148.0863    125.7926   1.0423966127e+02   2.7529389009e+01     2.057162     1.365244  59.72  0.008810954    1.690    0.408
        27 -10.9120     50.1844    129.8189   1.3095855324e+02   4.3441894397e+01    0.1769465    0.1435335 -42.99 0.0007900395    1.305    0.233
        28 -12.1513    122.3413    128.2311   1.1128488705e+02   3.2422980072e+01    0.4665412    0.3071153  66.95  0.001955441    2.004    0.501
        29 -11.3028     79.9747    109.6958   1.1850577281e+02   4.4156055425e+01     0.188328    0.1795689 -50.55 0.0004553903    1.045    0.043
        30 -13.2585    120.3552    103.7645   1.0565120285e+02   3.8263913736e+01    0.4104417    0.3172112 -43.79  0.001837824    1.266    0.210
        31 -12.3654    132.4632    103.3337   1.0235032729e+02   3.5811110585e+01     0.336939    0.2619471  15.86 0.0005657368    1.626    0.385
        32 -13.3418     17.2003    101.3195   1.3528202067e+02   5.2949894165e+01    0.4156423    0.3276937 -60.61  0.002631231    1.006    0.006
        33 -12.5704    105.5149    101.4279   1.0910679999e+02   4.1666402023e+01    0.2802027    0.2563819 -11.62 0.0006825625    1.157    0.136
        34 -11.6093     54.6098     94.9538   1.2263952366e+02   5.0845217602e+01    0.3234184    0.2093498 -46.44  0.001143163    1.339    0.253
        35 -13.4736     39.3989     92.7722   1.2688795266e+02   5.2951189044e+01    0.4429415    0.3795661 -29.10  0.002942726    1.189    0.159
        36 -12.1635     23.2669     88.1556   1.3098652243e+02   5.5342455169e+01    0.3602411    0.2264469  71.20  0.001383548    2.625    0.619
        37 -11.0565     89.7624     86.5833   1.0962283599e+02   4.7597198175e+01    0.1965195    0.1334301  49.87 0.0009572432    1.701    0.412
        38 -10.6970    128.8825     83.1039   9.7587183537e+01   4.0675116306e+01    0.2209443     0.204197 -79.11 0.0004577369    1.206    0.171
        39 -10.3158     42.3888     78.2663   1.2250235622e+02   5.5713481398e+01    0.1292045   0.08343038 -23.92 0.0006983319    1.705    0.413
        40 -12.1261     55.0057     74.0923   1.1716711734e+02   5.5155711771e+01     0.216135    0.1644648 -42.56            0    1.140    0.123
        41 -11.8295     92.7022     72.2816   1.0451414842e+02   4.9905392885e+01    0.2176025    0.1942516 -17.79 0.0004573556    1.053    0.050
        42 -10.3079    120.5566     73.5118   9.6920342341e+01   4.4259850054e+01      0.14375    0.1405057  -1.34 7.742392e-05    1.030    0.029
        43 -12.8922     96.6783     71.9577   1.0321711717e+02   4.9254092181e+01    0.6339167    0.3681788  28.72  0.001339748    2.004    0.501
        44 -10.6390     83.4520     68.4839   1.0619923899e+02   5.2188864264e+01    0.1361045    0.1229871 -17.56 7.921113e-05    1.007    0.007
        45 -10.1027     21.0246     66.7223   1.2694228662e+02   5.9909529298e+01    0.1197484   0.09986079   2.25 0.0002916458    1.357    0.263
        46 -12.5616    125.5271     57.5306   9.0624915991e+01   4.5923166368e+01    0.3345945    0.2443116  42.80 0.0006156059    1.313    0.238
        47 -10.1341    175.3542     56.7206   7.9494241621e+01   3.4169037709e+01     0.152045    0.1108295 -80.21 0.0007012182    1.654    0.395
        48 -12.4331     67.6590     54.1685   1.0675725096e+02   5.7185771722e+01    0.3719724    0.3128374 -64.69  0.002243492    1.669    0.401
        49 -10.7195    210.8059     54.3057   7.3019923696e+01   2.5728452326e+01    0.1747649    0.1625102  34.93  0.001000993    1.295    0.228
        50 -11.0136    132.8836     53.6791   8.7581416577e+01   4.4877125186e+01    0.2218804    0.1939655   3.09 0.0004568353    1.220    0.180
        51 -11.2080    145.3114     51.0079   8.3888298449e+01   4.2384004240e+01    0.2438445    0.1990608  53.77 0.0005116039    1.153    0.133
        52  -9.9533     95.5043     49.4473   9.6228479660e+01   5.3326510581e+01    0.1340679    0.1223437   6.96 0.0008081127    1.030    0.029
        53 -12.7781     42.4353     47.7843   1.1365118625e+02   6.1485535491e+01    0.3401664    0.2760476 -34.53 0.0006097935    1.146    0.128
        54 -12.2787     41.5428     42.9657   1.1237198525e+02   6.2398130813e+01    0.4666993    0.2606876   0.19   0.00238485    2.401    0.583
        55 -11.5796      2.3913     46.6410   1.2873002752e+02   6.4891940027e+01    0.2151556    0.1460083 -38.37  0.001009429    1.113    0.102
        56 -11.0170    156.9267     43.9113   7.9320927062e+01   4.0596157612e+01    0.2107235    0.1950527  47.74 0.0005585441    1.057    0.054
        57 -10.0524    102.4250     43.5194   9.2171381756e+01   5.2885801678e+01    0.1347635    0.1210144  11.79 0.0001067815    1.012    0.012
        58 -10.3511    197.6627     40.9825   7.1571860563e+01   3.0878616852e+01    0.1855757    0.1698068 -86.64  0.000283179    1.034    0.033
        59 -12.5393    232.3736    237.5942   1.0944372077e+02  -1.0079588723e+01    0.2491702    0.1873952  12.59   0.00143897    1.188    0.158
        60 -10.1271    176.4557     33.5094   7.2838883089e+01   3.7140433021e+01    0.1400615    0.1264066  73.94 4.532521e-05    1.006    0.006
        61 -11.0554     41.2082     33.3503   1.0908770500e+02   6.3971837251e+01    0.1477535    0.1020972  32.61 0.0006490394    1.646    0.393
        62 -11.5147     78.8413     30.5928   9.4601751838e+01   5.9009390921e+01    0.2574897    0.2031342   9.19  0.001609812    1.143    0.125
        63 -12.4704    244.6706    235.4764   1.0687439265e+02  -1.1700067755e+01    0.2360451    0.1973734  63.24  0.001494456    1.977    0.494
        64 -11.9346     64.2534     17.8823   9.4470306998e+01   6.2971795811e+01    0.3583231    0.1852576  41.83  0.001801874    1.887    0.470
        65 -13.0888    188.1700    232.7711   1.1693388870e+02  -1.9501168478e+00    0.4208467    0.1924328  40.03  0.001942569    1.888    0.470
        66 -12.8847    243.8382    222.6859   1.0475593236e+02  -9.8563840847e+00    0.8232427    0.5326573  61.07  0.003965358    3.026    0.669
        67 -13.7640    247.2426    218.2665   1.0334231877e+02  -9.7772187134e+00    0.6696909    0.5680825  16.74  0.004374377    1.102    0.092
        68 -14.5724    204.5172    209.6509   1.0975254057e+02  -1.1393467185e+00     1.197837    0.9281523  22.23  0.006104734    1.258    0.205
        69 -12.9225    192.4147    217.0672   1.1346582504e+02  -1.5678488766e-01    0.4297163    0.2405919  37.17  0.002080599    1.630    0.386
        70 -12.1056    217.6315    199.9227   1.0537178086e+02  -1.9257653712e+00    0.4590314    0.3819942  -0.97  0.002675334    1.201    0.167
        71 -10.0837    250.3064    201.6515   9.9670106901e+01  -7.8685845997e+00    0.1164974    0.1040622 -68.77 0.0007042667    1.703    0.413
        72 -12.8769    238.9561    194.1342   1.0024212809e+02  -4.7996468466e+00    0.6293038    0.3225094 -39.68  0.002982442    1.964    0.491
