#   1 NUMBER                 Running object number                                     
#   2 MAG_AUTO               Kron-like elliptical aperture magnitude                    [mag]
#   3 X_IMAGE                Object position along x                                    [pixel]
#   4 Y_IMAGE                Object position along y                                    [pixel]
#   5 X_WORLD                Barycenter position along world x axis                     [deg]
#   6 Y_WORLD                Barycenter position along world y axis                     [deg]
#   7 A_WORLD                Profile RMS along major axis (world units)                 [deg]
#   8 B_WORLD                Profile RMS along minor axis (world units)                 [deg]
#   9 THETA_WORLD            Position angle (CCW/world-x)                               [deg]
#  10 FWHM_WORLD             FWHM assuming a gaussian core                              [deg]
#  11 ELONGATION             A_IMAGE/B_IMAGE                                           
#  12 ELLIPTICITY            1 - B_IMAGE/A_IMAGE                                       
         1 -12.5836    242.5211     77.3966   2.8946601304e+02   5.4719560754e+00   0.09971843     0.050669 -81.00  0.007974748    2.931    0.659
         2 -12.4511     59.2689     45.5332   2.9136492137e+02   6.9004782017e+00   0.04869337   0.04091832  72.49  0.003288779    1.312    0.238
         3 -11.5508     50.7794      4.6761   2.9121819140e+02   7.4210913112e+00    0.1437234   0.06654805   2.78  0.008667529    5.508    0.818
         4 -12.8894     21.5341     31.0404   2.9170968734e+02   7.2850929245e+00    0.0910332   0.05142584 -54.84  0.006613221    1.684    0.406
         5 -11.8793      2.9676      8.2180   2.9178594803e+02   7.6552805316e+00   0.05622244   0.02393496  42.27  0.001163892    2.451    0.592
         6 -11.4663      7.0590      2.2035   2.9170330375e+02   7.7011900273e+00   0.03352984    0.0160799  29.71  0.001721394    2.066    0.516
         7 -12.2090     28.0400      6.9737   2.9149184043e+02   7.5255053416e+00   0.04204654   0.02166334 -41.21  0.001217069    2.166    0.538
         8 -11.6260     33.0582      3.6872   2.9141486257e+02   7.5345562186e+00   0.01972283   0.01740037 -72.16  0.001093524    1.140    0.123
         9  -8.8230     63.5857     17.9275   2.9115094047e+02   7.1943387852e+00   0.02064599  0.005874835 -60.63  0.001458142    3.219    0.689
        10 -11.5617     40.0983      3.1904   2.9133141553e+02   7.4997600285e+00   0.08833811    0.0355987 -34.91  0.005675931    4.497    0.778
        11 -12.2363     20.9378      3.1095   2.9154999512e+02   7.6109550418e+00   0.05249983    0.0395373 -24.97  0.005782272    1.520    0.342
        12  -9.7280    110.3624     14.2545   2.9059476354e+02   6.9666526975e+00   0.03260029   0.01234046 -54.39  0.002663339    2.420    0.587
        13  -9.5970     76.3896     12.5302   2.9097244112e+02   7.1827772496e+00   0.01851767   0.01220652 -67.30  0.001356267    1.540    0.350
        14  -8.7940     82.5640      3.1172   2.9084568606e+02   7.2557592966e+00     0.017546  0.008785969 -60.36  0.001611311    1.913    0.477
        15  -9.5530     81.1712      8.6436   2.9089460791e+02   7.2000329320e+00     0.018832   0.01008669 -51.64  0.001132979    1.795    0.443
        16  -9.1930     77.1230      6.6980   2.9092923415e+02   7.2458479092e+00   0.01414032   0.01158493  85.53 0.0008977544    1.360    0.265
        17  -8.1374     68.5508     10.0117   2.9104695926e+02   7.2570661125e+00  0.009742309  0.006287818 -61.40 0.0003668141    1.508    0.337
        18  -9.7527    201.4590      7.4735   2.8951518336e+02   6.5170248110e+00   0.02131748    0.0132878 -48.81  0.002175738    1.581    0.368
        19  -8.0705    139.3838      2.8083   2.9019508357e+02   6.9307882164e+00  0.009288994  0.005675816 -50.96 0.0004795634    1.589    0.371
        20  -8.1365    155.5889      1.7828   2.9000406354e+02   6.8487400149e+00  0.009162992  0.006332748 -78.19 0.0009056742    1.617    0.382
        21  -8.6803     33.0030    230.4628   2.9276281143e+02   4.9131356971e+00   0.01262934  0.008455493 -46.41 0.0007572726    1.497    0.332
        22 -12.6645    238.8345    250.4609   2.9053979107e+02   3.4945113294e+00    0.0231106  0.008511118  26.85  0.001032845    2.781    0.640
        23 -10.6140    216.8199    248.5557   2.9077856566e+02   3.6438225518e+00    0.0330889   0.01712211  49.31  0.002951522    2.239    0.553
        24  -9.6025    177.5329    249.8046   2.9123255114e+02   3.8564250052e+00   0.01822343   0.01230447  -0.65  0.001427805    1.894    0.472
        25  -9.3320    181.6227    246.8699   2.9116862224e+02   3.8667220987e+00   0.01602335   0.01143494  60.89  0.001552236    1.629    0.386
        26  -8.8505    143.0446    250.3143   2.9162780500e+02   4.0496509980e+00  0.009418634  0.008448733  28.70  0.001120788    1.134    0.119
        27  -8.1621    191.7772    230.3757   2.9095516518e+02   3.9986952623e+00  0.008934705  0.006343793  11.08 0.0003236216    1.602    0.376
        28  -8.9978     41.6213    229.4014   2.9265837730e+02   4.8758705457e+00   0.01254831   0.01222503 -55.80 0.0007378371    1.007    0.007
        29 -11.8098    211.4941    228.6574   2.9072079257e+02   3.9045536013e+00   0.03718606   0.02977166 -33.12  0.001879422    1.331    0.249
        30  -9.3025     95.0814    226.5874   2.9203293833e+02   4.6006682977e+00   0.01234519   0.01047261 -52.78 0.0004204227    1.151    0.131
        31  -8.8099    246.4901    225.3235   2.9030328987e+02   3.7406021008e+00   0.01127171  0.009575723  37.13 0.0002757444    1.192    0.161
        32  -7.9894    186.5291    225.5136   2.9098594312e+02   4.0852297339e+00   0.01007062  0.005828894  39.88 0.0006516831    1.744    0.427
        33  -8.8173    183.2222    223.4161   2.9101108431e+02   4.1285896495e+00   0.01135406  0.008122962  83.04 0.0006771351    1.726    0.421
        34  -8.2230    126.2308    220.8028   2.9164401748e+02   4.4879456433e+00  0.009181591  0.007307433 -35.10 0.0004504538    1.327    0.246
        35 -10.4305     56.0010    217.0648   2.9242156011e+02   4.9358900815e+00   0.02099624  0.009050423 -62.73  0.001020139    2.265    0.558
        36  -8.8404    176.9985    218.9935   2.9105558502e+02   4.2156861006e+00  0.009882241   0.00962325 -44.53 0.0003681812    1.020    0.020
        37 -12.8310    232.3813    210.8490   2.9037743563e+02   3.9894833866e+00    0.2869124    0.0625824  26.71   0.01720475    4.782    0.791
        38 -12.8099    230.3545    175.8292   2.9019189373e+02   4.4058230064e+00   0.04009041   0.03248642  80.39  0.001302684    1.394    0.283
        39 -11.2647    224.2302    188.5704   2.9033742930e+02   4.2940800590e+00   0.03176879   0.01925689  43.64  0.003182892    1.714    0.417
        40 -11.3373    221.7598    201.4411   2.9044215682e+02   4.1596632579e+00   0.03055349   0.02642706  44.87 0.0005741956    1.184    0.155
        41 -12.2843    214.4753    187.7821   2.9044364994e+02   4.3596616367e+00   0.04842248   0.03688498 -55.28 0.0008165158    1.272    0.214
        42 -11.5279    202.5347    198.5931   2.9064380083e+02   4.3038267599e+00   0.03520638   0.02759182 -75.14 0.0006372749    1.333    0.250
        43 -12.2301    197.8392    197.5794   2.9069117173e+02   4.3427069093e+00   0.07866915   0.03271214 -43.85 0.0005103486    2.681    0.627
        44 -10.1296    182.4515    215.0110   2.9096988398e+02   4.2302038119e+00   0.02488634   0.01163882 -39.98  0.001174947    2.563    0.610
        45  -9.9662    244.0013    209.0080   2.9023443441e+02   3.9434850348e+00   0.01478982   0.01250314 -38.98 0.0008285622    1.208    0.172
        46  -9.8833    101.1492    216.7466   2.9190549320e+02   4.6795218409e+00   0.01998975   0.01729057 -42.58  0.001449218    1.160    0.138
        47  -8.5545    171.0150    212.9694   2.9108784510e+02   4.3199076278e+00   0.01050535  0.007418309 -31.77 0.0005449178    1.602    0.376
        48  -9.7026      6.1973    208.6113   2.9293894170e+02   5.3199638316e+00   0.01451781   0.01183561  16.45 0.0007835853    1.297    0.229
        49 -10.4696     10.6737    207.0911   2.9287894099e+02   5.3118530136e+00   0.02644034   0.02051186  11.26  0.002180342    1.415    0.293
        50  -7.6285    113.3273    209.3144   2.9172272656e+02   4.6952585555e+00  0.006956339  0.004869167 -28.41 0.0003689035    1.671    0.401
        51 -10.4445    124.1278    205.9193   2.9157959684e+02   4.6722093545e+00   0.01086136  0.009527002 -11.05            0    1.234    0.190
        52  -9.0835    250.5764    200.1349   2.9010688435e+02   4.0079107660e+00   0.01641007  0.006320209 -63.03 0.0008402274    2.559    0.609
        53 -10.8698    242.7562    194.1256   2.9015994391e+02   4.1226190597e+00   0.02759595   0.01814426 -74.03  0.002831422    1.655    0.396
        54  -9.3050    247.9375    195.4455   2.9010893052e+02   4.0773634271e+00   0.01536934   0.01077121  32.70  0.001000638    1.432    0.302
        55  -8.7404    138.9951    199.1286   2.9136999502e+02   4.6649155811e+00  0.009117622  0.008971435 -66.39  0.001156267    1.007    0.007
        56  -9.3560    133.0020    198.9603   2.9143722504e+02   4.7014655939e+00  0.009283481  0.009029712 -46.06            0    1.019    0.019
        57  -8.2451    113.9516    197.6495   2.9164636296e+02   4.8265716745e+00  0.008983404  0.008178494  21.82  0.000401589    1.127    0.113
        58  -8.6982    167.5114    195.0819   2.9102135586e+02   4.5469534656e+00  0.009532601  0.006348949 -62.13 0.0003606216    1.467    0.318
        59  -8.8712    162.7281    193.4963   2.9106636196e+02   4.5929325620e+00   0.02084137  0.008704632 -50.67  0.001751565    2.294    0.564
        60  -7.8498    171.2726    192.3418   2.9096225437e+02   4.5568888547e+00  0.006886067  0.004768983 -34.02 0.0002761419    1.613    0.380
        61  -9.3265     20.6783    190.4381   2.9266635234e+02   5.4470797154e+00   0.01236074   0.01141691 -54.23 0.0006206797    1.059    0.056
        62  -8.7117    169.3560    188.0517   2.9095854572e+02   4.6175647298e+00  0.009347108   0.00818025 -61.45 0.0004708043    1.118    0.106
        63  -8.9290     11.2817    185.8805   2.9274647847e+02   5.5537906449e+00   0.01297303  0.008368075 -17.28  0.001233796    2.104    0.525
        64 -10.1962    249.0375    182.5670   2.9001969152e+02   4.2197547066e+00   0.03060831   0.01435128 -79.36  0.002267972    3.366    0.703
        65 -10.3796    247.9931    162.2312   2.8991032355e+02   4.4606971094e+00   0.03095217   0.01541279 -41.38   0.00271091    2.262    0.558
        66 -10.3288    250.1470    174.7064   2.8996022760e+02   4.3041210608e+00   0.02814575   0.01077524 -59.23  0.002043041    2.426    0.588
        67  -9.7002    248.1399    169.1485   2.8994990210e+02   4.3799495841e+00   0.01710418   0.01377213 -44.06  0.001977392    1.247    0.198
        68  -8.4385     22.6921    181.0038   2.9258751424e+02   5.5446658755e+00  0.009417814  0.008110931 -63.42 0.0003719424    1.139    0.122
        69  -9.2385    193.8873    176.3280   2.9060961866e+02   4.6111898688e+00   0.01561402    0.0102327 -68.18  0.001612836    1.561    0.359
        70  -9.1966    100.9987    175.9997   2.9166531963e+02   5.1516908646e+00  0.009161053  0.008911234 -53.34  0.001155263    1.010    0.010
        71  -8.4071    154.0665    175.2569   2.9105646904e+02   4.8538675865e+00  0.008966967  0.008399371  30.70 0.0002893592    1.086    0.080
        72 -10.3374    161.9217    159.1400   2.9087110797e+02   4.9947768467e+00   0.02261712   0.01213752  -0.78  0.001755954    3.274    0.695
        73  -9.9575      5.0893    156.7012   2.9264423975e+02   5.9269511099e+00   0.01904687     0.012652  59.60  0.001506593    1.802    0.445
        74 -11.0992    235.0684    152.0080   2.8999628347e+02   4.6536950661e+00   0.03042073   0.02356286 -58.27  0.003007947    1.253    0.202
        75  -8.3970     37.9699    152.4933   2.9224425176e+02   5.7866625858e+00  0.009523581  0.006530094  24.92 0.0004423621    1.504    0.335
        76 -10.0545    187.0526    148.5848   2.9052213279e+02   4.9713761463e+00   0.01802801    0.0125252 -22.69  0.001853727    1.768    0.434
        77 -10.7773    179.5565    145.4422   2.9058873719e+02   5.0510822085e+00   0.01542998   0.01359942 -10.95  0.001585091    1.225    0.184
        78 -11.5682    241.5151    135.3266   2.8982346226e+02   4.8089896832e+00   0.04193005   0.03380378   9.65  0.004835038    1.355    0.262
        79  -9.4274    249.6285    124.9694   2.8966939321e+02   4.8815303534e+00   0.01785647  0.009590012 -55.94   0.00170206    1.764    0.433
        80 -10.0355    249.4880    142.8523   2.8977772848e+02   4.6758421480e+00   0.02381355   0.01193783 -61.21  0.002188133    1.924    0.480
        81 -10.4567    249.5227    135.9748   2.8973629078e+02   4.7550619045e+00   0.03053894   0.01131062 -60.07  0.002445475    2.524    0.604
        82  -9.2323     33.1774    145.1170   2.9225513776e+02   5.8995515216e+00    0.0100773   0.00855542 -31.42 0.0005350503    1.239    0.193
        83  -9.0299     15.7977    139.3736   2.9241932865e+02   6.0658899102e+00  0.009142648  0.006353055  12.08 0.0004157663    1.636    0.389
        84  -9.5654    192.3080    138.1049   2.9039984627e+02   5.0620519486e+00   0.01082328  0.009053037   1.29 0.0005461426    1.318    0.241
        85 -10.9165    230.6974    123.9541   2.8987861046e+02   5.0030605637e+00   0.04334255   0.02142247 -67.11  0.003476556    2.122    0.529
        86 -10.0414    226.4247    122.3691   2.8991775354e+02   5.0461418453e+00    0.0316324   0.01737043 -19.16  0.002513495    3.136    0.681
        87  -8.9429    198.9936    129.7170   2.9027373062e+02   5.1202442714e+00  0.009308355   0.00870629  34.20 0.0006881595    1.087    0.080
        88  -9.8822    195.0423    128.0665   2.9030886244e+02   5.1622016940e+00   0.01010601  0.009895493 -89.05 0.0005977431    1.029    0.028
        89  -9.2219    187.9146    123.4937   2.9036273327e+02   5.2563168712e+00  0.009879427  0.006518492  25.98 0.0007409736    1.555    0.357
        90  -8.5666     38.5498    123.2341   2.9206390213e+02   6.1217399170e+00  0.009163823  0.005787145 -49.75 0.0004234283    1.549    0.354
        91  -9.3195     34.3917    122.6956   2.9210815093e+02   6.1518881753e+00   0.01182302   0.01057562 -24.14 0.0005120067    1.176    0.150
        92  -9.8527     29.3549    118.4110   2.9214017733e+02   6.2304054054e+00   0.01988909   0.01314675 -23.29  0.001970874    1.921    0.479
        93  -9.4086     27.3211    115.2920   2.9214486090e+02   6.2781677760e+00   0.01001578  0.008419413  30.34  0.000656435    1.207    0.171
        94  -8.4353    250.2456    117.1939   2.8961594903e+02   4.9677257468e+00  0.009633431  0.008664726 -40.71 0.0005031619    1.118    0.105
        95  -9.5820     21.9984    116.3113   2.9221166671e+02   6.2969828446e+00   0.01286479  0.008640627 -39.34   0.00133328    1.590    0.371
        96  -7.9148     58.2072    115.6319   2.9179441861e+02   6.0964858068e+00  0.008880777  0.006306391  10.33 0.0003970728    1.610    0.379
        97 -10.6013     19.2021    111.1954   2.9221319635e+02   6.3722143779e+00   0.02786438   0.01477546 -45.36  0.002566874    1.943    0.485
        98  -8.2725     34.5320    249.5663   2.9285835908e+02   4.6833126031e+00  0.006476532  0.006303895 -41.27 0.0004434998    1.026    0.025
        99 -11.7154    244.6177     96.2757   2.8955499491e+02   5.2418801525e+00   0.05423724   0.01830511 -67.60  0.003770733    3.520    0.716
       100  -8.6549    159.9468    111.4814   2.9060963146e+02   5.5570214454e+00  0.009936593  0.006520553  25.71 0.0005582817    1.567    0.362
       101  -7.6608    130.0499    107.0130   2.9092371700e+02   5.7815670924e+00  0.007255606  0.007095309 -57.62            0    1.002    0.002
       102  -9.3642      6.4443    102.0641   2.9230460563e+02   6.5510992517e+00   0.01746221   0.01087718 -65.06  0.001606166    1.600    0.375
       103  -9.9766    209.6980    101.6789   2.8998457463e+02   5.3820760188e+00   0.02693838   0.01376118  15.37  0.002319522    2.471    0.595
       104  -8.9766    215.8644     97.9617   2.8989219371e+02   5.3892444501e+00   0.01256461  0.009822123 -32.12 0.0004433384    1.384    0.277
       105  -9.3135     93.0907     99.3030   2.9129925958e+02   6.0841389630e+00   0.01134321   0.01015717 -51.75 0.0003795035    1.094    0.086
       106  -7.9713    139.4930     96.4698   2.9075321478e+02   5.8488041686e+00  0.006517349  0.006328591 -44.65 0.0001527931    1.022    0.022
       107  -8.6610    228.1922     94.7980   2.8973301447e+02   5.3542629874e+00    0.0112035  0.007937259  29.53 0.0006531581    1.426    0.299
       108  -7.4674    111.3280     95.3439   2.9106765043e+02   6.0246019189e+00  0.007122127  0.004805902 -29.89 0.0007050824    1.746    0.427
       109  -8.5003    171.4988     94.4987   2.9037671188e+02   5.6863533356e+00  0.006524138  0.006334448 -46.52 0.0008106117    1.020    0.020
       110  -9.1641    198.0185     91.8941   2.9005911463e+02   5.5627842885e+00   0.01262187  0.008736147 -61.97 0.0007852053    1.411    0.292
       111 -10.3078     15.2890     90.9318   2.9213746567e+02   6.6289894268e+00   0.01987561   0.01306283 -21.03  0.001951091    1.976    0.494
       112 -10.7981      4.1138     87.5879   2.9224521338e+02   6.7318460955e+00   0.03530688   0.02492713 -68.35  0.003823643    1.437    0.304
       113 -11.1595      9.0409     85.7958   2.9217829040e+02   6.7242618750e+00   0.03369278   0.02006749   6.83  0.002095824    2.217    0.549
       114  -8.1064    128.0941     91.0681   2.9085096363e+02   5.9771276679e+00  0.008181722  0.007289566  66.67 0.0009781457    1.190    0.160
       115  -8.4802     37.6723     90.2931   2.9187809334e+02   6.5076538493e+00   0.01501559  0.008628367 -83.32  0.001015768    2.347    0.574
       116  -9.4202    231.9547     85.3078   2.8963350460e+02   5.4419869453e+00  0.009432856   0.00867058  20.68  0.000953581    1.117    0.105
       117  -8.2697    188.9962     85.7686   2.9012528247e+02   5.6858182075e+00  0.008814204  0.005480051  26.88 0.0008798746    1.642    0.391
       118  -7.4273    109.6494     85.7308   2.9102949982e+02   6.1453846641e+00  0.006766625  0.004931146 -22.89 0.0004628947    1.625    0.385
       119  -8.1988     48.1251     82.8325   2.9171436231e+02   6.5337202711e+00  0.009237796  0.007602661 -15.95 0.0006777136    1.359    0.264
       120 -11.7102    229.7606     53.9641   2.8947109110e+02   5.8164499472e+00   0.04306393   0.03074099  73.79  0.004505977    1.737    0.424
       121  -7.6570     65.6731     82.7343   2.9151345333e+02   6.4337629547e+00  0.006651706  0.004930815 -23.90 0.0002595554    1.570    0.363
       122  -8.9411    194.7735     80.5868   2.9002853839e+02   5.7121677793e+00  0.009486619  0.005819599  39.84 0.0009451267    1.646    0.393
       123  -9.3962     44.0710     77.4872   2.9172883555e+02   6.6188392994e+00   0.01936283  0.009311287 -62.68  0.001150418    2.033    0.508
       124 -10.0522    184.9189     76.7255   2.9011772059e+02   5.8138757697e+00    0.0200385  0.009035695 -58.49  0.001759142    2.082    0.520
       125  -8.3688     65.1730     77.0848   2.9148551699e+02   6.5019337355e+00   0.01052388   0.00868048 -33.58  0.001081549    1.275    0.216
       126  -9.3372     88.1274     73.5291   2.9120232753e+02   6.4106324711e+00   0.01813143   0.01267052 -41.88  0.001346857    1.481    0.325
       127  -8.1377    124.0062     69.0396   2.9076619154e+02   6.2552520764e+00  0.007675418  0.007633837 -44.35 0.0003734128    1.016    0.016
       128  -9.4341     68.6432     67.2253   2.9138716441e+02   6.5958556605e+00    0.0116807   0.01113172 -10.85  0.000431533    1.084    0.077
       129  -8.8107    209.5202     59.3126   2.8973348445e+02   5.8722267037e+00   0.01439122  0.009638651  46.81  0.001501787    1.579    0.366
       130 -10.4024    201.8964     65.2520   2.8985580115e+02   5.8479033633e+00   0.02563334   0.01566906  36.17  0.002605513    1.629    0.386
       131  -8.7780    206.2057     61.8267   2.8978625512e+02   5.8624418276e+00   0.01094943  0.007594766 -27.78 0.0005126236    1.707    0.414
       132  -8.9667     96.4911     66.4751   2.9106482396e+02   6.4438504557e+00   0.01374872    0.0115509  67.27  0.001342531    1.302    0.232
       133  -9.8076     46.7036     61.8628   2.9160574032e+02   6.7842282694e+00    0.0289555   0.01426155 -54.90   0.00238389    1.911    0.477
       134 -10.4625     31.4014     60.2602   2.9177097845e+02   6.8908221789e+00   0.02464797   0.02106809 -22.94  0.001905921    1.261    0.207
       135  -9.8375     26.3493     60.0592   2.9182749465e+02   6.9222058452e+00   0.01476916   0.01320275  49.53 0.0006739097    1.152    0.132
       136  -9.4314     47.4211     45.6098   2.9150070976e+02   6.9678513512e+00   0.01850634   0.01282762 -17.44  0.001225497    1.822    0.451
       137  -9.9587     50.2079     39.3251   2.9143141386e+02   7.0243852550e+00   0.01557842   0.01495652 -38.01 0.0004340182    1.042    0.041
       138 -10.9759     75.6826     55.7528   2.9123841369e+02   6.6877986020e+00   0.04354262   0.02605191 -38.58   0.00316685    1.863    0.463
       139 -10.8509     84.0442     50.0871   2.9110916126e+02   6.7049962796e+00   0.04522509   0.01831776 -54.54  0.003811466    2.279    0.561
       140  -8.6019     22.1981    249.3996   2.9299779796e+02   4.7561077151e+00  0.009156844  0.005844972  39.68 0.0002398711    1.582    0.368
       141 -10.3603    246.8005     60.7785   2.8931796553e+02   5.6388549943e+00   0.02100939   0.01314576  27.88   0.00167432    1.623    0.384
       142  -9.8809    228.8553     46.8061   2.8943857961e+02   5.9042899988e+00   0.01291676   0.01074685 -58.90 0.0007332106    1.171    0.146
       143 -10.1290    245.8372     53.6777   2.8928644936e+02   5.7263687824e+00   0.01463591  0.007520991 -46.52  0.001335116    1.979    0.495
       144  -8.1382    141.5210     53.5159   2.9047376035e+02   6.3332196874e+00  0.006484678  0.006361263 -63.30 0.0001487085    1.005    0.005
       145  -8.6270     31.5313     53.0274   2.9172642558e+02   6.9736371355e+00  0.009721644  0.006290431 -60.91 0.0003736853    1.499    0.333
       146 -10.4681     67.1713     46.7347   2.9128183205e+02   6.8410460401e+00    0.0259169   0.01546089  63.84  0.001402555    2.302    0.566
       147  -8.0814     40.6353     51.2817   2.9161202407e+02   6.9414085754e+00  0.006956866  0.004805536  58.55 0.0007015629    1.683    0.406
       148  -9.0293    172.0016     49.9980   2.9010522912e+02   6.1973103144e+00   0.00913844   0.00891054 -60.59  0.001154256    1.006    0.006
       149  -8.7124    159.9738     50.4822   2.9024522826e+02   6.2614067360e+00   0.01036324  0.004519043  48.21 0.0008095743    2.765    0.638
       150 -10.4725     24.0069     46.8814   2.9177579284e+02   7.0879166836e+00   0.03509381   0.01923426  -0.37  0.002844034    3.019    0.669
       151  -8.8660     30.9988     46.5039   2.9169365520e+02   7.0520581694e+00   0.01215286  0.008290818  34.93 0.0007049202    1.467    0.319
       152  -9.4300     39.3267     47.1500   2.9160235792e+02   6.9966677630e+00   0.01745782  0.009798428  19.11  0.001641105    2.000    0.500
       153 -10.4341      9.7329     41.2085   2.9190513323e+02   7.2354976624e+00   0.02451999   0.01686283  75.32  0.001551704    1.869    0.465
       154  -9.5800      9.5005     34.6492   2.9186872990e+02   7.3125908619e+00   0.01359013   0.01073609 -22.72 0.0006994469    1.424    0.298
       155  -8.8160    223.3481     39.6206   2.8945828058e+02   6.0191661235e+00   0.01037966  0.007588729  64.54  0.001100808    1.604    0.377
       156  -8.5684    189.7686     36.9846   2.8982495991e+02   6.2444822440e+00  0.009394661  0.008257144 -62.93 0.0003831042    1.117    0.105
       157  -9.1645    125.5150    246.9918   2.9180753030e+02   4.1892043091e+00   0.01010678  0.006358326 -62.71  0.000603265    1.557    0.358
       158  -8.1459    133.2815    246.3456   2.9171533236e+02   4.1518759307e+00  0.006941648   0.00477349 -33.40 0.0003220475    1.639    0.390
       159  -7.8103     49.5209    246.5209   2.9266970342e+02   4.6323717326e+00  0.006550911  0.006289592 -41.37  0.000423554    1.039    0.038
       160  -9.6701    110.0420    243.2999   2.9196171551e+02   4.3211266771e+00   0.01198648  0.009502608 -69.31 0.0004892226    1.271    0.213
       161  -9.3885    137.7274    242.2612   2.9164052177e+02   4.1734543193e+00   0.01226829  0.009752997 -31.21 0.0006509817    1.358    0.264
       162  -8.6577     10.5139    243.2553   2.9309453904e+02   4.8942998672e+00   0.01391203  0.008150632   7.97  0.001266494    2.249    0.555
       163  -8.8248    128.4933     34.5279   2.9050895832e+02   6.6278152668e+00    0.0116414   0.01108142 -58.38 0.0006328489    1.029    0.028
       164  -8.9568    125.3303     33.3029   2.9053773243e+02   6.6602531316e+00   0.01128243   0.00945654   4.24 0.0007800095    1.303    0.233
       165 -10.2012    117.7376     33.9861   2.9062845788e+02   6.6962773822e+00   0.02377271   0.01264799  25.64  0.001899558    1.945    0.486
       166  -9.4603    120.1376     30.8911   2.9058258116e+02   6.7181261017e+00   0.01441199   0.01205884 -88.62 0.0006282519    1.295    0.228
       167  -7.8920    174.0071     33.9998   2.8998673761e+02   6.3703244621e+00   0.00745182  0.007306372 -59.15 0.0009373225    1.000    0.000
       168  -9.4358    144.3082     33.3324   2.9032139575e+02   6.5500867860e+00   0.01240099  0.009973246 -38.43  0.001422834    1.286    0.222
       169  -8.2170     96.5270     27.9446   2.9083449927e+02   6.8885994030e+00   0.01018594  0.006185671 -58.48  0.001016739    1.580    0.367
       170  -9.6216     68.0672     23.8803   2.9113526812e+02   7.0997788895e+00     0.021182   0.01798113 -57.72  0.001729387    1.147    0.128
       171  -9.2315     55.1477    239.8232   2.9256601522e+02   4.6774935946e+00  0.009295849  0.007541017 -32.82 0.0005589638    1.310    0.237
       172  -9.5026    144.8524     24.0515   2.9025971619e+02   6.6540428580e+00   0.01199056  0.008661509 -53.55  0.000764944    1.341    0.254
       173  -9.5851    106.9855     23.8604   2.9069070481e+02   6.8753150583e+00   0.01935282   0.01510626  30.41  0.002212838    1.295    0.228
       174  -9.2639     93.8726     22.2711   2.9083092991e+02   6.9694205822e+00   0.03327738   0.01566502   8.03  0.002382491    3.771    0.735
       175  -8.6803     86.5207     24.4685   2.9092800547e+02   6.9865092135e+00   0.01165448   0.01007086 -77.20 0.0009691939    1.190    0.159
       176  -9.8637     85.6474     20.6725   2.9091531501e+02   7.0353674582e+00   0.02522169   0.01393505  25.39  0.002142953    1.874    0.466
       177  -9.1494    250.6275    237.8820   2.9033103062e+02   3.5715929838e+00   0.01106155  0.006003003 -59.76 0.0003952342    1.765    0.433
       178  -8.4615    246.7897     22.2017   2.8908723600e+02   6.0838196420e+00  0.009444765  0.007521176 -34.58 0.0007545652    1.332    0.249
       179  -7.8413    221.8508     22.1921   2.8937103175e+02   6.2288735445e+00  0.008728094  0.007266307 -26.73  0.001006004    1.299    0.230
       180  -9.1107    148.9375    237.9617   2.9148747009e+02   4.1584692220e+00    0.0109975  0.007677743  65.56   0.00112615    1.741    0.426
       181  -8.0534    104.4989    238.4694   2.9199617114e+02   4.4089507709e+00  0.006504429  0.006341671 -48.09 0.0001338527    1.015    0.015
       182  -8.3090    114.2514     15.6275   2.9055857107e+02   6.9283237206e+00   0.01263509   0.00818961  19.36 0.0008804949    1.674    0.402
       183  -9.1984    189.5175     15.8983   2.8970167939e+02   6.4891885138e+00   0.01322237   0.01179958   7.75  0.001422224    1.184    0.155
       184  -7.6183    195.6881    237.2508   2.9095156033e+02   3.8966252321e+00  0.006555746  0.004844941  57.99 0.0002341474    1.517    0.341
       185  -9.3120    128.1753    236.1553   2.9171298683e+02   4.2991771953e+00   0.01005333  0.008611558 -33.40 0.0004212132    1.216    0.178
       186  -9.1919     70.1696    235.1954   2.9236758074e+02   4.6445827014e+00    0.0108784   0.01039328 -33.09 0.0004998841    1.058    0.055
       187  -8.2700    140.5263    235.5531   2.9156887253e+02   4.2348701946e+00  0.006519353  0.006294036 -39.56 0.0001726741    1.035    0.034
       188  -8.5093     10.7354    231.8172   2.9302443712e+02   5.0253829306e+00  0.009794007  0.008543666 -37.14 0.0007159329    1.172    0.147
       189  -8.7586    147.0184    231.5066   2.9147098605e+02   4.2441869613e+00  0.009879036  0.006532608  25.24 0.0004841418    1.558    0.358
       190 -11.2733    243.2710    106.4827   2.8963128644e+02   5.1318643167e+00   0.03651727   0.02518952 -69.80  0.002309304    1.495    0.331
       191  -9.5499    130.9566    230.9431   2.9165041138e+02   4.3434064570e+00   0.01002561  0.009350911 -43.38 0.0004877457    1.067    0.063
