#   1 NUMBER                 Running object number                                     
#   2 MAG_AUTO               Kron-like elliptical aperture magnitude                    [mag]
#   3 X_IMAGE                Object position along x                                    [pixel]
#   4 Y_IMAGE                Object position along y                                    [pixel]
#   5 X_WORLD                Barycenter position along world x axis                     [deg]
#   6 Y_WORLD                Barycenter position along world y axis                     [deg]
#   7 A_WORLD                Profile RMS along major axis (world units)                 [deg]
#   8 B_WORLD                Profile RMS along minor axis (world units)                 [deg]
#   9 THETA_WORLD            Position angle (CCW/world-x)                               [deg]
#  10 FWHM_WORLD             FWHM assuming a gaussian core                              [deg]
#  11 ELONGATION             A_IMAGE/B_IMAGE                                           
#  12 ELLIPTICITY            1 - B_IMAGE/A_IMAGE                                       
         1 -13.1579    200.8132     32.7679   5.8496559596e+01   3.0790449467e+01     1.160154    0.9967438   3.87  0.006143433    1.267    0.211
         2 -13.7562    217.5314     15.6421   5.1369013405e+01   2.8396362638e+01     1.371726    0.9572837  22.97  0.006670245    1.785    0.440
         3 -12.3059      2.0000     12.0918   1.1080750396e+02   7.2831096781e+01     1.027346    0.1789499 -60.44  0.003590858    4.629    0.784
         4 -12.2490      2.1587      3.6562   1.0724815707e+02   7.4404759362e+01    0.7298462     0.363846  13.61  0.004421045    2.534    0.605
         5 -11.4489    245.1820    242.2812   9.7848767835e+01  -4.9136585567e+00     0.188558    0.1678596 -49.20  0.001549846    2.066    0.516
         6 -12.5313    184.9864    249.0671   1.0775753107e+02   3.1244078538e+00    0.7331848    0.2399109  42.99  0.003862073    2.215    0.549
         7 -11.9537    178.7451    244.2287   1.0816676087e+02   4.5628505660e+00    0.3242645     0.232384  51.35  0.001421226    1.291    0.225
         8 -10.8549    168.9777    249.2935   1.1025662437e+02   5.4501145360e+00    0.2242531    0.1724983  28.11 0.0002969679    1.310    0.237
         9 -12.3051    169.8635    243.7583   1.0950655901e+02   5.9388594273e+00    0.4520082    0.2137329  51.49  0.001816574    1.885    0.469
        10 -11.4703    159.4824    244.3798   1.1121202311e+02   7.4096196450e+00    0.2607116    0.1657983  67.11   0.00113916    2.059    0.514
        11 -12.1788    149.9203    247.4855   1.1304258441e+02   8.4463947472e+00    0.4523122    0.2824947  51.50  0.003255639    1.267    0.210
        12 -10.8445    143.8466    249.4006   1.1418455936e+02   9.0962752858e+00    0.3060517    0.1668193  59.61  0.001960653    1.891    0.471
        13 -10.8661    142.1152    219.7652   1.1131468461e+02   1.3217961526e+01     0.365949    0.3032563 -25.31  0.001948902    1.746    0.427
        14 -12.5451    133.8684    249.0671   1.1571364416e+02   1.0565405176e+01    0.9880518     0.284234  42.28  0.004873527    2.620    0.618
        15 -10.4771    135.6182    225.2540   1.1303356488e+02   1.3447602231e+01    0.2245379    0.2000728  76.83 0.0008775105    1.243    0.195
        16 -11.4300    115.9501    249.7785   1.1857493367e+02   1.2982469080e+01    0.5272882    0.2870951  45.72  0.002959493    1.351    0.260
        17 -11.3075    109.8417    247.8116   1.1936496175e+02   1.4077397176e+01    0.4165385    0.3106081  85.40  0.003049354    1.472    0.320
        18 -11.6351    136.0222    241.3056   1.1462930087e+02   1.1237677280e+01    0.2437214    0.2350935 -85.39   0.00104177    1.377    0.274
        19 -12.5960    134.9359    234.2728   1.1409869664e+02   1.2319017261e+01    0.8014679    0.4394354 -61.80  0.005111203    2.445    0.591
        20 -11.8116    125.9580    243.0390   1.1640361269e+02   1.2461967769e+01    0.3860898    0.3227295  82.83  0.001409601    1.348    0.258
        21 -11.4903    100.0558    247.9584   1.2090309194e+02   1.5374980276e+01    0.5712016    0.2397952  49.70  0.003575505    1.705    0.414
        22 -12.3635    101.7616    238.0318   1.1984140687e+02   1.6523963012e+01    0.6233186    0.3930523  89.35 0.0007960749    1.856    0.461
        23 -10.5263     84.3214    241.0885   1.2285689588e+02   1.8396213300e+01    0.2969982    0.1535632  50.33    0.0015665    1.396    0.284
        24 -10.4735     97.0941    239.1023   1.2067735975e+02   1.7002723192e+01    0.2130666    0.1323993  61.56 0.0007522265    1.298    0.230
        25 -10.6230     91.9057    241.3456   1.2167755167e+02   1.7372740308e+01    0.2244455    0.1900237  39.19  0.001420431    1.509    0.337
        26 -11.3881     87.9004    236.8408   1.2197421785e+02   1.8548381477e+01    0.5405183    0.2107463  54.45  0.003119462    2.042    0.510
        27 -10.5461     84.4511    229.7690   1.2199143575e+02   2.0054067088e+01    0.2016818    0.1756938 -67.40  0.001678935    1.571    0.364
        28 -11.4823    109.4507    232.2799   1.1809287096e+02   1.6280847539e+01    0.3406981     0.223591  73.10  0.002345139    1.558    0.358
        29 -11.0697    113.3989    230.9449   1.1731923604e+02   1.5913176715e+01    0.2408278    0.2082417  65.97  0.001131066    1.192    0.161
        30 -11.3232    105.7860    228.3321   1.1834273347e+02   1.7370994585e+01    0.2891099    0.2207159  47.14  0.001651587    1.211    0.174
        31  -9.9896     81.5932    247.7416   1.2374473810e+02   1.7797549699e+01    0.2369687    0.1306928 -87.70    0.0016663    2.088    0.521
        32  -9.9907     90.6233    250.2475   1.2253026783e+02   1.6298533183e+01    0.1733668    0.1501925  58.01  0.001522576    1.345    0.256
        33 -11.3403     86.5815    248.2847   1.2301394955e+02   1.7088194352e+01    0.2759194    0.2124335  39.24 0.0007872937    1.529    0.346
        34 -10.0091     50.0049    250.0041   1.2864694472e+02   2.1245662280e+01     0.241034    0.1064484  45.51  0.001608297    1.689    0.408
        35 -13.2113     10.9274    215.4000   1.3306270482e+02   3.0674289318e+01     1.103673    0.9534706  72.78    0.0103147    1.456    0.313
        36 -12.3107      9.5820    206.7947   1.3293366669e+02   3.2246058858e+01     1.047613    0.5498039  20.37  0.005805569    4.394    0.772
        37 -12.7552     41.8541    206.7301   1.2752559848e+02   2.8992046321e+01      1.44161    0.5302429  70.33  0.007149122    3.066    0.674
        38 -13.5268     27.3137    247.2870   1.3184545603e+02   2.4079393747e+01     1.329849    0.6996821  42.41   0.01029267    1.717    0.417
        39 -13.4819      5.7401    245.9608   1.3487593397e+02   2.6379653881e+01     1.040908    0.4254196  73.05  0.007632511    1.836    0.455
        40 -13.1462     13.3569    239.5472   1.3358302321e+02   2.6618420132e+01    0.9037275    0.4434766  72.60  0.005937748    1.490    0.329
        41 -12.2243     44.0492    241.8618   1.2912888909e+02   2.3101550655e+01    0.3958576    0.2003279 -88.29  0.002891687    1.913    0.477
        42 -12.1016     38.1519    238.3577   1.2984990796e+02   2.4272644045e+01    0.5248299    0.2581349 -66.84   0.00163541    2.391    0.582
        43 -12.8229     26.8473    226.0764   1.3101507369e+02   2.7375879078e+01    0.3538014    0.2732389  50.24 0.0007292034    1.435    0.303
        44 -14.0086     33.0032    218.7812   1.2968383616e+02   2.7918606408e+01     0.827172    0.6129059  70.74  0.007016438    1.114    0.102
        45 -10.9233    162.6995    250.0989   1.1131734114e+02   6.2788139467e+00    0.2837594    0.1730188  46.65 0.0006840038    1.213    0.176
        46 -11.1882    143.6492    240.7072   1.1334629730e+02   1.0196980715e+01    0.2646867    0.1030466  43.39  0.001463538    1.919    0.479
        47 -12.5785    201.6649    245.8193   1.0481277793e+02   1.0037459668e+00    0.6342654    0.1863952  42.12  0.003155227    2.483    0.597
        48 -11.3175    116.6682    238.3700   1.1746667259e+02   1.4407117389e+01    0.2969273    0.2478605 -24.77  0.001931989    2.055    0.513
        49 -10.8471    122.0843    233.6034   1.1613976062e+02   1.4290744905e+01    0.2877069    0.2424817  82.91  0.001858615    1.301    0.231
        50  -9.3445     66.5207    239.4226   1.2553898289e+02   2.0863389796e+01    0.1989543   0.09100834  68.42 0.0008269026    2.103    0.524
        51  -9.9387    172.9879    236.0123   1.0811435819e+02   6.3581566589e+00     0.156913    0.1142969  63.71 0.0004429072    1.622    0.383
        52 -11.0579    128.9299    235.0410   1.1515864128e+02   1.3098688362e+01    0.3367947    0.1760734  60.77  0.001505319    1.976    0.494
        53  -8.6816     70.5770    235.4590   1.2464273195e+02   2.0959488375e+01    0.1024041   0.07210847  62.31 0.0008041383    1.009    0.009
        54  -9.2884     54.6284    235.3698   1.2715331692e+02   2.2883805845e+01    0.1638679    0.0802307  63.46  0.001115591    1.603    0.376
        55 -10.8604    168.7566    233.5679   1.0850555205e+02   7.2944871101e+00    0.2595433    0.1501983  31.57 0.0008797761    1.696    0.411
        56 -10.4323    156.7052    232.2655   1.1031520837e+02   9.3013170919e+00    0.1782141    0.1567412  39.94 0.0005116476    1.182    0.154
        57 -10.5444    249.8620    230.5752   9.5499483300e+01  -4.5920451791e+00    0.1551719    0.1168827 -13.79  0.001217666    1.467    0.318
        58  -8.9910     45.5390    230.9757   1.2833196140e+02   2.4598070997e+01    0.1280448   0.07950603  89.88 0.0004975772    1.474    0.322
        59  -9.1086     56.8139    228.9480   1.2642264215e+02   2.3621105287e+01    0.1769184   0.09893749 -82.24  0.001230211    1.787    0.441
        60 -10.5790     79.3893    225.9869   1.2253439009e+02   2.1294193442e+01    0.3225288    0.1935206 -75.60  0.002250878    1.806    0.446
        61  -9.4937     77.1232    220.8456   1.2251605440e+02   2.2396654571e+01    0.1623071    0.1068062  65.70 0.0004474949    1.204    0.170
        62 -10.4821    117.2516    224.5751   1.1606240345e+02   1.6280601156e+01    0.2213977    0.1871223  52.70 0.0009062684    1.166    0.142
        63  -9.7519     92.6066    225.9965   1.2033662730e+02   1.9541572110e+01    0.1763925    0.1227792  44.97 0.0008331144    1.311    0.237
        64  -9.8792     51.6088    225.3559   1.2704197583e+02   2.4795597575e+01     0.161747     0.127308  68.40 0.0003511277    1.182    0.154
        65  -9.1264     64.8809    224.7150   1.2483660653e+02   2.3320302565e+01    0.1835221    0.1474521 -46.88  0.001292255    2.120    0.528
        66  -9.2444    164.3267    224.0325   1.0807742902e+02   9.1637105456e+00    0.1431092    0.1263591  47.55 0.0003931624    1.146    0.128
        67 -11.1978     98.6768    223.1199   1.1906653417e+02   1.9148204796e+01    0.3435465     0.201469  58.98  0.001590068    1.399    0.285
        68  -9.9134     87.3650    223.4171   1.2099928107e+02   2.0644896119e+01    0.1965729    0.1258871  61.93 0.0007087631    1.237    0.192
        69 -10.4364     70.8602    219.4860   1.2346735131e+02   2.3414327569e+01    0.4104333    0.2169496  80.32  0.002564724    2.003    0.501
        70 -10.0272    245.8465    219.7841   9.4476997532e+01  -3.0589070770e+00    0.2397119   0.06982361 -32.02  0.001128493    3.885    0.743
        71  -9.7734    111.0000    220.9923   1.1677132103e+02   1.7723023124e+01    0.2202219   0.06190157 -59.16 0.0009790136    4.300    0.767
        72  -9.1038    109.6463    217.3212   1.1664108737e+02   1.8479588723e+01    0.1191668   0.06840272  65.34 0.0007046948    1.754    0.430
        73  -8.8594     89.3222    218.6748   1.2026621945e+02   2.1126283580e+01      0.11543   0.06400672  65.87  0.000545605    1.684    0.406
        74  -9.0791    118.2079    215.3331   1.1494963624e+02   1.7521981025e+01    0.1806635    0.1210091  82.77 0.0006131965    1.766    0.434
        75  -9.4551     88.0920    212.7384   1.1995636243e+02   2.2248373835e+01    0.2027142    0.1290542  87.08 0.0009089292    1.641    0.391
        76 -10.3591     63.2385    208.9322   1.2397982318e+02   2.6113060772e+01    0.4060601    0.2416729 -60.66  0.002726387    2.038    0.509
        77 -10.9889     55.3422    208.1881   1.2529696305e+02   2.7194845695e+01    0.5429797    0.2638681  83.13  0.002638259    2.146    0.534
        78 -11.4046    122.3851    245.6728   1.1721006284e+02   1.2622939378e+01    0.4568229    0.2885501  89.79  0.001794428    2.178    0.541
        79 -10.4296    111.4418    206.5149   1.1520040364e+02   1.9918703343e+01    0.3186366    0.1901065 -85.90  0.001094732    2.223    0.550
        80  -9.0613    106.6800    209.6940   1.1638728783e+02   2.0111968937e+01   0.09960755   0.08666584  21.09 0.0003969567    1.635    0.389
        81  -8.6972     90.4159    208.7507   1.1918241563e+02   2.2583992446e+01    0.1283926    0.1005999 -66.96 0.0005459976    1.504    0.335
        82  -9.1845    156.1511    208.1581   1.0744465825e+02   1.2616815057e+01    0.1644347    0.1342341  38.07 0.0002602394    1.134    0.118
        83  -8.9630    134.3610    207.8173   1.1125060214e+02   1.6180880194e+01    0.1377211    0.1089201 -43.48 0.0009378671    1.655    0.396
        84  -8.6620     74.4360    208.4557   1.2198140712e+02   2.4777344844e+01    0.1100093   0.08237135  65.81 0.0001378925    1.006    0.006
        85  -9.6109     91.0591    205.0464   1.1871564900e+02   2.3112047313e+01    0.2744353    0.1454119  35.34    0.0015453    2.114    0.527
        86  -9.5837    106.9853    204.0417   1.1573700629e+02   2.0985244900e+01    0.1332473    0.1118785  81.80 0.0004636412    1.175    0.149
        87  -9.9754      2.4943    202.0290   1.3390506716e+02   3.3699409985e+01    0.2088881    0.1125937 -87.80  0.001329446    1.502    0.334
        88 -10.0774      3.1999    197.9624   1.3363138365e+02   3.4345011345e+01    0.2507636   0.09798271  51.46 0.0009047032    1.871    0.465
        89 -10.7682      2.6945    193.5342   1.3353964670e+02   3.5169879239e+01    0.3697073    0.1445184  64.09  0.002327738    1.936    0.484
        90 -10.7957     83.8764    201.5649   1.1968257450e+02   2.4695558980e+01    0.1945044    0.1626874  78.58 0.0002641696    1.145    0.127
        91  -9.8430     43.1691    200.3810   1.2688958351e+02   2.9954343609e+01    0.2324682    0.1435735 -63.55  0.001005004    1.899    0.473
        92 -11.9561     55.6795    194.0159   1.2418014613e+02   2.9646846662e+01    0.3816922     0.242117 -58.33  0.001312669    1.966    0.491
        93 -10.1740    250.1970    200.7718   9.0771002471e+01  -1.9097789545e+00    0.2731357    0.1334316  -0.02  0.001270999    3.210    0.689
        94  -9.3494     29.9566    189.7629   1.2856733014e+02   3.3282435384e+01    0.2559416    0.1183044  38.70  0.001577616    2.118    0.528
        95 -10.6006     21.3802    193.8916   1.3033168598e+02   3.3391056882e+01    0.3464949    0.2968549  17.75  0.002060507    1.987    0.497
        96 -10.1356     27.5447    195.4558   1.2933610581e+02   3.2496551410e+01     0.233937     0.148357  86.34  0.001021038    1.269    0.212
        97 -10.4824     30.7903    193.1567   1.2862551980e+02   3.2578366567e+01      0.21429    0.1997557 -86.32 0.0006543837    1.532    0.347
        98  -9.4310    103.0057    196.2867   1.1562066114e+02   2.2877485797e+01    0.1643236    0.1207082  53.25 0.0003639522    1.133    0.117
        99 -10.0717    249.7959    194.4402   8.9755773515e+01  -1.2146445919e+00    0.2399572    0.1720486  27.50  0.001633738    1.128    0.114
       100  -9.1257     78.1563    193.9820   1.2001765709e+02   2.6798629020e+01    0.1512167    0.1210366  68.64  0.001094899    1.044    0.042
       101  -9.6552    191.5067    191.5178   9.8795727979e+01   8.9115164249e+00    0.2084592     0.175414  34.76 0.0005890693    1.012    0.012
       102  -8.8027     38.5623    192.2179   1.2716872576e+02   3.1925636060e+01     0.128343   0.08585144 -75.35 0.0003423502    1.478    0.323
       103  -9.9102      8.3846    182.1562   1.3203989681e+02   3.6739397527e+01    0.1843109   0.08770882  77.17 0.0003184375    1.666    0.400
       104 -10.0361     10.7839    188.4140   1.3191501961e+02   3.5377168374e+01    0.1894932    0.1243483  70.97 0.0008841806    1.078    0.072
       105 -11.3418      4.5047    186.2816   1.3292073708e+02   3.6318731369e+01    0.3209887    0.1982986  52.60  0.000240456    1.383    0.277
       106  -8.8327     76.9563    188.5023   1.1971306325e+02   2.7948860024e+01    0.1594012   0.09566265  47.63 -0.0002355615    1.448    0.309
       107 -10.6674     71.5407    186.9266   1.2059329630e+02   2.8956031604e+01    0.2545282    0.2216973  31.06  0.000449078    1.588    0.370
       108 -10.3212    250.2990    187.9421   8.8543326689e+01  -6.2639339117e-01    0.2684908    0.1316627 -18.98  0.001430571    2.214    0.548
       109  -8.7367    145.5351    187.4523   1.0650198117e+02   1.7530182798e+01    0.1240857    0.1047234  52.39 6.805819e-05    1.010    0.010
       110 -10.2287     83.6122    186.6862   1.1825450316e+02   2.7371097157e+01    0.1988382    0.1524298  70.18  0.000306108    1.072    0.068
       111 -11.6357     62.3345    186.1079   1.2227414671e+02   3.0283705406e+01    0.2138828    0.2028464 -89.39 0.0005203063    1.423    0.297
       112  -8.7943     36.3812    182.8107   1.2692483633e+02   3.3901445510e+01    0.1478123   0.08223227 -68.39 0.0009514118    1.782    0.439
       113  -9.0054     30.2411    183.4525   1.2811493463e+02   3.4422158307e+01     0.145558   0.07505207  53.48 0.0006296294    1.574    0.365
       114  -9.1891     24.3275    184.0727   1.2924545976e+02   3.4899879113e+01    0.1596103    0.1267394  56.42 0.0007555708    1.304    0.233
       115  -8.9698     85.6877    180.2764   1.1715611076e+02   2.8264496257e+01    0.1220215   0.07498087  67.83 0.0001483099    1.560    0.359
       116  -8.7107     47.9188    179.7816   1.2449794783e+02   3.3199996206e+01    0.1380865   0.08051976  41.91 0.0008687159    1.680    0.405
       117 -10.4240      3.8722    179.0710   1.3270758747e+02   3.7700469394e+01    0.2498485    0.1219113  41.68   0.00125956    1.916    0.478
       118 -12.0722    248.2426    172.3546   8.6004842047e+01   1.3992212763e+00    0.6525813    0.3605801 -17.95  0.003565839    1.874    0.466
       119 -11.0190    240.6847    150.5762   8.2881246095e+01   5.3239988079e+00    0.2902591    0.2303799  13.89  0.001746099    1.131    0.116
       120 -11.6878    245.1759    162.6330   8.4606174956e+01   3.0472395565e+00    0.4960028     0.225797 -36.28  0.002393469    2.374    0.579
       121 -10.6661    249.3682    161.5341   8.3738363590e+01   2.4422521208e+00    0.4247995    0.2113884 -32.28  0.002181622    2.039    0.510
       122 -11.2628    245.5732    156.4191   8.3305733874e+01   3.7174687860e+00    0.9598965    0.4821694  63.18  0.003585416    4.501    0.778
       123  -8.4191     12.2994    178.3403   1.3113263233e+02   3.7104477439e+01    0.0926227   0.06993662 -64.46 0.0007035445    1.666    0.400
       124  -9.1019    103.1842    176.0011   1.1315811576e+02   2.6471159379e+01    0.1633238    0.1407808  78.31            0    1.069    0.065
       125 -10.2051     64.9920    175.5219   1.2076252306e+02   3.1953594971e+01    0.2076975    0.1606275  71.87 0.0003521861    1.031    0.030
       126 -10.7862     73.4314    174.1246   1.1892650932e+02   3.1121960556e+01    0.2063233    0.1814909  88.18  0.000437065    1.190    0.160
       127 -10.6839     19.3229    174.4197   1.2959516210e+02   3.7204746974e+01    0.2890724    0.1437543  75.37 0.0008399329    1.682    0.406
       128 -11.5928     59.3350    172.7130   1.2162050883e+02   3.3206814036e+01    0.2814457    0.2520075 -44.63 0.0007502437    1.654    0.396
       129  -9.7790     12.3855    173.0562   1.3082873422e+02   3.8098813705e+01    0.2420692    0.1201994 -72.25  0.001554837    1.807    0.447
       130 -11.0221      2.6111    172.3939   1.3262449921e+02   3.9060065289e+01    0.3875634     0.159805  76.54  0.002297917    2.016    0.504
       131 -11.9984     10.9682    158.3533   1.3024167015e+02   4.1091200361e+01    0.5849109    0.2208175  75.40  0.002869331    2.622    0.619
       132 -10.9665     14.2843    167.0260   1.3011530174e+02   3.9094189069e+01    0.2896854    0.2264843  40.57  0.002277205    1.555    0.357
       133 -10.4615      4.8499    167.1635   1.3194196642e+02   3.9876320118e+01    0.2076695    0.1801274  30.36  0.001039366    1.689    0.408
       134 -11.1817      8.9433    166.0475   1.3109472404e+02   3.9749527347e+01    0.2976988    0.1802505 -75.48   0.00125777    1.475    0.322
       135  -9.8637     27.6208    171.3783   1.2780007002e+02   3.6991158996e+01     0.268679    0.1687951 -53.79  0.001029532    2.150    0.535
       136  -8.6231    124.9669    171.4859   1.0814960092e+02   2.3771400194e+01    0.1796986    0.1116645  47.12 -7.672865e-05    1.431    0.301
       137  -9.4494     51.8059    171.0321   1.2297681324e+02   3.4441315497e+01    0.1838412    0.1385348  58.93 0.0005416877    1.185    0.156
       138  -9.9424    166.9270    170.1324   9.9686723190e+01   1.6501665438e+01    0.1877137    0.1661878  43.75 0.0003879569    1.002    0.002
       139  -8.5998     95.9140    169.0347   1.1373270271e+02   2.8899843425e+01    0.1446856    0.1197797  67.47 0.0002866279    1.028    0.027
       140 -11.7243     81.1961    165.9520   1.1639994514e+02   3.1652099291e+01    0.5139382    0.3711219  38.42  0.001796109    1.531    0.347
       141 -10.4132     81.9948    158.7448   1.1532716225e+02   3.2977659485e+01     0.334706    0.1818164 -68.76 0.0007300019    1.817    0.450
       142  -9.1284     64.7103    167.2732   1.1997587092e+02   3.3603032788e+01    0.2227265     0.125982  50.37 0.0003890539    1.572    0.364
       143 -10.7622     44.5008    165.2876   1.2394216522e+02   3.6415079086e+01    0.3197488    0.2119081 -42.95  0.001913272    2.458    0.593
       144  -8.4081     61.2585    164.6905   1.2041999156e+02   3.4553555279e+01    0.1192412   0.07335515  74.05 0.0003956034    1.525    0.344
       145  -9.9036     31.1427    163.1668   1.2649281341e+02   3.8257366703e+01    0.1867038     0.143309  81.84  0.000298696    1.044    0.042
       146  -9.3685     37.7627    163.0214   1.2512779056e+02   3.7601606953e+01    0.2378223   0.08803623  57.00  0.001160502    2.564    0.610
       147  -9.7267     24.2231    161.9992   1.2780949272e+02   3.9169637231e+01    0.1515264    0.1116494  83.32 0.0004449993    1.037    0.036
       148  -9.3139     43.1823    160.9998   1.2382879913e+02   3.7422755706e+01    0.1751866    0.1179938  74.40 0.0004174896    1.235    0.190
       149 -10.6901     68.3434    166.3097   1.1911958547e+02   3.3325337468e+01    0.2195648    0.1663886  73.09 0.0003200911    1.102    0.092
       150  -9.4519     20.6323    157.7044   1.2823273535e+02   4.0366757799e+01   0.09840518   0.07704456 -53.82 0.0007029585    1.724    0.420
       151  -8.6886    228.3580    155.2406   8.5833196560e+01   7.0223300301e+00    0.1699984    0.1148969 -36.67 0.0004934174    1.617    0.382
       152 -10.6083     26.4788    155.2255   1.2683251763e+02   4.0318836476e+01    0.3181479    0.1385204  43.46  0.001828971    2.113    0.527
       153 -10.2460     32.6616    153.5587   1.2538681696e+02   4.0050794428e+01    0.2405867    0.1390619  83.75 0.0009848104    1.498    0.333
       154 -13.1737    247.7748    100.5883   7.0521740191e+01   1.0449984255e+01     2.178872    0.8331435 -18.46  0.007291982    3.563    0.719
       155 -11.8226    248.0504    142.2819   7.9991190313e+01   4.9958904373e+00    0.6296172    0.4546474  17.63  0.003386661    1.330    0.248
       156 -12.9791    248.2514    134.0704   7.8187809324e+01   5.9884506135e+00     1.424791    0.5987299 -24.84  0.006120829    2.380    0.580
       157 -10.4662     83.1635    149.3830   1.1380487991e+02   3.4724428961e+01     0.230281    0.1872229 -63.01  0.000427874    1.290    0.225
       158 -10.8529     56.3332    147.5509   1.1959067212e+02   3.8680360617e+01    0.3755167    0.1782316  34.54  0.001881419    2.388    0.581
       159 -12.8685      3.8804    143.6214   1.3078901659e+02   4.4636888461e+01    0.6361489    0.3593234 -65.63  0.004244417    1.698    0.411
       160 -11.1675      9.2928    144.3340   1.2967698179e+02   4.4067391113e+01    0.2302866    0.1399391 -70.55 0.0006082281    1.479    0.324
       161 -11.3164      9.7612    141.0245   1.2934408192e+02   4.4713223099e+01    0.3136798    0.1474275  74.55 0.0003017332    1.916    0.478
       162  -9.6937     41.0725    147.3635   1.2297792068e+02   4.0461612937e+01    0.1615259    0.1257108  66.27   0.00057706    1.157    0.136
       163  -9.5969    235.9531    146.0046   8.2682599480e+01   6.7926801829e+00    0.2032296    0.1708311  11.35 0.0005156844    1.052    0.049
       164 -11.7265     21.5648    149.1320   1.2739493733e+02   4.2027153853e+01    0.3911093    0.1862836  41.78  0.002348682    2.035    0.509
       165 -12.1952     68.3883    144.1293   1.1642961976e+02   3.7876803939e+01     0.644004    0.4081285  80.32   0.00276442    1.628    0.386
       166  -9.8599    133.3050    140.8254   1.0118912011e+02   2.8060405961e+01    0.3280653    0.2033263 -63.75  0.001564313    1.891    0.471
       167 -10.2293     37.8262    140.9220   1.2305247681e+02   4.2164710314e+01    0.2453989    0.1137332  61.51  0.001258288    2.213    0.548
       168 -11.5345     17.1383    140.0351   1.2764059237e+02   4.4308885692e+01    0.3118644     0.177321  58.01  0.001561717    1.594    0.373
       169  -9.7843    107.7234    136.0607   1.0605618085e+02   3.3621578618e+01    0.3363069    0.2228599 -27.86  0.001539939    2.571    0.611
       170 -10.2858     59.7753    136.4436   1.1741351173e+02   4.0626653128e+01    0.2184337    0.1643927 -85.09  0.000400125    1.145    0.127
       171 -10.7026     47.2556    135.9697   1.2031403357e+02   4.2208736152e+01    0.2586208    0.1958917 -16.00  0.001411175    2.383    0.580
       172  -9.0202     94.5363    133.1986   1.0863988178e+02   3.6398284044e+01    0.1754832    0.1182032 -49.33 0.0005473733    1.600    0.375
       173  -8.7773     69.7627    152.3825   1.1718407457e+02   3.5965501634e+01    0.1487727    0.1142058  35.51 0.0002577281    1.554    0.357
       174 -10.5578     44.7865    130.4626   1.2023821501e+02   4.3676976129e+01    0.2830987       0.1569  73.58  0.001000007    1.930    0.482
       175 -12.4174     12.7805    127.6729   1.2761723188e+02   4.7284974405e+01    0.3928639    0.2350622  30.45  0.001781557    2.052    0.513
       176 -12.9984      3.6732    122.7823   1.2937817617e+02   4.9007121617e+01    0.6444032     0.371965 -74.62  0.002587144    1.366    0.268
       177  -9.7889     48.1617    126.0523   1.1884901508e+02   4.4269059132e+01     0.187056    0.1596424  68.14 0.0003388034    1.169    0.144
       178 -10.5505     95.1745    150.4011   1.1127733745e+02   3.2709465606e+01    0.3113036    0.2283479  57.70  0.001064528    1.260    0.207
       179 -10.5227     30.0023    119.0394   1.2253001873e+02   4.7681846614e+01     0.182968    0.1249189 -49.52  0.001139329    1.709    0.415
       180 -10.5472    232.0131    116.2591   7.6662362620e+01   1.1607574327e+01     0.245873     0.191487 -23.84 0.0006905259    1.216    0.178
       181 -13.2285      9.4062    113.7553   1.2719971577e+02   5.0542924362e+01     0.734011    0.2567354 -80.13  0.003535513    2.364    0.577
       182  -9.9120    167.6742    112.8874   8.7618707646e+01   2.6294620783e+01    0.2925548    0.2404862 -82.59 0.0009128287    1.510    0.338
       183 -10.9747    249.6328    151.0151   8.1575722597e+01   3.6394611727e+00    0.3952919    0.2904232 -26.63   0.00224662    1.360    0.265
       184  -8.9509    203.4860    111.5112   8.0337267515e+01   1.8506756223e+01    0.1461572    0.1350512   9.55 2.726571e-05    1.045    0.044
       185 -11.8085      2.0000    104.9767   1.2829981763e+02   5.2955449402e+01    0.6229844   0.07385943 -72.86  0.002108646    4.788    0.791
       186 -12.5534     15.1034    101.2739   1.2438300597e+02   5.2868218023e+01    0.4461292    0.2802024 -72.66  0.001451142    1.240    0.193
       187 -10.3258    249.7139    117.9536   7.4346090352e+01   7.7734185309e+00    0.3675301    0.2379896  -5.18  0.001141433    1.665    0.399
       188  -8.6276     71.7480    100.0280   1.0822879683e+02   4.7123610514e+01    0.1650167     0.102608 -61.76 0.0002813474    1.436    0.303
       189 -10.3809     20.8966     93.8576   1.2179569354e+02   5.4076981224e+01    0.1783522    0.1332254 -60.74 0.0004398724    1.244    0.196
       190 -11.7761    248.1467    113.0935   7.3448150945e+01   8.7208749912e+00    0.5784816    0.3825624  36.02  0.003044561    1.542    0.352
       191 -10.8610      2.2801     69.8513   1.2420018492e+02   6.0661772784e+01    0.2839621   0.06986169 -69.99  0.001208352    2.785    0.641
       192 -11.2344     59.8088    245.7738   1.2695208702e+02   2.0730811282e+01    0.3259661    0.1732008  53.80  0.002009062    1.307    0.235
       193 -10.5501     73.9188    243.7425   1.2466456833e+02   1.9325335717e+01     0.258094    0.2104666 -75.87  0.002112498    1.561    0.359
       194  -8.9675     66.9148    243.9944   1.2576160127e+02   2.0144317196e+01    0.1313213    0.1121692  33.99  0.001073883    1.749    0.428
