#   1 NUMBER                 Running object number                                     
#   2 MAG_AUTO               Kron-like elliptical aperture magnitude                    [mag]
#   3 X_IMAGE                Object position along x                                    [pixel]
#   4 Y_IMAGE                Object position along y                                    [pixel]
#   5 X_WORLD                Barycenter position along world x axis                     [deg]
#   6 Y_WORLD                Barycenter position along world y axis                     [deg]
#   7 A_WORLD                Profile RMS along major axis (world units)                 [deg]
#   8 B_WORLD                Profile RMS along minor axis (world units)                 [deg]
#   9 THETA_WORLD            Position angle (CCW/world-x)                               [deg]
#  10 FWHM_WORLD             FWHM assuming a gaussian core                              [deg]
#  11 ELONGATION             A_IMAGE/B_IMAGE                                           
#  12 ELLIPTICITY            1 - B_IMAGE/A_IMAGE                                       
         1 -13.2852     65.6738    141.3112   1.1378886808e+02   3.8313714727e+01     2.591679     1.111424 -87.02  0.006704761    5.373    0.814
         2 -14.0959    208.3505     24.5468   5.1623641581e+01   2.9989855099e+01     2.797124     1.459312  27.99   0.01010899    3.100    0.677
         3 -11.0172      2.1985      3.6685   1.0244574163e+02   7.2194970475e+01    0.5088941    0.1089728 -49.72  0.002339805    2.951    0.661
         4 -11.6352      2.2204     19.6026   1.0814475747e+02   6.9423308394e+01     0.937347          nan -57.68   0.00230548    9.946    0.899
         5 -11.1320    234.0538      1.8463   4.2505770771e+01   2.5884678702e+01    0.5294538     0.217269  72.07  0.001708725    2.324    0.570
         6 -11.1854     52.1102    240.3134   1.2555038436e+02   2.1339774515e+01    0.3487029    0.1353501  71.51  0.001650527    2.760    0.638
         7 -14.0395    139.0516    249.1961   1.1291201536e+02   7.9579357993e+00     2.056992    0.3687749  46.10  0.007716776    4.064    0.754
         8 -14.5368     10.4772    206.9936   1.2995472400e+02   3.1362907675e+01     2.281547    0.9667695 -86.34   0.01490451    1.893    0.472
         9 -13.2411     33.4983    245.9839   1.2853468631e+02   2.2581358117e+01    0.9576175    0.4771587  43.22  0.006894112    1.970    0.492
        10 -15.0091     10.5637    242.7607   1.3154055871e+02   2.5455630762e+01     12.74451     1.185698 -78.56  0.007486529   14.402    0.931
        11 -15.0018     91.8119    227.8258   1.1845372352e+02   1.8169461257e+01     4.468841    0.4622303  45.28   0.01128907    5.782    0.827
        12 -11.6977    103.4379    237.7121   1.1746378077e+02   1.4954572576e+01    0.1960557    0.1876139 -65.09   0.00111792    1.590    0.371
        13  -9.8566     74.8527    206.2082   1.1934900287e+02   2.4191511475e+01    0.2268729     0.193221  73.27  0.001399064    1.217    0.178
        14 -10.0143    192.1505    192.9652   9.6238218543e+01   6.8063130163e+00    0.5162083    0.2496636 -61.63  0.001578934    6.689    0.850
        15 -11.6913     60.1691    188.7984   1.2034431757e+02   2.9313391887e+01    0.3118024    0.2284063 -52.49  0.001420917    1.877    0.467
        16 -11.7454     65.9747    181.9659   1.1860634697e+02   2.9894536120e+01    0.2524937    0.2013907 -65.05 0.0005452854    1.433    0.302
        17  -9.9434     43.5491    179.2619   1.2252397796e+02   3.3119560701e+01    0.2513386    0.1999003 -20.04  0.001119025    2.632    0.620
        18 -10.9703    100.4867    171.5309   1.1060644212e+02   2.7027406730e+01    0.8883876    0.1878607  51.67  0.002353586    6.755    0.852
        19 -11.0402     75.9810    170.9142   1.1544761681e+02   3.0755632816e+01    0.2259232    0.1884224 -89.56 0.0003504527    1.087    0.080
        20  -9.6582    228.6533    171.3295   8.5683407636e+01   2.9339350007e+00    0.1255221    0.1078583 -89.21 0.0007049842    1.757    0.431
        21 -13.2740     62.8414    168.0231   1.1772785547e+02   3.3069460332e+01    0.4186051    0.2499239 -50.65  0.001504025    2.114    0.527
        22  -9.9773    230.5777    167.3744   8.4553127544e+01   3.1155452258e+00    0.2575558    0.1072895 -46.50 0.0009584269    3.517    0.716
        23 -12.3640     82.9327    162.5113   1.1297458135e+02   3.1492997927e+01    0.9822014    0.4990979  63.22  0.004749389    2.214    0.548
        24 -11.0579     70.7460    250.1538   1.2343903779e+02   1.7531248915e+01     0.341579    0.1142108  43.75  0.001132456    2.502    0.600
        25  -9.9946     97.1280    147.6812   1.0774355689e+02   3.2457516209e+01    0.2575236    0.2444152  83.35 0.0008279176    1.165    0.142
        26  -9.4029    100.1911    143.8571   1.0642596493e+02   3.2780338642e+01    0.2005357    0.1755598 -41.47 0.0004894811    1.393    0.282
        27 -12.0687     85.5542    146.4871   1.1011877195e+02   3.4475041853e+01    0.2637335    0.2211179 -59.46 0.0005595489    1.262    0.208
        28  -9.1321    134.0000    146.4868   9.9406038649e+01   2.6266986890e+01    0.3037575   0.07858236 -50.04 0.0009389725    3.969    0.748
        29 -13.0993     32.2260    219.8049   1.2731346349e+02   2.6958394436e+01     0.440409    0.2749102  80.36  0.001342088    1.186    0.157
        30  -9.5286    109.1678    134.2976   1.0265658241e+02   3.3326737424e+01    0.2676544    0.2047581 -29.68  0.001059545    1.778    0.438
        31 -10.4777     96.2117    130.9654   1.0506208655e+02   3.6194165507e+01    0.2273562     0.208064 -41.54 0.0004461037    1.291    0.225
        32  -8.8060    105.9946    131.0105   1.0276708646e+02   3.4575415435e+01    0.1720461    0.1516693 -73.89  0.001010257    1.053    0.050
        33  -8.6573    115.3220    127.3731   9.9847168926e+01   3.3727648163e+01    0.1409707    0.1117788 -17.88 0.0007031377    1.810    0.448
        34 -14.2089     40.2014    210.8161   1.2550125194e+02   2.7635958714e+01     1.017984    0.8272948  70.49  0.005470143    1.271    0.213
        35  -9.4514    106.3383    121.8488   1.0085572412e+02   3.6500561970e+01    0.1853642    0.1620035 -57.65 0.0003852952    1.114    0.102
        36 -15.3446     43.6810    200.1331   1.2417541712e+02   2.9158990028e+01     8.546746     2.894759  75.87   0.02714595    7.237    0.862
        37 -10.5847    168.0110    112.8138   8.4418927459e+01   2.5865141773e+01    0.3990688    0.2969688 -76.78  0.001163891    1.820    0.451
        38  -9.4745    204.4133    110.8829   7.6523432576e+01   1.7734121077e+01    0.3307777    0.1854475  36.62  0.001328216    2.013    0.503
        39 -10.3675     63.9861    250.1749   1.2442651727e+02   1.8379161985e+01    0.2043873    0.1067596  49.70  0.001175069    1.503    0.335
        40 -12.2730     83.1305    247.1265   1.2138445386e+02   1.6365450156e+01    0.4020922     0.301836 -83.22  0.003121488    1.416    0.294
        41 -10.3100    189.9506     14.9685   5.1248023066e+01   3.5952220744e+01    0.2250618    0.2135039 -89.81 0.0006904331    1.041    0.040
        42 -12.7034     89.4176    244.9445   1.2026273442e+02   1.5840489158e+01    0.6846882    0.2763745  61.14  0.003778967    2.298    0.565
