#   1 NUMBER                 Running object number                                     
#   2 MAG_AUTO               Kron-like elliptical aperture magnitude                    [mag]
#   3 X_IMAGE                Object position along x                                    [pixel]
#   4 Y_IMAGE                Object position along y                                    [pixel]
#   5 X_WORLD                Barycenter position along world x axis                     [deg]
#   6 Y_WORLD                Barycenter position along world y axis                     [deg]
#   7 A_WORLD                Profile RMS along major axis (world units)                 [deg]
#   8 B_WORLD                Profile RMS along minor axis (world units)                 [deg]
#   9 THETA_WORLD            Position angle (CCW/world-x)                               [deg]
#  10 FWHM_WORLD             FWHM assuming a gaussian core                              [deg]
#  11 ELONGATION             A_IMAGE/B_IMAGE                                           
#  12 ELLIPTICITY            1 - B_IMAGE/A_IMAGE                                       
         1 -10.4058     84.2323     46.6626   7.2687820270e+01   5.6402440071e+01    0.7725812    0.6143906 -58.56  0.004109455    1.763    0.433
         2 -10.4612     38.9547      7.1737   7.3268419321e+01   6.9396003575e+01    0.9385648    0.3871097 -19.38  0.004135594    2.948    0.661
         3 -10.8391     39.6732     29.2863   8.3366922628e+01   6.6161305240e+01     0.583978    0.3325972 -37.47  0.002590276    1.585    0.369
         4 -12.0267     44.8745     22.1435   7.7836676712e+01   6.6577469074e+01     1.051905     0.862623 -46.54  0.005983716    1.730    0.422
         5 -12.4341     80.2242      7.9784   5.7858713612e+01   6.2185184089e+01     1.883144     1.207095  19.07   0.01044726    1.533    0.348
         6 -11.6345    131.2834      3.4914   4.4249082137e+01   5.1102286209e+01     1.691971    0.4111995  64.43  0.005805937    3.358    0.702
         7 -12.7136    156.4581     17.7229   4.4742039743e+01   4.3636213235e+01     1.669321      1.26577  -1.50   0.00769543    1.613    0.380
         8 -13.7225    168.6352     11.4700   4.1129955135e+01   4.1241802141e+01     2.837965     1.735101  71.25   0.01410365    1.474    0.321
         9  -9.0873     11.0791     24.2415   9.5502194355e+01   6.9811013586e+01    0.4112886    0.1226801 -47.45   0.00188647    2.538    0.606
        10 -10.6945    116.2039     16.5765   5.1923378455e+01   5.3510151672e+01    0.9073415    0.3969605 -42.62   0.00371546    2.903    0.655
        11 -11.6896    128.0405     18.0307   4.9916213927e+01   5.0565575707e+01     1.361943    0.7021205  51.46  0.005438984    1.673    0.402
        12  -9.3023     93.9666     17.2070   5.7787634128e+01   5.8414360392e+01    0.4660529    0.2844829  74.59   0.00207976    2.694    0.629
        13 -12.1875    115.6890      4.3635   4.7476300880e+01   5.4733939934e+01     3.561801    0.7666267  66.34  0.009615135    5.769    0.827
        14  -9.2382     20.2557     14.1094   8.6187736559e+01   7.0687580496e+01    0.6022425    0.2485829 -24.22  0.002754325    2.759    0.638
        15  -9.5592    104.5775     11.9917   5.2889084742e+01   5.6613943307e+01    0.3723089    0.2800021  13.73  0.001922578    1.359    0.264
        16 -10.5103     54.9971      8.1837   6.6822071405e+01   6.6815760576e+01     0.918304     0.511941  64.29  0.003306991    5.734    0.826
        17  -8.5981     53.1685      1.9114   6.4390528052e+01   6.7776901619e+01    0.4760995    0.1819005  47.11  0.002220145    2.507    0.601
        18  -9.8220     59.6279      4.8104   6.3355744057e+01   6.6378386544e+01     0.645969    0.2762772 -37.49  0.002972763    2.952    0.661
        19  -9.3399     62.2497      1.5750   6.0794794314e+01   6.6221149300e+01    0.4626546    0.1545983  49.86  0.001997998    2.723    0.633
        20 -10.3702    249.3306      5.4975   3.2072408327e+01   2.3320845739e+01    0.6384942    0.2529036 -39.69  0.003289953    2.101    0.524
        21 -10.5081    203.9643      4.0925   3.5295441920e+01   3.3435931362e+01    0.3963051    0.2723729 -70.65  0.002323982    1.369    0.270
        22  -8.7081    229.5910      6.7819   3.3759907303e+01   2.7366137903e+01    0.1754883   0.09278017 -45.45 0.0009509397    1.677    0.404
        23  -8.8374     49.8449      6.7815   6.8233199890e+01   6.7809222050e+01    0.2394389    0.1485889  14.74 0.0009342117    1.510    0.338
        24  -9.5267    222.2055      3.0304   3.3507974041e+01   2.9378492516e+01    0.4171129    0.1437791 -39.80  0.001912935    2.484    0.597
        25  -8.9408    217.8468      1.8421   3.3585687461e+01   3.0471759474e+01    0.2315169     0.131415  87.98   0.00092927    1.645    0.392
        26  -8.8909     17.4085      2.6192   8.1966174118e+01   7.2616916672e+01    0.2632511    0.1763695 -45.39  0.001658602    2.100    0.524
        27  -8.4016     27.3786      2.3198   7.6402430523e+01   7.1517766372e+01    0.1994666    0.1246787  14.98  0.001262328    1.403    0.287
        28  -7.6290      1.5008      1.5196   9.0877643243e+01   7.4179810228e+01    0.1125705   0.07874976 -19.13 0.0008010293    1.006    0.006
        29  -8.5756     78.3530     78.3019   8.5679289920e+01   5.1457725869e+01    0.2373428    0.1640757 -13.64  0.001107322    1.744    0.427
        30  -9.0585     83.7275     69.5894   8.1037027283e+01   5.2339784525e+01    0.3135135    0.2193268  26.45  0.001551326    1.491    0.329
        31  -9.2170     74.4523     69.0122   8.4099534784e+01   5.4008883827e+01    0.2875668    0.2170619  29.16  0.001524651    1.367    0.269
        32 -10.0362     25.0564     65.2831   1.0220390660e+02   6.0704605403e+01     0.479123    0.2683853 -51.26  0.001972824    1.432    0.302
        33  -9.8504     68.8677     62.7052   8.4029463928e+01   5.6141350315e+01    0.5067611    0.2651525   6.50  0.001641829    4.346    0.770
        34  -9.4612     48.0511     61.8379   9.1809916898e+01   5.9161442846e+01    0.4557242    0.2836704   8.74  0.002311116    1.881    0.468
        35 -10.4113      4.5080     76.1100   1.1271689907e+02   5.9592350909e+01    0.4563026    0.3856993 -48.73  0.002314348    1.104    0.095
        36  -9.5229    199.0830     56.2128   4.9164376603e+01   2.8288356089e+01    0.3013399    0.2804959  44.12  0.001138093    1.176    0.150
        37  -8.9113     66.2201     54.1547   8.2024045157e+01   5.8177469528e+01    0.3084068    0.1816798 -61.50  0.001245675    3.099    0.677
        38  -8.6448     35.9628     53.0416   9.3982600800e+01   6.2270390922e+01     0.337184    0.1545972  39.87  0.001516224    2.897    0.655
        39  -7.9993     23.4669     52.2432   9.9183535727e+01   6.3567245339e+01    0.1650073    0.1106734 -62.73 0.0008222528    1.641    0.391
        40 -10.0385    174.2313    244.6651   9.5575524438e+01  -3.8898395425e-01    0.3444298    0.1789035  19.74   0.00160714    2.376    0.579
        41  -9.7125     94.6977     46.2285   6.9077356955e+01   5.4437885998e+01    0.5573616    0.3473735  74.51  0.001984786    4.022    0.751
        42  -8.2775     98.2525     44.2654   6.7230680197e+01   5.4014801272e+01    0.3224445    0.1176237 -40.13  0.001170353    2.923    0.658
        43  -7.9130    202.2999     46.3260   4.6115713551e+01   2.8918155133e+01    0.1356049    0.1068475  26.83 0.0007028523    1.635    0.389
        44  -7.8061    111.4791     46.4552   6.4171209604e+01   5.0850302401e+01     0.145984    0.1310132  20.10 0.0004288206    1.032    0.031
        45  -9.1673     12.1686     33.9439   9.8534130972e+01   6.7977822663e+01    0.3998863    0.1828298 -45.95  0.001530361    1.671    0.401
        46 -10.3261      3.2573     40.7564   1.0506463776e+02   6.7189150459e+01    0.4566607    0.4002586 -47.39   0.00270398    1.238    0.192
        47  -9.0144      6.8993     35.7823   1.0177172300e+02   6.7963332051e+01     0.278735    0.2541661  25.06  0.001819452    1.489    0.328
        48  -9.8248     52.5378     38.9255   8.1698938260e+01   6.2879501194e+01     0.482116    0.3238024 -37.93  0.002287708    1.420    0.296
        49 -10.2535     47.5402     34.3792   8.1984959131e+01   6.4320309729e+01    0.3907544    0.2979309  33.78  0.001910156    1.499    0.333
        50  -8.8275    168.3159    243.6496   9.6592389216e+01   6.7330074809e-01    0.1199335   0.09225304  60.46 0.0007047152    1.731    0.422
        51  -7.7818    105.3505    238.6990   1.0859055051e+02   1.1162047908e+01    0.1309362   0.08068683  60.53 0.0007038401    1.694    0.410
        52 -10.2757    211.0110    224.7588   8.5242199806e+01  -3.1089399523e+00    0.3602126    0.1891266  13.28  0.001616223    2.512    0.602
        53  -7.9819     97.5150     36.5277   6.4498150552e+01   5.5294381436e+01    0.1395295    0.1254472  18.15 0.0002665741    1.029    0.028
        54  -8.5028     69.3608     35.8812   7.3748336221e+01   6.0758123958e+01    0.2244522    0.1770627  37.71 0.0009973721    1.348    0.258
        55  -9.7918    184.0971     39.1494   4.6784106183e+01   3.4288980908e+01    0.3428729    0.1993058 -34.36  0.001617853    1.739    0.425
        56  -8.3082     44.0671     39.0614   8.5394396163e+01   6.3974495284e+01    0.1791226    0.1662035  78.21  0.001138789    1.753    0.430
        57  -7.9434     28.1595     34.8677   9.1051123192e+01   6.6481089601e+01    0.1738262    0.1175429 -18.61  0.000543166    1.300    0.231
        58 -10.0970     86.3158     32.0468   6.6223237875e+01   5.8189149746e+01    0.2738898    0.2498525   1.81   0.00157822    1.111    0.100
        59  -9.6204     90.7912     29.1686   6.3632471158e+01   5.7671523721e+01    0.3295271    0.2469685   0.12  0.001275493    1.352    0.260
        60  -8.8430    206.3203    223.3310   8.5900350663e+01  -2.1788745340e+00    0.1348763   0.08713876   3.62  0.000704875    1.693    0.410
        61  -7.9402    100.9867    175.8642   1.0106267039e+02   2.4828481560e+01    0.1807077    0.1713804  72.43  0.001048224    1.002    0.002
        62 -10.2159     12.5621    147.2743   1.1979033334e+02   4.2326966478e+01    0.4932793    0.1778078  86.43  0.001697691    4.241    0.764
        63  -8.8327     41.0308    142.5103   1.1167407610e+02   4.0969158760e+01    0.1874661    0.1340725  27.30  0.001042285    1.622    0.384
        64 -10.5550      9.4153    141.6245   1.2004115871e+02   4.3894157526e+01    0.4702001    0.2503471  10.53  0.002457056    2.690    0.628
        65 -12.5793    241.6759    132.2423   6.0957327655e+01   6.6450047809e+00     1.347018     1.142189  46.60  0.005479387    1.369    0.270
        66  -9.0772    111.3354     16.3252   5.2950962768e+01   5.4659629636e+01    0.3051502    0.2304025  42.81  0.001255836    1.157    0.136
        67  -8.3369     22.4929    126.4589   1.1470533747e+02   4.6574040009e+01    0.1293465    0.1070237 -71.59 0.0001640725    1.003    0.003
        68 -10.2212    224.9824     29.0992   3.9202817054e+01   2.5875745667e+01    0.4684578    0.2916992  64.64  0.002014683    1.602    0.376
        69  -8.0530      7.2164     18.9638   9.5473089732e+01   7.0994500758e+01     0.139509    0.1224741  23.26   0.00103597    1.586    0.370
        70  -9.6771     66.6421     29.8840   7.2259959813e+01   6.2107825361e+01    0.3702358    0.2181307 -19.20  0.001873179    1.746    0.427
        71  -8.4103     58.5392    124.4780   1.0363230187e+02   4.3450099661e+01    0.1414499    0.1255209 -57.18 0.0001032716    1.029    0.029
        72  -9.9597     65.4813     16.2641   6.6636624944e+01   6.4094836293e+01    0.3911945    0.1972914  55.76  0.001742487    2.836    0.647
        73  -9.5768      9.7381    120.8269   1.1767750922e+02   4.8836414878e+01    0.2137779    0.1204114 -56.97 0.0009361882    1.479    0.324
        74 -10.4064     10.6602    136.2950   1.1916962170e+02   4.5076189965e+01    0.3124456    0.2065459  22.49  0.001880681    1.873    0.466
        75  -9.5306    248.2014     15.5768   3.4211381436e+01   2.2450679000e+01    0.2287723    0.1613144 -72.32  0.001458516    1.239    0.193
        76  -7.5637    192.6702    116.3114   6.6005303118e+01   1.9488559717e+01    0.1531166    0.1212374 -75.25 0.0007042569    1.669    0.401
        77  -8.4477     22.1814     23.9306   8.9581546510e+01   6.8939895479e+01    0.2902303    0.1616545 -47.11  0.001647873    1.788    0.441
        78  -9.1953    132.3046     26.7862   5.2088809232e+01   4.8595706148e+01     0.300354    0.1648409  48.80  0.001211291    1.636    0.389
        79  -9.2149     21.8033    108.6872   1.1232335821e+02   5.0927767455e+01    0.4374791    0.2226132 -79.98   0.00205104    2.068    0.517
        80  -9.2775     17.8261    104.4431   1.1292610109e+02   5.2228768453e+01    0.2874663    0.2620465  46.69  0.001750178    1.314    0.239
        81  -9.5862     46.4319    100.8852   1.0274227711e+02   5.0588147498e+01    0.4009256     0.242465 -55.25   0.00202084    1.409    0.290
        82  -9.2599     30.8114    101.4974   1.0813691984e+02   5.1939390844e+01    0.2621421    0.1646762 -61.20  0.001410511    1.324    0.245
        83  -8.4572     63.5313     97.9817   9.6264242242e+01   4.9225855811e+01    0.2276611    0.1280489 -53.51  0.001033004    1.597    0.374
        84  -9.0235    103.2226     26.1068   5.8797091952e+01   5.5411883438e+01      0.29061     0.192951  32.41   0.00149703    1.441    0.306
        85 -12.1547     42.6606     81.7492   9.9600288745e+01   5.5450492477e+01      1.23358    0.8831038 -24.34  0.006362732    1.435    0.303
        86  -9.4835      2.4045     87.3572   1.1538950988e+02   5.7127221559e+01     0.581623    0.2105624 -75.33  0.002487409    2.653    0.623
        87  -7.5389     83.3077     89.3452   8.7285552580e+01   4.8249833915e+01    0.1556584    0.1093965 -17.95 0.0007043564    1.697    0.411
        88  -8.0030     20.3065     89.6298   1.0950733911e+02   5.5559973062e+01    0.1265791   0.09178156  77.53 0.0002568785    1.759    0.431
        89  -9.2598    227.9536     79.1184   5.0726858266e+01   1.8183714147e+01     0.408706    0.2958113   1.19  0.001717043    2.031    0.508
        90 -11.6745     14.5060     73.9025   1.0846954595e+02   5.9542718089e+01    0.9465448    0.8682869  11.44  0.006682479    1.321    0.243
        91  -8.0634    138.4875     79.5464   6.7995175207e+01   3.9077479844e+01    0.1540074     0.148269  11.65 4.666518e-05    1.014    0.014
