#   1 NUMBER                 Running object number                                     
#   2 MAG_AUTO               Kron-like elliptical aperture magnitude                    [mag]
#   3 X_IMAGE                Object position along x                                    [pixel]
#   4 Y_IMAGE                Object position along y                                    [pixel]
#   5 X_WORLD                Barycenter position along world x axis                     [deg]
#   6 Y_WORLD                Barycenter position along world y axis                     [deg]
#   7 A_WORLD                Profile RMS along major axis (world units)                 [deg]
#   8 B_WORLD                Profile RMS along minor axis (world units)                 [deg]
#   9 THETA_WORLD            Position angle (CCW/world-x)                               [deg]
#  10 FWHM_WORLD             FWHM assuming a gaussian core                              [deg]
#  11 ELONGATION             A_IMAGE/B_IMAGE                                           
#  12 ELLIPTICITY            1 - B_IMAGE/A_IMAGE                                       
         1 -15.2737    145.9668     47.9477   8.2928572319e+01   4.2635439852e+01     2.747333     1.679152 -62.06   0.01160568    2.403    0.584
         2 -16.6253    127.2387     14.9680   7.6293326599e+01   5.0991804708e+01     4.199683     2.606552  69.49   0.02162492    1.721    0.419
         3 -16.2356    186.6077      8.4637   6.4823124509e+01   3.7415359375e+01     3.363591     1.204549  72.48    0.0132496    2.632    0.620
         4 -18.1617    235.4435     12.6497   6.0618963592e+01   2.5334302416e+01     2.849045     1.651042 -84.72   0.01518226    1.659    0.397
         5 -13.8194     87.3238      8.8835   8.3653824696e+01   5.9902508109e+01    0.6439951    0.4436594 -18.55  0.003971159    1.497    0.332
         6 -14.8709     83.1685     23.5402   9.0571753192e+01   5.9108679590e+01     1.498656     1.362602  63.72  0.009941273    1.493    0.330
         7 -13.9579     66.4700     16.3045   9.3036724678e+01   6.2778036237e+01    0.6557537     0.377923 -29.63  0.003709045    1.725    0.420
         8 -14.5716      8.4084     28.6617   1.2079276670e+02   6.7652358114e+01    0.9367004     0.705467 -38.50  0.007175903    1.182    0.154
         9 -15.1657      8.8463      6.8341   1.1227654152e+02   7.0854471767e+01     1.292254    0.8471805 -15.70  0.009772805    1.152    0.132
        10 -15.3376     26.9414     15.2609   1.0772778351e+02   6.8091563649e+01     1.264977     0.813921 -19.38  0.008472263    1.252    0.201
        11 -14.8454     36.7333      4.3125   9.8859831830e+01   6.8331329625e+01    0.8306364    0.5721617  41.60  0.005019823    1.898    0.473
        12 -13.0175     77.7062      2.2996   8.3739470214e+01   6.2269221233e+01    0.3275333    0.2383871  35.77  0.001862828    1.157    0.136
        13 -13.2225     71.5038      2.7250   8.5768893966e+01   6.3322753721e+01    0.4183481    0.2056764  33.75  0.002274415    1.806    0.446
        14 -12.5130    161.2720    143.5252   1.0558066069e+02   2.0660099936e+01    0.4788154    0.2129004 -45.62  0.001721398    2.259    0.557
        15 -12.8604    186.8843    143.6593   9.9953781584e+01   1.4908112661e+01    0.2810498    0.2192847 -30.54  0.001336311    1.367    0.268
        16 -12.9015    127.3570    144.0028   1.1379524255e+02   2.7747897633e+01    0.2996224    0.2181885  71.10  0.001357979    1.648    0.393
        17 -13.2187    237.1597    132.0104   8.7612110126e+01   6.1778624703e+00    0.5868686    0.2917319 -50.19  0.002368844    2.186    0.542
        18 -13.8705    218.6034    139.0634   9.2547297882e+01   8.8043410553e+00    0.6994767     0.425461 -34.60  0.003104903    1.639    0.390
        19 -12.4920    171.0093    139.1127   1.0234294719e+02   1.9435387943e+01    0.2911676    0.2299833 -44.53  0.001062461    1.268    0.211
        20 -13.4202    208.4997    134.8076   9.3485206052e+01   1.1839737124e+01    0.5097114    0.3754306  46.83  0.002170749    1.396    0.284
        21 -12.1174    187.2382    134.3474   9.7681742160e+01   1.6741800068e+01    0.4269694      0.35849  88.97   0.00149914    1.403    0.287
        22 -12.9810    226.4845    132.8952   8.9682289944e+01   8.2680109153e+00    0.4713217    0.3075994 -82.10  0.001820813    2.892    0.654
        23 -11.0761    196.2882    133.0566   9.5497900555e+01   1.4938585324e+01    0.2213154    0.1937556 -45.59 0.0004487372    1.124    0.110
        24 -14.6737     20.8348    127.6890   1.3840451626e+02   4.6790897200e+01    0.6018055    0.4545949  53.41  0.003973141    1.522    0.343
        25 -11.3980    157.4256    130.2215   1.0331292361e+02   2.4418042108e+01    0.2280855    0.1483252 -56.21 0.0009504225    1.663    0.398
        26 -13.9639     89.8102    129.0115   1.2023009984e+02   3.8121670800e+01    0.4307715    0.2819304  38.05  0.002080838    1.659    0.397
        27 -12.3840    218.8501    128.3006   9.0000282582e+01   1.0792639737e+01     0.345881     0.273165  53.54  0.001147837    1.333    0.250
        28 -12.8691    236.8340    123.8251   8.5803459774e+01   7.7271819513e+00    0.9791811    0.5181921  58.67  0.004135177    2.229    0.551
        29 -11.6642    217.0095    123.7615   8.9267431407e+01   1.2063094687e+01    0.3754714    0.2383098  35.36  0.001628109    1.896    0.473
        30 -11.4839    210.7560    124.4325   9.0592492849e+01   1.3344508299e+01      0.36827    0.1460108  48.68  0.001292495    2.591    0.614
        31 -12.0340    211.6845    117.5303   8.8758279148e+01   1.4456851609e+01    0.6138071     0.346766  76.52   0.00207235    3.364    0.703
        32 -14.6686    130.4448    115.2521   1.0617865399e+02   3.3625986067e+01    0.8784256    0.5597607  63.56  0.003617397    2.006    0.501
        33 -14.5144     91.2315    108.9622   1.1521887085e+02   4.2498916052e+01     1.206329    0.9606713  81.33  0.006202483    1.592    0.372
        34 -15.4570     58.9507    100.8745   1.2275817151e+02   4.9006297854e+01     2.087641     1.287321  78.33  0.008638523    3.279    0.695
        35 -10.4251    217.3224    107.9785   8.5424728559e+01   1.4957939615e+01    0.2616202   0.09913427 -54.43 0.0007050268    4.369    0.771
        36 -11.7408    250.0524    105.0497   7.9450577116e+01   8.2624740586e+00    0.2951042    0.1878211 -45.97  0.001026111    1.418    0.295
        37 -12.8375    244.8249    100.0707   7.9097694971e+01   1.0230806984e+01    0.8149018    0.4525085  65.21  0.003617993    2.141    0.533
        38 -12.2120    204.8528    105.5705   8.7092843558e+01   1.8325018414e+01    0.3922316    0.2959942 -72.07  0.001827797    1.565    0.361
        39 -10.1059    208.8449    104.1410   8.6002545057e+01   1.7650164714e+01    0.3274994    0.2299639  -0.90 0.0006777623    2.338    0.572
        40 -14.4173     31.9657     85.9773   1.2777194237e+02   5.5091158639e+01     0.596408    0.4688781  56.42  0.003085269    1.676    0.403
        41 -14.3422     77.1361    101.2882   1.1741288723e+02   4.6435692457e+01     1.271103    0.7757268 -43.92  0.006208949    1.518    0.341
        42 -12.5268    200.5939     94.6323   8.5124691483e+01   2.1389099141e+01    0.6056706    0.4295923  66.97  0.002809056    1.509    0.337
        43 -12.4143    134.9937     93.4841   9.9152715082e+01   3.7246991878e+01    0.5121108    0.4048356   8.22  0.002414158    1.613    0.380
        44 -10.7385    216.3340     94.2904   8.2254012672e+01   1.7689245477e+01    0.1466495    0.1186748  19.11 0.0007020971    1.632    0.387
        45 -11.4338    243.6861     92.3173   7.7493346454e+01   1.1808525351e+01    0.2015254    0.1315627 -30.48 0.0008014444    1.622    0.384
        46 -11.6698    240.4590     90.5332   7.7553339741e+01   1.2822344103e+01    0.2401284    0.1799497 -37.52 0.0007743522    1.286    0.222
        47 -11.9330    175.4227     90.1851   8.8892517846e+01   2.8363569135e+01    0.4074486    0.3316158   2.75  0.001209868    1.597    0.374
        48 -12.5545    116.1745     69.1481   9.6878933679e+01   4.5930403605e+01    0.4916171     0.365268  31.99  0.002270147    1.392    0.281
        49 -13.8689    114.6011     81.7416   1.0114984401e+02   4.3909725882e+01     2.098029     1.072417 -58.27  0.007518398    3.003    0.667
        50 -13.9131    107.9087     82.3880   1.0321171599e+02   4.5112906288e+01     0.958935     0.551592 -61.90  0.003741035    2.664    0.625
        51 -11.7844    250.1559     89.4948   7.5937590094e+01   1.0885582787e+01    0.3273924    0.1804687 -42.22  0.001344471    1.613    0.380
        52 -11.4384    169.0310     88.2375   8.9711133894e+01   3.0290364158e+01    0.2856203    0.2291917 -40.89  0.001087791    1.257    0.204
        53 -11.5876    239.3468     86.3182   7.6740729983e+01   1.3785159545e+01    0.3721052     0.227997 -81.58  0.001571301    2.386    0.581
        54 -13.7337     22.4286     85.3006   1.3067501638e+02   5.6016641511e+01    0.3584268    0.2699893 -80.48  0.001878724    1.504    0.335
        55 -11.3249    232.0614     84.8231   7.7462276222e+01   1.5686192524e+01    0.4389029    0.1370558  48.95  0.001420582    3.672    0.728
        56 -12.1086    218.7642     84.5460   7.9459294922e+01   1.8833088549e+01     0.448217    0.2647704  63.20  0.001989483    1.776    0.437
        57 -11.5826    225.8447     83.5229   7.8095817080e+01   1.7344143475e+01    0.4752463    0.2458422  53.51  0.001640819    2.006    0.501
        58 -12.3307    201.3577     83.5005   8.2135289872e+01   2.3211861320e+01    0.3685791    0.2863045 -83.16  0.001790331    1.451    0.311
        59 -10.3008    146.0000     83.8725   9.3695307202e+01   3.6620887223e+01    0.2485663   0.08709404 -39.38 0.0007938337    2.883    0.653
        60 -12.4847    249.4502     80.6805   7.4054291163e+01   1.2496902723e+01    0.4648232    0.3876941 -54.90  0.002695354    1.059    0.056
        61  -7.6769    236.2417     67.2010   7.2743030112e+01   1.7623220990e+01    0.4878362    0.2017713  51.82  0.001932641    2.649    0.622
        62 -12.3384    243.0439     81.0163   7.4998359695e+01   1.3847899980e+01    0.4346769     0.287805 -54.54  0.001277694    1.431    0.301
        63 -11.5193    238.9112     75.9537   7.4405170494e+01   1.5606097618e+01    0.9373426    0.3712856 -34.29  0.003555618    2.600    0.615
        64 -12.8377    243.1123     74.1810   7.3429012633e+01   1.4950085383e+01    0.5574481    0.3064014 -45.62  0.002046129    1.640    0.390
        65 -12.1412    196.3677     77.7341   8.1526084268e+01   2.5444024643e+01    0.3837383    0.2684819   2.45  0.001588144    2.409    0.585
        66 -12.8655     76.7340     77.6627   1.1116535928e+02   5.1464714411e+01    0.5446073    0.3607406  47.19   0.00279764    1.790    0.441
        67 -13.5090     65.3885     71.7576   1.1308800943e+02   5.4264734335e+01    0.9331921    0.6064059  53.13  0.004737724    2.193    0.544
        68 -11.4731    202.2086     75.8499   8.0018966519e+01   2.4328114061e+01    0.2786796    0.2257629  46.65  0.001208716    1.328    0.247
        69 -11.2498     55.0311     75.7405   1.1765325670e+02   5.4811308935e+01    0.1827825    0.1599535 -21.22  0.001170625    1.091    0.084
        70 -11.3660    250.5369     74.0605   7.2433226052e+01   1.3332237179e+01    0.3640764    0.1384056 -28.84  0.001193725    3.870    0.742
        71 -11.8416    180.6210     73.2346   8.3232647382e+01   3.0124573380e+01    0.5026461    0.2980578 -43.48  0.002180495    1.695    0.410
        72 -13.0523    171.4192     64.6059   8.2618505600e+01   3.3854251845e+01    0.9504574    0.6664269 -87.22  0.004259757    1.856    0.461
        73 -12.2377    177.8379     62.5464   8.0813174326e+01   3.2587552613e+01    0.5810382    0.4031455  82.39  0.002663314    1.699    0.411
        74 -12.2037    138.9942     70.9454   9.1569999550e+01   4.0600689863e+01    0.3801216    0.3593677 -72.83   0.00140163    1.141    0.123
        75 -11.3633    140.6130     66.2228   8.9752508825e+01   4.1038732595e+01    0.2721371     0.199282  50.79 0.0006350802    1.323    0.244
        76 -12.1925    195.9500     56.5934   7.6051728825e+01   2.8991537518e+01    0.7134599     0.254315  50.97  0.002509135    2.813    0.644
        77 -11.4906    189.3130     54.0518   7.6466897424e+01   3.1033533023e+01    0.4502766    0.2770082  50.70  0.002078649    1.627    0.385
        78 -12.6536    190.3847     70.2393   8.0614328964e+01   2.8199351882e+01    0.3465007    0.2795824 -74.42  0.001678954    1.322    0.243
        79 -12.9190    187.7936     63.6984   7.9320943414e+01   2.9915284600e+01     0.752407    0.3666627 -38.54  0.003058006    2.054    0.513
        80 -12.3766    169.2900     70.6444   8.4749586682e+01   3.3377532508e+01    0.2846638     0.177984 -47.32  0.001028292    1.668    0.400
        81 -12.4414    194.6079    246.1943   1.1811914771e+02  -5.1487428857e+00    0.1626447     0.115506 -23.29 0.0009578135    1.712    0.416
        82 -13.9525    107.7010    193.6602   1.2757875363e+02   2.0112301296e+01     0.363271    0.2583984 -57.14  0.001928808    1.460    0.315
        83 -11.6857    182.5140    196.5180   1.1201908821e+02   5.3040090283e+00    0.1421888    0.1318658  36.31 9.639667e-05    1.003    0.003
        84 -11.3965    207.6145     66.5424   7.6750938171e+01   2.4542715203e+01     0.409615     0.129548  57.11  0.001375577    2.990    0.666
        85 -12.2371    197.5085     63.5427   7.7616866384e+01   2.7518981500e+01    0.5556979    0.3622451 -84.67  0.002426715    1.974    0.494
        86 -10.8624    250.4430     62.4292   6.9868282768e+01   1.5177010596e+01    0.1357981    0.1164636 -66.34 0.0003079941    1.004    0.004
        87 -10.9551    241.1563     60.6652   7.0609586731e+01   1.7520944101e+01    0.1757574    0.1197261  58.17 0.0003609403    1.558    0.358
        88 -10.5837    224.4263     60.4660   7.2763187775e+01   2.1439703323e+01    0.1428038    0.1257423 -72.16 9.848443e-05    1.023    0.023
        89 -11.4752     65.2318     56.5419   1.0839537816e+02   5.7103445395e+01    0.2473374     0.164437 -38.76 0.0009549876    1.368    0.269
        90 -12.1666     75.5397     54.9047   1.0440513960e+02   5.5850236961e+01    0.3276908    0.2243208 -21.67  0.001787018    1.461    0.315
        91  99.0000    232.2474     45.2764   6.8191498269e+01   2.1853057350e+01     1.141731    0.3942508  58.97  0.004464739    2.759    0.638
        92 -12.6608    247.7439     53.1414   6.8140574999e+01   1.7173602099e+01     0.587749    0.4901241  46.84  0.003483846    1.511    0.338
        93 -12.9464    239.9807     50.1867   6.8386875184e+01   1.9358446890e+01    0.7036003    0.4045714  68.32  0.003153466    1.728    0.421
        94 -12.5162    246.7150     46.9829   6.6906537288e+01   1.8300647643e+01    0.3262397    0.2623098 -73.68   0.00102459    1.090    0.082
        95 -13.0487    243.6623     43.8525   6.6557963516e+01   1.9432957071e+01    0.4354114    0.2741211  64.34   0.00151889    1.594    0.373
        96 -13.2164    243.7543     40.5522   6.5824195364e+01   1.9874947902e+01    0.6597645    0.2273538  65.24  0.002654196    2.792    0.642
        97 -11.8587    175.0452     55.0772   7.9244581035e+01   3.4448850626e+01    0.2191527    0.2023554  88.52 0.0004695577    1.056    0.053
        98 -11.9810     42.5963     51.8179   1.1487636742e+02   6.0757227968e+01     0.457761    0.2312876 -16.02   0.00199676    3.111    0.679
        99 -12.1878     34.0663     46.5780   1.1637719273e+02   6.2552408002e+01    0.4700622    0.1739902 -37.89  0.002195498    2.368    0.578
       100 -13.5192    230.3203    190.8481   1.0148507069e+02  -2.8239675281e+00    0.5597847    0.4729761  64.54  0.003203993    1.570    0.363
       101 -11.7156    237.4395     35.9441   6.5492739794e+01   2.1945683224e+01     0.471908    0.3209253 -60.74  0.002615769    1.344    0.256
       102 -11.0563    187.9206     42.1553   7.3503427189e+01   3.3091875634e+01    0.3395034    0.1749146  67.68   0.00116163    1.889    0.471
       103 -13.5130     99.3818    188.4610   1.2861547543e+02   2.2676261408e+01    0.3806295    0.2337492  32.81  0.001809003    1.953    0.488
       104 -12.5536    214.4975    184.6948   1.0325938969e+02   1.1947503442e+00    0.3081532    0.2090103  17.10  0.001462219    1.799    0.444
       105 -13.2048     93.1453    175.9236   1.2807986337e+02   2.6550843638e+01    0.3097743    0.2072556  37.63  0.001561743    1.631    0.387
       106 -14.0535    130.9742    154.3037   1.1511932812e+02   2.4657579365e+01    0.6588547    0.4090019  60.09  0.002794045    1.856    0.461
       107 -13.7394     94.6816    157.1269   1.2452583286e+02   3.0681182862e+01    0.4951584    0.3455704 -54.29  0.002500122    1.391    0.281
       108 -13.3027    186.6278    158.0176   1.0326617062e+02   1.2023624716e+01    0.4735428    0.2875975  68.76   0.00178392    2.594    0.614
       109 -12.2221    248.7241    151.2917   8.9913617500e+01   4.6708768910e-01    0.3919858     0.226161  53.16  0.001832618    2.033    0.508
       110 -14.4309    239.0461    141.0748   8.9324626903e+01   4.1585473671e+00     1.144435    0.7399344  22.96  0.005132344    2.148    0.535
