#   1 NUMBER                 Running object number                                     
#   2 MAG_AUTO               Kron-like elliptical aperture magnitude                    [mag]
#   3 X_IMAGE                Object position along x                                    [pixel]
#   4 Y_IMAGE                Object position along y                                    [pixel]
#   5 X_WORLD                Barycenter position along world x axis                     [deg]
#   6 Y_WORLD                Barycenter position along world y axis                     [deg]
#   7 A_WORLD                Profile RMS along major axis (world units)                 [deg]
#   8 B_WORLD                Profile RMS along minor axis (world units)                 [deg]
#   9 THETA_WORLD            Position angle (CCW/world-x)                               [deg]
#  10 FWHM_WORLD             FWHM assuming a gaussian core                              [deg]
#  11 ELONGATION             A_IMAGE/B_IMAGE                                           
#  12 ELLIPTICITY            1 - B_IMAGE/A_IMAGE                                       
         1 -14.9779      9.6047    152.1610   1.4501198308e+02   4.2220376714e+01     8.646214     3.792992  70.97   0.04343153    2.452    0.592
         2 -13.3775    193.8823     29.1639   6.9973774734e+01   3.3003449490e+01     1.352335     1.339881 -31.97   0.00682688    1.105    0.095
         3 -13.6330    208.9971      9.2329   6.2739692916e+01   3.1411132535e+01     1.435356     1.034529  38.24  0.007765745    1.698    0.411
         4 -12.3700      2.2445      6.0401   1.1843312021e+02   7.3294256237e+01     1.571501    0.1661096 -51.05  0.004453708    8.063    0.876
         5  -9.8153     81.9152    248.7871   1.3901241526e+02   1.4964312383e+01    0.2126222    0.1128525  73.32  0.001122801    2.068    0.517
         6 -10.2246    156.4582    249.8774   1.2614466221e+02   3.7006863301e+00    0.2186127    0.1173581  27.67  0.001145878    2.213    0.548
         7 -12.2217    140.0162    248.6157   1.2889113952e+02   6.4468573349e+00    0.4842882    0.3173991  51.56  0.003141832    1.267    0.211
         8 -10.5284    109.4941    250.5057   1.3443095305e+02   1.0785835228e+01    0.2022679    0.1358376  60.42  0.000774955    1.272    0.214
         9 -10.4966     97.9615    249.5357   1.3633241849e+02   1.2606817018e+01    0.1859367    0.1595109 -47.24  0.001392889    1.706    0.414
        10 -10.9680     35.0812    245.3067   1.4651394958e+02   2.1379529820e+01    0.4345043    0.2332959 -55.76  0.002732793    2.819    0.645
        11  -9.9536      2.4142    249.6069   1.5172900515e+02   2.4059425736e+01    0.1910327    0.1327539  44.17  0.001599099    1.596    0.373
        12  -9.6014     47.0061    249.3109   1.4483214029e+02   1.9330446887e+01    0.1486287    0.1010355  59.56 0.0003916572    1.089    0.082
        13 -11.4757    124.8654    249.8989   1.3169345592e+02   8.5841526868e+00    0.5401954    0.1302104  41.30  0.002150641    3.293    0.696
        14 -11.0734    198.2512    245.3243   1.1823678120e+02  -2.2737915207e+00    0.4487015    0.2577215 -61.71  0.002033207    4.618    0.783
        15 -11.6303    127.0880    245.0698   1.3078600142e+02   8.9741387203e+00    0.3117523    0.1614059  45.91  0.001792885    1.507    0.336
        16 -10.1608     29.5356    250.0720   1.4764162809e+02   2.1199015276e+01    0.2385709    0.1512239  70.51  0.001358488    1.137    0.121
        17  -9.0438     23.1042    245.5460   1.4841893360e+02   2.2648445828e+01    0.1432869   0.07672326  47.26 0.0008433124    1.539    0.350
        18  -9.6318      5.8116    241.0220   1.5088839807e+02   2.5166735676e+01    0.1560337    0.1032621  59.76 0.0003439129    1.177    0.150
        19 -10.5433    183.5015    238.6588   1.1988530054e+02   9.1077646598e-01    0.2092251    0.1588522  11.43 0.0008022363    1.451    0.311
        20  -9.2715     69.0849    235.6872   1.4016827300e+02   1.8883990198e+01    0.2575928    0.1391043 -72.19  0.001595398    1.943    0.485
        21 -10.6935    248.5324    249.0344   1.1038610893e+02  -1.0077200307e+01     0.231829    0.1359913  33.05  0.001314375    1.369    0.269
        22 -10.9305     19.1713    199.4907   1.4651950979e+02   3.1481175847e+01    0.1967136    0.1520079  71.90 0.0006639666    1.102    0.093
        23 -10.9945     15.6890    197.0957   1.4701081452e+02   3.2293471492e+01    0.2235486     0.153266  63.17 0.0003501228    1.196    0.164
        24  -9.0891     51.4530    197.3350   1.4018533362e+02   2.8357418463e+01    0.2023256    0.1030136  57.12 0.0006634588    1.745    0.427
        25  -9.6263    191.9620    192.9891   1.1099472437e+02   6.1314116791e+00    0.2682442    0.1831463 -66.77  0.001219072    2.519    0.603
        26 -12.7237     36.6227    233.2888   1.4556330537e+02   2.3282823994e+01    0.2706819    0.2178245 -88.58 0.0007749608    1.312    0.238
        27 -11.8941     68.6764    190.8358   1.3605448312e+02   2.7474657447e+01    0.2532091    0.2260267 -72.30 0.0005110523    1.286    0.222
        28 -14.4371     42.1885    225.4682   1.4410973956e+02   2.4049559201e+01     3.172117     1.340434  35.23    0.0127066    2.589    0.614
        29 -10.3492    173.7153    222.4926   1.1932716263e+02   4.8057508808e+00    0.3671747    0.2646189  66.55  0.002107453    1.846    0.458
        30 -10.9098     78.5750    177.9446   1.3241229794e+02   2.8804700314e+01    0.2298734    0.2027461 -89.18 0.0004116468    1.093    0.085
        31 -13.1546     65.4115    176.0580   1.3506770958e+02   3.1031892056e+01    0.4607787    0.2683175 -47.37  0.001460252    2.215    0.548
        32  -8.8668    100.2298    176.8939   1.2747960977e+02   2.5716861400e+01     0.201917    0.1568161  74.48 0.0005013035    1.264    0.209
        33 -11.8751     86.2151    168.4708   1.2940205572e+02   2.9724893184e+01    0.6439695    0.5730743  50.28  0.004032711    1.189    0.159
        34 -12.8043      9.1768    207.1724   1.4876257574e+02   3.0951356546e+01    0.6447625    0.5588659  32.43  0.003334251    1.693    0.409
        35 -10.0235     98.4322    152.5146   1.2397161831e+02   3.1320745839e+01    0.2817988    0.2555547 -87.65 0.0008160428    1.025    0.025
        36 -12.0953     87.0160    151.7601   1.2661779841e+02   3.3320078828e+01    0.2803256    0.2440775 -48.59 0.0004862369    1.287    0.223
        37 -12.5073     67.1604    143.9861   1.3028289937e+02   3.7972120807e+01    0.7160726    0.4807631  75.01  0.003776178    1.644    0.392
        38  -9.0096    101.1586    148.3490   1.2256152350e+02   3.1797407020e+01    0.1998593    0.1727704  25.46 0.0004197514    1.374    0.272
        39 -11.2052    154.6273    228.7908   1.2378084692e+02   7.0596923018e+00    0.3874183    0.1435424  37.32  0.001664879    2.508    0.601
        40  -8.6360    181.5863    144.8147   1.0333166968e+02   1.6613350246e+01    0.1931095    0.1396738 -52.18 0.0004850649    1.537    0.350
        41  -8.5786    192.0139    144.0085   1.0102318256e+02   1.4539949319e+01    0.1740587    0.1605568 -23.80 0.0004012426    1.081    0.075
        42  -8.7303    152.4777    212.9622   1.2195888066e+02   9.9521805325e+00    0.1589981    0.1287813 -52.26 4.535704e-05    1.449    0.310
        43  -9.7154    109.7944    137.5357   1.1831744785e+02   3.2716665097e+01    0.3945981    0.2574754 -25.86  0.001341989    2.424    0.587
        44 -10.5658     34.9060    133.4008   1.3696425561e+02   4.4181441285e+01    0.2624426    0.1658599  62.27 0.0007869523    1.678    0.404
        45 -10.0869     81.5508    133.0799   1.2471282820e+02   3.8436047285e+01    0.2393407    0.1930251  52.61  0.000570951    1.275    0.216
        46  -8.4025     91.9883    131.9976   1.2176684405e+02   3.7042831429e+01    0.1615704    0.1502397 -83.92 0.0009360263    1.013    0.013
        47 -11.3185     57.4216    132.7599   1.3101170366e+02   4.1827887283e+01     0.609027     0.250504 -78.29   0.00210545    3.750    0.733
        48  -9.0178    106.9066    124.0643   1.1617173676e+02   3.6277108595e+01    0.2008507    0.1961034 -62.72 0.0003111239    1.060    0.057
        49 -10.5115     97.1238    134.6663   1.2096384631e+02   3.5579473081e+01    0.2541865    0.2087626 -39.51 0.0003698332    1.358    0.264
        50 -11.6305     62.7398    198.8944   1.3809397903e+02   2.6620260892e+01    0.2855135    0.2326709 -46.87  0.001278096    1.715    0.417
        51 -10.1074    167.6677    112.7824   9.8566380209e+01   2.5899368494e+01    0.3354229    0.2730516 -82.60 0.0008435032    1.538    0.350
        52  -9.0508    203.4844    111.4976   9.0990819143e+01   1.7856619046e+01    0.1507992    0.1420064  -2.83 2.893892e-05    1.064    0.060
        53 -10.4712    243.3921     86.2108   7.8230438692e+01   1.3037749485e+01    0.2115369    0.1147802 -41.61 0.0009553184    1.679    0.404
        54  -8.6583     69.2233     84.1461   1.1734485316e+02   5.1427748249e+01    0.1768448    0.1534071 -89.04 0.0004428784    1.357    0.263
        55  -8.6735    184.5169     77.4892   8.5440387462e+01   2.8332401718e+01    0.1505865    0.1492108 -13.83 0.0001005919    1.028    0.027
        56  -9.0283    157.3136     76.3104   9.0640311973e+01   3.5265935655e+01    0.1577705    0.1209762  16.16 0.0004604577    1.631    0.387
        57  -9.5287     33.9223     62.9022   1.2385708713e+02   6.0183173745e+01    0.1847245    0.1786734  71.34 0.0005585343    1.282    0.220
        58 -10.1706      2.0000     61.4409   1.3552014971e+02   6.2775089288e+01    0.2572989   0.05105606 -66.54 0.0009264327    3.868    0.741
        59 -10.4397     25.0157     59.4921   1.2632261519e+02   6.1680667121e+01    0.4822226     0.155388  40.24  0.001932758    4.328    0.769
        60 -10.3923     17.7498     56.5562   1.2837864038e+02   6.2848371185e+01    0.3021881    0.1453449  33.90  0.001406685    2.547    0.607
        61 -10.8451    237.4203    246.2799   1.1176716832e+02  -8.2450206625e+00    0.2861849    0.1049838 -33.28  0.001467307    3.105    0.678
        62 -10.3529    162.1154    249.1659   1.2506388789e+02   2.9093796819e+00    0.1820858    0.1379727  29.67 0.0009050953    1.243    0.196
