#   1 NUMBER                 Running object number                                     
#   2 MAG_AUTO               Kron-like elliptical aperture magnitude                    [mag]
#   3 X_IMAGE                Object position along x                                    [pixel]
#   4 Y_IMAGE                Object position along y                                    [pixel]
#   5 X_WORLD                Barycenter position along world x axis                     [deg]
#   6 Y_WORLD                Barycenter position along world y axis                     [deg]
#   7 A_WORLD                Profile RMS along major axis (world units)                 [deg]
#   8 B_WORLD                Profile RMS along minor axis (world units)                 [deg]
#   9 THETA_WORLD            Position angle (CCW/world-x)                               [deg]
#  10 FWHM_WORLD             FWHM assuming a gaussian core                              [deg]
#  11 ELONGATION             A_IMAGE/B_IMAGE                                           
#  12 ELLIPTICITY            1 - B_IMAGE/A_IMAGE                                       
         1 -13.6576    155.9493     12.1714   4.6347206640e+01   4.4695063746e+01    0.6860467     0.430965   6.31  0.001879243    2.251    0.556
         2 -16.8311    138.0567     28.6853   5.5033016366e+01   4.7354486062e+01     8.512668     4.081684 -39.36   0.03597099    2.220    0.549
         3 -13.9728    159.6269    116.2789   7.6840604663e+01   2.6727419544e+01      1.99422     1.198137 -83.34  0.005213988    5.094    0.804
         4 -16.0546    213.3859    122.2122   6.7144697247e+01   1.3462385456e+01     4.329142     2.120095 -53.77   0.01355917    2.757    0.637
         5 -16.7820    233.1018     66.6899   5.0478310253e+01   1.8513189764e+01     9.355258     4.807717 -34.33   0.04207851    1.824    0.452
         6 -12.6960    204.3647    199.3364   8.5395410616e+01   1.6070369912e+00    0.3233219    0.2423402 -36.48  0.001844069    1.424    0.298
         7  -9.9639    147.9020    193.5956   9.6097020754e+01   1.2843072805e+01    0.2009267      0.11863  51.65 0.0009184658    1.722    0.419
         8 -12.5132    202.7485    190.9986   8.4146982778e+01   3.2602578557e+00    0.4081924    0.2610241  37.29   0.00209741    1.465    0.317
         9 -13.9608    162.5992     78.5301   6.5698257080e+01   3.3523486600e+01    0.6334475    0.5308026  26.62   0.00136867    1.341    0.254
        10 -14.5080    182.1178     81.4735   6.2523992872e+01   2.8185575557e+01     1.413277    0.9424814  34.72  0.006139153    1.815    0.449
        11 -11.0668    202.1450    248.1948   9.3909492764e+01  -5.1189317020e+00    0.1782901    0.1322745  18.98 0.0003804876    1.137    0.121
        12 -14.1419    195.0194     75.1425   5.8405904760e+01   2.6122422877e+01     1.009747    0.8645295 -24.48  0.002632718    1.245    0.197
        13 -13.5445    206.8187     67.2703   5.4359340208e+01   2.4548493593e+01    0.6307696    0.4803243  72.87  0.002630845    1.376    0.273
        14 -10.4835    109.6688    224.3062   1.0864987911e+02   1.3409490933e+01    0.1337155   0.08449755  64.31 0.0007038667    1.661    0.398
        15 -12.0652     46.3238    171.5017   1.1638659245e+02   3.3619515419e+01    0.4512534    0.2815109  52.73   0.00251682    1.531    0.347
        16 -14.1168     53.4973    156.1172   1.1278577708e+02   3.6399993438e+01    0.7186731    0.5747753 -68.24  0.001841453    1.163    0.140
        17 -13.5691     60.4845    152.0108   1.1042614506e+02   3.6517106100e+01    0.4807147    0.4144421  75.18    0.0020293    1.098    0.089
        18 -15.4164     67.2142    147.3197   1.0794694036e+02   3.6766407373e+01      1.53468     1.317987 -28.63  0.003358042    1.464    0.317
        19 -14.9125     12.1585    171.8209   1.2414531134e+02   3.6979454025e+01     2.259614     1.076105  86.86   0.01192624    1.893    0.472
        20 -15.0430     27.7937    170.1115   1.2052481268e+02   3.5926265428e+01     1.030234    0.8662412 -64.15  0.004302187    1.318    0.241
        21 -11.3427    134.0000    147.1011   9.0457296792e+01   2.5432726189e+01    0.6080141     0.208163 -53.33  0.001901579    3.217    0.689
        22 -11.2489    132.5987    140.1974   8.9295718647e+01   2.7283777372e+01    0.6925288    0.2401074 -56.00  0.002015011    3.714    0.731
        23 -12.2091    172.3779    149.6363   8.1957042886e+01   1.6940468119e+01      0.34449    0.3013497  87.00  0.001761003    1.385    0.278
        24 -11.4661    145.0101    147.2802   8.7792379479e+01   2.3160686196e+01    0.6427161    0.3845435  61.27  0.002535323    2.191    0.544
        25 -11.6867    199.8765    145.1838   7.5128693966e+01   1.2045703051e+01    0.2212376    0.2120385  73.20    0.0012307    1.196    0.164
        26  -9.5339    123.4445    138.4775   9.1260924531e+01   2.9501916076e+01    0.1532322    0.1458459  89.94 0.0001357452    1.047    0.045
        27 -12.0094    137.7558     93.6767   7.6051399411e+01   3.6475034392e+01    0.3723374    0.3240197  62.56 0.0008893772    1.223    0.182
        28 -12.2833    135.3589    124.2191   8.4838542921e+01   3.0343261725e+01     1.591997    0.2559077 -49.66  0.003074679    7.822    0.872
        29 -10.9369    132.3572     92.1683   7.7024803371e+01   3.8006759143e+01    0.4345877    0.2218637 -45.25   0.00116042    1.950    0.487
        30 -12.6084    134.6254    108.0147   8.0858439741e+01   3.4110746117e+01     1.400583    0.2620866 -46.05  0.003224381    5.377    0.814
        31 -11.5339    132.1237     98.7364   7.8965865343e+01   3.6671113487e+01    0.4346198    0.2840164 -51.91 0.0009674852    1.596    0.373
        32 -10.7366    165.9704    134.5011   7.9901662712e+01   2.1463684317e+01    0.2307747    0.1528787  45.26 0.0004132513    1.512    0.339
        33 -11.6423    174.7112    114.5280   7.2968947545e+01   2.3625453931e+01    0.3772925     0.290249  80.93 0.0007305954    1.700    0.412
        34 -13.4154    160.6816    128.4715   7.9665520248e+01   2.3904985271e+01     0.853994    0.6595885 -53.49  0.004031571    1.351    0.260
        35 -11.3437     95.1031    220.7313   1.1120152413e+02   1.6332713101e+01    0.2667113    0.1723416  60.54  0.000552976    1.428    0.300
        36 -12.2964    112.4317    106.1718   8.6436550400e+01   3.9159444913e+01      1.12028    0.5703914 -43.20  0.004387161    1.948    0.487
        37 -13.2650    121.2964    105.5497   8.3780351788e+01   3.7500807687e+01     1.082906    0.5756105 -39.97  0.004057216    1.939    0.484
        38 -12.5990    127.3285    105.5529   8.2133296666e+01   3.6229406334e+01     1.045245     0.359192 -46.21  0.003310124    2.866    0.651
        39 -11.1056    140.4516    105.7772   7.8747678191e+01   3.3307754975e+01    0.3418349    0.2610082   1.97  0.001059078    1.793    0.442
        40 -11.7220    144.6715    103.3642   7.7020987181e+01   3.2869984062e+01    0.3463353    0.2928343  30.30 0.0005818948    1.267    0.210
        41  -9.8559     98.4787    130.3989   9.6214926816e+01   3.6051311792e+01    0.1463222    0.1410701 -79.01 0.0001018736    1.024    0.023
        42 -11.1026    113.5722     95.0672   8.3057360076e+01   4.1411131660e+01    0.2760734    0.2260018  31.80 0.0003903643    1.292    0.226
        43 -13.1664    199.3235    162.9578   7.9163111885e+01   8.8390130273e+00     1.220849    0.7023267 -71.37  0.002649586   10.265    0.903
        44 -10.8271    109.7952     85.8431   8.1464647294e+01   4.4165342935e+01    0.2275419    0.2054777 -13.80 0.0005560369    1.145    0.127
        45 -11.2566     89.8352     80.7664   8.6104450553e+01   4.9051982673e+01    0.2747999    0.2057983 -63.90 0.0009413491    1.578    0.366
        46 -10.9959     86.8803     75.1794   8.5350788946e+01   5.0754477402e+01     0.465498    0.1864874 -56.40  0.001468003    3.697    0.730
        47 -10.1883    178.2081    110.0983   7.1064424046e+01   2.3701051308e+01     0.234241    0.2106569  -5.70 0.0004958332    1.211    0.174
        48 -13.6995    168.0179    113.9048   7.4293516169e+01   2.5297120636e+01     1.267767    0.6862119 -52.97  0.001055008    2.118    0.528
        49 -11.1393    176.2206     53.1260   5.5503783100e+01   3.4361622550e+01    0.4353296    0.2047934 -40.34  0.001726336    2.090    0.522
        50 -10.6823    174.4680     42.6768   5.2722434211e+01   3.6327065543e+01    0.3595636    0.1427987 -31.22  0.001327557    2.595    0.615
        51 -12.9279    188.1896    154.0253   7.9515821537e+01   1.2770387800e+01    0.5153238    0.3604615 -71.94  0.002197395    2.303    0.566
        52 -11.7964    191.1795     42.6173   5.0061924896e+01   3.2102258966e+01     0.267877    0.1874432 -42.91 0.0005123184    1.404    0.288
        53 -12.1934    192.0000    152.9335   7.8478946667e+01   1.2197341078e+01    0.4130966    0.1927519 -36.97  0.001582644    2.196    0.545
        54  99.0000    204.3554     42.2094   4.8091502913e+01   2.8880601736e+01    0.2319797    0.1816407 -79.56 0.0006777609    1.279    0.218
        55  99.0000    205.4906     38.1067   4.6860153480e+01   2.9157633255e+01    0.4326787    0.2370627 -46.20  0.001505708    1.747    0.428
        56  -9.0840    186.4844     39.5539   4.9903191264e+01   3.3704930834e+01    0.1422672    0.1334279  82.11 0.0008077218    1.036    0.035
        57 -10.1111    189.9940     35.9037   4.8363875773e+01   3.3305593243e+01    0.1694139    0.1213123 -33.88 0.0008552657    1.440    0.305
        58 -11.2815    165.9344     33.6938   5.1453042713e+01   3.9705244716e+01    0.2443328    0.2067478 -62.82 0.0003034921    1.231    0.188
        59 -11.5016    202.4995     30.1741   4.5148803369e+01   3.0921754639e+01    0.3744362    0.1473124  53.16  0.001466114    2.607    0.616
        60  99.0000    212.3712     29.5621   4.3817913494e+01   2.8588357503e+01    0.3000168    0.2284361 -27.75  0.001664818    1.449    0.310
        61  -8.9306    216.4984     26.4739   4.2585047004e+01   2.7980842075e+01    0.3552714     0.268867 -85.84  0.002018958    1.246    0.197
        62 -12.3425    189.5020    148.5963   7.8028357945e+01   1.3553085696e+01    0.3701247    0.2758124 -64.27  0.001469738    1.749    0.428
        63  -9.4937    199.1051     24.7776   4.4134145495e+01   3.2423486604e+01    0.3429156    0.1303779 -54.24  0.001208318    3.256    0.693
        64  -7.4295    175.3670     24.7125   4.7269049564e+01   3.8404847050e+01    0.3099454    0.1783337  79.49  0.001394356    1.840    0.456
        65 -10.5846     81.1236     22.1228   6.7466444760e+01   6.0877693763e+01    0.1936641    0.1714425   9.59 0.0004484889    1.049    0.047
        66 -10.9869     39.0222     19.1576   8.2860428283e+01   6.8031143991e+01    0.2062355    0.1204024   0.64  0.001082257    2.035    0.508
        67 -14.5248    226.9305    107.9485   6.1372592849e+01   1.3094030929e+01     0.925846    0.7191715 -52.37  0.004062654    1.307    0.235
        68 -10.8165     78.9845     15.9916   6.5479848427e+01   6.2037147403e+01    0.1944698    0.1667244  11.66 0.0003838129    1.027    0.026
        69 -13.6149    192.6640    194.7724   8.6867844463e+01   4.4327180789e+00     1.075101    0.5961866 -65.23  0.003452161    5.386    0.814
