#   1 NUMBER                 Running object number                                     
#   2 MAG_AUTO               Kron-like elliptical aperture magnitude                    [mag]
#   3 X_IMAGE                Object position along x                                    [pixel]
#   4 Y_IMAGE                Object position along y                                    [pixel]
#   5 X_WORLD                Barycenter position along world x axis                     [deg]
#   6 Y_WORLD                Barycenter position along world y axis                     [deg]
#   7 A_WORLD                Profile RMS along major axis (world units)                 [deg]
#   8 B_WORLD                Profile RMS along minor axis (world units)                 [deg]
#   9 THETA_WORLD            Position angle (CCW/world-x)                               [deg]
#  10 FWHM_WORLD             FWHM assuming a gaussian core                              [deg]
#  11 ELONGATION             A_IMAGE/B_IMAGE                                           
#  12 ELLIPTICITY            1 - B_IMAGE/A_IMAGE                                       
         1 -15.0580    139.3490     70.4434   2.9060150364e+02   6.1708157547e+00     0.113882   0.07604888 -20.38   0.01113775    1.837    0.456
         2 -14.3660     23.0289     69.6324   2.9205093545e+02   6.8435535075e+00     0.100329   0.07017698  25.39   0.01058707    1.335    0.251
         3 -16.4280    142.1381    109.8100   2.9078067311e+02   5.6973378549e+00     0.219032    0.1308512  63.00   0.01976108    2.209    0.547
         4 -15.2098     72.8972     44.7356   2.9129217843e+02   6.8490934551e+00    0.1091707   0.06963793 -57.66   0.01104908    1.621    0.383
         5 -14.3238     60.0925     43.1892   2.9144392069e+02   6.9400298585e+00    0.1052887   0.05574816 -11.81  0.007931642    3.192    0.687
         6 -12.8988     58.9961      4.3663   2.9124666560e+02   7.3971496581e+00   0.03342394   0.02232626  -8.83  0.003254765    1.832    0.454
         7 -13.1350     16.2571      6.1070   2.9179114619e+02   7.6200380545e+00   0.05074921   0.02442802   1.55  0.003583106    3.490    0.713
         8 -10.7352    150.3677    231.3550   2.9133705802e+02   4.2368111607e+00   0.01630498  0.007044465 -72.68   0.00125133    2.932    0.659
         9 -12.7448     12.5017    228.6189   2.9304092553e+02   5.0536472809e+00   0.03991458   0.02535569  45.28  0.003974526    1.589    0.371
        10 -13.3845    204.7896    227.9362   2.9064082179e+02   3.9654629478e+00   0.03974253   0.03348225  43.37  0.004587341    1.168    0.144
        11 -12.0916    123.3292    228.4931   2.9165848541e+02   4.4244449649e+00   0.01727266   0.01540049 -41.27  0.002043461    1.175    0.149
        12 -10.9765    166.6039    227.4291   2.9111355455e+02   4.1897130470e+00   0.03209842  0.008792729  37.54  0.002196555    3.156    0.683
        13 -10.9915     55.5920    226.8538   2.9249407537e+02   4.8294023123e+00   0.01728424   0.01349998  53.73  0.001899447    1.353    0.261
        14 -13.5006    139.9492    217.5360   2.9139209108e+02   4.4570393996e+00   0.05098049   0.01740343 -64.06  0.003783002    3.047    0.672
        15 -14.3135    150.5747    209.8545   2.9121809157e+02   4.4856977369e+00    0.0687204   0.02891023  33.98  0.005736257    2.108    0.526
        16 -12.1598    187.7433    222.3811   2.9082293807e+02   4.1275578752e+00   0.02685191    0.0122396  25.53  0.002283377    2.034    0.508
        17 -11.5286    152.8432    222.2904   2.9125715663e+02   4.3280984647e+00   0.02027031   0.01265038 -31.63   0.00192057    1.915    0.478
        18 -11.0569    150.6698    219.3285   2.9126820249e+02   4.3749633619e+00   0.01449778   0.01001251  50.31  0.001485421    1.527    0.345
        19 -10.6046    122.3237    222.0223   2.9163602852e+02   4.5054573703e+00   0.01272764  0.009441175 -10.70  0.001131449    1.537    0.349
        20 -11.1429    166.9682    220.0165   2.9106887455e+02   4.2738332626e+00   0.01855946   0.01208518  55.63  0.001819282    1.749    0.428
        21 -11.3344    129.8786    219.5651   2.9152857730e+02   4.4909286112e+00   0.01879704  0.009024546 -58.38  0.001654051    2.104    0.525
        22 -10.9430    222.7936    220.1892   2.9037473124e+02   3.9524703943e+00  0.009889249  0.007929801 -20.09   0.00101028    1.367    0.268
        23 -10.6610     38.0652    218.9581   2.9267008243e+02   5.0209288780e+00   0.01079291   0.01011652   9.93  0.001180957    1.041    0.039
        24 -11.4166    109.7220    216.0111   2.9176061111e+02   4.6472743493e+00   0.01934307   0.01616713  41.41  0.002218185    1.164    0.141
        25 -11.3839    106.5991    213.2123   2.9178441515e+02   4.6976448167e+00   0.02053771   0.01264451 -47.62  0.002016255    1.706    0.414
        26 -11.1397    108.5217    209.5012   2.9174037863e+02   4.7298567967e+00   0.01645974   0.01245371  22.79  0.001407124    1.247    0.198
        27 -11.1985    134.0167    215.3370   2.9145412619e+02   4.5164906095e+00    0.0125821  0.009105513 -32.43 0.0009520584    1.538    0.350
        28 -12.9218    121.8691    209.9093   2.9157617962e+02   4.6489647379e+00   0.06085667   0.01781809 -43.21  0.003587474    4.867    0.795
        29 -12.6653    181.2676    204.4039   2.9080614592e+02   4.3736235884e+00   0.02174526   0.01699496 -55.26  0.002416825    1.337    0.252
        30 -13.9755    173.7543    200.1134   2.9087648495e+02   4.4664868214e+00   0.04239355   0.03317181 -73.24  0.004697295    1.408    0.290
        31 -11.0943     28.9782    212.7164   2.9274978692e+02   5.1451932035e+00   0.01252638  0.009236591  86.07  0.001303277    1.650    0.394
        32 -11.5227    156.4816    201.9665   2.9110175478e+02   4.5436860161e+00   0.01441101   0.01172888 -24.78  0.001608955    1.332    0.249
        33 -12.1170    153.0390    198.9912   2.9112853861e+02   4.5979646035e+00   0.01797282   0.01387357   5.07  0.001339157    1.354    0.261
        34 -16.1371     71.8388    192.9131   2.9210823007e+02   5.1319092302e+00    0.1544092    0.1079487  43.72   0.01621416    1.414    0.293
        35 -11.3677    202.3636    174.0862   2.9037886011e+02   4.6053543965e+00   0.01735912   0.01049725  36.53  0.001385338    1.540    0.351
        36 -12.9691    188.8954    198.8288   2.9068090024e+02   4.3948077598e+00    0.0270882   0.01733957 -66.15  0.002717691    1.680    0.405
        37 -11.3874    204.2455    195.4552   2.9047142287e+02   4.3461690571e+00   0.01987296   0.01327737 -56.58  0.002045271    1.550    0.355
        38 -12.5156    195.9099    173.2120   2.9045450873e+02   4.6524771371e+00   0.03227255   0.01926447  40.23  0.003136256    1.605    0.377
        39 -12.9318    192.3053    191.7421   2.9059998393e+02   4.4576869536e+00   0.02465657   0.02190104 -32.84  0.002523851    1.181    0.153
        40 -14.4525    205.5101    185.9548   2.9040410933e+02   4.4493676756e+00   0.05340286   0.03742596  23.21  0.005482304    1.347    0.258
        41 -10.8563    139.8003    200.4257   2.9130131960e+02   4.6569135120e+00   0.01091217  0.008271317 -57.31 0.0009020619    1.379    0.275
        42 -13.0928    195.8842    180.9582   2.9049688108e+02   4.5625724428e+00    0.0411947   0.02110817  54.80   0.00341496    2.491    0.599
        43 -12.2891    163.3385    196.1608   2.9098484248e+02   4.5720103959e+00   0.02131434   0.01550548 -38.47    0.0022591    1.487    0.328
        44 -11.7646    113.6229    192.4850   2.9158471740e+02   4.8987246995e+00   0.03054869   0.01735725 -86.04  0.002644896    2.479    0.597
        45 -12.3144    229.7737    192.8408   2.9013941525e+02   4.2303399587e+00   0.01949195   0.01362562 -18.57  0.001961589    1.705    0.414
        46 -12.9023    145.0994    192.5126   2.9119240333e+02   4.7186832748e+00    0.0239834   0.02094005 -36.88    0.0028102    1.203    0.169
        47 -13.4148    139.8832    188.2462   2.9123431826e+02   4.7981070692e+00   0.03216222   0.02453142 -49.28  0.003533093    1.370    0.270
        48 -10.4229    248.4886    192.4857   2.8990460541e+02   4.1272049377e+00  0.006842637   0.00639682  26.99 0.0008103832    1.012    0.012
        49 -12.7987     37.2449    188.7389   2.9251734307e+02   5.3772735359e+00   0.03151442   0.01499833 -54.53  0.002773372    2.114    0.527
        50 -12.7296    191.5013    207.9034   2.9069765638e+02   4.2743890800e+00   0.02123026   0.01770028 -79.83  0.002421109    1.334    0.250
        51 -11.2524    154.1000    190.2768   2.9106809386e+02   4.6932519150e+00  0.009847494  0.008752714  31.44 0.0009632672    1.060    0.057
        52 -13.2610      8.1181    187.5282   2.9287432060e+02   5.5567477722e+00   0.04237806   0.02545862   5.97  0.003906946    1.954    0.488
        53 -10.7902    181.9348    188.0585   2.9070919133e+02   4.5598640361e+00   0.01151586  0.007827964 -26.88   0.00113619    1.734    0.423
        54 -12.1092    229.6104    185.9946   2.9010426389e+02   4.3108393382e+00   0.01547845  0.009735189 -41.20  0.001510568    1.741    0.426
        55 -11.1476    170.1738    171.5079   2.9076596426e+02   4.8196007016e+00   0.01279678     0.011465 -40.44 0.0007968111    1.169    0.145
        56 -12.5649    160.7637    184.3912   2.9095312992e+02   4.7236058702e+00   0.02862902   0.01706666 -59.49  0.002795069    1.734    0.423
        57 -13.4129    167.3658    179.6257   2.9084500047e+02   4.7412677598e+00   0.03597734   0.02969937  86.02  0.003322519    1.388    0.280
        58 -12.1401    150.6162    185.6475   2.9108643119e+02   4.7670048366e+00   0.01904188   0.01119581 -40.56  0.001787081    1.900    0.474
        59 -11.7000    121.6191    181.7496   2.9142687824e+02   4.9779756582e+00   0.02091189   0.01557525  15.33  0.002248564    1.325    0.245
        60 -11.7736    130.0915    184.4171   2.9133566630e+02   4.8985723675e+00   0.02506739   0.01510652  35.87  0.002326779    1.539    0.350
        61 -11.6491    131.1953    178.8260   2.9129161440e+02   4.9573046776e+00   0.02261771    0.0129471 -38.60  0.001741237    2.011    0.503
        62 -11.2463    177.9014    185.2394   2.9074415437e+02   4.6157204133e+00   0.01583139  0.009138854  14.45  0.001454252    1.837    0.456
        63 -12.3664    119.3165    200.7435   2.9155841061e+02   4.7701603358e+00   0.01923326   0.01583272  85.67  0.002164177    1.394    0.282
        64 -13.7547    176.4361    163.9827   2.9064706939e+02   4.8712638201e+00   0.04927667   0.03027372 -35.26  0.004692659    1.894    0.472
        65 -12.5101    182.3853    176.8056   2.9064252374e+02   4.6881250565e+00    0.0300501   0.02153677 -40.27  0.003171183    1.502    0.334
        66 -10.7365    131.4833    193.3866   2.9136688906e+02   4.7862896809e+00   0.01301668   0.01013961  29.76 0.0008414891    1.194    0.163
        67 -11.2398     26.1528    180.8767   2.9261335646e+02   5.5317863491e+00   0.01085741  0.009084396  53.93 0.0008450181    1.248    0.198
        68 -13.1529     19.1790    178.0716   2.9268527262e+02   5.6040299429e+00   0.03183739   0.01757872 -61.57  0.002995688    1.879    0.468
        69 -12.0329     99.4488    174.5542   2.9166447825e+02   5.1881818330e+00   0.02872943   0.01576549  45.96 0.0004570715    1.889    0.471
        70 -10.2923    128.9501    210.5233   2.9149123040e+02   4.6014081046e+00   0.01077668  0.006369531  25.50  0.001026705    1.576    0.366
        71 -11.9216    107.8929    171.3839   2.9154196529e+02   5.1768965758e+00   0.02657829   0.01831145  39.89  0.002773184    1.391    0.281
        72 -11.3961    116.6125    171.4128   2.9143334338e+02   5.1267996051e+00    0.0143333   0.01047957  -0.52  0.001491433    1.514    0.340
        73 -11.8757     27.0342    169.3177   2.9253997541e+02   5.6612934104e+00   0.01801242   0.01521489 -28.84  0.002065795    1.260    0.206
        74 -12.2214    141.4279    168.8291   2.9110982678e+02   5.0151220219e+00   0.03212627   0.01135295  38.22   0.00244381    2.571    0.611
        75 -12.6629    148.9516    166.8340   2.9100518864e+02   4.9953215210e+00   0.04157173   0.01700271  36.05  0.003411444    2.192    0.544
        76 -13.2188    151.3476    160.3346   2.9094005770e+02   5.0572064265e+00   0.04031515   0.02889271 -15.71  0.004142941    1.637    0.389
        77 -14.7875     94.8817    190.7086   2.9180885546e+02   5.0262768301e+00   0.07662181   0.06238379  71.11  0.008594227    1.396    0.284
        78 -12.6229    215.9907    167.7580   2.9017476392e+02   4.6008381990e+00   0.02255263   0.01955719   6.88  0.002628895    1.149    0.130
        79 -12.2534    164.6566    166.0754   2.9080526181e+02   4.9143320279e+00   0.03639529   0.01801561  48.75  0.003082643    2.265    0.558
        80 -11.5694    125.3030    167.0344   2.9130121573e+02   5.1281125841e+00   0.01955039   0.01272457 -54.71  0.001473496    1.587    0.370
        81 -12.2500     49.1258    166.1017   2.9224681184e+02   5.5731481504e+00   0.03248923    0.0146699 -58.79  0.002794189    2.224    0.550
        82 -10.5817    100.2814    168.4005   2.9162077893e+02   5.2550245951e+00     0.012982   0.00807857  34.60   0.00128226    1.485    0.327
        83 -10.9244     21.4972    206.2922   2.9280849199e+02   5.2624401097e+00   0.01492857   0.00906658  48.69   0.00115522    1.747    0.428
        84 -14.2970    198.9377    160.5779   2.9034817485e+02   4.7820034573e+00   0.05324112   0.03912791  12.54   0.00568267    1.375    0.273
        85 -11.7754     89.1599    163.5998   2.9173357521e+02   5.3742908814e+00   0.02040578   0.01327171  50.63  0.002026151    1.649    0.393
        86 -12.1345    218.3807    205.0966   2.9034776050e+02   4.1531585381e+00   0.02374808   0.01688213  22.21  0.002509502    1.335    0.251
        87 -12.0961     58.9577    160.6339   2.9209451661e+02   5.5808297731e+00    0.0249334   0.02178378 -42.70  0.002927567    1.199    0.166
        88 -11.7907    221.8921    160.6968   2.9006290091e+02   4.6490762976e+00    0.0199171    0.0109678  51.83  0.001769757    2.089    0.521
        89 -12.3835    102.6712    157.4406   2.9153160845e+02   5.3688899501e+00   0.03413687   0.01337254 -57.16  0.002760221    2.503    0.601
        90 -11.4705     91.5360    158.0627   2.9167394503e+02   5.4251604160e+00   0.01921034   0.01198087  31.49  0.001912079    1.472    0.321
        91 -13.0962     19.7908    154.2914   2.9254929840e+02   5.8772790259e+00   0.03636467   0.02848544  64.23  0.003991105    1.439    0.305
        92 -12.1188     12.1192    145.6732   2.9259857930e+02   6.0211034632e+00   0.03296076   0.01956939  11.88  0.003080054    1.830    0.454
        93 -10.2681    141.7132    156.9909   2.9104207639e+02   5.1511698208e+00  0.009289751  0.009063281 -59.52 0.0005935365    1.092    0.084
        94 -11.8303    232.5255    152.5964   2.8988645819e+02   4.6822310112e+00   0.03350044   0.01831991  88.88  0.002703886    2.911    0.656
        95 -12.5992    187.2456    153.6394   2.9045618179e+02   4.9296283382e+00   0.03074898   0.01780037  55.40  0.002789794    2.071    0.517
        96 -12.2356    193.8866    161.1189   2.9041404815e+02   4.8046460878e+00   0.02682091   0.01746276 -73.96  0.002182587    1.756    0.431
        97 -12.1936    178.9171    153.0011   2.9055652385e+02   4.9847381528e+00   0.01954458   0.01595218 -60.61  0.002216866    1.294    0.227
        98 -12.1098    174.0027    153.7720   2.9062197034e+02   5.0039078161e+00   0.02149707  0.009814266  25.71  0.001826729    2.027    0.507
        99 -11.2538    219.2631    154.0182   2.9005933859e+02   4.7417619977e+00   0.01447161  0.008206628  -9.69  0.001179758    2.623    0.619
       100 -11.3374    118.4775    153.5032   2.9131303578e+02   5.3244758919e+00   0.01598234  0.007077292 -68.78  0.001293884    2.575    0.612
       101 -12.7071    114.4855    145.1195   2.9131740622e+02   5.4447797178e+00   0.04329301    0.0229034 -69.61  0.003896193    2.132    0.531
       102 -11.5995    103.5009    148.5159   2.9147290573e+02   5.4679701984e+00   0.01328541   0.01181497 -20.47  0.001037823    1.177    0.150
       103 -13.1016    106.3091    141.2984   2.9139874029e+02   5.5358960793e+00   0.04191695    0.0375027 -80.55  0.004979944    1.222    0.182
       104 -11.2537    126.5527    150.7250   2.9119721996e+02   5.3106711514e+00   0.02101563   0.01606155 -54.29  0.002309561    1.365    0.267
       105 -10.7127      2.6378    151.6616   2.9274932860e+02   6.0052156456e+00   0.01109147  0.007717493 -25.00  0.001110494    1.681    0.405
       106 -10.4729     60.6098    150.7361   2.9202036174e+02   5.6865854052e+00   0.01382087  0.009131514  23.08  0.001399517    1.431    0.301
       107 -10.6311     83.9880    150.0192   2.9172461175e+02   5.5617625083e+00   0.01130083   0.00772647  59.47  0.001050563    1.699    0.411
       108 -11.4901    173.0515    148.3036   2.9060413652e+02   5.0729291710e+00   0.01554563   0.01131766  15.06    0.0016445    1.365    0.267
       109 -11.6558    162.2803    147.6145   2.9073469682e+02   5.1425836985e+00   0.01721046   0.01176966  63.69  0.001713827    1.764    0.433
       110 -10.8129    249.3484    146.1259   2.8964184307e+02   4.6608795401e+00    0.0140483  0.005325063 -55.53  0.001104672    2.576    0.612
       111 -11.5896    167.4054    144.9579   2.9065636580e+02   5.1441443437e+00   0.01989867   0.01382987  89.21  0.002000002    1.805    0.446
       112 -11.1739    137.0001    145.4408   2.9103821581e+02   5.3124303767e+00   0.02934527   0.01592899 -39.62  0.002618872    2.129    0.530
       113 -10.7724    141.3258    144.3262   2.9097820475e+02   5.3006659072e+00   0.01461876   0.01121763 -43.09  0.001595868    1.377    0.274
       114 -10.6213     82.1249    141.9357   2.9170409955e+02   5.6664159567e+00   0.02261939   0.01143513  -1.77  0.001645413    3.288    0.696
       115 -11.9257    196.8622    150.1763   2.9031752496e+02   4.9148005312e+00   0.02043138   0.01206387  -0.83  0.001795352    2.213    0.548
       116 -12.0017    198.8219    142.2936   2.9025026737e+02   4.9951936094e+00   0.01980363    0.0136827 -76.00  0.002032804    1.660    0.397
       117 -11.2378    205.6784    139.5562   2.9014994796e+02   4.9877094270e+00   0.02420963   0.01033993  47.41  0.001875044    2.665    0.625
       118 -10.5938    176.7688    138.7931   2.9050613459e+02   5.1622111853e+00   0.01355696   0.01038845  53.70  0.001414842    1.386    0.279
       119 -11.0865    164.6582    249.1679   2.9125544935e+02   3.9480302067e+00   0.01023108    0.0084648  35.82  0.001156584    1.145    0.127
       120 -11.4140     71.3539    133.6954   2.9179397225e+02   5.8236458599e+00   0.02131929   0.01697382  12.70  0.002375431    1.243    0.195
       121 -10.7678     52.8323    133.6849   2.9202523944e+02   5.9292181186e+00   0.01512644   0.01170499 -70.75  0.001659862    1.409    0.291
       122 -12.6734    186.4391    131.6114   2.9034654662e+02   5.1903036145e+00   0.03543156   0.02280016   0.30  0.003381333    1.861    0.463
       123 -10.6414    196.3458    132.5283   2.9022804330e+02   5.1228806679e+00   0.01321697  0.008681139 -60.48  0.001339912    1.590    0.371
       124 -10.6796     43.9362    131.3411   2.9212368014e+02   6.0070911625e+00   0.01333554   0.01164093  57.60  0.001552578    1.207    0.171
       125 -14.1766    135.5648    118.0045   2.9090721707e+02   5.6396604377e+00   0.08772314   0.04516455 -75.02  0.007538621    2.417    0.586
       126 -10.7846    111.8747    130.6378   2.9127146882e+02   5.6281121850e+00    0.0145305   0.01174049 -59.53  0.001635163    1.304    0.233
       127 -11.3753    245.3285    128.4933   2.8959592153e+02   4.8887764364e+00   0.01618471   0.01572881 -82.34  0.002000125    1.103    0.094
       128 -10.7463    117.3241    126.8144   2.9118270616e+02   5.6414572335e+00   0.02306673   0.01266417 -85.19  0.001938203    2.621    0.618
       129 -11.0606    233.5266    127.3462   2.8973662930e+02   4.9698482239e+00   0.01408189   0.01153936  59.63  0.001580849    1.320    0.243
       130 -10.5404    221.0017    126.7079   2.8988915896e+02   5.0491351818e+00   0.01523119  0.006930942 -39.41  0.001187585    2.752    0.637
       131 -10.9086    210.6913    124.4567   2.9000537003e+02   5.1344340006e+00   0.01590983  0.009407402  51.22  0.001481622    1.876    0.467
       132 -10.8886    198.8355    121.5891   2.9013752663e+02   5.2357378839e+00   0.01624029  0.009732362 -51.99  0.001578492    1.721    0.419
       133 -10.7331     97.4959    120.4867   2.9139593826e+02   5.8282342525e+00   0.01333192  0.009759186  22.45  0.001288237    1.292    0.226
       134 -12.3366     99.7895    115.9593   2.9134274484e+02   5.8677965721e+00   0.03885457   0.02014633  24.51  0.003518227    1.810    0.448
       135 -11.3153     66.0386    117.5282   2.9177279961e+02   6.0419700557e+00   0.02110643   0.01399704 -70.29  0.002140657    1.666    0.400
       136 -13.6321    186.7267    111.1508   2.9023171458e+02   5.4264481760e+00     0.059911   0.05504648  13.06  0.007226179    1.051    0.048
       137  -9.9327    208.6376    135.6806   2.9009200457e+02   5.0157850765e+00  0.007352989  0.004993297 -22.61 0.0007041701    1.773    0.436
       138 -11.0924     86.6998    116.9951   2.9151183300e+02   5.9304220231e+00   0.01272981   0.01130246  88.48 0.0008636739    1.247    0.198
       139 -10.9188    237.2839    117.4423   2.8963593009e+02   5.0633256839e+00   0.01342707   0.00663031  18.68  0.001136897    2.091    0.522
       140 -13.1424    128.8592    240.0155   2.9165186590e+02   4.2588561554e+00   0.04939524   0.01475045  43.29  0.003246135    3.596    0.722
       141 -13.6156     50.0326    100.2437   2.9187916098e+02   6.3341078963e+00   0.06551048   0.05450997 -51.58  0.007533035    1.258    0.205
       142 -11.0242    114.4213    113.1090   2.9114457796e+02   5.8174039982e+00   0.02172146  0.008198282  39.24  0.001687045    2.468    0.595
       143 -14.3958     48.0380     83.0942   2.9181116401e+02   6.5448668345e+00   0.08037619   0.06303496  29.34   0.00877364    1.187    0.158
       144 -11.3584    219.8787    109.8217   2.8981125426e+02   5.2517563241e+00   0.02008151  0.009393961 -50.26  0.001728212    2.202    0.546
       145 -11.3435     85.0954    109.3126   2.9149021831e+02   6.0289123656e+00    0.0195844   0.01527833 -46.66  0.002047247    1.343    0.256
       146 -10.6228    106.3011    109.7467   2.9122772572e+02   5.9028684353e+00   0.01314706   0.01079341 -22.46  0.001265829    1.317    0.241
       147 -12.1808     63.6510    109.2369   2.9175770876e+02   6.1519974374e+00   0.03803918   0.01546573  31.90  0.003127085    2.161    0.537
       148 -10.3059     68.6712    105.0123   2.9167209098e+02   6.1725324312e+00  0.009502554  0.009177755 -81.01  0.001069527    1.112    0.101
       149 -11.4169    107.4290    103.0518   2.9117730617e+02   5.9742710015e+00    0.0193403   0.01161719  13.59  0.001823124    1.763    0.433
       150 -10.5083    240.1467    102.5384   2.8951911701e+02   5.2199830328e+00   0.01467478  0.008097859 -44.65  0.001341842    1.963    0.491
       151 -11.7199    209.3968     96.2154   2.8986781090e+02   5.4699658122e+00   0.02149145   0.01921961  38.96  0.002553023    1.084    0.077
       152 -10.5677     77.0153     94.7457   2.9151216783e+02   6.2443619082e+00   0.01214157   0.01030381 -60.20  0.001396489    1.246    0.197
       153 -12.1438    153.3884     89.9301   2.9053221083e+02   5.8640235674e+00   0.03592007   0.02230565  78.98  0.003254053    2.291    0.563
       154 -11.9158     94.6340     88.4308   2.9125776617e+02   6.2172903238e+00   0.02573412   0.01756539 -75.46  0.002631609    1.678    0.404
       155 -13.4999    101.8623     69.6034   2.9106520597e+02   6.3948653706e+00   0.06428455   0.03204798  16.19  0.005469927    2.165    0.538
       156 -13.7987    105.1971     81.5486   2.9108842998e+02   6.2369900693e+00   0.05881052   0.04682317 -81.66  0.006548612    1.424    0.298
       157 -11.8316    114.9925     75.9506   2.9093564966e+02   6.2460973785e+00    0.0294011   0.01301524 -37.00  0.002196682    3.092    0.677
       158 -10.8644    246.8028     75.3679   2.8928815494e+02   5.4971992897e+00   0.01269939  0.005664708 -68.90     0.001024    2.569    0.611
       159 -13.6550     20.7478     91.0847   2.9219563381e+02   6.6070954988e+00   0.08559307   0.06683193  88.32  0.009369576    1.505    0.335
       160 -11.6695     82.5086     85.2867   2.9139220733e+02   6.3230129910e+00   0.02103511   0.01166389  18.69  0.001927712    1.812    0.448
       161 -12.9159    121.9084    236.6291   2.9172017134e+02   4.3379034560e+00   0.02344402   0.02050628 -22.24  0.002742556    1.205    0.170
       162 -14.2489     84.0373     49.3750   2.9117808963e+02   6.7316590385e+00   0.07102574   0.04244841 -62.51  0.006943894    1.756    0.430
       163 -11.1748    167.9112    237.0935   2.9114959682e+02   4.0698554680e+00   0.01967168    0.0111957  24.76  0.001859495    1.645    0.392
       164 -13.8268     37.4459    110.7622   2.9209341781e+02   6.2833706096e+00   0.08394144   0.06929249  53.65   0.00956416    1.267    0.211
       165 -10.4086    120.1820     47.8265   2.9071789655e+02   6.5432060547e+00  0.009757214  0.007919879 -19.76  0.001076958    1.341    0.255
       166 -11.1330    249.6675     45.4818   2.8908946328e+02   5.8275528539e+00   0.01196939  0.006419338 -64.51  0.001088573    1.982    0.495
       167 -12.5392    125.0906     41.7279   2.9062337873e+02   6.5859705409e+00   0.02594126   0.01509978  44.81  0.002461134    1.739    0.425
       168 -10.8609    113.2615     42.2396   2.9077398517e+02   6.6476649921e+00    0.0121719  0.008539136 -59.09  0.001273859    1.489    0.328
       169 -12.0236    144.0805    235.5210   2.9143792213e+02   4.2242583846e+00   0.01979151   0.01527912  42.08  0.002179775    1.263    0.208
       170 -12.0608    128.9087     55.7943   2.9065221301e+02   6.4007406448e+00   0.01963433   0.01598736  -4.40  0.002197956    1.306    0.234
       171 -10.5483     88.2287    133.8707   2.9158420278e+02   5.7254316976e+00    0.0168915  0.009069168 -32.88  0.001427394    2.408    0.585
       172 -12.2170    130.2336    231.8824   2.9159077036e+02   4.3456205120e+00   0.01831398   0.01062238 -54.15  0.001758513    1.767    0.434
