#   1 NUMBER                 Running object number                                     
#   2 MAG_AUTO               Kron-like elliptical aperture magnitude                    [mag]
#   3 X_IMAGE                Object position along x                                    [pixel]
#   4 Y_IMAGE                Object position along y                                    [pixel]
#   5 X_WORLD                Barycenter position along world x axis                     [deg]
#   6 Y_WORLD                Barycenter position along world y axis                     [deg]
#   7 A_WORLD                Profile RMS along major axis (world units)                 [deg]
#   8 B_WORLD                Profile RMS along minor axis (world units)                 [deg]
#   9 THETA_WORLD            Position angle (CCW/world-x)                               [deg]
#  10 FWHM_WORLD             FWHM assuming a gaussian core                              [deg]
#  11 ELONGATION             A_IMAGE/B_IMAGE                                           
#  12 ELLIPTICITY            1 - B_IMAGE/A_IMAGE                                       
         1 -11.6407     31.1974     14.8760   9.7288804848e+01   6.9375805211e+01    0.6377673    0.2593243 -46.01  0.002545092    2.345    0.574
         2 -12.5802     42.8260     19.6503   9.4070855944e+01   6.7240535824e+01     0.858416    0.8308003   1.83  0.006179141    1.402    0.287
         3 -11.1633     19.1723     10.7947   1.0146668348e+02   7.1236671792e+01    0.3276778      0.23866 -29.44 0.0008391417    1.060    0.057
         4 -12.3076     29.9291     30.8864   1.0459877129e+02   6.6733061282e+01     1.798823    0.8180449  -7.50  0.005612952    6.793    0.853
         5 -12.6986     19.9155     26.5707   1.0765604492e+02   6.8416948576e+01     1.362297    0.3784263 -46.88  0.005994041    2.603    0.616
         6 -10.9988     26.0171      7.5203   9.6328038013e+01   7.1083756932e+01      0.28407    0.1955319  -0.37 0.0003732154    1.387    0.279
         7 -12.0735     19.2105      3.6112   9.7938940532e+01   7.2366977569e+01     0.961284    0.3435017  29.53  0.004801248    3.046    0.672
         8 -10.9070     49.2158      2.4395   8.2719346931e+01   6.8780062549e+01    0.3220433    0.2477955  39.29 0.0005633224    1.490    0.329
         9 -12.9725     10.3068     18.2223   1.0926775700e+02   7.0659085343e+01    0.5419056    0.4614795  22.97  0.002615785    1.511    0.338
        10 -12.2288      2.2222     10.0929   1.1037838349e+02   7.2619739881e+01    0.7195216     0.148853 -46.57 0.0009020693    2.910    0.656
        11 -12.1026     50.2294      8.6183   8.5507863051e+01   6.7840162621e+01    0.6940446    0.4797352  50.93  0.004059307    2.036    0.509
        12 -11.6320     65.6942     26.7809   8.7814094510e+01   6.2827793832e+01    0.6336434    0.4265722 -31.22  0.003518386    1.355    0.262
        13 -12.4003    245.5368     23.2585   5.0860667547e+01   2.1118634376e+01    0.4933348    0.4024023  45.08  0.002662174    1.466    0.318
        14 -11.2861     42.2048     10.0860   8.9782999202e+01   6.8768161605e+01    0.2783911    0.2190778   7.88 0.0007492579    1.164    0.141
        15 -11.1938     83.0746      7.5700   7.2966553165e+01   6.2224242013e+01    0.3198975    0.3110395 -67.73  0.002109202    1.377    0.274
        16 -10.8501     67.8389     13.7011   8.1042259778e+01   6.4337417404e+01    0.3043064     0.172843 -17.12  0.001427162    1.801    0.445
        17 -11.8287     66.6444      8.7709   7.9090917065e+01   6.5163376943e+01    0.9510232    0.3099712  40.31   0.00383749    2.995    0.666
        18 -11.8248     76.7120      3.3213   7.2939610744e+01   6.3920696300e+01    0.6379473    0.3976728  31.31  0.003373021    1.482    0.325
        19 -11.1966     86.6248     13.8906   7.4782719294e+01   6.0798346073e+01    0.3522547    0.2115144 -33.24  0.001809534    1.714    0.416
        20  -9.3113     57.6498      6.6799   8.1469999897e+01   6.6935430736e+01    0.1973383    0.1239264   9.47 0.0007354372    1.687    0.407
        21 -10.0709     59.4826      2.4710   7.8582314299e+01   6.7130486763e+01    0.2753632    0.1544831 -20.73  0.001073001    1.666    0.400
        22  -9.1551    148.1620      5.8528   5.7511073276e+01   4.7278329962e+01    0.1902373    0.1450894  40.36 0.0003655627    1.276    0.216
        23  -9.3682    222.5388      3.5454   4.8033632302e+01   2.8621974663e+01    0.1299849    0.1161344 -76.31 8.423888e-05    1.017    0.017
        24  -9.6745     35.1004      2.1124   8.8961696307e+01   7.0797714573e+01    0.1796789    0.1371044 -11.88 0.0007349174    1.031    0.030
        25 -10.2692     80.7675    244.4111   1.2668899064e+02   1.6117515309e+01     0.181611    0.1451331  53.35 0.0004857066    1.163    0.140
        26  -9.5395    249.9124    250.0484   9.8305746894e+01  -9.3888481172e+00    0.1727256   0.09688588  14.03 0.0007848686    1.631    0.387
        27 -11.2506    225.2501    247.8705   1.0198710963e+02  -5.7500990528e+00    0.4726368    0.2747349  53.18  0.002457511    2.652    0.623
        28 -10.6335    233.6358    247.7991   1.0059629750e+02  -6.9356606823e+00    0.3369152    0.1722057 -16.82  0.001962638    2.402    0.584
        29 -10.6266    233.9792    244.0283   9.9981380208e+01  -6.6004686692e+00    0.3488149    0.1541149  32.86 0.0004129456    1.790    0.441
        30 -10.3879    218.5139    249.9417   1.0340224237e+02  -4.9956917180e+00    0.3018648    0.1455924  28.29  0.001248249    1.787    0.440
        31 -11.2710    166.2926    248.5460   1.1215831504e+02   3.0222267377e+00    0.2050149    0.1723478  35.54 0.0003294648    1.104    0.094
        32 -11.9880    139.6520    246.9748   1.1665266155e+02   7.3024226739e+00    0.4226063    0.2726541  21.70 0.0009714882    2.047    0.511
        33  -9.8597     87.5089    249.9519   1.2598065347e+02   1.4347270879e+01    0.1745819    0.1288601  39.48 0.0004890246    1.385    0.278
        34  -9.4094     72.7185    250.6544   1.2851361720e+02   1.6169921463e+01    0.1417598    0.0724197  49.10 0.0004082254    1.451    0.311
        35 -11.0382     61.4380    248.5675   1.3023556422e+02   1.7908584868e+01    0.2164372    0.1847449  61.73 0.0006218553    1.281    0.220
        36 -11.2382     46.1199    250.0191   1.3280899936e+02   1.9489488580e+01    0.2955825    0.1358288  44.43  0.001337123    1.700    0.412
        37  -9.9419      1.6601    248.9917   1.3958910969e+02   2.4253822654e+01    0.1985023   0.09578625 -82.77  0.001467083    1.861    0.463
        38  -9.5962     41.4617    244.8016   1.3326504902e+02   2.0863964001e+01    0.1393545    0.1157063  60.35  0.000562129    1.297    0.229
        39 -11.1709    177.0305    243.3725   1.0962003718e+02   2.0310755698e+00    0.2470613    0.1813701  27.16 0.0005226879    1.210    0.174
        40 -10.1398     98.5956    241.3985   1.2333620191e+02   1.4167958131e+01     0.200658    0.1919901  55.27 0.0008386562    1.354    0.261
        41 -10.5467    103.3524    240.1416   1.2237891643e+02   1.3693419573e+01    0.2108413    0.1586461  41.15  0.000423999    1.260    0.206
        42 -11.0103    125.3260    240.2010   1.1846196538e+02   1.0458196953e+01    0.2302926    0.1892564  38.70 0.0005245112    1.197    0.164
        43 -10.4104     68.8692    240.1227   1.2840008979e+02   1.8356881623e+01    0.2099865    0.1496132  37.08 0.0005427934    1.544    0.352
        44 -11.2135     50.6079    239.8025   1.3146747853e+02   2.0641040438e+01    0.3242841     0.174951  59.91  0.001609475    1.431    0.301
        45 -10.1128    247.0006    238.9793   9.7087643281e+01  -7.9201644519e+00    0.1893041    0.1280186   8.99  0.000659675    1.246    0.198
        46  -8.9086     35.3708    240.2795   1.3400366096e+02   2.2287609687e+01   0.08161166   0.07986705  41.92 0.0007011205    1.692    0.409
        47 -11.1102     26.4540    238.6439   1.3535841025e+02   2.3514121652e+01    0.3028673    0.2266686 -40.39  0.001090537    2.696    0.629
        48 -11.5519     35.0493    230.9156   1.3353872751e+02   2.3917009481e+01    0.3257648    0.2676108   6.24  0.001909845    2.328    0.570
        49 -10.8860    245.7498    166.9633   8.4390346560e+01   8.5686900570e-01    0.4812323    0.2452945 -30.77 0.0007691219    1.871    0.466
        50 -10.0677    249.1842    232.6053   9.5729440031e+01  -7.5790020263e+00     0.297437    0.1663794   4.60   0.00174035    1.947    0.487
        51 -10.6622    238.8854    215.9788   9.4695469674e+01  -4.2566503019e+00    0.4372342    0.2206225 -14.08  0.001099139    2.508    0.601
        52 -10.6370    234.1454    209.5882   9.4406084302e+01  -2.7644536669e+00    0.4523695    0.2869435 -17.77  0.002423872    1.620    0.383
        53 -11.5721    241.6450    175.3948   8.6773482981e+01   4.1194367967e-01    0.7914639    0.2945424 -30.05  0.003319073    2.721    0.633
        54 -12.0499    235.8536    164.6348   8.5594406050e+01   2.9267110002e+00     1.427001    0.6434056 -43.67  0.006064372    2.714    0.631
        55 -11.5600    237.5821    157.1013   8.3728582992e+01   3.7015162977e+00     1.147286     0.488228 -22.28  0.004373698    3.018    0.669
        56 -11.6476    234.9348    238.4793   9.8984015355e+01  -6.1601141229e+00    0.7350088    0.1906696  36.89  0.003119989    3.145    0.682
        57 -12.3543    247.5493    204.4193   9.1236079508e+01  -4.2279523137e+00    0.9446958    0.4094574 -14.32  0.003833627    3.710    0.730
        58 -12.1659    245.0932    191.8468   8.9353320978e+01  -2.3091611916e+00    0.7106486    0.4907586  29.07  0.004127281    1.281    0.219
        59 -11.9432    237.4544    196.5962   9.1526869029e+01  -1.6771869196e+00     0.726047    0.3473608 -15.43  0.003201872    2.901    0.655
        60 -11.2501    248.5094    212.8140   9.2549967246e+01  -5.3445894304e+00    0.3055996    0.2132725   5.73  0.000498786    1.247    0.198
        61 -11.2353    239.2257    205.8062   9.2879266525e+01  -3.1029825209e+00    0.4305497    0.2207317 -30.21  0.001397527    2.020    0.505
        62 -11.8106    242.6649    198.5425   9.0995839075e+01  -2.7563032575e+00     0.739195    0.3697268  13.60  0.003228049    2.944    0.660
        63 -10.8658    250.5935    172.0014   8.4602584959e+01  -6.4546423127e-01    0.2968978    0.1129219 -30.68  0.000873408    2.529    0.605
        64 -12.1770    249.5936    183.9348   8.7104425324e+01  -2.0327229389e+00    0.4282418     0.273311 -19.25  0.001274667    1.481    0.325
        65 -11.9727    247.2426    176.7179   8.6092628586e+01  -7.0964869319e-01    0.5541654    0.2568095 -22.05  0.001827388    2.360    0.576
        66 -11.7741    243.5523    231.6177   9.6490243185e+01  -6.6763571673e+00    0.5412818    0.2530244  22.64  0.002365733    2.172    0.540
        67 -12.3236    245.1178    224.9544   9.5154288601e+01  -6.1903545195e+00    0.4734498    0.3656452  32.65  0.002074924    1.326    0.246
        68 -11.9152    246.7829    218.1460   9.3745663549e+01  -5.6870091578e+00     0.286074    0.1982859 -28.73 0.0007949935    1.606    0.377
        69 -10.8144    148.4350    238.2095   1.1407144880e+02   7.2032581328e+00    0.2606287    0.1609822  39.63 0.0004436636    1.298    0.230
        70 -10.0851    134.9608    238.8265   1.1657688068e+02   9.2006863573e+00    0.1713112     0.155243  52.28 0.0003966927    1.161    0.139
        71  -9.9966     61.8578    239.0620   1.2952139115e+02   1.9410439802e+01    0.1816945    0.1229835  51.45 0.0004952734    1.187    0.158
        72 -10.9555    184.0255    236.7205   1.0748705274e+02   1.7917301374e+00     0.238015     0.180783  23.09 0.0005098652    1.204    0.170
        73  -9.7454     41.2341    236.3796   1.3282145656e+02   2.2294824660e+01    0.1844556    0.1203568  62.17  0.000983665    1.121    0.108
        74 -11.2169    159.0650    235.1234   1.1176114561e+02   5.9691771858e+00    0.2984517    0.1867878  38.64 0.0007903198    1.283    0.221
        75 -10.6377     91.1815    235.8040   1.2414461429e+02   1.6107701502e+01    0.2152031    0.1731632  20.68 0.0005869193    1.782    0.439
        76 -11.6886     86.8999    233.1305   1.2467183997e+02   1.7141964856e+01    0.4562458    0.2181339  50.94  0.001796071    1.667    0.400
        77 -10.7325     77.1844    235.2621   1.2657922444e+02   1.8090741218e+01    0.2842361    0.1751796  59.24  0.001042004    1.305    0.234
        78 -11.2161    128.7171    233.8740   1.1715013581e+02   1.0912806670e+01    0.3244969     0.233558  60.57  0.001561417    1.324    0.245
        79 -10.8042    123.9740    230.6265   1.1765520797e+02   1.2151342041e+01    0.2925446    0.1834288  31.59 0.0005599415    1.680    0.405
        80  -9.7450      3.7552    235.2241   1.3878939237e+02   2.6319227935e+01     0.116923   0.09520517  82.77 0.0005681223    1.345    0.257
        81 -10.9251    230.3715    233.3142   9.8946603815e+01  -4.9374323562e+00    0.2230286    0.1642248  25.00 0.0004360724    1.063    0.059
        82 -10.8340    226.7823    229.8118   9.9004551771e+01  -4.0093340382e+00    0.3779493    0.1937927 -23.35  0.001454643    2.260    0.557
        83 -11.0040    236.2539    226.2610   9.6839836262e+01  -5.0292807518e+00    0.2485675    0.1742474  10.60 0.0004240894    1.238    0.192
        84  -9.9913    229.5823    225.3065   9.7811563208e+01  -3.9183315984e+00    0.1900522    0.1482051 -12.74 0.0005699795    1.316    0.240
        85 -10.6066    233.2004    222.0937   9.6675241081e+01  -4.0983493385e+00    0.3522123    0.1682168  38.23 0.0009733925    1.772    0.436
        86 -10.8427    177.5730    232.2410   1.0802134422e+02   3.4107872109e+00     0.281704    0.1983661   9.70 0.0007154389    1.737    0.424
        87 -11.6553    204.9438    231.5829   1.0304870798e+02  -8.5538546741e-01    0.3518765    0.2271111  30.11 0.0004788579    1.253    0.202
        88  -9.7702    170.9896    232.8848   1.0930131004e+02   4.3786723680e+00    0.1801507    0.1429371  35.25 0.0004307053    1.022    0.021
        89 -10.9384    140.5522    234.7387   1.1508622087e+02   8.9458320827e+00     0.367297    0.1787751  46.29  0.001151689    1.657    0.397
        90 -10.6114    187.6377    231.2863   1.0607476944e+02   1.9250419783e+00    0.2401034    0.1695071  43.91 0.0009745563    1.273    0.214
        91 -10.2316    190.6734    230.6615   1.0544070388e+02   1.5211375382e+00    0.2198667    0.1510137  31.16 0.0008596351    1.189    0.159
        92  -9.6397    164.6832    232.4773   1.1039292273e+02   5.4467039346e+00     0.266245   0.09659038  40.72  0.001219796    2.205    0.546
        93 -10.7080    145.5143    230.5005   1.1365696048e+02   8.8010224052e+00    0.2393529    0.2218793  10.99 0.0006906544    1.284    0.221
        94  -9.7304    143.9842    226.0011   1.1337334303e+02   9.7335940020e+00    0.1853061       0.1516  42.67 0.0004212464    1.034    0.033
        95 -11.0769     55.2667    230.3473   1.3004629922e+02   2.1697645548e+01    0.3160032    0.2234467 -72.06  0.001493955    1.552    0.356
        96 -10.3217      9.7115    231.7642   1.3771941490e+02   2.6349945958e+01    0.1741041    0.1294545  77.40 0.0006058919    1.153    0.133
        97 -11.0020    216.7421    230.3832   1.0081294931e+02  -2.5445806303e+00    0.2482593    0.1700012  23.89 0.0004813229    1.198    0.165
        98 -10.2921    100.5042    230.4763   1.2195871251e+02   1.5672389473e+01    0.1959639    0.1702868  49.95 0.0006208522    1.193    0.162
        99 -11.0370    103.8691    227.8640   1.2107684427e+02   1.5620115503e+01    0.3150453    0.1933414  41.25  0.001151518    1.413    0.292
       100 -10.0539    134.3786    230.3817   1.1570220896e+02   1.0577074132e+01    0.2304577    0.1177042  44.36 0.0007455285    1.565    0.361
       101 -10.2759     44.9337    229.3417   1.3176566153e+02   2.3086828408e+01    0.1749239    0.1344356 -85.55 0.0005268691    1.315    0.239
       102  -9.2367    158.5458    229.2140   1.1108452591e+02   6.9029701986e+00    0.1339953    0.1145146 -15.11 0.0003050359    1.462    0.316
       103 -10.8896    113.6989    227.8818   1.1925566472e+02   1.4157817985e+01    0.3250972    0.2021367  32.09  0.001112706    1.727    0.421
       104 -10.7372    115.1094    222.3019   1.1837158384e+02   1.4873614130e+01    0.3709098    0.2225633 -80.45  0.001819552    2.300    0.565
       105  -9.8180    174.2423    227.3003   1.0793427440e+02   4.6294160713e+00    0.1766724     0.152588   4.12 0.0005526887    1.277    0.217
       106 -10.5192    169.8174    222.3199   1.0804254694e+02   6.0674131586e+00    0.3262234    0.2304244 -57.05  0.001976645    1.910    0.477
       107 -11.0697    163.7175    225.1608   1.0957770148e+02   6.6556370079e+00    0.3316749    0.2903354  42.54  0.001531103    1.100    0.091
       108 -10.2676    165.9553    220.4629   1.0849869951e+02   6.9808672411e+00    0.2341455    0.1633454  22.27 0.0007215446    1.545    0.353
       109  -9.5812     92.9134    227.8832   1.2309803896e+02   1.7192011437e+01    0.1579813    0.1389882  45.33 0.0004268438    1.276    0.216
       110 -10.3613     78.7624    226.9075   1.2559445512e+02   1.9307018977e+01    0.3221968    0.1639937 -79.81  0.001236068    2.294    0.564
       111 -10.4570      9.6577    238.8740   1.3801637672e+02   2.5154133810e+01    0.1761772    0.1259028  81.57 0.0005814782    1.192    0.161
       112 -10.5372     19.0686    227.5211   1.3601611930e+02   2.6174350841e+01    0.2691855    0.2062264 -88.13  0.001564199    1.311    0.237
       113 -10.3069     17.3160    224.6600   1.3616732144e+02   2.6850123038e+01      0.20394    0.1089104  43.67  0.001017619    1.654    0.395
       114 -10.7077     16.4540    221.4668   1.3615601710e+02   2.7500888224e+01    0.2652371    0.1765442  52.88  0.001275768    1.281    0.219
       115  -9.1971    138.8056    226.8130   1.1444466934e+02   1.0435104210e+01    0.1587748    0.1214645  61.18 0.0003863054    1.301    0.231
       116 -10.5035     68.0498    227.0338   1.2753939354e+02   2.0687925671e+01     0.213545    0.1415602  40.60 0.0004936016    1.467    0.318
       117  -9.5154      1.6342    227.1640   1.3881754894e+02   2.7887419587e+01    0.1339702   0.09304378  79.94  0.001107066    1.129    0.114
       118 -11.0960    228.1225    217.7469   9.6824275000e+01  -2.8063500638e+00    0.2706037    0.2088704  10.83 0.0005753885    1.104    0.094
       119 -11.9006    223.7000    213.3377   9.6852787741e+01  -1.5697568702e+00    0.4945946    0.3232297 -10.24  0.002147007    1.667    0.400
       120 -11.3663    222.3368    225.2489   9.9042275880e+01  -2.8015146235e+00    0.4078041    0.2017373  35.03  0.001430981    1.657    0.396
       121 -12.0279    216.3113    220.1044   9.9263818553e+01  -1.2335479386e+00    0.5703528    0.3622642 -36.27  0.001437529    1.854    0.461
       122 -10.7657    210.9946    215.8799   9.9517297315e+01   1.5686472469e-01    0.2639402    0.1985764 -15.14 0.0003826952    1.414    0.293
       123 -10.2765    210.8556    210.8087   9.8702986607e+01   8.4327074108e-01    0.2285446    0.1693667   1.80 0.0005266556    1.383    0.277
       124 -12.5822    216.8111    205.8114   9.6785344563e+01   5.1834673705e-01    0.5254779    0.3842953 -12.10  0.003213811    1.417    0.294
       125 -12.2017    224.7170    203.8825   9.5047020924e+01  -5.3379775917e-01    0.4708648    0.4119218 -44.67  0.001442886    1.594    0.373
       126  -9.6937    184.8609    225.8787   1.0578960121e+02   3.0952640577e+00    0.1803336     0.139066  21.70 0.0003810319    1.207    0.171
       127  -9.8005    199.7938    224.7218   1.0292057534e+02   8.2739326970e-01    0.1829187    0.1462728   2.53 0.0004706991    1.280    0.218
       128  -9.6664    120.7729    224.8940   1.1759876957e+02   1.3572035354e+01    0.1648289     0.145862  41.15 0.0004768356    1.189    0.159
       129  -9.8125      7.9417    225.2455   1.3772973256e+02   2.7644178583e+01    0.1379019   0.09841973  63.88 0.0004956161    1.118    0.106
       130 -10.0352    191.0529    223.1802   1.0426123377e+02   2.4498833053e+00     0.184605    0.1618337   4.54 0.0004593725    1.190    0.159
       131  -9.7764    129.6222    223.8284   1.1580477603e+02   1.2365892330e+01    0.1960813    0.1404535  36.99 0.0004072062    1.284    0.221
       132 -10.7668    207.0874    222.5606   1.0128452526e+02  -6.8424684494e-02    0.2228326    0.1770506  20.29 0.0004434377    1.060    0.057
       133  -8.8813    155.3231    223.2959   1.1089042722e+02   8.3088264421e+00    0.1192462   0.08781291  17.18 0.0005453488    1.620    0.383
       134  -9.9235    135.9285    222.9617   1.1450546709e+02   1.1504275758e+01    0.1894554     0.152899  50.90  0.000504965    1.052    0.050
       135 -10.1735     82.6905    222.8852   1.2451414004e+02   1.9478858177e+01    0.1827695    0.1378091  42.11 0.0005568041    1.316    0.240
       136 -10.2920     73.6118    222.4327   1.2614814025e+02   2.0777497582e+01     0.273693    0.1641022  27.44  0.001541444    2.297    0.565
       137 -10.1534     50.1373    222.4856   1.3039711102e+02   2.3696141460e+01    0.1686719    0.1542149 -88.30 0.0005097307    1.397    0.284
       138  -9.3556     97.8197    222.0900   1.2161303275e+02   1.7486349032e+01    0.1391701    0.1308763  46.20 0.0003975175    1.301    0.231
       139 -10.5898     40.1427    220.8206   1.3205204191e+02   2.5141867433e+01    0.1929782    0.1876256  74.92 0.0006446857    1.532    0.347
       140 -10.0028     28.7210    221.9818   1.3410513664e+02   2.6168557500e+01    0.1703127    0.1210064  58.67 0.0004951405    1.149    0.130
       141  -9.7472    180.8647    220.8741   1.0578089270e+02   4.4456032314e+00    0.1826938    0.1415154  22.70 0.0003865479    1.212    0.175
       142  -9.6994    174.8885    220.7103   1.0686477944e+02   5.4605775061e+00    0.1824676    0.1586573  -0.54 0.0002832222    1.277    0.217
       143 -10.3377    148.5905    220.1625   1.1173886880e+02   9.8968513333e+00    0.2141086    0.1956125   9.75 0.0007066858    1.271    0.213
       144  -9.9114     68.4876    221.0008   1.2696735825e+02   2.1700670747e+01    0.1932516    0.1505783  32.18  0.000789778    1.593    0.372
       145 -10.3675     59.3779    220.3400   1.2857765997e+02   2.2968536280e+01    0.3010738     0.196898  57.67  0.002054396    1.207    0.172
       146 -10.0538     56.0716    216.8588   1.2891130956e+02   2.4006719125e+01    0.1808923    0.1301849  87.49 0.0007674095    1.250    0.200
       147  -9.8684    186.1022    219.0134   1.0453297626e+02   3.8379240755e+00    0.1862507    0.1524857  29.69 0.0004489827    1.015    0.015
       148  -9.6857    128.8176    219.1238   1.1538076802e+02   1.3265912339e+01    0.1556808    0.1336851  27.68 0.0003917635    1.297    0.229
       149  -9.4994    109.1910    218.8519   1.1910870601e+02   1.6363039600e+01    0.1803437    0.1366703  60.49 0.0005108856    1.147    0.128
       150 -10.0003    159.0680    217.8997   1.0943431830e+02   8.5153071402e+00    0.1916329    0.1583838  38.39  0.000561997    1.022    0.022
       151 -10.9673    132.3197    213.5841   1.1399761883e+02   1.3630743815e+01    0.2249567    0.1864276  35.52 0.0005987557    1.190    0.160
       152 -10.6366    136.0101    217.7234   1.1382207200e+02   1.2341913343e+01    0.1758661    0.1656155 -82.94 0.0004715488    1.230    0.187
       153 -11.1418    137.7760    214.1124   1.1300569395e+02   1.2651059839e+01    0.3340082    0.2643826  76.03  0.002103897    1.451    0.311
       154 -10.5440    193.8105    215.8154   1.0261718096e+02   2.9989657270e+00    0.2345018    0.1967559   7.94 0.0004809288    1.181    0.153
       155 -10.7635    202.5090    215.5270   1.0098503226e+02   1.5944640547e+00      0.23866    0.1868014  28.19 0.0005661805    1.042    0.040
       156 -11.7443    198.7450    212.9355   1.0125104123e+02   2.5713799709e+00    0.5826965    0.3716027  14.79  0.002737343    1.806    0.446
       157 -10.2885    119.7793    216.3686   1.1678299548e+02   1.5159525820e+01    0.2037707    0.1952753 -49.39 0.0009748969    1.313    0.238
       158 -10.7323    119.1485    212.3002   1.1640840929e+02   1.5963259481e+01    0.3153493    0.1956211  37.05  0.001455245    1.518    0.341
       159 -10.5459      7.7594    215.8153   1.3734765673e+02   2.9337842882e+01    0.2848953    0.1861626  81.67  0.001599507    1.162    0.139
       160  -9.3793     21.6927    216.7005   1.3502180414e+02   2.7842245513e+01   0.08755811   0.07625559 -67.22 0.0002704543    1.595    0.373
       161  -9.2151    179.9190    215.4411   1.0513466452e+02   5.3823919608e+00    0.1808535    0.1039594  39.71 0.0003224113    1.448    0.309
       162  -9.3890     83.0846    215.4785   1.2374067129e+02   2.0749266688e+01     0.166104    0.1002286  41.87  0.000549757    1.491    0.329
       163 -10.2249     31.4302    214.2883   1.3317992593e+02   2.7281931746e+01    0.1778253    0.1621961  80.08 0.0005688861    1.386    0.279
       164  -9.3999    186.5120    213.9024   1.0366464274e+02   4.4923419407e+00    0.1556215    0.1236463 -32.15 0.0004079585    1.458    0.314
       165 -10.2386    171.2583    213.8615   1.0652692063e+02   7.0805913942e+00    0.2170236    0.1737011  44.52 0.0005164953    1.132    0.117
       166  -9.5390    165.8534    213.8456   1.0755327181e+02   7.9986890313e+00    0.1871944    0.1496055  22.25 0.0004301972    1.261    0.207
       167  -9.6950    143.3529    214.2093   1.1193662693e+02   1.1715852385e+01    0.2035851    0.1448032  35.16 0.0005114836    1.294    0.227
       168 -11.0751     63.7707    213.4016   1.2720378874e+02   2.3689241397e+01    0.2660324    0.1760095  53.02 0.0005841889    1.244    0.196
       169  -9.7397     51.8603    212.6045   1.2935955776e+02   2.5299289823e+01    0.1662394    0.1345939 -83.12 0.0005008433    1.275    0.216
       170 -10.6227     41.1813    212.4736   1.3130966977e+02   2.6556448599e+01    0.1749668    0.1545724 -77.86 0.0006359995    1.409    0.290
       171  -9.3401    154.6328    212.2177   1.0947163715e+02   1.0152016620e+01    0.1513107     0.118507 -31.81 0.0004035977    1.577    0.366
       172  -9.4351     96.9642    212.3513   1.2074805190e+02   1.9338675461e+01    0.1669489     0.130389  49.05  0.000521889    1.135    0.119
       173 -10.7774    124.3345    210.6458   1.1518136876e+02   1.5425892448e+01    0.3302463    0.2030088  75.44  0.001418143    2.337    0.572
       174  -9.6557    120.4763    206.8653   1.1545952475e+02   1.6711997757e+01    0.1692102    0.1558099  73.21  0.001150766    1.123    0.110
       175 -10.0454    124.2927    206.0207   1.1458738006e+02   1.6246537781e+01    0.2231636    0.1560096  36.13            0    1.380    0.275
       176 -10.9670    114.7419    206.6358   1.1657413483e+02   1.7665431679e+01    0.3872414    0.1935053  56.68  0.001868526    2.087    0.521
       177 -10.9401    110.0285    201.7207   1.1690343185e+02   1.9307293478e+01    0.3618109    0.2486463 -88.73  0.001746014    1.738    0.424
       178  -9.7250     25.2525    210.6523   1.3405868220e+02   2.8596956872e+01    0.1686086    0.1134639 -58.71 0.0008708864    1.915    0.478
       179 -10.2949     18.2225    210.7385   1.3530377061e+02   2.9279691622e+01    0.1798338    0.1661727 -83.64 0.0009993078    1.492    0.330
       180 -10.2462     56.3434    210.0304   1.2831988654e+02   2.5241628774e+01    0.1745108    0.1437415  47.07  0.000526921    1.314    0.239
       181 -10.2415    161.2372    208.5284   1.0764627277e+02   9.6180205935e+00     0.218584    0.1862703  14.78 0.0004586173    1.266    0.210
       182  -8.8660    149.2775    209.6976   1.1015057900e+02   1.1465708113e+01    0.1212498   0.09114084  67.24 0.0002731307    1.543    0.352
       183  -9.2868     93.4593    208.7376   1.2103960964e+02   2.0512363427e+01    0.1462436     0.111332 -55.41  0.000754306    1.578    0.366
       184  -9.0642     78.4147    208.8070   1.2398732246e+02   2.2621220672e+01    0.1414346    0.1050267 -61.56 0.0004134287    1.546    0.353
       185  -9.6181    177.0898    208.1321   1.0453062696e+02   6.9507424461e+00    0.1814409    0.1489713  21.27 0.0003086072    1.169    0.145
       186 -10.4433    147.0956    206.6131   1.1013394213e+02   1.2347838099e+01    0.5711633     0.297097  21.06  0.002121311    3.990    0.749
       187 -11.0882    132.5659    206.9865   1.1306769497e+02   1.4721026850e+01    0.3608229    0.2460657  39.10  0.001400747    1.314    0.239
       188 -11.3109    139.1871    203.6288   1.1127642055e+02   1.4197429374e+01    0.3859513    0.2596151  14.51  0.001252888    2.281    0.562
       189  -9.9175     72.8134    207.6858   1.2496599768e+02   2.3586113275e+01    0.1666828    0.1356648  39.98 0.0005451187    1.367    0.268
       190  -9.0067    193.2115    207.6079   1.0140230746e+02   4.2561128690e+00    0.1675454    0.1027215  32.25 0.0003038454    1.438    0.305
       191 -10.3118    206.3116    205.9808   9.8711371942e+01   2.2551245127e+00    0.3591787    0.1536019  42.83  0.001377404    2.073    0.518
       192 -10.4145     47.2096    206.0588   1.2972614643e+02   2.7079979420e+01    0.1853824    0.1502794  44.35 0.0005691618    1.373    0.272
       193  -9.2574     32.0583    206.4957   1.3257304393e+02   2.8673344128e+01    0.1452218   0.09422102  43.50 0.0004715181    1.494    0.330
       194  -8.7652    183.5277    205.4848   1.0287811856e+02   6.2369592414e+00     0.129708    0.1083941  28.10 7.336519e-05    1.036    0.034
       195  -9.9232     86.4574    204.9397   1.2201227471e+02   2.2229411718e+01    0.1997843    0.1602333  31.97 0.0005917238    1.474    0.322
       196  -9.2099    106.8128    210.1614   1.1857340863e+02   1.8259815077e+01    0.1475644    0.1401531  28.16 0.0003721986    1.315    0.240
       197 -10.6027      6.7454    203.9529   1.3696755232e+02   3.1614293442e+01    0.1944056    0.1817327 -42.64  0.001068067    1.744    0.427
       198  -8.8527    156.6641    204.7475   1.0796849537e+02   1.1018050030e+01    0.1256455   0.09219482  19.90 0.0003020906    1.565    0.361
       199 -11.3247     56.2140    201.9097   1.2766559791e+02   2.6808617517e+01     0.220062    0.1775795 -72.60 0.0005022295    1.347    0.258
       200  -9.1246    179.2484    202.3712   1.0318751866e+02   7.4576959595e+00    0.1667022    0.1076188  45.46 0.0002539316    1.406    0.289
       201  -8.8164    173.3102    202.2925   1.0432372704e+02   8.5119473226e+00    0.1280844   0.09356119  14.14 0.0003136005    1.587    0.370
       202 -10.7724    164.1498    200.3740   1.0581032482e+02   1.0430822995e+01    0.5305687    0.2329982  33.07  0.001989227    2.458    0.593
       203  -9.0478     21.0426    202.2400   1.3432018244e+02   3.0604419229e+01    0.1236678   0.07906965  43.49 0.0004327628    1.528    0.346
       204  -9.9162    198.3413    201.0982   9.9348532754e+01   4.3113071075e+00    0.1991696     0.150997  24.74  0.000386883    1.171    0.146
       205  -9.3219    186.9843    201.0052   1.0147717427e+02   6.3088597298e+00    0.1514983    0.1299834  27.59 0.0003145126    1.013    0.013
       206  -9.0045     34.2812    201.3000   1.3181032384e+02   2.9432474398e+01   0.09456076   0.08041418 -61.89 0.0002160671    1.546    0.353
       207  -8.9860     28.8203    201.3955   1.3283669093e+02   2.9986073020e+01    0.1272502   0.09989324  34.83 0.0005024066    1.595    0.373
       208 -11.1007    229.9017    198.2119   9.3126991492e+01  -6.5057688265e-01    0.3221932    0.2695534  35.44  0.001641694    1.282    0.220
       209 -10.5236    231.2510    192.2840   9.1805978443e+01  -9.6576474918e-02    0.3666907    0.2085191   2.74  0.001678399    2.433    0.589
       210 -10.9695    145.0352    200.2399   1.0960498213e+02   1.3787159571e+01     0.320506    0.1633523  42.13  0.001406621    1.696    0.410
       211  -9.3710     98.7061    200.4466   1.1904483271e+02   2.1288047770e+01    0.1641455    0.1118301  33.73 0.0009381783    1.579    0.367
       212  -9.2420     90.5465    200.4879   1.2070329416e+02   2.2488455155e+01    0.1227529     0.103295  64.97 0.0001089859    1.017    0.017
       213 -11.1853     69.3365    200.3803   1.2494692751e+02   2.5445223148e+01    0.2049077    0.1590938  19.46  0.000580458    1.881    0.468
       214 -10.4499    209.9124    198.2006   9.6701354150e+01   2.7228412445e+00    0.2543166    0.2191865 -52.29 0.0007903211    1.596    0.374
       215 -10.3449    209.5992    192.3030   9.5699128715e+01   3.6163182122e+00    0.3251769    0.2091212 -10.29  0.001361398    1.897    0.473
       216 -10.2275    202.6449    194.9006   9.7458924610e+01   4.4618048662e+00    0.2345808    0.1910906  14.05 0.0004932202    1.135    0.119
       217 -11.2902    207.0107    188.4343   9.5469590927e+01   4.6388910861e+00    0.6523578    0.4043907   9.53  0.002225439    2.127    0.530
       218  -9.8103    132.2921    199.7025   1.1210589831e+02   1.6052554079e+01    0.2341073    0.1732729   8.36 0.0008573122    2.033    0.508
       219  -9.9086     42.0286    199.1628   1.3018258094e+02   2.9001773267e+01    0.1536693    0.1397433  86.31 0.0005366142    1.305    0.234
       220 -10.3155    103.3719    197.7157   1.1775823492e+02   2.1096440091e+01    0.2944891    0.1846213  72.01 0.0009547305    1.850    0.459
       221  -9.2070     80.5517    198.5894   1.2251535311e+02   2.4277855275e+01    0.1215287   0.09941949  66.10 7.104165e-05    1.012    0.012
       222  -9.9227     49.4862    198.0663   1.2865053954e+02   2.8363037777e+01    0.1717926    0.1553384  42.58 0.0004949699    1.408    0.290
       223 -10.3278    215.5260    195.9513   9.5276331720e+01   2.0717460603e+00    0.2646312      0.19121 -15.82 0.0008544214    1.440    0.306
       224  -9.5051    169.9409    195.9137   1.0393825210e+02   1.0134197494e+01    0.1946179    0.1589336  23.26 0.0003738064    1.203    0.168
       225 -10.2435    157.5827    194.6358   1.0620010663e+02   1.2554224778e+01    0.3567975    0.2233414 -41.03  0.001448931    1.851    0.460
       226  -9.5701    149.1076    196.4894   1.0820930885e+02   1.3731102800e+01    0.1974672    0.1153167  40.11  0.000488043    1.512    0.339
       227 -10.2054     89.0493    195.9268   1.2048583182e+02   2.3587988755e+01    0.1852663    0.1613025  63.33 0.0004946577    1.074    0.069
       228  -9.6522     60.9661    195.9778   1.2619570507e+02   2.7383307731e+01    0.1429068    0.1146575  70.74 0.0003848001    1.010    0.010
       229  -9.8186    184.3756    194.5848   1.0088294572e+02   7.7603170461e+00    0.2125649    0.1660917  25.05 0.0004088798    1.190    0.160
       230  -9.5080    176.2133    195.4762   1.0262817797e+02   9.0823243210e+00    0.1844839    0.1151804  40.56 0.0003754116    1.398    0.285
       231  -9.5068    143.9967    193.7449   1.0882535187e+02   1.5109641406e+01    0.1816833    0.1415219  84.78 0.0006931977    1.629    0.386
       232  -9.7342    113.1562    193.8399   1.1522907316e+02   2.0293276300e+01    0.1600478     0.148688  22.34 0.0003792667    1.297    0.229
       233 -10.7334     81.5795    193.7549   1.2177604751e+02   2.5082793149e+01    0.2276522    0.1497637  45.53 0.0006192287    1.377    0.274
       234 -10.6090     74.4224    193.7423   1.2324594915e+02   2.6072594695e+01     0.155231    0.1064101 -60.33 0.0005735168    1.591    0.371
       235  -9.3812     54.5406    194.4929   1.2734402753e+02   2.8468785751e+01    0.1165971     0.094926  74.92 6.622262e-05    1.038    0.036
       236  -9.2132     36.4050    192.7693   1.3078358556e+02   3.0879061309e+01    0.1435509   0.09072213 -69.70 0.0004551175    1.543    0.352
       237  -8.8641    194.3806    192.4683   9.8585988135e+01   6.2934464316e+00    0.1293832    0.1132396  20.91 0.0001080273    1.028    0.027
       238 -10.2427    151.6225    191.4694   1.0690037582e+02   1.4166054925e+01    0.2386548    0.2143841  21.12 0.0006313644    1.169    0.145
       239  -9.8630    104.1215    191.9213   1.1686163689e+02   2.2096326359e+01    0.1913132    0.1602009  -2.64  0.001135284    1.785    0.440
       240 -10.1289    224.5520    190.0422   9.2570560559e+01   1.3392659579e+00    0.2499521    0.2211811 -30.79  0.001624395    1.355    0.262
       241  -9.8982    162.1470    190.2068   1.0454588271e+02   1.2494166364e+01    0.2519322    0.2060396  59.86  0.001406889    1.313    0.238
       242 -10.7420    158.5839    186.4530   1.0463851418e+02   1.3794421837e+01    0.3917382    0.2592827  40.95  0.001881498    1.348    0.258
       243 -10.0503     96.7168    188.7640   1.1801297066e+02   2.3858855567e+01    0.3461668    0.1560022 -60.30  0.001142472    2.328    0.570
       244  -9.2643     64.4243    189.7549   1.2488763484e+02   2.8189913722e+01     0.148648    0.1039643 -64.17  0.000268714    1.496    0.332
       245  -8.8608     42.5536    190.4901   1.2939072969e+02   3.0662427669e+01    0.1153113   0.09128132  77.25 8.972319e-05    1.022    0.021
       246 -10.4656    199.2563    188.6446   9.6967415993e+01   5.9989461437e+00    0.2542752    0.2210248 -15.32 0.0004664107    1.195    0.163
       247  -9.4539    172.6642    189.0172   1.0222339303e+02   1.0782014210e+01    0.1738947    0.1636014   2.32 0.0003325416    1.122    0.109
       248 -11.0851     72.7410    188.4023   1.2301940820e+02   2.7371202173e+01    0.3283543    0.1701736  57.29  0.001705563    1.846    0.458
       249  -9.0860    179.3624    187.8623   1.0068691866e+02   9.7468010987e+00    0.1654684    0.1231236 -23.82 0.0003119672    1.544    0.352
       250  -9.9740    214.9843    186.8688   9.3704626063e+01   3.4508325740e+00    0.2319109    0.1682705   0.46 0.0009759609    1.454    0.312
       251 -12.3471    233.8922    185.2237   9.0017612681e+01   4.0231970811e-01    0.5530235    0.3018341  35.48  0.001582002    1.675    0.403
       252  -9.8177    116.6360    187.5229   1.1361402215e+02   2.0940494129e+01    0.3498398     0.166235  30.87   0.00145943    2.663    0.624
       253  -8.9702    193.9529    186.0396   9.7504407160e+01   7.3641519725e+00    0.1565467    0.1395055  18.73 0.0004145516    1.033    0.032
       254  -9.9981    127.5135    185.4379   1.1098862717e+02   1.9509154848e+01    0.3337375    0.1884847  31.52  0.001566677    1.993    0.498
       255  -8.9098     80.6897    184.6996   1.2091880036e+02   2.7029469488e+01    0.1114237    0.0993169 -25.50 0.0003138144    1.603    0.376
       256  -9.3244     34.9243    184.5175   1.3043590417e+02   3.2699754758e+01    0.1520429    0.1046356  40.46 0.0007242176    1.529    0.346
       257 -11.0159    211.2066    179.8386   9.3064612152e+01   5.1626123455e+00    0.3460501    0.2580929 -20.31  0.001074991    1.374    0.272
       258 -10.3190    210.1775    173.9224   9.2101398894e+01   6.2504708288e+00     0.338549    0.2229966  37.16 0.0008581372    1.399    0.285
       259 -10.6271    205.1275    174.8142   9.3229401989e+01   7.0533471923e+00    0.2825315    0.2041916 -17.67 0.0006850421    1.482    0.325
       260 -10.1395    141.0499    182.6782   1.0767025357e+02   1.7655186252e+01     0.303562     0.201581  -8.86  0.001014417    3.000    0.667
       261  -9.5102    166.9473    184.3313   1.0255809841e+02   1.2628568791e+01    0.1906009    0.1571703  34.22 0.0004061788    1.100    0.091
       262  -9.6321     67.0092    182.4307   1.2357702096e+02   2.9354020448e+01    0.2058872    0.1482519  86.05 0.0007507719    1.287    0.223
       263  -9.0877    224.1421    181.8094   9.1083457414e+01   2.5588441764e+00    0.1712599    0.1299626  11.34 0.0003236428    1.236    0.191
       264  -8.8909    218.2603    181.6772   9.2120406742e+01   3.6198955350e+00    0.1141111    0.1062317 -72.83 0.0003212305    1.553    0.356
       265 -10.0387    203.2101    180.4561   9.4685836179e+01   6.5328513968e+00    0.3038187    0.2103461 -51.78  0.001585261    1.917    0.478
       266  -9.4569    184.2607    180.9367   9.8457187080e+01   9.9785428353e+00    0.1819147    0.1628299  12.48 0.0003754293    1.082    0.075
       267 -10.1702    156.2748    181.5142   1.0426689717e+02   1.5098370884e+01    0.2843927    0.1586351  42.79  0.001352533    1.614    0.380
       268  -8.6593    197.6732    180.7236   9.5795108768e+01   7.5138267820e+00    0.1372376   0.09624384  14.37 0.0002942064    1.589    0.371
       269 -10.3337    175.2056    179.6144   1.0002896847e+02   1.1899975254e+01    0.2490139     0.235025   0.29  0.000446728    1.102    0.093
       270  -9.4428     55.5131    179.9651   1.2576235201e+02   3.1312774739e+01    0.1715079    0.1052347 -71.75 0.0005798055    1.520    0.342
       271  -9.3261    235.7952    179.1491   8.8514716127e+01   9.0249059308e-01    0.1780036    0.1287794   7.43 0.0003819399    1.329    0.248
       272 -10.2130     60.9450    177.4985   1.2434200031e+02   3.1159393424e+01    0.3115177     0.172634  82.31  0.001595024    2.027    0.507
       273  -9.0540    134.5165    177.5680   1.0822585481e+02   1.9797248180e+01    0.1360721    0.1223514  52.02 0.0001952444    1.009    0.009
       274 -10.2023    101.1170    176.0401   1.1533033679e+02   2.5753891261e+01    0.2203452    0.1681657  71.41            0    1.306    0.234
       275  -9.0569     69.3404    177.3149   1.2250040323e+02   3.0114466416e+01    0.1148843   0.09703296 -32.02 0.0007047754    1.703    0.413
       276  -8.9411    231.2585    178.2749   8.9134522871e+01   1.8090136530e+00    0.1267724   0.08842178   7.79 0.0002132651    1.464    0.317
       277  -9.1152    169.5004    176.4456   1.0061048431e+02   1.3527565037e+01    0.1389104     0.123872  29.08 9.508959e-05    1.044    0.042
       278  -9.9797    139.9959    175.5184   1.0669210353e+02   1.9204592297e+01    0.2865355     0.166133 -32.35  0.001146044    2.478    0.596
       279  -9.4740    219.3575    175.0331   9.0625098278e+01   4.3956094207e+00    0.1784842    0.1511376 -11.92 0.0003508479    1.140    0.123
       280 -10.8994    197.8203    174.2482   9.4520026224e+01   8.5167571725e+00    0.2714227    0.2280342 -49.33  0.001218384    1.438    0.305
       281  -9.0799     46.6531    175.2969   1.2718929058e+02   3.3331859144e+01     0.128105   0.07330299  66.61 0.0007034276    1.676    0.403
       282  -9.3429    182.7813    174.0028   9.7442988528e+01   1.1419922982e+01    0.1842622    0.1711499   8.12 0.0003583826    1.067    0.063
       283 -10.5262    161.7180    173.9774   1.0177506034e+02   1.5445968589e+01    0.2630085    0.1877019  32.80 0.0005781885    1.370    0.270
       284 -10.6555    153.1897    173.6352   1.0352031906e+02   1.7119801792e+01    0.3604488    0.2445827  23.75  0.001399699    1.762    0.433
       285  -9.0612    129.0506    173.0129   1.0866108881e+02   2.1664813451e+01    0.1623514    0.1494277  57.89 0.0003583074    1.008    0.008
       286  -9.1173    233.3905    172.4675   8.7611567423e+01   2.2504490289e+00    0.1310374    0.1109816   3.59 0.0001053204    1.023    0.022
       287  -8.9972     24.3953    172.2527   1.3162731046e+02   3.6291380903e+01    0.1002288   0.08329491 -44.02 0.0006014674    1.690    0.408
       288 -10.1573    225.8833    170.7739   8.8597114845e+01   3.8373119310e+00    0.1976933    0.1552507  15.35  0.000425464    1.172    0.147
       289  -9.6781    192.9970    171.2597   9.4875021068e+01   9.9223836281e+00    0.1934567    0.1632782  29.65 0.0003081737    1.077    0.071
       290  -9.8899    201.0328    170.0130   9.3061718518e+01   8.5882229347e+00    0.1642147    0.1482657  -0.79 0.0003435972    1.073    0.068
       291  -9.1821    188.1581    170.6377   9.5711275920e+01   1.0956660603e+01    0.1951796      0.11806  33.53 0.0003836393    1.616    0.381
       292  -8.9851     44.5326    170.5289   1.2718253988e+02   3.4581944040e+01    0.1193554   0.09859346  84.48 0.0002009555    1.039    0.037
       293 -10.0994    158.3511    168.8991   1.0154225667e+02   1.7024728625e+01    0.1868385    0.1788864 -12.45  0.000585393    1.115    0.103
       294  -9.8298    143.4758    169.4636   1.0486794164e+02   1.9733759467e+01    0.1386478    0.1285127  37.80 0.0003411968    1.058    0.055
       295  -9.3545    134.9787    167.6898   1.0642731341e+02   2.1654232222e+01    0.1947134    0.1689214  44.34 0.0004192105    1.085    0.078
       296 -10.9551    205.5415    166.1876   9.1424420685e+01   8.3398876645e+00    0.3797202    0.2359965 -19.35  0.001768206    1.894    0.472
       297 -10.5008    210.8515    165.7181   9.0323626079e+01   7.3993762484e+00    0.4882096    0.3137746 -51.56  0.002354866    2.089    0.521
       298 -10.0378    213.1700    160.2949   8.8766041749e+01   7.8104669658e+00    0.2347661    0.1781874  -6.89 0.0003945426    1.379    0.275
       299  -9.8446    150.4766    166.8975   1.0286654260e+02   1.8909610667e+01    0.1938076    0.1401997 -47.77 0.0003556722    1.489    0.329
       300  -9.0247     84.5228    167.4331   1.1785099332e+02   3.0099466198e+01    0.1298087    0.1145025  75.59 9.262995e-05    1.011    0.011
       301  -9.8024    191.0260    176.9417   9.6367185672e+01   9.3635245760e+00    0.2068057     0.179564  18.95 0.0004154179    1.064    0.060
       302  -9.4349    250.7457    165.4187   8.3249889692e+01   2.1000319142e-01    0.2218984    0.1007772 -30.43 0.0007566539    2.077    0.519
       303 -10.3888    218.9271    165.2833   8.8737807956e+01   5.9404159511e+00    0.2245749     0.181853 -10.27  0.000373281    1.190    0.159
       304  -9.2972    179.0121    166.3267   9.6709378054e+01   1.3477702148e+01    0.1959652    0.1681687  34.14 0.0004040941    1.075    0.070
       305  -9.5226    169.7828    166.4379   9.8646868598e+01   1.5263907494e+01      0.19214    0.1265662  33.00 0.0009257728    1.516    0.340
       306  -8.9713    140.5229    166.5812   1.0499616256e+02   2.0848698775e+01    0.1398279    0.1276439  52.92 0.0002449379    1.028    0.027
       307  -9.8519    200.0674    162.5065   9.1722728659e+01   9.9991900565e+00    0.2277007    0.1794946   4.99 0.0006384301    1.345    0.257
       308  -9.7200    192.0062    162.5248   9.3312312563e+01   1.1579745191e+01    0.1986096    0.1810892  -3.11 0.0003809839    1.079    0.073
       309  -9.9478    184.3700    163.0073   9.4947227761e+01   1.3004940525e+01    0.3141924    0.1966949  58.29 0.0009500578    1.982    0.495
       310  -9.4161    159.5068    163.0258   1.0016646087e+02   1.7904817922e+01    0.1963415    0.1416277 -44.15   0.00033625    1.483    0.326
       311  -9.5476    111.3464    162.8810   1.1096752240e+02   2.6825913115e+01    0.1861223    0.1217052 -46.88 0.0005411446    1.686    0.407
       312  -9.0763     80.5132    163.5130   1.1822895385e+02   3.1527792495e+01     0.130651    0.1147661  79.84 0.0001755231    1.000    0.000
       313 -10.1823     54.3265    157.9626   1.2361062939e+02   3.6186231836e+01    0.3807555     0.159709  36.23  0.001765876    2.429    0.588
       314  -9.7539    221.0854    159.6971   8.7183448598e+01   6.3891552617e+00    0.2235439    0.1952854 -56.31 0.0008117071    1.508    0.337
       315 -10.6802    206.0441    152.2987   8.8410005312e+01   1.0504988708e+01    0.2333093    0.1849818 -13.50 0.0003636093    1.290    0.225
       316 -11.2423    205.4065    159.1584   8.9994772436e+01   9.5031763102e+00    0.3063563    0.2426887  -8.52 0.0004984339    1.307    0.235
       317  -9.1373    163.6609    160.2739   9.8726915243e+01   1.7606932140e+01     0.140926     0.111201  73.47 0.0003401982    1.610    0.379
       318 -10.2977    153.0131    159.9765   1.0098502588e+02   1.9757314224e+01    0.2150422     0.192257   9.51 0.0004694127    1.226    0.184
       319 -11.0547    156.7800    157.5391   9.9673363758e+01   1.9489608366e+01    0.4815985    0.2633239  56.98  0.001983607    2.216    0.549
       320 -10.2508    250.5355    156.7406   8.1492732837e+01   1.4348242579e+00    0.3117948    0.1177371 -31.19  0.001193594    2.494    0.599
       321  -9.4309    140.5243    156.5337   1.0310697773e+02   2.2856037319e+01    0.1432461     0.132844  62.78 8.574462e-05    1.064    0.060
       322  -8.7750     99.2779    156.2883   1.1270776754e+02   3.0241904103e+01    0.1247512    0.1076538 -22.27 0.0002566581    1.519    0.341
       323  -9.0778    246.4219    155.4962   8.1905532072e+01   2.3356137858e+00    0.1338496    0.1117724  -1.60 0.0001289749    1.035    0.034
       324  -9.8222    226.0904    154.6578   8.5215295602e+01   6.2100732509e+00    0.1973279    0.1624009  25.22 0.0009207842    1.143    0.125
       325  -9.4361    197.2594    154.7146   9.0634876128e+01   1.1862158855e+01    0.1894303    0.1533044   8.10 0.0004494828    1.294    0.227
       326 -10.0547    221.5115    150.5296   8.5147807797e+01   7.7314075983e+00    0.3438796    0.1307649 -35.06 0.0009592035    2.592    0.614
       327  -9.5041    216.3734    154.1550   8.6869297232e+01   8.1618504278e+00    0.2069881    0.1921959 -70.44 0.0003226393    1.420    0.296
       328 -11.2881    212.6017    149.7375   8.6613224964e+01   9.6150050246e+00    0.5434983    0.4605723   2.54  0.003080312    1.141    0.124
       329 -10.1105    166.7978    153.5946   9.6685361953e+01   1.8238805888e+01    0.1962355    0.1328814  52.87  0.000331431    1.529    0.346
       330 -10.4150    227.7746    150.6906   8.4063382446e+01   6.4952013366e+00    0.2280229    0.1863151  34.71  0.000639239    1.210    0.174
       331 -10.5633    144.8616    149.4865   1.0071107190e+02   2.3440833806e+01    0.4622985    0.2371513 -52.24  0.001806475    2.125    0.529
       332 -13.4894    247.9114     79.2120   6.4176954778e+01   1.3246849737e+01     1.105863    0.6765687 -33.88  0.004030881    1.456    0.313
       333 -10.5283    249.5437    147.9563   7.9793102701e+01   2.8444949389e+00    0.4441472    0.2197509 -22.31  0.001651722    2.117    0.528
       334 -12.7770    231.4008    111.2567   7.4400307218e+01   1.1930267569e+01     1.566254    0.7411829 -19.59  0.005705338    2.896    0.655
       335 -10.9598    243.7759    145.6459   8.0235862028e+01   4.2308870818e+00    0.4769232    0.2446971 -33.80  0.001333056    1.828    0.453
       336 -11.1660    249.7133    140.0703   7.8057168983e+01   3.9429421264e+00    0.5118047    0.3020822 -15.21  0.001579438    1.834    0.455
       337 -10.6539    248.4834    133.6682   7.6839443512e+01   5.1022977350e+00    0.3719194    0.2390344 -24.34 0.0008204672    1.440    0.306
       338 -13.0535    236.1489    123.6989   7.6563340409e+01   9.0089561791e+00     1.587776     1.142455  -3.77  0.008136149    1.545    0.353
       339 -12.6017    248.0251    102.8568   6.9825483999e+01   9.7564789879e+00    0.8802297    0.6677701 -74.69  0.004042784    1.876    0.467
       340 -11.5665    244.8637    129.4791   7.6475585790e+01   6.4110810149e+00    0.7829945    0.4076135  18.11  0.002814822    3.645    0.726
       341 -10.8823    249.0799    122.6971   7.4274553880e+01   6.6022376893e+00    0.3493645    0.2645643   5.08 0.0007707416    1.411    0.291
       342  -8.9191    157.6422    150.7238   9.8087298669e+01   2.0642021597e+01    0.1478923    0.1126345  12.17 0.0004607284    1.655    0.396
       343  -8.8982    202.5162    149.5199   8.8484767534e+01   1.1680225764e+01    0.1433551    0.1310333  10.77 0.0001262385    1.007    0.007
       344  -9.7611    161.5426    147.4885   9.6539955855e+01   2.0479648345e+01    0.2542293    0.1385413  44.48 2.070531e-05    1.759    0.432
       345 -10.0757    159.7751    144.2440   9.6231261920e+01   2.1476543373e+01    0.2562553    0.2011592 -40.57 0.0003555862    1.323    0.244
       346  -9.0446    107.9832    151.2593   1.0975484485e+02   2.9891530511e+01    0.1759895    0.1161535  42.90 0.0004752714    1.483    0.325
       347  -8.6572     98.3260    146.3212   1.1123418693e+02   3.2590686201e+01    0.1353948    0.1099787 -20.07 0.0005514912    1.684    0.406
       348 -11.6418     36.9785    144.1617   1.2612922285e+02   4.1174196513e+01    0.4179385    0.2285836 -67.46  0.002316418    1.563    0.360
       349  -9.7170    119.3473    144.5336   1.0573900832e+02   2.9344498664e+01    0.3882527    0.2530932   4.60   0.00146726    3.287    0.696
       350 -11.4103     25.7611    143.7105   1.2878564508e+02   4.2343194298e+01    0.3767146     0.178022  64.36  0.001204661    2.358    0.576
       351 -10.2038    234.9719    143.9194   8.1335235418e+01   6.1459086716e+00    0.2103044    0.1797723   6.34 0.0005441235    1.078    0.072
       352  -9.3896    223.5100    144.4993   8.3465496787e+01   8.2872949569e+00    0.1417675    0.1250939   2.86 8.719252e-05    1.034    0.033
       353  -9.5159    208.5051    142.9841   8.5889107582e+01   1.1555467982e+01    0.2068399    0.1371631 -32.50 0.0003919408    1.497    0.332
       354 -10.3790    238.6582    139.1494   7.9658019134e+01   6.1581414796e+00    0.2754521    0.2068219 -40.31 0.0004560799    1.409    0.290
       355 -10.3624    135.3716    138.8752   1.0070724643e+02   2.7509156284e+01     0.244761    0.2330544 -38.28 0.0007588131    1.097    0.089
       356  -9.8237    131.1525    139.1111   1.0177105211e+02   2.8284235691e+01    0.2155837    0.1987286  -7.74 0.0004813788    1.231    0.188
       357  -9.5587    109.5102    138.7849   1.0703511808e+02   3.2367463458e+01    0.2138314    0.1945215  -3.03 0.0006715837    1.329    0.248
       358  -9.3012    243.5449    138.0212   7.8600888825e+01   5.3945945322e+00    0.1961218    0.1227174 -27.57 0.0003495495    1.481    0.325
       359 -10.5577    166.2395    137.2901   9.3250610021e+01   2.1482879932e+01    0.3061382    0.2380868 -52.96 0.0008282381    1.404    0.288
       360  -8.7918    198.4958    134.4394   8.5866971336e+01   1.5110102098e+01    0.1465157    0.1368466   9.71 0.0001982829    1.011    0.011
       361  -9.4311    203.2951    133.0708   8.4615599191e+01   1.4325206498e+01    0.2047878    0.1841748 -19.65 0.0005989429    1.081    0.075
       362 -11.8585    248.2410     93.9330   6.7674190053e+01   1.1032184897e+01    0.5969678    0.3267109 -39.45  0.002803486    1.668    0.401
       363 -12.1267    246.6683    109.8288   7.1667501837e+01   8.9927173574e+00      1.22718    0.6514047  64.64  0.005196935    2.738    0.635
       364  -9.5736     39.0152    131.5066   1.2407032281e+02   4.3842514006e+01    0.1658648    0.1230579  34.20 0.0004300639    1.557    0.358
       365  -8.8680     32.3783    131.2888   1.2575855501e+02   4.4536969435e+01    0.1204447   0.08435298 -41.81 0.0007017932    1.733    0.423
       366  -8.8976     80.4849    130.5102   1.1295899715e+02   3.8946698934e+01    0.1360238    0.1253973 -71.93 6.007947e-05    1.049    0.047
       367 -10.4566    102.7461    125.5994   1.0607866557e+02   3.6497830767e+01    0.3051859    0.2414874  -6.82  0.001109699    1.766    0.434
       368  -9.6360    145.7003    123.1572   9.4655315375e+01   2.8686334893e+01    0.2197058    0.1940839  58.75  0.001141843    1.168    0.144
       369 -11.1605    221.8075    126.1274   7.9572730053e+01   1.1574242687e+01    0.2697195    0.1961104  -6.64  0.001333741    1.539    0.350
       370  -9.1900    127.5417    121.4942   9.8728151725e+01   3.2776115180e+01    0.1469756    0.1445595 -80.28 0.0008091723    1.005    0.005
       371 -11.5635     11.9354    117.5318   1.2951604450e+02   4.9332161144e+01    0.4622487     0.189739  79.96  0.001900326    3.472    0.712
       372 -10.2555     16.7861    115.4028   1.2796526546e+02   4.9465043971e+01     0.143235    0.1141047 -10.91 0.0009507379    1.740    0.425
       373 -10.2814     90.2928    112.2945   1.0657628253e+02   4.1611596501e+01    0.2519988    0.2298923 -74.07 0.0005586963    1.066    0.062
       374 -10.8842      6.1159    111.8720   1.3046804458e+02   5.0991494014e+01    0.1813612    0.1325071  83.02 0.0006727431    1.249    0.199
       375 -12.0838     26.3070    107.2860   1.2421456333e+02   5.0575950349e+01    0.5480064    0.3452952  -0.95  0.003011514    2.446    0.591
       376  -9.4383     60.5262    104.9739   1.1367254632e+02   4.7582680542e+01    0.2000801   0.09050486 -42.40 0.0007945525    2.523    0.604
       377  -9.8009     89.1334    102.9646   1.0474280827e+02   4.3919854934e+01    0.2138152    0.2016472 -42.04 0.0006972399    1.066    0.062
       378 -10.1898      2.1577    108.6918   1.3121068032e+02   5.1942360361e+01    0.2158814    0.1307214 -49.82 0.0007548927    1.658    0.397
       379 -11.9564      5.0981    100.7192   1.2949484273e+02   5.3558745468e+01     0.506794    0.2265062  20.16  0.002735455    2.863    0.651
       380  -9.6587     44.1567     98.4919   1.1738166798e+02   5.0950423370e+01    0.2727518    0.1297157 -48.64  0.000765411    1.937    0.484
       381 -10.3943    214.3825     97.3822   7.3805249783e+01   1.7907008444e+01    0.2757663    0.2470153 -48.96 0.0006324888    1.158    0.136
       382 -10.3338     86.9888     96.1571   1.0369778881e+02   4.5800969129e+01    0.3191784    0.2800076 -30.08  0.001242573    1.188    0.158
       383  -9.3032    147.7783     95.9331   8.7077740937e+01   3.3768866188e+01    0.2060755    0.1260734 -38.58 0.0008617803    1.634    0.388
       384 -10.7275     24.9823     99.0919   1.2337086784e+02   5.2563071067e+01    0.3136713    0.1743291 -48.89  0.001269662    1.684    0.406
       385 -10.7997     39.6036     94.0068   1.1794937272e+02   5.2439497664e+01    0.2978667    0.2076804  -2.23 0.0009420331    1.999    0.500
       386 -10.7509     44.7402     91.3948   1.1579196033e+02   5.2520561409e+01     0.269614    0.1818281  31.32  0.001447892    1.717    0.418
       387  -9.8609     68.8604     93.3733   1.0856749899e+02   4.9152461810e+01    0.2449169    0.1729019 -63.59 0.0008902525    1.369    0.270
       388 -11.7159    241.7731     91.4223   6.7991806589e+01   1.2767415901e+01    0.2981045    0.2204193 -11.28 0.0008955377    1.468    0.319
       389 -10.7814    230.0589     84.3358   6.7959178127e+01   1.6408201670e+01    0.4327267    0.1805481 -39.51  0.001218845    2.203    0.546
       390  -9.2833     35.4849     91.5139   1.1878505224e+02   5.3400312422e+01    0.1281432    0.1051973 -58.94 4.101282e-05    1.043    0.042
       391  -9.5500     23.9536     88.0559   1.2186667645e+02   5.5160839579e+01    0.2004876    0.1193714 -40.52 0.0007228995    1.737    0.424
       392 -11.2164     10.8343     86.1797   1.2578674257e+02   5.6487438701e+01    0.1978314    0.1291862 -56.56 0.0008806711    1.259    0.206
       393 -10.3048    198.7161     92.2382   7.5245947354e+01   2.2415297687e+01    0.3378802    0.2232396  85.55  0.001299709    2.453    0.592
       394 -11.8228    235.7192     80.4206   6.6147118697e+01   1.5730552011e+01     0.501991    0.1674645 -29.23  0.001706874    3.017    0.669
       395 -11.5556    238.5510     80.4937   6.5764876159e+01   1.5092354044e+01     0.250853    0.2273608   4.36 0.0007222577    1.177    0.150
       396  -9.6888    201.9867     84.6457   7.2615430343e+01   2.2903675526e+01      0.20771    0.1951763  52.79 0.0004789584    1.097    0.089
       397  -9.5045    193.3734     83.1888   7.3774895115e+01   2.5224219610e+01    0.2245211    0.1335617 -43.19 0.0009470221    1.683    0.406
       398 -10.9802      2.4702     82.4423   1.2792718329e+02   5.7789730774e+01    0.3014913    0.1688237  85.84  0.001699008    1.943    0.485
       399 -11.5471     46.3664     79.4925   1.1262070742e+02   5.5043234324e+01     0.361654     0.279026  -3.93  0.001924026    1.597    0.374
       400 -10.4355     37.5990     80.3835   1.1581857311e+02   5.5729002839e+01    0.3763755    0.1872829 -43.25  0.001849095    1.920    0.479
       401 -11.1508      6.5103     74.6062   1.2538423928e+02   5.9315277478e+01    0.3833915    0.2172113  34.57  0.002308893    2.164    0.538
       402 -10.1164    217.5293     72.9268   6.6910122444e+01   2.1045031595e+01    0.3670546    0.2420299   1.37   0.00149468    2.214    0.548
       403  -9.5431    125.1967     73.3721   8.6115246900e+01   4.3237259480e+01    0.2120256    0.1440101  59.09 0.0007064751    1.694    0.410
       404 -11.4703     53.0588     71.1007   1.0816065938e+02   5.6136981215e+01    0.3527565    0.2843094  88.69  0.002042074    1.607    0.378
       405  -8.9508     20.6050     72.7281   1.2011871804e+02   5.8849673810e+01    0.1261749   0.07460976 -36.68 0.0006986776    1.733    0.423
       406 -10.6068     10.4014     71.5911   1.2350947908e+02   5.9762615745e+01    0.4279745    0.2265042  79.95  0.001605458    2.909    0.656
       407 -12.4634    240.0018     69.9950   6.2957744339e+01   1.6297622652e+01    0.6826239    0.4040121   8.76  0.002605776    3.256    0.693
       408 -10.9381    101.8193     68.2809   9.1135283274e+01   4.9065395046e+01    0.2683224    0.2170989 -23.47 0.0003649534    1.253    0.202
       409 -10.8051     43.5322     64.2880   1.0974786022e+02   5.8675907078e+01     0.340651    0.1749787 -48.18  0.001715819    1.616    0.381
       410 -12.1089    247.7670     61.7400   5.9948806053e+01   1.5736729559e+01     0.407702    0.2978939 -28.78  0.002226124    1.286    0.223
       411 -10.6708     13.1182     58.6663   1.1991420285e+02   6.2414966610e+01    0.5483584    0.1924577 -64.87  0.002519687    2.335    0.572
       412 -12.0782     16.9364     52.1778   1.1686514894e+02   6.3547573950e+01    0.5776839    0.3827353 -68.39  0.001909545    1.451    0.311
       413 -11.5156      3.7145     53.9405   1.2257171341e+02   6.3941582587e+01    0.5701764    0.2467085 -66.04  0.002636188    1.821    0.451
       414 -10.5363      1.3778     61.2056   1.2489030332e+02   6.2498149184e+01    0.2374913    0.1442799 -70.38 0.0008372391    1.342    0.255
       415 -11.5900      6.6357     59.0772   1.2249427833e+02   6.2696537446e+01    0.3473557    0.2385218 -23.63  0.001302378    1.620    0.383
       416 -10.9987      9.1972     53.4449   1.2028464957e+02   6.3758732039e+01     0.427989    0.1722216 -51.20  0.001885006    1.813    0.449
       417  -9.6787     60.4633     60.0000   1.0224063183e+02   5.7545419548e+01    0.2710821   0.07642911  34.30  0.000937699    3.959    0.747
       418 -10.0320     65.1580     56.8532   9.9516406432e+01   5.7530220034e+01    0.1898638    0.1455189 -18.76  0.000414127    1.348    0.258
       419 -10.6764     27.6018     55.8254   1.1354666178e+02   6.1977489947e+01    0.4908853    0.2107516  26.31   0.00202445    2.706    0.630
       420 -10.6555     45.8228     54.0410   1.0586873744e+02   6.0570517847e+01    0.2964492    0.2084265 -21.90  0.001610568    1.502    0.334
       421 -11.6388     81.9672     50.1523   9.1259287846e+01   5.6150549855e+01    0.5279235    0.2412246 -49.15  0.002131606    2.450    0.592
       422 -10.4689    250.5633     55.2004   5.8038968937e+01   1.6009450462e+01    0.2946405     0.123017 -30.28  0.001226346    2.192    0.544
       423 -10.4000    223.6642     50.1609   6.0018584803e+01   2.2861506340e+01    0.2251413    0.1892072 -90.00 0.0004717062    1.249    0.199
       424  -8.9693    172.1863     49.8520   6.7916828973e+01   3.5823148461e+01    0.1959277    0.1674071  24.89            0    1.269    0.212
       425  -9.6305    137.1487     49.6963   7.5221206048e+01   4.4609252288e+01    0.2107501    0.1876396  40.74 0.0005698861    1.095    0.087
       426  -9.5288     51.4326     50.4464   1.0252320569e+02   6.0632170276e+01    0.1722991    0.1542087 -75.24 9.348478e-05    1.428    0.300
       427 -10.3253     48.2006     48.0617   1.0298633813e+02   6.1494101140e+01    0.2084688    0.1653585  -6.80 0.0005198545    1.314    0.239
       428  -9.4016     42.0449     49.9184   1.0604947175e+02   6.1822468377e+01    0.2109585    0.1281447 -27.10   0.00105666    1.746    0.427
       429  -9.0392     25.4870     49.4843   1.1264595125e+02   6.3473894705e+01     0.122387   0.09879185 -45.87 0.0001133649    1.024    0.024
       430 -10.1992    105.2755     47.0584   8.2720920367e+01   5.2230105651e+01    0.2416984    0.1938657  16.01 0.0004055479    1.309    0.236
       431  -9.8647    108.5432     45.2725   8.1109599757e+01   5.1834469608e+01    0.2177058    0.1391479 -31.97  0.001021921    1.537    0.349
       432 -10.4807     11.8800     44.4189   1.1695769665e+02   6.5484701996e+01    0.2906279    0.1674071 -35.82  0.001133875    1.566    0.361
       433 -10.3581     17.1667    248.7747   1.3726458622e+02   2.2796649796e+01    0.1511228     0.130767  74.55 0.0005789778    1.438    0.304
       434 -10.2321      8.9030    248.3698   1.3849430006e+02   2.3671480226e+01    0.1582132    0.1093835  88.33 0.0004546117    1.326    0.246
       435 -10.5143    154.8420    241.1421   1.1327639350e+02   5.7875500812e+00    0.3257243    0.2323799  11.25  0.002019259    1.910    0.477
       436 -12.3091     30.4543     38.5348   1.0711075452e+02   6.5235387935e+01    0.8711348    0.5493815 -17.92  0.005027823    1.736    0.424
       437 -11.1807    157.4834    245.6690   1.1335584532e+02   4.7570212931e+00    0.5250148    0.2654004  33.32  0.002583444    1.807    0.447
       438 -11.3813    170.0400    240.0932   1.1042995021e+02   3.5515781082e+00    0.4223987    0.2944837  24.35  0.001810329    1.424    0.298
       439 -10.8155    166.0300    240.4624   1.1119250490e+02   4.1312321327e+00     0.301522    0.2059333  19.25  0.001323789    1.678    0.404
       440  -9.9537    119.2664    248.0526   1.2034278063e+02   1.0180543010e+01    0.1590224    0.1236279  52.31  0.001159859    1.031    0.030
       441 -10.6905     31.4472    246.9269   1.3497274644e+02   2.1616262083e+01    0.2420884    0.1485231  72.29 0.0007207062    1.245    0.197
       442 -11.7886    210.8864    246.0791   1.0413672308e+02  -3.4569684023e+00    0.2492818    0.1846641  19.27 0.0005295156    1.139    0.122
       443 -11.6507    191.9773    244.0943   1.0710382510e+02  -3.6778833397e-01    0.3312149    0.2343458 -11.20 0.0005332864    1.756    0.431
       444 -11.0694    225.7510    240.2509   1.0078166324e+02  -5.0136760643e+00    0.2548193    0.1984665   9.32 0.0004541181    1.146    0.128
       445 -11.0303     50.2628     42.9988   1.0039071670e+02   6.2220595367e+01    0.3731295    0.2083247  17.28  0.001829857    2.283    0.562
       446 -10.6312    115.5165     37.1911   7.6139891262e+01   5.1552008962e+01    0.3447002    0.2956127  56.57 0.0007176675    1.246    0.198
       447 -10.2228    121.5620     42.4487   7.6512116967e+01   4.9394114098e+01    0.2646847    0.2473744  63.32 0.0005082183    1.178    0.151
       448 -10.3409    118.3993     41.7405   7.7079700139e+01   5.0222165627e+01     0.267906    0.2281708  -2.92 0.0005418715    1.187    0.158
       449  -9.8145    127.4782     40.3970   7.4268271981e+01   4.8325042024e+01    0.3316295    0.2188835  15.82   0.00145471    1.963    0.491
       450 -11.5691     59.8343     36.0898   9.3961578413e+01   6.2187517253e+01    0.4616832    0.3177894 -67.96  0.002208621    2.707    0.631
       451 -11.6866    248.6239     35.7014   5.3550123201e+01   1.8941900860e+01    0.3637113    0.2674339  63.56  0.002081385    1.452    0.311
       452 -11.8406    246.5851     32.2005   5.2907910755e+01   1.9825870595e+01    0.3298977    0.1875476 -17.73  0.001555142    2.107    0.525
       453 -12.0531     58.6676     27.9967   9.1075369177e+01   6.3721090802e+01    0.3544555    0.2692101 -40.37 0.0007034743    1.353    0.261
       454 -12.0040    210.5282    237.5712   1.0296868952e+02  -2.4343752237e+00    0.4885865    0.2979374  29.99  0.002153129    1.311    0.237
       455 -10.4730     49.4286     32.6109   9.6766161567e+01   6.4224017374e+01    0.2528397    0.1999113  21.81  0.001594041    1.343    0.255
       456 -10.4670      6.1331     28.5306   1.1496550639e+02   6.8991253609e+01    0.4998285    0.2203743 -33.96     0.002718    2.067    0.516
       457 -11.5517    217.9254    241.2461   1.0224724521e+02  -3.9665604707e+00    0.3869742    0.3041462  68.49  0.002460069    2.413    0.586
       458 -10.8304     78.6995     21.3684   8.0727669938e+01   6.1369326079e+01    0.3242582    0.2385807 -55.76  0.001113937    2.013    0.503
       459 -11.2789    221.4112    236.8747   1.0100517861e+02  -3.9991421901e+00    0.4006366     0.242148  14.98  0.001299698    1.677    0.404
       460 -10.5711    235.9897     20.4093   5.1041544243e+01   2.3638599549e+01    0.2599111    0.1552026 -48.36  0.000786243    1.538    0.350
       461 -10.4092     70.9923     20.6548   8.3121239702e+01   6.2849610324e+01    0.1826615     0.160068  15.12 0.0007795076    1.112    0.101
       462 -10.6289    202.2871    239.9756   1.0474070335e+02  -1.4564415379e+00     0.214135    0.1764385  22.15 0.0004806612    1.096    0.088
       463 -11.7580    198.4831    237.8621   1.0509982998e+02  -6.1543806881e-01    0.4614428    0.2744219  32.01  0.001636746    1.357    0.263
       464  -9.9328    124.1761    246.9765   1.1937512897e+02   9.6180422192e+00    0.1661687    0.1321501  47.88 0.0004640266    1.059    0.055
       465 -10.9844    113.0552    244.6510   1.2109736867e+02   1.1595306667e+01    0.7721379    0.5089189  -7.36  0.003232514    5.771    0.827
       466 -11.2833     59.6448     17.1642   8.5815941035e+01   6.5222605951e+01    0.2774977    0.2096544  23.08 0.0008958947    1.275    0.215
       467  -9.9651     56.4672     15.4608   8.6283638751e+01   6.5958598927e+01     0.222765    0.1784388 -32.81 0.0007361845    1.320    0.242
       468 -10.5715    114.6037    239.8409   1.2034493028e+02   1.2109131255e+01      0.31907    0.1744532  67.29   0.00135016    2.295    0.564
       469  -9.4092    179.1932     15.0067   5.5930156313e+01   3.8380697373e+01     0.185341    0.1816517 -61.61 0.0004317345    1.070    0.066
       470 -11.0449    118.0056    238.7719   1.1962543250e+02   1.1772105599e+01    0.4586752    0.2139021  34.24  0.001163837    2.194    0.544
       471 -10.5919    132.9119    245.3440   1.1766419064e+02   8.5534076292e+00    0.2159897    0.1668831  43.24 0.0004385258    1.074    0.069
       472  -8.7461    243.3952    245.4576   9.8661457422e+01  -8.0634938758e+00    0.1101314   0.07996519  17.53 0.0001693068    1.019    0.019
       473 -10.1639     93.4678    244.8054   1.2453324223e+02   1.4342340185e+01    0.1992712    0.1275287  41.76 0.0005845946    1.360    0.265
