#   1 NUMBER                 Running object number                                     
#   2 MAG_AUTO               Kron-like elliptical aperture magnitude                    [mag]
#   3 X_IMAGE                Object position along x                                    [pixel]
#   4 Y_IMAGE                Object position along y                                    [pixel]
#   5 X_WORLD                Barycenter position along world x axis                     [deg]
#   6 Y_WORLD                Barycenter position along world y axis                     [deg]
#   7 A_WORLD                Profile RMS along major axis (world units)                 [deg]
#   8 B_WORLD                Profile RMS along minor axis (world units)                 [deg]
#   9 THETA_WORLD            Position angle (CCW/world-x)                               [deg]
#  10 FWHM_WORLD             FWHM assuming a gaussian core                              [deg]
#  11 ELONGATION             A_IMAGE/B_IMAGE                                           
#  12 ELLIPTICITY            1 - B_IMAGE/A_IMAGE                                       
         1 -13.6379    196.6601     47.2076   3.4374815440e+01   3.0819744760e+01    0.9442898    0.8822742  52.21  0.004030078    1.329    0.247
         2 -13.7699    225.0518     18.3705   2.5487027861e+01   2.8493320559e+01    0.8301737    0.7063072 -75.96  0.003818971    1.168    0.144
         3 -10.9854     31.8324     16.1581   6.5933471852e+01   6.8737335172e+01      0.22421    0.1306197  48.93  0.001165061    2.741    0.635
         4  -8.7780    158.3143      8.6741   2.9999109344e+01   4.3846252607e+01    0.1262886   0.08042308 -72.28 0.0007042828    1.667    0.400
         5 -11.2779     61.5271      2.1304   4.7562826624e+01   6.5320886800e+01    0.3857121    0.1281439  40.28  0.001738176    2.487    0.598
         6 -10.1950     35.7952    241.6076   1.1061788873e+02   1.7543461041e+01    0.3406358    0.1477256  51.99 0.0007127831    2.054    0.513
         7 -11.3107    248.2563    247.6937   6.6431087627e+01  -1.1964561975e+01    0.3365116    0.2388323 -48.08  0.002123515    2.139    0.532
         8 -11.0059    242.0240    249.2377   6.7786005549e+01  -1.1515958954e+01    0.2963785    0.1880838 -20.29  0.001173666    1.281    0.220
         9  -9.1211    168.4381    207.4120   7.5308116625e+01   5.6513286850e+00    0.2350235    0.1386487 -58.17  0.001014652    2.200    0.546
        10  -9.9983     73.0446    203.4157   9.8081554531e+01   2.1701801379e+01    0.4200798    0.2368849 -77.40   0.00183279    2.042    0.510
        11 -10.2106     40.3438    200.8835   1.0599104339e+02   2.6426206154e+01    0.1885973    0.1568596  73.14 0.0004630084    1.101    0.092
        12 -10.0563     33.9739    199.5003   1.0741709243e+02   2.7461573052e+01    0.2025018    0.1581677 -80.78  0.001176966    1.160    0.138
        13 -10.5311    192.2357    193.6295   6.7520616753e+01   4.5561445408e+00    0.8343067    0.4380014 -65.23  0.002350038    6.106    0.836
        14 -11.6421    163.3577    194.2852   7.4018868120e+01   9.2383075200e+00    0.5640871    0.3901947 -43.55  0.001579341    1.427    0.299
        15  -9.0444     43.3798    193.4516   1.0443040684e+02   2.7926030680e+01    0.1350397     0.120771 -75.51 0.0002481341    1.086    0.079
        16  -9.7994     34.8459    190.6790   1.0630258401e+02   2.9557081656e+01    0.3969584    0.1635623  56.17  0.001319677    2.920    0.658
        17  -9.4521     57.3380    194.0064   1.0090357094e+02   2.6112286280e+01    0.1892798    0.1559305 -77.08 0.0003342318    1.154    0.133
        18  -9.7512     47.2111    171.9496   1.0075464052e+02   3.2981122662e+01    0.3459682    0.2673912  20.77  0.001299147    1.471    0.320
        19  -9.3632     42.7621    179.8162   1.0299190318e+02   3.1453850612e+01    0.1930842     0.173829 -49.56 0.0003936062    1.192    0.161
        20  -9.8949     39.3843    176.9442   1.0355248978e+02   3.2562450561e+01      0.24446    0.1861292  50.23 0.0006381533    1.338    0.252
        21 -11.5956     51.9477    187.2469   1.0146592685e+02   2.8485794455e+01    0.4491374    0.2863213 -39.53  0.001421299    1.896    0.473
        22 -11.5047     50.1446    180.3472   1.0106417588e+02   3.0466461795e+01    0.3374521    0.2380175  60.54 0.0004826197    1.489    0.328
        23 -10.3117     46.0303    176.4928   1.0168415100e+02   3.1940040618e+01    0.3108392      0.24181  49.20 0.0007780007    1.310    0.237
        24  -8.3391     66.2236    188.6041   9.7853032884e+01   2.6319095159e+01    0.1477563    0.1030551  79.87 0.0006874286    1.639    0.390
        25 -19.3986      9.5876    153.0519   1.0907015445e+02   4.1382600304e+01     19.96151      3.35218 -74.87   0.04897903    6.548    0.847
        26 -16.6117     69.7952    146.1382   8.9867417403e+01   3.6849013421e+01     18.04658     9.561723  85.97   0.04904566    5.311    0.812
        27 -11.7537     75.6108    181.2818   9.4237801551e+01   2.6884490463e+01    0.7335822    0.3899745  52.01 0.0008638452    2.143    0.533
        28 -11.1274    147.3978    181.5831   7.5345989374e+01   1.4850080155e+01    0.4286217    0.2662159  24.02  0.001822572    1.820    0.450
        29  -9.9499     38.7268    181.7036   1.0429722124e+02   3.1413506450e+01    0.2413649     0.196731  67.72 0.0007041454    1.201    0.168
        30 -11.6338    181.4377    177.8319   6.6693209664e+01   9.5916738494e+00    0.7313547    0.3636334 -51.07  0.002944868    2.141    0.533
        31 -10.7969     54.4653    206.0068   1.0305785623e+02   2.3506476970e+01    0.4336675     0.229541  70.04  0.001813485    2.432    0.589
        32  -9.1566    200.0048    174.2168   6.2066409800e+01   7.1288162709e+00     0.253419    0.1727627 -53.59 0.0007046395    1.623    0.384
        33 -10.9038     67.4694    240.6008   1.0367625632e+02   1.3902202155e+01    0.2445772    0.1424865 -72.15  0.001262041    1.839    0.456
        34 -12.1202    231.3874    169.0928   5.5185775827e+01   3.0498964418e+00    0.5864648    0.3587319 -47.05  0.003044118    1.541    0.351
        35  -9.9646    187.6395    170.1780   6.3786224921e+01   1.0093645984e+01    0.3481356    0.2154346 -43.17   0.00146546    1.509    0.337
        36 -10.4352     45.9227    241.3581   1.0845156402e+02   1.6426381461e+01    0.1399438   0.08733352 -69.47 0.0003983624    1.629    0.386
        37 -11.0417    246.5203    166.1447   5.2110920577e+01   1.3355067597e+00    0.2743627     0.170229 -25.59  0.001469441    1.600    0.375
        38 -11.0647    133.8281    145.8681   7.1198141792e+01   2.5795532613e+01     1.302554    0.3314941 -54.27   0.00295826    5.652    0.823
        39  -9.9266    112.2433    150.3808   7.8111646229e+01   2.8800237290e+01     0.362369    0.2669712 -89.17  0.001301356    1.912    0.477
        40 -12.0503     92.7546    147.3302   8.3119708423e+01   3.2986959587e+01    0.7397868    0.5326274 -25.33  0.003291811    1.669    0.401
        41 -11.6920    105.8961    133.1252   7.6035366139e+01   3.4234609185e+01    0.7953418    0.4512899 -54.53  0.001706497    1.787    0.440
        42 -11.6775     93.2419    133.9301   8.0034389853e+01   3.6294259803e+01    0.3097742     0.286957 -24.26 0.0003726828    1.082    0.076
        43 -10.1934    115.0239    132.4422   7.3218699446e+01   3.2678100632e+01    0.2869531     0.221605 -69.12 0.0004042128    1.518    0.341
        44 -10.1161    129.2717    129.7832   6.8613163446e+01   3.0490323787e+01    0.2649641    0.2365116  58.78 0.0004642769    1.208    0.172
        45 -11.2360    134.4717    128.9865   6.7032588485e+01   2.9614945758e+01    0.7362565    0.6156242  65.83  0.003562764    1.378    0.274
        46 -10.4495    113.4301    127.4089   7.2456783266e+01   3.4190516086e+01    0.3193919    0.2711005  -9.24 0.0007110174    1.322    0.243
        47  -9.4269     95.1015    124.4562   7.7228521345e+01   3.8308162487e+01    0.2275381    0.2114538 -47.95 0.0005279633    1.062    0.059
        48 -10.4447    100.8288    122.5640   7.5002664280e+01   3.7730292872e+01    0.3127391    0.2589371   5.88  0.001513179    1.358    0.264
        49 -10.0746    119.4359    121.7235   6.9325427639e+01   3.4342657172e+01    0.3594308    0.2369667  -1.82  0.001321739    2.619    0.618
        50  -9.3471    109.0005    116.9470   7.1125809249e+01   3.7509322520e+01    0.2252753    0.2217455 -12.31 0.0003207371    1.024    0.023
        51  -8.6914    183.3467    116.3225   5.2710562601e+01   2.2044422138e+01    0.1490454    0.1175677   1.36 0.0007049683    1.739    0.425
        52 -10.3015     62.2556    235.9189   1.0437620359e+02   1.5592184996e+01    0.4480652    0.2018614 -82.33  0.001833314    2.987    0.665
        53  -9.7087    134.9248    111.0942   6.2390172107e+01   3.3507584963e+01    0.3300362    0.2038642 -41.05  0.001237736    1.624    0.384
        54  -9.5805    134.5550    104.7785   6.0822820169e+01   3.4928527975e+01    0.4765077    0.1451908 -47.11  0.001414107    3.413    0.707
        55  -9.9413    205.4796    110.2466   4.7291931291e+01   1.8681327315e+01    0.2509073    0.2343569 -70.95 0.0005938635    1.072    0.067
        56 -11.5870    115.9275    108.9882   6.7018590975e+01   3.7936641379e+01    0.4730157    0.3684739  58.52  0.001275855    1.459    0.315
        57 -11.4825     57.8523    231.6835   1.0495220304e+02   1.7088270513e+01    0.2832229    0.1995511 -61.91 0.0006279862    1.497    0.332
        58 -10.6998    120.0549    103.3019   6.4317352521e+01   3.8323649209e+01    0.2261451    0.2029899  37.97   0.00116585    1.110    0.099
        59 -10.2160     54.4002    229.7300   1.0554421408e+02   1.7956818734e+01    0.2803798    0.1662258  88.29  0.001401609    1.876    0.467
        60 -10.7339     59.9381     97.2149   8.2195537877e+01   5.0382696370e+01    0.2740037    0.2328644  60.68 0.0007013661    1.497    0.332
        61  -9.2535     93.7160    246.0882   9.8406259204e+01   9.1776286566e+00    0.2091781    0.1715026 -87.89 0.0005581044    1.368    0.269
        62 -11.7717     47.6281    230.0746   1.0710114419e+02   1.8703371924e+01    0.2136156    0.1751457 -89.90 0.0005412185    1.154    0.134
        63  -8.6849    157.3181     84.7215   5.0158581065e+01   3.3770764049e+01    0.1463021    0.1124527 -83.57 0.0003312952    1.576    0.365
        64 -10.5669     96.8239     83.6261   6.5587513650e+01   4.7095041889e+01    0.3116784    0.2482415  62.20   0.00155683    1.540    0.350
        65  -8.9927    112.0264     81.7213   6.0453997746e+01   4.4373951482e+01    0.2036074    0.1835302  39.21 0.0003096437    1.075    0.070
        66  -9.4357     77.0467    230.0606   1.0037270417e+02   1.4924263359e+01    0.1581571    0.1200112 -70.10  0.000401776    1.381    0.276
        67 -12.2740     48.5613     75.2471   8.0420759313e+01   5.6699221227e+01    0.4953677    0.3856826 -43.42   0.00128763    1.242    0.195
        68  -8.9336    155.7855     78.6037   4.8862232801e+01   3.5200554236e+01    0.2008033    0.1347537  67.88 0.0009318668    1.635    0.388
        69  -9.4557     90.6063    228.9210   9.7060558880e+01   1.3270822251e+01    0.2101784    0.1818022  22.19 0.0007169812    1.211    0.174
        70  -9.5187    167.3221    223.5303   7.8396245173e+01   2.6283517789e+00    0.2510034    0.2110429 -77.61  0.001079016    1.740    0.425
        71  -9.3501     92.8458     67.3604   6.1783451370e+01   5.0919628226e+01    0.2269064    0.1934087 -45.56 0.0006895999    1.303    0.232
        72 -12.9001    180.9535     59.9560   3.9564101084e+01   3.2477996443e+01     1.200751    0.8259934  27.64  0.004548183    2.326    0.570
        73 -10.0044    154.8529    247.2247   8.4926346745e+01   5.9520164083e-02     0.196828    0.1812129 -52.90 0.0004309625    1.344    0.256
        74 -12.5749    202.3766     41.7733   3.2477267143e+01   3.0313472856e+01    0.4397736    0.4052893  85.21  0.001229733    1.197    0.165
        75 -11.0693     46.7305     55.5995   7.4861084216e+01   6.0741755442e+01    0.3529094    0.2250168  21.07  0.001895879    1.516    0.340
        76 -11.1623     62.5072     51.8441   6.7126361025e+01   5.9040892198e+01    0.5025012    0.2381041  47.74  0.001467553    2.627    0.619
        77 -10.2835     55.2341     49.0755   6.9003977434e+01   6.0643028767e+01    0.2459019     0.170066  34.03 0.0002500057    1.410    0.291
        78 -12.7064     40.0652    209.1182   1.0688351035e+02   2.4457831018e+01    0.6169784    0.3235637  77.69  0.002744754    2.267    0.559
        79  -9.8704     48.6834     46.7709   7.0874207742e+01   6.1989365201e+01    0.3130513    0.1504809  36.33  0.001492106    2.037    0.509
        80  -8.9658    115.6730     43.3277   4.7585781411e+01   4.9780666951e+01    0.1350773    0.1050115 -81.21 0.0007050414    1.702    0.412
        81 -10.7555     31.0489     42.2212   7.7092376417e+01   6.5012965829e+01    0.3839413    0.1501702  32.45  0.001758513    2.536    0.606
        82 -10.5752     56.3892    210.5024   1.0308881166e+02   2.2180613923e+01    0.2030507    0.1727686  66.13  0.000170247    1.084    0.078
        83 -10.3621     32.7911    247.8351   1.1169033681e+02   1.6560687220e+01    0.1917801    0.1651879  66.47  0.001072764    1.086    0.079
        84 -10.5766     60.3975     21.0789   5.5995707943e+01   6.3684928102e+01    0.2374808    0.1582126  37.42 0.0004445441    1.276    0.216
        85 -11.9767     52.9427    240.3872   1.0685249175e+02   1.5788660722e+01    0.4415966     0.272756 -80.73  0.001975994    1.677    0.404
        86  -9.9630     63.2944     24.5598   5.6362600973e+01   6.2768156427e+01    0.2251537    0.1502925  48.46  0.001118453    1.529    0.346
        87  -9.6890     48.2119    235.9917   1.0749846240e+02   1.7319462786e+01    0.1690409     0.131603  68.82 -0.0006383859    1.148    0.129
        88  -9.8411    189.6362     15.0788   2.7998695389e+01   3.6237981415e+01     0.207226      0.14137  89.92 0.0006042223    1.269    0.212
