#   1 NUMBER                 Running object number                                     
#   2 MAG_AUTO               Kron-like elliptical aperture magnitude                    [mag]
#   3 X_IMAGE                Object position along x                                    [pixel]
#   4 Y_IMAGE                Object position along y                                    [pixel]
#   5 X_WORLD                Barycenter position along world x axis                     [deg]
#   6 Y_WORLD                Barycenter position along world y axis                     [deg]
#   7 A_WORLD                Profile RMS along major axis (world units)                 [deg]
#   8 B_WORLD                Profile RMS along minor axis (world units)                 [deg]
#   9 THETA_WORLD            Position angle (CCW/world-x)                               [deg]
#  10 FWHM_WORLD             FWHM assuming a gaussian core                              [deg]
#  11 ELONGATION             A_IMAGE/B_IMAGE                                           
#  12 ELLIPTICITY            1 - B_IMAGE/A_IMAGE                                       
         1 -14.8383    194.9456    158.2986   5.8973830073e+01   1.4339503343e+01     11.37297     8.546741 -64.53   0.04497146    2.489    0.598
         2 -14.8867    173.6156     89.3934   4.6835396444e+01   2.9246432470e+01     3.224738     2.428906 -23.58   0.01676999    1.298    0.230
         3 -13.8180     45.4746    135.0874   9.2598301143e+01   4.2887063749e+01     2.602923     1.550862   0.54  0.009384692    2.570    0.611
         4 -15.8700    246.5176     80.2477   3.4606241939e+01   1.6328425636e+01     5.336902     1.193267  48.07   0.01915556    5.448    0.816
         5 -14.8723    226.7143     48.3109   2.8986376645e+01   2.3704535540e+01     3.591837     2.079984 -30.44   0.01972574    1.423    0.297
         6 -14.5647    245.6145     27.4990   2.2618106779e+01   2.2300146828e+01     3.521218     1.661203 -74.20   0.01755141    2.794    0.642
         7 -15.5024    248.6857     69.5669   3.1997172380e+01   1.7210545932e+01     9.119138     1.983372 -23.56   0.02333223    7.471    0.866
         8 -11.2232    184.7090     46.5191   3.2927696033e+01   3.2950707472e+01      1.13147    0.5371296  28.96  0.003571154    4.806    0.792
         9 -13.0478    247.9611     15.3428   1.9716443344e+01   2.3029969223e+01    0.3973793    0.3306738  14.60   0.00178927    1.576    0.366
        10 -14.6554    233.9864     59.1922   3.0961319192e+01   2.1050548511e+01     3.818946     1.446303 -16.19   0.01334171    4.118    0.757
        11 -11.2044    150.8940     20.4786   2.8841637763e+01   4.4329495090e+01    0.5415305    0.3220105  24.11  0.002312951    2.384    0.581
        12  -9.2279    189.6778     14.8059   2.3156959841e+01   3.5297943269e+01    0.2518696    0.2010428 -65.14  0.001503566    1.171    0.146
        13 -10.4417    191.6598      7.2542   2.0841326642e+01   3.5528432663e+01    0.5770354    0.3031239 -52.79  0.002068313    1.730    0.422
        14 -11.0152    180.7766      4.1723   2.0673193571e+01   3.8370830853e+01    0.4994601    0.3741856  82.11  0.000985463    1.333    0.250
        15  -8.6219    158.4497      3.3183   2.2110480477e+01   4.3981755644e+01    0.2460296     0.122107   5.46 0.0008794229    3.074    0.675
        16  -8.3045    139.3867      2.3081   2.3541757643e+01   4.9007588829e+01    0.1512514    0.0924455  43.20 0.0002618491    1.809    0.447
        17  -9.4794    155.1108    169.3130   6.8899256430e+01   1.8961648038e+01    0.2084132    0.1796652 -32.73 0.0002904187    1.236    0.191
        18  -8.8744    250.2602    249.9990   6.5019013969e+01  -2.9331144236e+00    0.1137505   0.06379241 -18.30 0.0008848489    1.534    0.348
        19  -8.5155    150.8900    250.6830   8.1405299403e+01   7.5507535141e+00    0.1488164   0.07252358  35.29            0    1.643    0.392
        20 -10.1223    210.2554    164.4671   5.7521778791e+01   1.1139363628e+01    0.2966416    0.2535816 -88.89  0.001021186    2.398    0.583
        21 -10.6226    133.8953    145.4186   6.9085558808e+01   2.6926146632e+01     1.096885    0.3130143 -53.49  0.002926475    5.734    0.826
        22 -10.4405    144.8421    146.9855   6.6840344867e+01   2.4687006297e+01    0.5516623    0.3176274 -63.55  0.002170517    3.109    0.678
        23 -14.5618    232.9294     84.8123   3.7111750377e+01   1.8125597717e+01     1.411318    0.4588279 -33.22  0.004555447    2.384    0.580
        24 -10.3713    158.1956    143.3124   6.3109505732e+01   2.2978954114e+01    0.3511461    0.2298485  43.94  0.001324331    1.573    0.364
        25  -9.2350    152.8991    247.0181   8.0623621342e+01   7.7709140314e+00     0.162044    0.1200431  20.78 0.0003429447    1.017    0.016
        26 -13.6709      6.8773    145.9083   1.0571709585e+02   4.3699083287e+01     2.161327     1.341931  -3.93  0.007721731    2.198    0.545
        27 -11.2649    155.0004    136.6960   6.2367366420e+01   2.4751636685e+01    0.4249746    0.3125921  26.01  0.002221329    1.383    0.277
        28 -10.8674     67.4432    143.8062   8.6968134302e+01   3.8001629877e+01     2.067923     1.147364 -74.33  0.007142996    2.048    0.512
        29  -8.5745    153.9241    242.4758   7.9907926395e+01   8.2204522558e+00    0.1604927   0.08384029  29.83 -4.569126e-06    1.464    0.317
        30 -10.2134    120.8208    233.9685   8.5357441188e+01   1.3387298725e+01    0.1945867    0.1710349 -11.63 0.0005448046    1.298    0.229
        31 -11.1498    207.1060    133.8161   5.1824774932e+01   1.5939849970e+01    0.3413508    0.2487049 -17.02  0.002010971    1.229    0.187
        32  -8.8203    208.5277    126.9524   5.0098220417e+01   1.6689485327e+01    0.2437166    0.1650615  24.42   0.00097389    1.601    0.375
        33  -8.7877     72.1835    225.1516   9.4708461861e+01   2.0578135035e+01    0.1628889    0.1332247  25.57 0.0002941319    1.177    0.150
        34  -8.9114     93.0990    122.4389   7.5208814545e+01   3.9116264858e+01    0.2298973    0.2017464  77.48 0.0004279914    1.252    0.201
        35  -8.9118    214.3369    120.9579   4.7864979306e+01   1.6547736681e+01    0.1869484    0.1357942 -23.43 0.0004562058    1.182    0.154
        36 -11.5380    211.8194    132.7073   5.0827469628e+01   1.5313072340e+01    0.5196502    0.3050705 -26.07  0.002785176    1.517    0.341
        37  -9.0737    109.0111    109.0279   6.7299202062e+01   3.9228920528e+01    0.2267337    0.1844212  84.29 0.0003502465    1.560    0.359
        38 -10.2480     70.6410    108.7775   7.9469000987e+01   4.6125214644e+01     0.252817    0.2371042  55.42 0.0003041227    1.067    0.063
        39 -10.5666    142.2907     98.3526   5.5745853090e+01   3.4496557874e+01    0.3448492     0.288629  80.88 0.0006662362    1.494    0.331
        40  -8.7565    144.7714    221.4910   7.9085825818e+01   1.2195900382e+01    0.1669982   0.09440804  29.81  0.000465111    1.427    0.299
        41 -11.9701     37.4106    137.5038   9.5495699302e+01   4.3157795866e+01    0.5419171    0.3919736   3.42  0.001034266    1.745    0.427
        42 -14.3389    249.4228     56.7666   2.9041384239e+01   1.8531013810e+01    0.7943303    0.6151719  -3.44  0.003347704    1.436    0.304
        43  -8.9277    234.4558    215.1984   6.2338734785e+01   1.9640227542e+00    0.2730065    0.1114824  19.15  0.001349381    2.694    0.629
        44 -10.1340    126.8125     74.3042   5.2252399048e+01   4.2522017726e+01    0.3406404    0.2478288 -43.58 0.0005339093    1.355    0.262
        45  -9.0395    158.5779     72.8843   4.4886496618e+01   3.5299068561e+01    0.3139106    0.1368399 -33.98  0.001193967    2.161    0.537
        46  -9.7261    151.0485     71.5559   4.5945306136e+01   3.7283640192e+01    0.2802106    0.2073341 -34.92 0.0004679661    1.292    0.226
        47 -10.0795    200.2870     69.2412   3.7254612338e+01   2.6510863319e+01    0.3530076    0.2100904 -13.48  0.001639328    1.975    0.494
        48  -9.9149    193.0025     68.2774   3.7977915387e+01   2.8200869278e+01    0.3136592    0.2767097  53.05  0.001122962    1.255    0.203
        49  -9.6307    193.5989     62.1704   3.6225590364e+01   2.8903280358e+01    0.3330272    0.2443127  15.35  0.001078803    1.743    0.426
        50 -10.8777    197.4449     59.9518   3.5124065499e+01   2.8357951149e+01    0.8791899    0.2647255 -23.95  0.002758914    3.939    0.746
        51 -10.9810    197.6811     52.3725   3.3021270731e+01   2.9280032286e+01    0.4521883    0.2673382 -27.10  0.001105267    1.546    0.353
        52  -9.0232    110.9845     67.5313   5.4162631153e+01   4.7491312304e+01    0.3907114    0.1816873 -43.10   0.00104387    2.126    0.530
        53  -9.3267    139.1854     66.0912   4.6672657878e+01   4.1029587767e+01    0.2207431    0.2006256  -0.74 0.0003201371    1.182    0.154
        54  -8.9731    186.0880     64.2867   3.7843296259e+01   3.0277651673e+01    0.1899185    0.1734534 -44.16 0.0006408347    1.048    0.045
        55 -12.5537     53.4979    134.3770   8.9908264663e+01   4.2113255840e+01     0.876594    0.5409117 -55.43  0.001752179    1.639    0.390
        56  -8.3480    108.8134     55.8210   5.0492828660e+01   5.0163636567e+01    0.1983349    0.1748135 -71.19 0.0002816876    1.252    0.201
        57  -9.3860    208.8896     54.4925   3.2323346589e+01   2.6603800563e+01    0.2363111    0.1634424 -33.10 0.0006735318    1.239    0.193
        58  -9.1114     37.9586    213.4844   1.0146801378e+02   2.6324740281e+01    0.1836937   0.05143212  45.06 0.0008098917    2.591    0.614
        59 -10.1734    177.4943     50.0098   3.4899931605e+01   3.4189514403e+01    0.3641582    0.1940008 -49.27  0.001089649    1.918    0.479
        60 -10.0987    175.6093     45.8125   3.3889782472e+01   3.5181870234e+01    0.3676684    0.2415511  -0.93  0.001687203    2.033    0.508
        61  -9.8864    190.0069     36.0301   2.9273432984e+01   3.2985810205e+01    0.3051047    0.1989871 -35.71   0.00105518    1.351    0.260
        62  -9.8320    193.1996     33.3711   2.8183969061e+01   3.2552836655e+01    0.2840082    0.2150969 -13.12 0.0006321201    1.417    0.294
        63  -9.0543     20.0143    212.0000   1.0541355461e+02   2.8274368533e+01    0.1835112   0.05427312  25.45 0.0007460092    2.949    0.661
        64 -10.6939    206.7560     48.3175   3.0917335511e+01   2.7807273350e+01    0.4379513    0.3279288  22.64  0.001171645    1.702    0.413
        65  -9.1840      4.6738    204.8569   1.0859705838e+02   3.0925763408e+01    0.1618153    0.1344658  35.73 0.0004160322    1.220    0.180
        66  -9.7755    159.1949     40.8051   3.4623615507e+01   3.9835235026e+01    0.1998135    0.1696137  23.75 0.0006130862    1.356    0.263
        67  -9.4225    196.3966     38.3878   2.9278325671e+01   3.1255370341e+01    0.3042023    0.2259543 -21.24  0.001661337    1.325    0.245
        68 -11.6598    124.4701     36.4588   3.9156272576e+01   4.9284027507e+01     0.616155    0.4175595 -19.85   0.00217926    1.601    0.375
        69  -8.6743    175.5999     37.8396   3.1456124614e+01   3.6175897047e+01    0.2074087    0.1114978 -39.27 0.0007683072    1.669    0.401
        70 -13.8332    249.9227     42.4588   2.5757095903e+01   1.9988631852e+01    0.7588332    0.4541098 -15.47  0.001554003    1.706    0.414
        71  -9.9692    183.5200     33.8892   2.9343267151e+01   3.4748209744e+01    0.3063587    0.2248376 -11.22  0.001627642    1.507    0.337
        72 -10.8433    143.7083     33.6516   3.4571689895e+01   4.4675558110e+01    0.4358819    0.2450683   5.93  0.001594051    3.071    0.674
        73  -9.3950    148.4839     33.4847   3.3757939122e+01   4.3468727513e+01     0.143339    0.1375037 -61.27 0.0001081606    1.005    0.005
        74  -9.8324    155.9403     29.0306   3.1143031790e+01   4.2094046868e+01    0.2127488    0.2004701 -53.63  0.000446235    1.015    0.015
        75  -9.6502    124.0508     28.4810   3.6070694629e+01   5.0433006335e+01    0.2221856    0.1407987  63.76 0.0005055781    1.541    0.351
        76 -10.9651    192.9347    194.8424   6.5947536371e+01   9.4888789736e+00    0.7877905    0.4310452 -55.92  0.003119921    5.361    0.813
        77  -8.6127    155.3250     25.3183   2.9956251662e+01   4.2669984746e+01    0.1460565    0.1044191  33.28 0.0004849603    1.674    0.403
        78 -10.4383    179.3882     24.0204   2.6804994882e+01   3.6821411686e+01    0.4961948     0.376065 -83.26  0.002761452    1.356    0.262
        79  -8.5699      8.2331    189.1697   1.0726031264e+02   3.3826203935e+01      0.15329    0.1431733  62.14  0.001144408    1.203    0.169
        80  -8.7733    135.3316     12.3155   2.7848276103e+01   4.9213940825e+01    0.1496899    0.1004171  38.17 0.0007046239    1.683    0.406
        81 -10.8759    234.1127    179.1927   5.6438875725e+01   6.0087000903e+00    0.2932828    0.1982272 -14.25 0.0004714658    1.191    0.161
        82  -9.9208    224.1335    246.6091   6.8448180084e+01  -7.8174431722e-02    0.1911608    0.1155228 -11.14  0.001007835    1.422    0.297
        83 -10.0715    237.0142    171.4853   5.4623275640e+01   6.5464527286e+00    0.2331623    0.1407209 -24.70 0.0008708489    1.395    0.283
