#   1 NUMBER                 Running object number                                     
#   2 MAG_AUTO               Kron-like elliptical aperture magnitude                    [mag]
#   3 X_IMAGE                Object position along x                                    [pixel]
#   4 Y_IMAGE                Object position along y                                    [pixel]
#   5 X_WORLD                Barycenter position along world x axis                     [deg]
#   6 Y_WORLD                Barycenter position along world y axis                     [deg]
#   7 A_WORLD                Profile RMS along major axis (world units)                 [deg]
#   8 B_WORLD                Profile RMS along minor axis (world units)                 [deg]
#   9 THETA_WORLD            Position angle (CCW/world-x)                               [deg]
#  10 FWHM_WORLD             FWHM assuming a gaussian core                              [deg]
#  11 ELONGATION             A_IMAGE/B_IMAGE                                           
#  12 ELLIPTICITY            1 - B_IMAGE/A_IMAGE                                       
         1 -11.5789     72.5603     47.3104   7.2753816627e+01   5.8165738056e+01     1.146152     0.828449  50.63  0.002203454    1.651    0.394
         2 -11.7191     60.1497     46.4074   7.7068844333e+01   6.0365835542e+01     1.490498    0.7722786 -27.54  0.006855306    2.092    0.522
         3 -11.6800     61.1601     36.5983   7.2845658022e+01   6.1775774687e+01    0.7871625    0.5378446  -8.18  0.001889411    1.538    0.350
         4 -13.1822     42.6136     45.6782   8.4009450772e+01   6.2960771547e+01    0.8092669    0.6008572  49.01 0.0007839791    1.931    0.482
         5 -12.0011    130.6895     14.7179   4.5213485133e+01   4.9856172320e+01     1.705812    0.5380448  67.56  0.006029803    3.282    0.695
         6 -12.3200    125.2107     28.0469   5.0720827602e+01   4.9746590714e+01     0.913002    0.5010111  55.08  0.003372491    1.606    0.377
         7 -12.0612    139.9184     23.9000   4.6492288473e+01   4.6712381593e+01     1.757346     1.201432  64.86  0.009460948    1.328    0.247
         8 -12.3452    120.4764     57.6065   6.1718835911e+01   4.6775611061e+01     2.254424     1.388641 -73.32  0.008059558    3.579    0.721
         9 -11.5806    164.9780     17.8912   4.0774601836e+01   4.1303223135e+01    0.6787968    0.3864853  24.13  0.002939907    3.013    0.668
        10 -12.9016    116.3530     41.8596   5.7478005608e+01   5.0054788075e+01    0.9722086    0.7245792 -84.46  0.004806317    1.947    0.486
        11 -11.2388      8.2520     32.5166   9.5472714283e+01   6.8685585512e+01     1.816076    0.3877774 -44.80  0.007417862    3.157    0.683
        12 -10.3622     46.9089     19.2035   7.1176447947e+01   6.6462178277e+01    0.3323586    0.2551314  -8.89  0.001681681    1.145    0.127
        13 -11.8084     26.9876     28.0284   8.4264552926e+01   6.7776719261e+01     0.544434    0.4123195   5.48  0.002209095    1.191    0.160
        14 -12.2026     48.5697     12.9304   6.7557667555e+01   6.6979986168e+01    0.6291242    0.2823187  42.03  0.001448264    2.097    0.523
        15 -11.9248     20.1034     21.6475   8.5012089957e+01   6.9506667488e+01    0.6730724    0.2347997 -40.21  0.003197836    2.470    0.595
        16 -11.9965     35.8720     17.6297   7.5386059678e+01   6.8243960124e+01    0.6131465    0.4044791 -26.68  0.003430523    1.392    0.282
        17 -12.6074     17.0595     12.6123   8.2509842376e+01   7.1166510820e+01    0.7735309    0.4768601 -17.26  0.003778002    1.399    0.285
        18 -12.0733     22.9610     11.4517   7.8812513546e+01   7.0686608817e+01    0.5267314    0.3334255   2.28  0.002330065    1.456    0.313
        19 -11.2901    105.9290     20.3976   5.2390799201e+01   5.5011601691e+01    0.4513755     0.377216 -30.11   0.00133286    1.337    0.252
        20 -11.2700    155.1887     23.0698   4.3682399241e+01   4.3116384924e+01      1.13547    0.5559819  34.82  0.004543608    3.041    0.671
        21 -10.4922    214.0138     24.5463   3.6764340318e+01   2.9117464365e+01    0.4874828    0.3293737  29.79  0.002542951    2.465    0.594
        22 -11.1892     87.3856      7.6490   5.2139701789e+01   6.0268215791e+01    0.5270666    0.3398939  61.51  0.002086851    1.565    0.361
        23 -11.1016     90.7733     21.3365   5.6711963240e+01   5.8195049169e+01     0.591748    0.3634487 -25.79  0.002358458    1.741    0.426
        24 -11.1701     86.0245     14.1759   5.5180528876e+01   5.9937412775e+01    0.8027254    0.4339843  18.76  0.003615286    2.393    0.582
        25 -10.8125    178.8665     21.1434   3.9836187746e+01   3.7627483138e+01    0.5238704    0.2614708  46.17   0.00179224    2.332    0.571
        26 -11.8749     68.0679     18.2225   6.2548650711e+01   6.3023336122e+01    0.4947092    0.3912002  16.97  0.001957239    1.097    0.088
        27 -12.0969    246.4859      7.7444   3.0607974941e+01   2.4168064571e+01    0.9106692    0.5169532 -19.96  0.004939203    2.715    0.632
        28 -11.9164    238.2434     15.6582   3.2758459045e+01   2.4957893441e+01    0.5068125    0.3756659  66.25  0.002783639    1.476    0.322
        29 -11.2378    227.1305     15.4434   3.3588984663e+01   2.7305950687e+01    0.5288677    0.3252542 -76.43  0.002069313    1.513    0.339
        30 -10.3679    211.3195     18.2387   3.5592058326e+01   3.0440922731e+01    0.2957305    0.1858927 -34.56  0.001068751    1.654    0.395
        31 -11.5600    192.2838      9.5313   3.5401241809e+01   3.5695630403e+01    0.7905598    0.4452129 -13.12   0.00334182    2.696    0.629
        32 -12.1847    104.8585     12.9506   4.9881074868e+01   5.5993006919e+01    0.4622727    0.3656448 -13.25  0.001738698    1.396    0.284
        33  -9.7312     99.2331     10.7442   5.0371027761e+01   5.7443732728e+01    0.3707041    0.1946087  11.57  0.001623236    2.828    0.646
        34  -9.9155      4.8949     12.4165   8.9258372763e+01   7.2296217087e+01    0.2990383    0.1573445  23.96  0.001844962    1.968    0.492
        35  -9.2352      5.4797      9.4123   8.7530504396e+01   7.2703647348e+01    0.1719578   0.08923191 -39.14 0.0005630104    1.644    0.392
        36 -11.3222    211.9523      9.3354   3.3534285778e+01   3.1262815976e+01    0.5196665    0.3376512   1.23  0.002668216    2.889    0.654
        37 -10.0823     65.5954     10.2753   5.9880162813e+01   6.4338030118e+01    0.2698436    0.1936914  47.17 0.0009125357    1.366    0.268
        38  -9.6525     62.6528      7.1126   5.9454336069e+01   6.5192964068e+01     0.291128    0.1888255  21.43  0.001717888    1.431    0.301
        39  -9.5563    168.7701      9.7568   3.8056412174e+01   4.1206016581e+01    0.3335787    0.1161004  55.42  0.001384362    2.553    0.608
        40  -9.0672    162.9751     10.0111   3.8851427432e+01   4.2567202498e+01    0.2004794    0.1361318  43.44 0.0006897271    1.616    0.381
        41  -9.5550      1.0973      8.1961   8.9569419843e+01   7.3228951421e+01    0.1998327   0.05150368 -46.58 0.0008762658    3.316    0.698
        42 -10.8961    241.8404      3.8515   3.0156331585e+01   2.5513554937e+01    0.4164377    0.1929923  60.34  0.002264705    2.375    0.579
        43 -10.5939    232.6094      7.2788   3.1471900754e+01   2.7041895711e+01    0.3685051     0.209316 -74.27  0.001868087    1.617    0.382
        44 -10.8235    235.7631      4.6296   3.0715648763e+01   2.6669008388e+01    0.4061839    0.1858887 -72.06  0.002064841    2.232    0.552
        45 -10.0238    228.2350      3.0047   3.0910919367e+01   2.8403027638e+01    0.2476577     0.190442 -58.29  0.001245534    1.146    0.128
        46 -10.9831    218.9086      3.1440   3.1624400702e+01   3.0376785039e+01    0.3095037    0.2436276 -38.25  0.001079699    1.394    0.283
        47 -10.6634    223.6652      1.9239   3.1014605007e+01   2.9479673146e+01    0.3167706    0.1821287  74.47  0.001025506    1.581    0.367
        48  -9.4657     78.4801      7.5330   5.4578112645e+01   6.2110736783e+01    0.2209322    0.1192669  44.77 0.0006084939    1.545    0.353
        49 -11.2385     75.2184      3.6310   5.3849679572e+01   6.3107604105e+01    0.6631243    0.3174592  47.42  0.003433771    1.711    0.415
        50 -10.7001    184.2961      4.7270   3.5027163103e+01   3.8018123492e+01    0.4271989    0.3368639 -28.96   0.00272255    1.478    0.323
        51 -11.0613    177.0220      5.8474   3.6074645581e+01   3.9618333978e+01    0.3959467    0.1893533  82.61 0.0008371901    2.086    0.521
        52 -10.2078    115.7632      2.8543   4.3952794988e+01   5.4382444891e+01    0.3861541    0.3394628  25.66   0.00255232    1.190    0.159
        53 -10.2078    109.8178      1.8531   4.4741993563e+01   5.5820710196e+01     0.337245    0.2591522   6.83  0.001996933    1.469    0.319
        54 -10.6488    105.1170      1.6377   4.5615433838e+01   5.6899180984e+01    0.4681465    0.2999625 -89.42   0.00201954    2.164    0.538
        55 -10.5441     41.5729      4.4244   6.6363215234e+01   6.9022944214e+01    0.3558126    0.1955842  10.43  0.001506558    2.053    0.513
        56 -10.0430    122.1419      5.0312   4.3531275065e+01   5.2728873513e+01    0.2110997     0.160144  64.45 0.0003202515    1.154    0.134
        57  -9.7819    158.3346      2.7933   3.7426405796e+01   4.4327176560e+01    0.2959302    0.2020769  36.47   0.00167421    1.731    0.422
        58 -12.0135    134.2877      2.5670   4.0695190389e+01   5.0072251086e+01     0.410056    0.2384351  70.35 0.0005536922    1.519    0.342
        59  -9.8182    142.7971      3.3099   3.9653561860e+01   4.7990237855e+01    0.3254903    0.1802375  66.98   0.00169436    1.528    0.346
        60  -9.1292     53.2353      3.4906   6.1161268176e+01   6.7213748756e+01     0.259009    0.1680215 -37.23  0.001001574    1.969    0.492
        61 -11.0096    207.6003      2.4871   3.2373975119e+01   3.2920149517e+01    0.2605265    0.1869721  84.18 0.0001944194    1.202    0.168
        62 -10.1806    203.5154      1.5489   3.2501741382e+01   3.3922526833e+01    0.2857378    0.1518802  64.98 0.0009587372    1.735    0.424
        63  -9.3021    169.8059      3.2325   3.6190801507e+01   4.1562053717e+01    0.2171011    0.1025261 -65.03 0.0009375744    2.697    0.629
        64 -11.3335      2.6116      2.0131   8.5619487872e+01   7.4005719584e+01    0.3258833    0.1627943   8.21  0.001769169    2.005    0.501
        65 -10.2992     12.9208      1.7839   7.9366865387e+01   7.3063821501e+01    0.2646118    0.1338295  20.93  0.001247969    1.843    0.457
        66  -9.1917    151.7579      1.3263   3.7842914611e+01   4.6018105742e+01    0.2531372    0.1056255  73.65  0.001115497    2.185    0.542
        67  -9.3780    122.5026      1.4118   4.2245201115e+01   5.2932908139e+01    0.2721666    0.1055088  64.88 0.0007683553    2.164    0.538
        68 -10.2160     82.2512      1.3078   5.0875419395e+01   6.1870413581e+01    0.1989883   0.09503052  54.49 0.0003395503    1.765    0.434
        69  -8.7929     33.7684      1.4227   6.8328115096e+01   7.0504212078e+01    0.1577163   0.08785835  26.14 0.0009269865    1.576    0.366
        70  -8.7054     29.7370      1.6462   7.0371932767e+01   7.1044720590e+01    0.1186753   0.07126296   2.29 0.0006980535    1.620    0.383
        71 -11.0795     63.2698    150.5360   1.0283942525e+02   3.6536877192e+01    0.4705363    0.3105929   8.36  0.001919637    2.172    0.540
        72  -9.9775    142.9685    249.5370   9.8452143269e+01   2.9934220455e+00    0.2111383    0.1806519  87.90  0.001369716    1.547    0.353
        73  -9.4420     41.7223    149.0008   1.0864836114e+02   3.9509671001e+01    0.2605695    0.1861475  30.34  0.000864014    1.564    0.361
        74 -11.2862     46.6116    146.5249   1.0691311144e+02   3.9585807092e+01    0.7068862    0.3454861 -60.84  0.003200863    1.783    0.439
        75  -9.5173     71.4624    151.1686   1.0064550335e+02   3.5255770709e+01    0.2813208     0.201748   6.12   0.00133659    1.919    0.479
        76  -9.7524    234.5802    149.9634   6.2240790684e+01   5.2182088666e+00    0.2950517    0.1818186 -14.94  0.001369917    2.062    0.515
        77 -10.0476    216.0943    148.8181   6.5229311136e+01   8.7337002149e+00    0.5848683    0.1359061 -40.78   0.00174014    3.920    0.745
        78 -10.2356    239.6891    146.6129   6.0694718483e+01   4.9130617396e+00    0.2405478    0.1857537 -28.63 0.0005917732    1.130    0.115
        79 -10.7736     33.5443    144.3703   1.1030042519e+02   4.1501231423e+01    0.4353613    0.2690698  52.66  0.001868475    1.771    0.435
        80 -10.8924    249.3815    141.4500   5.8094558921e+01   4.1437700454e+00    0.5005047    0.2499455 -33.50   0.00238216    1.768    0.434
        81  -9.8480    132.8162    140.4095   8.1618830570e+01   2.7199654760e+01    0.3256575    0.2856107 -70.77  0.001111086    1.251    0.201
        82 -11.5831     23.1304    135.5020   1.1208533680e+02   4.4643506859e+01    0.6837469    0.5702845  74.60  0.004273609    1.228    0.185
        83 -11.9317     30.0202    132.9399   1.0971280924e+02   4.4669252597e+01    0.5504924    0.3319942 -85.24 0.0003434093    1.738    0.425
        84 -10.4696    217.0968    138.3506   6.2750408722e+01   1.0452684281e+01    0.3791612    0.3062714 -65.88  0.001284424    1.535    0.349
        85  -9.4098     70.3097    139.3472   9.8842779149e+01   3.8364860431e+01    0.1518637    0.1065973 -31.71 0.0003159072    1.707    0.414
        86 -10.0589     47.2293    135.9550   1.0506934731e+02   4.2155119469e+01     0.515828    0.1605089 -64.83  0.001574846    2.933    0.659
        87  -9.9403     79.5457    137.9056   9.5856039723e+01   3.7363128640e+01    0.3169808    0.2486436 -42.10 0.0007719907    1.298    0.230
        88  -9.4939     66.9192    136.1492   9.9240388869e+01   3.9635769730e+01    0.5069593    0.1174475 -49.57  0.001460777    4.025    0.752
        89  -9.8763     39.9982    138.1512   1.0755078739e+02   4.2394327565e+01    0.2714973    0.2008434  27.08 0.0009353209    1.541    0.351
        90  -9.9819    244.9744    134.6916   5.7354449386e+01   6.0170465209e+00    0.1803403     0.163602 -31.74 0.0004605607    1.077    0.072
        91 -10.6452     93.1688    131.4346   9.0500378309e+01   3.6751814524e+01    0.7584323    0.2677062 -58.56  0.002379894    3.198    0.687
        92 -10.0156     74.0492    132.7114   9.6438448387e+01   3.9475032858e+01    0.3021685    0.2178091 -22.82  0.001423648    1.771    0.435
        93  -9.9569     61.4734    132.1858   1.0012473338e+02   4.1356333356e+01    0.4139731     0.288254 -11.29  0.001943455    2.025    0.506
        94  -9.4957     38.4309    133.2637   1.0725862693e+02   4.3773242569e+01    0.1954267    0.1199605 -80.16 0.0009451584    1.671    0.402
        95 -10.0391    103.8576    130.9501   8.7302902424e+01   3.4986552923e+01    0.2375892    0.2180503  27.87 0.0002592411    1.134    0.118
        96 -10.6925     10.4299    127.5069   1.1476741316e+02   4.7568959803e+01    0.6398085    0.2259373 -56.84  0.002833936    2.224    0.550
        97  -9.5004     78.9651    128.7057   9.4126395461e+01   3.9724178963e+01    0.2988042    0.1892836 -42.99 0.0007550716    1.592    0.372
        98  -9.8090     80.9998    124.8773   9.2675544972e+01   4.0345663950e+01    0.4432206    0.2614199  39.29   0.00196195    1.771    0.435
        99 -10.3556    239.9918    126.5969   5.6392558538e+01   8.2640471417e+00    0.4256486    0.2240567 -46.36  0.001997807    1.781    0.439
       100  -9.0809    223.9543    126.9218   5.9025235476e+01   1.1196618852e+01    0.2162994    0.1598631 -62.80 0.0005942126    1.643    0.391
       101  -9.7272      2.2400    126.0384   1.1698357451e+02   4.8445303972e+01     0.262288    0.1747615  78.48  0.001093238    1.540    0.351
       102  -9.5728     49.5555    123.1318   1.0209771496e+02   4.5080180153e+01    0.3125741    0.2409803 -15.74  0.001165553    1.573    0.364
       103 -11.2825     45.0123    119.4349   1.0284558055e+02   4.6506200839e+01    0.5991284    0.3566099 -87.50  0.002629542    2.279    0.561
       104  -9.6736     53.5678    124.7132   1.0113815573e+02   4.4212582292e+01    0.3379009    0.2259427 -65.50 0.0009843685    1.397    0.284
       105  -9.4739     56.4536    122.4771   9.9796977111e+01   4.4410367448e+01    0.2558212    0.1899168 -49.30 0.0007471677    1.243    0.195
       106 -12.2985    103.8924    122.4813   8.5291190338e+01   3.6994643080e+01    0.4438834    0.3982495   6.85 0.0006751042    1.213    0.176
       107  -9.2685     18.9707    122.6103   1.1155658513e+02   4.8143604990e+01    0.1661628     0.152801 -79.79 0.0004435324    1.108    0.097
       108  -8.7994    139.3314    122.3120   7.5576032346e+01   2.9930788384e+01    0.1608824    0.1249175  -1.00 0.0007043718    1.675    0.403
       109  -9.2284     71.3353    120.8570   9.4775106143e+01   4.2793361431e+01    0.2098285    0.1736111 -48.50 0.0006687786    1.130    0.115
       110  -9.1476    221.4749    120.5242   5.8001764185e+01   1.2815479212e+01    0.1416545    0.1265963 -42.49 0.0001501404    1.042    0.040
       111  -8.9844    148.5019    119.9855   7.2702945369e+01   2.8465906449e+01    0.2241224    0.1364664 -20.75 0.0008099697    2.499    0.600
       112  -9.9661     22.9430    126.9958   1.1097318626e+02   4.6752550681e+01    0.1929062    0.1618235 -68.60 0.0003063054    1.006    0.006
       113  -9.4069    185.2401    119.0305   6.4289703139e+01   2.0624495001e+01    0.2084983    0.1226917 -39.69 0.0008866865    1.626    0.385
       114 -10.6700     33.8761    118.8673   1.0630263617e+02   4.7785211206e+01    0.2200963     0.155837 -44.19  0.000694736    1.358    0.263
       115  -9.2105     58.4885    118.0755   9.8254656635e+01   4.5236030122e+01    0.2254799    0.1290623 -57.69  0.001027332    1.577    0.366
       116 -10.6073     42.8325     94.6336   9.8404235703e+01   5.2714337433e+01    0.3889329    0.3555639 -12.36  0.001520438    1.144    0.126
       117 -11.7505     49.5284     99.3365   9.7128717882e+01   5.0854264523e+01     1.671196    0.5967058 -46.81   0.00635329    2.501    0.600
       118 -11.4016     17.0570    100.9495   1.0877855333e+02   5.3515549587e+01    0.3883582    0.2985782   6.19 0.0003501425    1.544    0.352
       119 -11.8417      7.0365     88.7604   1.1019099755e+02   5.7007972370e+01    0.6587771    0.4446466  10.52   0.00398925    1.770    0.435
       120 -11.6705      9.6319     97.4958   1.1075560313e+02   5.4820749583e+01    0.7474462    0.5545454  86.41    0.0012913    1.503    0.335
       121 -11.6971     27.1385     86.2355   1.0224813135e+02   5.6174303231e+01    0.6154044    0.5137948  13.88 0.0008790503    1.351    0.260
       122 -12.0141     34.4507     93.8537   1.0124371994e+02   5.3750303212e+01     1.062211    0.6343818 -40.48  0.004087427    1.556    0.357
       123 -12.3371     42.6448     85.2932   9.6206213776e+01   5.4880718176e+01    0.9638171    0.4739972  22.08  0.004367649    2.328    0.570
       124 -11.5218     18.7482    106.0419   1.0907111832e+02   5.2177354155e+01    0.2964878    0.2273368 -30.00 0.0002027258    1.384    0.277
       125 -11.7745     24.6922    113.7281   1.0839002140e+02   4.9856141156e+01    0.9690118     0.403341  10.57   0.00386728    3.587    0.721
       126 -12.4286     25.3447    107.8276   1.0716975070e+02   5.1232318337e+01     1.313618    0.7066567  -4.83  0.005948117    2.774    0.639
       127 -12.0401     24.1424     94.5620   1.0510341949e+02   5.4490035639e+01    0.8188298    0.3670152  11.68  0.003594137    2.934    0.659
       128 -11.8846     18.2807     90.2973   1.0638188896e+02   5.5931744952e+01     0.403654    0.2474939 -62.40 0.0002240117    1.380    0.275
       129  -9.6110    113.5065    115.9055   8.0886701877e+01   3.6685707044e+01     0.250716     0.218603  -6.83 0.0006723357    1.276    0.216
       130  -9.6070     79.3300    114.5927   9.0829753439e+01   4.3098426835e+01    0.3434076    0.2368009 -67.14  0.001594086    1.614    0.380
       131  -9.6443     67.0113    114.4856   9.4733905127e+01   4.4964321446e+01    0.3179444    0.2183357  58.52  0.001492724    1.850    0.460
       132  -9.8633     65.7534    110.9722   9.4341593101e+01   4.5989240255e+01    0.4206629    0.2643685  22.71  0.001957382    1.839    0.456
       133 -10.3159      6.9608    114.2916   1.1412697429e+02   5.0985759325e+01    0.2713162    0.2308656  82.93 0.0008017866    1.226    0.184
       134 -12.6561      2.2108    111.3205   1.1522516665e+02   5.1970879868e+01    0.3660265    0.2245308 -70.39 0.0005641285    1.308    0.235
       135 -11.3211      3.9614    104.6469   1.1375992089e+02   5.3460221595e+01    0.4250849    0.3553842  42.08  0.002085891    1.441    0.306
       136 -10.2771    107.4807    111.9703   8.1602373759e+01   3.8760007751e+01    0.4085774    0.3270291 -75.64   0.00142345    1.534    0.348
       137 -10.9545    102.6377    108.8106   8.2202468847e+01   4.0405208944e+01    0.6585237    0.5391179 -23.99  0.002882258    1.316    0.240
       138  -9.6631     94.1651    112.5553   8.5724899986e+01   4.1092340428e+01    0.2926855    0.2423735 -87.59 0.0009686977    1.497    0.332
       139  -9.7820     48.7981    112.2988   1.0021207452e+02   4.7829320467e+01    0.2360314     0.206963  82.72  0.001323367    1.278    0.218
       140 -10.7950    170.4266    110.5535   6.5255517207e+01   2.5562561998e+01    0.4537959     0.357037 -30.52  0.001402222    1.307    0.235
       141 -10.8797    175.2166    107.9013   6.3564681010e+01   2.5009634056e+01    0.3798484    0.2813154  -8.65  0.001170643    1.813    0.448
       142 -10.4271    129.3796    110.2097   7.5026675273e+01   3.4700457796e+01     0.307727    0.2361993  38.06 0.0009174968    1.333    0.250
       143 -10.1171    120.6459    109.0515   7.7087411808e+01   3.6784739166e+01    0.3785692     0.285765 -18.31  0.001634356    1.609    0.378
       144 -11.5146     79.4808    108.3505   8.9261236664e+01   4.4558101093e+01    0.6770428    0.3687201  30.66   0.00118215    2.010    0.503
       145  -9.2919     58.9697    109.5733   9.6256802502e+01   4.7241796212e+01    0.2323002    0.1821051 -86.34 0.0005438363    1.534    0.348
       146  -9.9051    157.4799    106.3474   6.7036323103e+01   2.9318555083e+01    0.3335252    0.2650565  15.08 0.0009872387    1.551    0.355
       147 -11.2148    143.4985    106.0070   7.0275511348e+01   3.2522645557e+01    0.3941064     0.346919  72.95  0.001279463    1.270    0.213
       148 -11.5285    145.3907    100.0336   6.8189348309e+01   3.3324772330e+01    0.4344503    0.3806538 -35.09  0.000296393    1.142    0.124
       149 -10.8190     89.2990    104.6958   8.5202934749e+01   4.3769703613e+01     0.443452    0.3517478 -19.31 0.0004643403    1.412    0.292
       150 -10.8964     85.9924    103.7290   8.5994859271e+01   4.4560800107e+01    0.4049781    0.3501195  33.72  0.001520254    1.206    0.171
       151  -9.8544     57.2203    102.6734   9.5255655867e+01   4.9117216802e+01    0.3206336    0.1763254 -54.24  0.001213789    1.633    0.388
       152  -9.1732    246.3100    102.6940   5.0343290612e+01   1.1081030416e+01    0.1331564    0.0924954 -62.85 0.0007020741    1.614    0.380
       153  -9.6326    208.8780    100.9385   5.5549567983e+01   1.8880769172e+01    0.2783735    0.2222812  -7.48 0.0003980014    1.567    0.362
       154  -9.9885    209.6794     97.6779   5.4639417158e+01   1.9280530337e+01    0.3190508    0.2374863  36.06  0.001470743    1.607    0.378
       155  -9.3203    120.8032    101.1592   7.4890972622e+01   3.8467840093e+01    0.2218802    0.1859791  -3.55  0.001078012    1.375    0.273
       156 -10.8769     90.0368     89.5056   8.0755756091e+01   4.7019280061e+01     1.357801    0.7378061 -16.85  0.004111132    4.362    0.771
       157 -10.1939     65.4118     98.8415   9.1519919977e+01   4.8907377310e+01    0.2702223    0.2074132 -18.92 0.0005608392    1.444    0.308
       158 -10.9695     67.8152     95.1527   8.9741914864e+01   4.9409892200e+01    0.4493162    0.2857363  43.95  0.002128672    1.779    0.438
       159  -9.8362     77.5477     96.5564   8.6829865337e+01   4.7595016028e+01    0.2847948    0.2403605  89.66 0.0001136287    1.523    0.343
       160 -11.1689     79.0959     93.0550   8.5353654601e+01   4.8129997416e+01     0.742135    0.5342435  32.50  0.003704642    1.450    0.311
       161 -10.2591     80.6390     83.9166   8.2202493273e+01   4.9859559290e+01    0.6380524    0.4084915 -47.96  0.003019066    1.529    0.346
       162 -11.3913     72.8233     78.2153   8.3173537250e+01   5.2348108260e+01    0.7430782    0.6116951  32.73  0.004106321    1.267    0.211
       163  -9.8866    140.4795     97.2009   6.8613212043e+01   3.5002594085e+01    0.4224573    0.2874233   9.80  0.001037822    2.351    0.575
       164 -10.1830     57.3294     97.3298   9.3926276007e+01   5.0358279662e+01    0.2690416     0.246472 -74.75  0.001572215    1.207    0.172
       165 -10.2183    117.8407     93.4950   7.3546668037e+01   4.0707369928e+01    0.4166228    0.3120663   6.71  0.001778544    1.744    0.427
       166 -11.0678    124.7844     93.6844   7.1688641652e+01   3.9185178392e+01    0.6458526    0.3213696  44.02  0.001811858    2.019    0.505
       167 -11.1105    121.0039     88.0540   7.1081377357e+01   4.1143392784e+01    0.6574026     0.393409 -47.44  0.002810058    1.729    0.421
       168  -9.5212    160.2659     93.6370   6.3000734677e+01   3.1176917885e+01    0.4745257    0.2608164  72.05  0.001589515    3.251    0.692
       169 -10.8965    152.1126     91.7764   6.4319554461e+01   3.3418185606e+01    0.5084303    0.4118816 -84.86  0.001830555    1.527    0.345
       170  -9.7106    104.0036     93.1829   7.7478822950e+01   4.3594415412e+01    0.3488578    0.2169244 -58.49  0.001374905    1.951    0.487
       171 -10.4209     99.6071     90.8286   7.8132364602e+01   4.4950411759e+01    0.4821382    0.2643251  36.99  0.002007735    1.892    0.471
       172  -9.0911     95.2218     90.6139   7.9431906902e+01   4.5828242177e+01    0.2111274    0.1423003  49.08 0.0009584643    1.636    0.389
       173 -10.6340    104.8487     86.4478   7.5244763396e+01   4.4835485499e+01    0.4992355    0.3213873 -21.17  0.002102604    2.018    0.505
       174 -10.9621    113.7032     83.7380   7.1837402626e+01   4.3561008429e+01    0.5932603    0.4116383 -32.61   0.00249049    1.493    0.330
       175 -10.3051    109.1137     80.8585   7.2285745876e+01   4.5088933386e+01     0.363248    0.3283965 -13.58  0.001177698    1.111    0.100
       176 -10.6585    183.6030     85.7786   5.6201450516e+01   2.7195623697e+01    0.7276947    0.2882686 -46.51  0.002603315    2.587    0.613
       177 -10.3169     66.5352     88.7136   8.8443938231e+01   5.1049157675e+01    0.2978749    0.2225324  -8.04 0.0007783756    1.553    0.356
       178 -10.4411     67.1619     82.1957   8.6368200662e+01   5.2383185603e+01    0.4095561    0.3629586 -29.73  0.002361935    1.028    0.028
       179 -10.1632     60.4999     83.4834   8.9132942721e+01   5.3065608411e+01     0.295387    0.2328002 -49.66 0.0005395496    1.215    0.177
       180  -9.9039     47.3300     75.7997   9.1872811114e+01   5.6438613415e+01    0.4107815    0.2320788 -51.83  0.002009269    1.622    0.383
       181 -11.6997     53.0343     75.7838   8.9687421919e+01   5.5730985299e+01    0.6289012    0.4161379 -53.79  0.003255032    1.494    0.331
       182 -10.9008     58.2236     77.9007   8.8360540065e+01   5.4587639813e+01    0.3550164    0.3130356 -70.90   0.00103381    1.380    0.275
       183 -10.3212    165.7550     83.7988   5.9145937379e+01   3.1715617209e+01    0.3634157    0.3237967 -51.52  0.001222195    1.116    0.104
       184 -11.1404    142.9167     84.3337   6.4364841072e+01   3.6956068469e+01    0.4137343     0.324385  45.03 0.0008317844    1.271    0.213
       185  -9.9907    127.2484     83.3985   6.8021251173e+01   4.0690037089e+01    0.3558079    0.2951753 -47.38  0.001482983    1.243    0.195
       186 -10.5072    126.9820     76.9881   6.6159166791e+01   4.1959107825e+01    0.3882984    0.3037395 -14.80 0.0003217393    1.477    0.323
       187  -8.5476      3.3053     83.5924   1.1064918437e+02   5.8392342717e+01    0.1229165   0.08563514  74.63 0.0006626628    1.863    0.463
       188  -9.5383     20.9287     80.6736   1.0336966164e+02   5.7939347520e+01    0.2190455    0.1815208  60.04 0.0007901804    1.563    0.360
       189  -9.7446    103.2695     79.3501   7.3556666328e+01   4.6580402931e+01    0.2957558    0.2031194 -31.77 0.0006797219    1.504    0.335
       190 -11.7517    103.8604     74.0391   7.1709161500e+01   4.7487662994e+01    0.3608801    0.2892172 -49.80 0.0003419732    1.350    0.259
       191 -10.1471    233.1187     77.7525   4.6616933116e+01   1.7640879102e+01    0.3187052     0.229651 -34.99  0.001470575    1.338    0.253
       192 -11.5856     85.7451     73.1410   7.7152003124e+01   5.1163804520e+01    0.7728001    0.4397794  37.43  0.002758003    1.778    0.438
       193 -11.0353     78.5617     67.3941   7.7716582620e+01   5.3553956090e+01    0.5584597    0.4375202  72.43  0.002795235    1.972    0.493
       194  -9.7520    174.8420    246.9526   9.1698310762e+01  -1.3866122765e+00    0.2389825    0.1588821  30.81  0.001411415    1.261    0.207
       195  -9.2670     14.7499     67.3122   1.0272119413e+02   6.1331841853e+01    0.4746163    0.2646806   3.45  0.002544982    2.103    0.524
       196  -8.8376    170.7232     77.9671   5.6558439258e+01   3.1568751059e+01    0.1880695    0.1293794 -36.91 0.0005260708    1.458    0.314
       197  -9.3639     15.5251     61.3799   1.0088334191e+02   6.2538530785e+01    0.1737065    0.1094626  16.54  0.000101153    1.762    0.432
       198 -11.6730      1.9535     71.3588   1.0885939600e+02   6.1197334235e+01    0.7011374     0.222439 -68.07  0.002894604    2.885    0.653
       199 -12.6759      5.8911     62.2944   1.0525013565e+02   6.2953406944e+01    0.6775148    0.4271366 -12.74  0.004075421    1.688    0.408
       200 -12.3170    186.1581     69.8563   5.1597508988e+01   2.9276026583e+01     1.099712    0.5660009 -43.04  0.003951956    1.871    0.466
       201  -9.7224     64.8382     75.1829   8.5107869774e+01   5.4214126903e+01     0.396259    0.2476395  -0.78  0.001028666    2.302    0.566
       202  -9.3560    114.4134     74.9271   6.8923797709e+01   4.5106743069e+01     0.323925    0.1886118  31.54  0.001332438    2.015    0.504
       203 -11.2148     20.9723     46.6109   9.4070768664e+01   6.5078813182e+01    0.5256957    0.2974289 -33.11  0.002340463    1.525    0.344
       204 -12.1347     26.3358     56.5710   9.4810554746e+01   6.2652327562e+01     1.155309    0.7360487   3.26  0.005901901    1.707    0.414
       205 -10.4241     22.4217     36.8466   8.9967367962e+01   6.6748102142e+01    0.5532436    0.3181438  46.76  0.002753099    3.063    0.673
       206 -11.6389     26.7703     47.3548   9.1651124864e+01   6.4409732675e+01    0.6675412     0.309824 -26.98  0.003050727    2.432    0.589
       207 -11.3055    127.7284    241.9243   1.0058663998e+02   6.6117034379e+00    0.3540094    0.2997048  20.04  0.002066604    1.216    0.178
       208  -9.0843    163.5096    243.5028   9.3461990909e+01   8.6022377430e-01    0.1273128    0.1067297  27.06 0.0005372555    1.028    0.027
       209 -11.1768     52.7410     49.2267   8.1073258093e+01   6.0978206643e+01    0.4745435    0.3761197  53.42  0.002720737    1.795    0.443
       210  -9.8196     67.9977    240.4846   1.1270416057e+02   1.5469687103e+01     0.185198    0.1048684  37.99  0.001028752    1.582    0.368
       211 -12.1657     58.1538     29.8974   7.1259061805e+01   6.3246981485e+01     0.455482    0.2728753  24.28  0.001025121    1.662    0.398
       212 -11.6589     48.7918     30.4388   7.5314526359e+01   6.4614635050e+01    0.8001083    0.3384898  39.80  0.003711891    2.414    0.586
       213 -11.1831     40.9223     71.1715   9.3055691745e+01   5.8166219830e+01     0.560145     0.263475 -49.57  0.001864409    1.839    0.456
       214 -11.7109     32.8161     72.0795   9.6552090100e+01   5.8812846611e+01    0.8277514    0.2932023  23.42  0.003371059    3.162    0.684
       215 -11.8140     45.0357     60.0272   8.7972989362e+01   5.9969666673e+01    0.7667325    0.3929778 -26.56  0.003396799    2.313    0.568
       216 -11.2309     50.7097     61.1066   8.6030261556e+01   5.9037384207e+01    0.3415641    0.3145935 -14.20  0.001193768    1.117    0.105
       217 -10.6395     93.6812     76.6019   7.5670586543e+01   4.9004277885e+01    0.7434019    0.3566293  35.61  0.002700432    2.220    0.550
       218  -9.8455    153.0896     72.8787   5.8736534664e+01   3.6629238693e+01    0.4815322    0.1665741  43.51  0.001506036    3.373    0.704
       219 -11.7691    122.9354     69.1212   6.4779546346e+01   4.4286201103e+01     0.535138    0.5097724  10.30  0.001684447    1.040    0.038
       220 -11.0518     41.1579     57.3191   8.8692041006e+01   6.0964119677e+01    0.3684788     0.254894  32.04  0.001392712    1.592    0.372
       221  -9.6542     21.9712     65.9862   9.9366061498e+01   6.1078306519e+01    0.4131542    0.2331661 -77.66  0.001772196    2.875    0.652
       222  -8.9086     25.5689     65.4973   9.7727323168e+01   6.0881391899e+01    0.1704018    0.1150174  -3.53 9.053945e-05    1.610    0.379
       223  -9.5996    162.1414     70.7058   5.6236592954e+01   3.4839929583e+01    0.3088299    0.2180721 -66.30  0.001426502    1.729    0.422
       224  -9.8799    172.4673     68.4985   5.3641347894e+01   3.2736449246e+01    0.3802308    0.3047824  18.51  0.001525994    1.600    0.375
       225  -9.8896    172.3773     65.1565   5.2741774959e+01   3.3293343929e+01    0.5947845    0.3501262 -83.96  0.002221448    2.977    0.664
       226 -11.4340    219.9900     66.4952   4.5750713111e+01   2.2136553613e+01    0.5856677    0.3445362  57.23  0.002637433    1.800    0.445
       227  -9.5993     64.8587     61.2579   8.0594873839e+01   5.6977018289e+01    0.3517247    0.1584939 -41.91  0.001119813    2.103    0.524
       228 -10.6391     59.6204     63.9145   8.3471853005e+01   5.7254102269e+01    0.4517105    0.2995274 -21.15  0.001495354    1.617    0.381
       229  -9.9109     57.3240     61.3055   8.3488238107e+01   5.8091171009e+01    0.3168485     0.194033   6.95  0.001069915    2.115    0.527
       230  -9.7540    192.4102     65.6513   4.9494164784e+01   2.8478776935e+01    0.2701884    0.2121845 -66.33 0.0006815286    1.299    0.230
       231  -9.4820     53.1225     66.0193   8.6669665580e+01   5.7742914165e+01    0.2601203    0.1780548  40.75 0.0009660989    1.695    0.410
       232 -10.3597    200.0776     63.8913   4.7883657027e+01   2.6977554092e+01    0.5190987    0.3098671  89.22   0.00225896    2.299    0.565
       233  -9.5680     84.3007     61.8194   7.3875861099e+01   5.3561807444e+01    0.3391086    0.2509096 -26.93  0.001557517    1.344    0.256
       234 -11.5568     91.4738     63.2026   7.1992949671e+01   5.1955450386e+01    0.8328896    0.4352582  48.24  0.002374476    2.029    0.507
       235 -10.7889     87.6232     56.9319   7.1077737386e+01   5.3796939868e+01     0.560244    0.2339197 -34.76   0.00181151    2.507    0.601
       236 -10.4451     91.7847     57.5770   6.9960327184e+01   5.2879164629e+01    0.3364896    0.2631533  52.06  0.001023204    1.410    0.291
       237  -9.7019    156.7722     63.3879   5.5220701171e+01   3.7319584673e+01    0.3097398    0.2122157  41.67 0.0007985844    1.550    0.355
       238  -9.6097    160.7823     61.6321   5.3923530072e+01   3.6632622978e+01    0.2819771    0.2302157  60.49 0.0007937666    1.189    0.159
       239  -9.6662    105.6533     63.8563   6.7865316925e+01   4.8971190520e+01      0.34603    0.1877398 -38.00  0.001496781    1.872    0.466
       240 -11.0558    105.4752     58.1582   6.6004478348e+01   4.9978967237e+01    0.6410004    0.3648316  62.73  0.002611436    2.448    0.592
       241 -11.3926    234.3545     60.9910   4.2751869508e+01   1.9908253488e+01    0.5024921    0.3659593  60.03  0.002256746    1.512    0.338
       242 -11.1964    148.2172    237.7439   9.5767309180e+01   4.1782867439e+00     0.500339    0.2720884  38.72  0.001842473    1.579    0.367
       243 -11.2492    156.5199     53.0223   5.2250524646e+01   3.8966790501e+01    0.9840211    0.6574571 -41.19  0.004845891    1.535    0.349
       244 -10.1052    167.5896    237.7821   9.1788743817e+01   1.1624242686e+00    0.1578522    0.1259407 -57.51 0.0009498027    1.650    0.394
       245 -10.7830    198.6120    232.8752   8.4823229943e+01  -2.7708548897e+00    0.3769357    0.3100384  14.30  0.002452245    1.031    0.030
       246 -10.1869    247.2985    231.9030   7.5708076099e+01  -9.3216791036e+00    0.1959703    0.1936601  88.79  0.001057355    1.885    0.469
       247 -12.3073    153.0287     35.8914   4.7829892377e+01   4.2141302667e+01    0.3483965    0.2946846  48.08 0.0003672065    1.173    0.148
       248  -9.3536     15.3336    233.6166   1.2243171441e+02   2.2951405999e+01    0.2105958    0.1184496 -78.47  0.001225392    1.630    0.386
       249  -9.6354     23.6996    231.9200   1.2075367963e+02   2.2432694926e+01    0.1646808    0.1215634  73.13 0.0009671785    1.071    0.066
       250 -12.0930    159.9023     29.8144   4.4900924613e+01   4.1210332432e+01    0.4341757    0.3560205 -17.37  0.001110238    1.434    0.303
       251 -11.2362    164.0605     27.6772   4.3649768878e+01   4.0451785909e+01    0.3352362    0.2481463 -38.07 0.0004619584    1.430    0.301
       252  -9.7801    148.8621     60.8592   5.6106325210e+01   3.9617870844e+01    0.4698474    0.1957569  57.24  0.001757624    2.362    0.577
       253 -11.9773     75.7881     56.9035   7.5095437429e+01   5.5969889526e+01    0.8940481    0.4353999 -50.08  0.003618444    2.541    0.606
       254 -10.3555    136.3082     56.8869   5.7645018743e+01   4.3225599405e+01    0.9419906    0.4234255 -30.79  0.003652459    2.465    0.594
       255 -11.3080    145.7116     47.7082   5.2782095086e+01   4.2340561504e+01    0.9586961    0.4485183 -21.23  0.003570105    3.040    0.671
       256 -10.0419    145.5060     39.4660   5.0294840880e+01   4.3506802917e+01    0.2204449    0.1988205  58.06 0.0005751236    1.034    0.033
       257 -10.8754    134.9986     45.6965   5.4399850597e+01   4.5185317598e+01    0.4604938    0.2853498  47.12 0.0006215008    1.530    0.347
       258 -10.7296    139.7684     43.9644   5.2837877460e+01   4.4287252002e+01    0.3813308    0.2653269  54.89  0.001942449    1.332    0.249
       259  -9.6684    238.1119     55.6129   4.1163495576e+01   1.9903508017e+01     0.243155    0.1409449 -51.21 0.0006674451    1.516    0.341
       260 -10.5858    240.1050     50.3761   3.9831407854e+01   2.0224703513e+01    0.3419411    0.2784708 -61.70  0.001520438    1.030    0.029
       261 -10.5047    245.8375     51.3165   3.9455143942e+01   1.8939439624e+01    0.3861164    0.1868605  79.10  0.001831095    2.534    0.605
       262 -10.1604     66.7728     54.4928   7.7513055572e+01   5.7914604373e+01    0.3779366    0.2201344 -52.12  0.001492448    2.140    0.533
       263  -9.4154    188.2675     55.1317   4.7422402781e+01   3.1035501224e+01    0.2449032    0.1800989  54.19 0.0007658385    1.391    0.281
       264  -9.5794    211.7589     52.9979   4.3637927684e+01   2.5931111601e+01    0.2518139    0.1673989  89.82  0.001298965    1.656    0.396
       265  -9.5540    205.5240     52.5227   4.4327032730e+01   2.7406192062e+01    0.2575184    0.1298334  69.69 0.0009137357    2.084    0.520
       266  -9.5784    201.9814     52.7448   4.4853632124e+01   2.8184620013e+01    0.2346404    0.1908064 -26.49  0.001146362    1.395    0.283
       267 -10.2756    201.8045     48.8092   4.3909169070e+01   2.8778651627e+01    0.3091671    0.2378497 -45.40 0.0009185159    1.247    0.198
       268 -10.8572    199.7515     44.9629   4.3230120922e+01   2.9779281176e+01    0.6297956    0.2463804  70.44  0.002446794    2.819    0.645
       269 -11.4519    155.8147     42.0944   4.9171867850e+01   4.0665339975e+01    0.9318357    0.4258214  69.43    0.0036523    2.470    0.595
       270 -10.8426    173.8321     48.2647   4.7854066604e+01   3.5461319911e+01    0.5331314    0.3626745 -89.05  0.002599072    1.719    0.418
       271 -10.1479    176.4417     43.7460   4.6210939178e+01   3.5452079501e+01    0.4076658    0.2432988  50.92  0.001965286    1.698    0.411
       272  -9.0936    215.5255     49.4483   4.2339483052e+01   2.5589691562e+01    0.1322483    0.1155892 -70.22 0.0001077969    1.005    0.005
       273  -9.4734     91.2104     48.4952   6.6912426493e+01   5.4477712321e+01    0.2632642    0.1775209 -50.21  0.001113794    1.851    0.460
       274 -10.7627     12.6622     48.1003   9.8412673386e+01   6.5439691211e+01    0.3652885    0.1642057 -32.67  0.001359154    2.057    0.514
       275  -9.0638    190.1761    229.8076   8.5979349893e+01  -1.0261375914e+00    0.1788485    0.1338001   0.67 0.0005952118    1.324    0.245
       276  -9.1603    108.4893    229.4882   1.0307148571e+02   1.1867135988e+01    0.1311674    0.1133717  49.49  0.000810426    1.016    0.016
       277 -10.7573     13.9596     23.5787   8.9054041272e+01   6.9775060523e+01    0.3269817    0.1990467 -30.52 0.0003014913    1.331    0.249
       278  -9.2254    181.3126    228.3148   8.7514503311e+01   5.8200219101e-01    0.1331678   0.09200411   1.77   0.00070332    1.638    0.390
       279  -9.4360     58.6676    225.7036   1.1327163965e+02   1.9649852157e+01    0.1110211   0.09720577 -24.69 0.0003397524    1.642    0.391
       280 -10.4772    242.6929    231.8521   7.6497651545e+01  -8.7321416348e+00    0.2663024    0.2394803  43.43  0.001871882    1.795    0.443
       281 -10.7646     38.7029     22.0355   7.6093186597e+01   6.7253470126e+01    0.2444852     0.170445 -14.26 0.0003656322    1.274    0.215
       282  -9.9392    233.8973    222.8988   7.6507202265e+01  -6.3383842734e+00    0.1984563     0.139934  -0.87 0.0008674004    1.261    0.207
       283  -9.6516      9.7748    217.9953   1.2259635433e+02   2.6681382459e+01    0.1507445    0.0790256 -81.71   0.00073675    1.657    0.396
       284 -10.2503    164.7334    212.3253   8.8312675891e+01   6.0452659900e+00     0.253974     0.212983  36.89 0.0007324746    1.146    0.127
       285 -12.5839    119.3194     37.7781   5.5354214728e+01   4.9923226642e+01    0.8160034    0.5871902 -89.68  0.002900241    1.977    0.494
       286  -8.8880    101.4836     44.5203   6.2393193916e+01   5.2955662576e+01    0.1380048    0.1288795  27.62 8.712381e-05    1.050    0.048
       287 -10.6686     94.2670     41.3172   6.3341545436e+01   5.4931727160e+01    0.7156664    0.2866033  48.81  0.002881886    2.350    0.575
       288 -10.4327    189.1644     41.3137   4.3722647630e+01   3.2741819701e+01    0.4934946    0.1944445 -28.70  0.001435557    2.929    0.659
       289  -9.5848     85.7838     31.0389   6.2017742506e+01   5.8056523861e+01    0.3723855    0.2431042 -11.12  0.001927238    1.732    0.423
       290 -10.5613     81.8103     39.9093   6.6741363185e+01   5.7615235723e+01    0.6491812    0.3876907  48.26  0.002577112    1.698    0.411
       291 -10.8324     77.9431     34.3693   6.5872587045e+01   5.9138998137e+01    0.6366704    0.2372448  44.32  0.002601153    2.485    0.598
       292 -10.0538     81.2365     30.9885   6.3440632852e+01   5.8962042112e+01    0.3102728    0.2324102 -44.81  0.001610784    1.650    0.394
       293  -9.8807     17.5014     41.5410   9.4012247436e+01   6.6327701248e+01    0.2604111    0.1688513 -24.32  0.001587158    1.348    0.258
       294 -11.7210     13.9699     74.8549   1.0479931236e+02   5.9735707883e+01    0.5262496    0.3766274 -68.42  0.002497265    1.381    0.276
       295 -10.1039    231.5452     38.3963   3.8112789444e+01   2.3600750740e+01    0.3226366    0.1743922 -44.26  0.001542915    1.617    0.382
       296  -9.5620    193.8792     38.8780   4.2475850068e+01   3.1951322450e+01    0.1878395    0.1729389  47.00 0.0004254507    1.262    0.207
       297  -9.0307    217.3411     38.6780   3.9642535648e+01   2.6632487533e+01     0.140517   0.08428781 -66.71 0.0007050508    1.723    0.420
       298 -11.2923    176.1954     36.1886   4.4204361970e+01   3.6495018905e+01    0.6875554    0.4237204 -81.25  0.002776245    1.997    0.499
       299 -10.6133    175.1889     30.8492   4.2907776861e+01   3.7393423027e+01    0.5037823    0.1862957  55.92  0.001456378    2.453    0.592
       300  -9.5172    133.2372     37.2717   5.2068881733e+01   4.6730308051e+01    0.3879544    0.2537987 -85.26  0.001734067    2.284    0.562
       301  -9.3313    206.8056     37.1388   4.0465786796e+01   2.9192079049e+01    0.2009799     0.158715 -71.11 0.0007299338    1.163    0.140
       302  -9.3441     94.7035     36.0169   6.1236290307e+01   5.5576084512e+01    0.2596964    0.1751184  79.74  0.001151612    2.659    0.624
       303  -9.7405    215.4889     33.7664   3.8716609334e+01   2.7669176936e+01    0.3099435    0.2136628  21.85  0.001549739    2.601    0.616
       304  -9.2301    204.4976    208.5103   7.9452694265e+01   1.9976469358e-01    0.1320991    0.1153062   3.90 -4.258693e-05    1.047    0.044
       305 -11.7875    106.0548     32.8034   5.6906284429e+01   5.3551906179e+01    0.6063177    0.3222062  24.58  0.002460108    2.722    0.633
       306 -12.2623    113.6829     25.3256   5.2339056238e+01   5.2725016394e+01    0.7885525    0.3342732  49.23  0.002536908    2.041    0.510
       307 -10.5602    239.9870     31.6898   3.5908123925e+01   2.2695883838e+01    0.3856858    0.3039519 -31.87   0.00193517    1.449    0.310
       308  -9.6132    153.1644    207.5135   9.0012691497e+01   8.9090582306e+00    0.2414594    0.1992801 -45.16 0.0006613623    1.313    0.239
       309  -9.1756     36.1367     31.8744   8.1514798076e+01   6.6099315879e+01    0.1697612    0.1552127  -4.50     0.000479    1.279    0.218
       310 -10.6246    198.1928     29.1269   3.9531026190e+01   3.2163646128e+01    0.4240465    0.3586142  82.96  0.001806721    1.087    0.080
       311  -9.0023    199.6886     24.6630   3.8280005822e+01   3.2345799688e+01    0.2153037     0.143452  39.03  0.001074341    2.037    0.509
       312  -9.3464    221.8034     29.6313   3.7143333925e+01   2.6793810300e+01    0.1920195    0.1590638 -39.69 0.0004976989    1.287    0.223
       313 -10.6119    189.3069     27.7219   4.0238111291e+01   3.4405135873e+01    0.3441141    0.2853146   2.11  0.001676535    1.638    0.389
       314 -11.4095    183.2772     25.4269   4.0398544515e+01   3.6097480821e+01    0.5276996    0.3150401  54.38  0.002583774    1.671    0.401
       315  -9.0344     99.5258     30.4921   5.7797854246e+01   5.5263929891e+01    0.1925374    0.1138317  42.98 1.617145e-05    1.529    0.346
       316  -9.7196     97.6738     26.6139   5.6841464782e+01   5.6129269777e+01    0.2629383    0.2226027 -47.21  0.001081423    1.434    0.303
       317 -10.4164    230.3284     27.2232   3.5821883780e+01   2.5256614889e+01    0.3643772    0.1794872 -42.71  0.001130272    1.779    0.438
       318  -9.4924     61.1862    206.7943   1.1085303219e+02   2.3390416771e+01    0.1973423    0.1554247  68.55  0.000727351    1.143    0.125
       319  -9.6657    250.3457     27.0988   3.4120616373e+01   2.1177864580e+01    0.1693319    0.1432933 -30.06 0.0006231018    1.464    0.317
       320  -8.7317      1.2964     26.6965   9.7059694450e+01   7.0178479515e+01   0.09180824   0.08992552  80.98 0.0006998171    1.581    0.367
       321  -9.2340    243.6208    205.6950   7.1701611751e+01  -5.1819049920e+00     0.133065   0.08207656  -0.54 0.0007025913    1.779    0.438
       322 -10.3019    237.7063    204.2994   7.2478926730e+01  -4.1418705601e+00    0.2682094    0.2383829  45.34   0.00176051    1.602    0.376
       323 -10.7172      6.1101    199.2424   1.2219345553e+02   3.1036378618e+01    0.3681619    0.1413769 -63.10  0.001818808    2.418    0.586
       324  -9.5181    168.8216     23.8586   4.1895047646e+01   3.9734708023e+01    0.2033938    0.1676514  49.48 0.0006486491    1.270    0.212
       325  -9.2955     59.5523     23.5442   6.7991736903e+01   6.3876484125e+01    0.2013139    0.1638727  12.66 0.0006969933    1.030    0.030
       326  -9.6686     60.2854     19.9599   6.6137900124e+01   6.4202672403e+01    0.3070889    0.2249359 -48.60  0.001367167    1.992    0.498
       327  -8.8608     45.2639     24.6495   7.4331161414e+01   6.5967146423e+01    0.1067745   0.09802715 -48.20 0.0006981051    1.615    0.381
       328 -10.8772      7.1810    192.7420   1.2154207742e+02   3.2385510473e+01    0.4301888    0.1667807 -56.08  0.002020408    2.779    0.640
       329  -9.0262    223.2646     22.3607   3.5407208162e+01   2.7345758956e+01    0.1659037    0.1025206  88.13 0.0005663687    1.551    0.355
       330 -10.6170    245.8536    200.8179   7.0415187274e+01  -4.7699215643e+00    0.2494645     0.154386  19.07  0.000805503    1.662    0.398
       331  -9.6757     74.8655     19.5245   6.0811623774e+01   6.1596644585e+01     0.253752    0.1725554  32.79   0.00080918    1.299    0.230
       332 -10.3350    125.5538     20.8414   4.8224971792e+01   5.0456358476e+01      0.41481     0.212725  78.40  0.001690381    2.725    0.633
       333 -10.6237    234.2318    196.9552   7.1721743587e+01  -2.5079550397e+00    0.4063472    0.2879516  -0.13  0.001589134    1.390    0.280
       334  -8.8520    195.4703    199.9644   7.9675169107e+01   3.1188234029e+00    0.1710002    0.1223986 -66.56 0.0008074368    2.380    0.580
       335  -9.3852     82.7463    196.2401   1.0458581995e+02   2.2791811543e+01     0.324429    0.2032611  18.96  0.001505769    2.152    0.535
       336  -9.0635      5.0572     21.4949   9.3026680542e+01   7.0825512475e+01    0.1564684   0.09827068   7.23  0.001015282    1.546    0.353
       337 -10.1212    246.3922    194.1951   6.9081602092e+01  -3.8502385000e+00    0.1755934    0.1053755 -41.26 0.0009513454    1.707    0.414
       338  -9.0443    205.4839     17.4708   3.5976980090e+01   3.1837094063e+01    0.1254759    0.1069795 -82.21 5.863267e-05    1.022    0.022
       339  -9.9521    169.9099    191.3450   8.3430766706e+01   9.1301978874e+00    0.3752736    0.2034532  25.55  0.001562729    2.161    0.537
       340  -8.8479    174.4034     15.8618   3.8998130273e+01   3.9254318022e+01    0.1470248    0.1273006  -4.11 0.0004334517    1.467    0.318
       341  -8.8435     16.4443    191.4971   1.1944098738e+02   3.1840008842e+01    0.1213067   0.09932168  88.01 3.637711e-05    1.052    0.050
       342 -12.0240      4.7684    184.3862   1.2149238003e+02   3.4471927707e+01    0.6006266    0.4485169  77.95  0.003156243    1.105    0.095
       343  -9.3445     75.8050     13.7911   5.8070242201e+01   6.2035265479e+01    0.2130237     0.135045  44.91 0.0006277279    1.381    0.276
       344  -9.0352     94.2780     12.5711   5.2311160020e+01   5.8351087768e+01    0.1653326    0.1491565  29.97 0.0009397143    1.072    0.068
       345 -10.2533    239.6899    184.7928   6.8428784239e+01  -1.4051526358e+00    0.3293104    0.2087103 -11.39 0.0008647224    1.716    0.417
       346  -9.6537    211.3229    182.6785   7.3195096229e+01   3.4937420957e+00    0.1266522    0.1123123 -81.62 0.0006474289    1.677    0.404
       347 -10.5884    250.4254    178.8346   6.5458124220e+01  -2.0662190892e+00    0.4969019    0.1279789 -36.49  0.001774937    3.442    0.709
       348  -9.2808    157.6475    179.7122   8.3933409601e+01   1.3706438166e+01    0.1513708     0.113081   1.22 0.0007024165    1.668    0.401
       349 -10.3709     52.0243    173.1876   1.0913762212e+02   3.2375378880e+01    0.5604652    0.2640813 -89.91  0.002089411    3.155    0.683
       350  -9.5655     27.9887    175.9895   1.1542231490e+02   3.4340789016e+01     0.202279    0.1657132  81.02   0.00083448    1.064    0.060
       351 -10.0827    247.5656    173.9795   6.4977242506e+01  -8.7318339067e-01    0.4378904    0.1889378  27.70  0.001773297    3.322    0.699
       352 -10.0402    231.0207    175.4641   6.8105147328e+01   1.4731419308e+00    0.3719771    0.1278381  40.17  0.001448413    3.121    0.680
       353 -10.1150     38.2972    173.0062   1.1257536811e+02   3.3990301481e+01    0.3967176    0.1955134  46.33  0.001898911    2.012    0.503
       354  -9.9432     35.4862    169.4993   1.1288694435e+02   3.5135184541e+01    0.2285744    0.1806314 -81.41  0.001375265    1.103    0.093
       355  -8.7421    170.7261    171.9996   7.9432713970e+01   1.2840164920e+01    0.1855919    0.1276689 -42.42 0.0007751872    1.456    0.313
       356  -9.7164      9.1623    155.8782   1.1815059965e+02   4.0796221392e+01     0.227009    0.1693146 -71.38  0.001031875    1.147    0.128
       357 -11.4663      9.6465    166.9030   1.1901586454e+02   3.8134477430e+01    0.4753472    0.3381527 -81.36  0.001887104    1.154    0.133
       358 -11.1253     13.4916    159.5219   1.1739985844e+02   3.9583093812e+01    0.5387642    0.2252333 -69.21  0.002566811    1.938    0.484
       359  -9.2428    198.2316    167.9887   7.2770848975e+01   8.4768009628e+00    0.2065797    0.1760095 -23.21 0.0007974291    1.099    0.090
       360  -9.6195    188.6371    164.1759   7.3931086837e+01   1.1000954769e+01    0.2760804    0.1988915 -23.55  0.001346788    1.464    0.317
       361  -9.1097    156.4526    166.0780   8.1451243125e+01   1.6811159348e+01    0.2209044    0.1467718 -45.93 0.0004489129    1.519    0.342
       362  -9.3430    152.2644    166.5692   8.2535297417e+01   1.7513648107e+01    0.1978932    0.1426529  27.12 0.0003335887    1.476    0.323
       363 -10.3174     19.1462    164.7610   1.1648898233e+02   3.7848575372e+01    0.3201601    0.2625774 -12.76  0.001628375    1.672    0.402
       364 -10.1493    205.1036    162.9825   7.0352476098e+01   8.1526615059e+00    0.4103448     0.233011  49.79  0.001491765    2.069    0.517
       365  -9.5416    208.3872    160.2358   6.9132838791e+01   8.0595662906e+00    0.2799024    0.1909491 -34.77 0.0009180083    1.365    0.267
       366  -9.6980     39.2031    161.6671   1.1100571338e+02   3.6650288994e+01     0.468033    0.2454537  78.43  0.002003515    2.480    0.597
       367 -10.1536     27.8038    163.6088   1.1418499404e+02   3.7331781151e+01    0.2455741    0.2125815  69.03   0.00111407    1.134    0.118
       368  -9.3011     78.9885    160.0243   1.0008625698e+02   3.1970048937e+01    0.2354004     0.168121  74.12  0.001125775    1.651    0.394
       369  -9.9584    246.5052    158.9507   6.2139624271e+01   1.7253795740e+00    0.2125724    0.1122404 -36.60  0.001044925    1.626    0.385
       370  -9.5835    224.2271    157.3397   6.5586047013e+01   5.7372208094e+00    0.3431022    0.1818522 -49.54  0.001503724    2.139    0.532
       371  -9.3518    215.5807    158.0711   6.7313825241e+01   7.1465677440e+00     0.285004    0.1643629 -26.38  0.001280359    1.853    0.460
       372 -11.7763     15.7703    147.8823   1.1562119100e+02   4.2213514571e+01    0.7344887    0.4545995  59.28  0.004038537    1.722    0.419
       373 -11.5790     12.9348    138.0898   1.1530455928e+02   4.4816080581e+01     1.512016    0.5063981 -59.79  0.006536399    2.311    0.567
       374 -10.9490     22.2053    155.2435   1.1471914116e+02   3.9880613469e+01    0.3851873    0.3582455   5.00 0.0008605927    1.355    0.262
       375 -10.6810      3.5242    146.9493   1.1876693955e+02   4.3339885818e+01    0.2465348     0.176249 -85.38  0.000838561    1.162    0.139
       376 -11.9161      2.5712    141.5531   1.1850487851e+02   4.4696569902e+01     1.205012    0.3900814 -79.47   0.00483315    2.836    0.647
       377 -10.1837    186.4007     15.2626   3.7435987412e+01   3.6476998407e+01    0.2382976    0.1967148  88.02  0.000294077    1.054    0.051
       378 -11.1170     21.3068    150.7015   1.1445108803e+02   4.1066909939e+01    0.2229792    0.1734779  70.67 0.0005505674    1.271    0.213
       379 -11.6108     24.0085    148.0137   1.1340926631e+02   4.1489489146e+01    0.3605348    0.2154049 -58.63 0.0007901078    1.486    0.327
       380 -10.3097    104.7325    154.1612   9.2027621363e+01   2.9234648496e+01    0.3733262     0.315966 -25.44  0.001907413    1.345    0.257
       381 -10.8205     31.6778    153.2105   1.1196125519e+02   3.9498958926e+01    0.4542083     0.289262  81.63  0.002357885    1.661    0.398
