#   1 NUMBER                 Running object number                                     
#   2 MAG_AUTO               Kron-like elliptical aperture magnitude                    [mag]
#   3 X_IMAGE                Object position along x                                    [pixel]
#   4 Y_IMAGE                Object position along y                                    [pixel]
#   5 X_WORLD                Barycenter position along world x axis                     [deg]
#   6 Y_WORLD                Barycenter position along world y axis                     [deg]
#   7 A_WORLD                Profile RMS along major axis (world units)                 [deg]
#   8 B_WORLD                Profile RMS along minor axis (world units)                 [deg]
#   9 THETA_WORLD            Position angle (CCW/world-x)                               [deg]
#  10 FWHM_WORLD             FWHM assuming a gaussian core                              [deg]
#  11 ELONGATION             A_IMAGE/B_IMAGE                                           
#  12 ELLIPTICITY            1 - B_IMAGE/A_IMAGE                                       
         1 -13.7470    228.2341      4.1035   3.6061880649e+01   2.7817992509e+01     1.730978    0.8674592  54.57  0.007433272    2.242    0.554
         2 -13.9429    184.7223     47.5246   5.2422350087e+01   3.3060186687e+01     1.730956     1.124462  31.55 0.0009081637    2.022    0.505
         3 -14.1850    195.2279     38.8680   4.8401970368e+01   3.1630845750e+01     1.601087     1.332477  -7.17  0.003379805    1.445    0.308
         4 -14.5842    204.4081     29.2051   4.4598621128e+01   3.0607258693e+01      1.61554      1.29667  28.25  0.001448192    1.585    0.369
         5 -11.9840     32.8035     14.5993   8.3301670163e+01   6.9252118903e+01    0.3748038    0.1220353 -41.43  0.001633908    2.906    0.656
         6 -12.2923     41.5081      6.6191   7.5199921265e+01   6.9204403535e+01    0.2796152    0.1959456  36.21  0.001788047    1.556    0.357
         7 -11.9198     59.1443      3.5623   6.6314366765e+01   6.6791514805e+01    0.3991867    0.1750934  32.41  0.001897743    2.233    0.552
         8 -11.3290     32.3231      3.3303   7.7788538266e+01   7.0845840166e+01    0.2735228    0.1435573 -10.66  0.001445116    2.095    0.523
         9 -15.4687     68.6062    144.3396   1.0716044992e+02   3.7142357939e+01     6.037906     3.149854  68.60   0.02296197    3.096    0.677
        10 -11.5871    135.3010    246.9673   1.0655252307e+02   5.6465203292e+00    0.3501771    0.2385541 -47.35  0.001363005    1.826    0.452
        11 -12.0166    139.8162    249.7406   1.0603228992e+02   4.5230728078e+00    0.5103723    0.2931524  42.47  0.002979155    1.392    0.282
        12 -11.9721    140.4883    245.0089   1.0533278290e+02   5.1560705194e+00    0.5557226    0.2925293 -63.49  0.002848085    2.776    0.640
        13 -13.6208     60.3829    188.4894   1.1512451797e+02   2.7903728389e+01     5.020392     2.289007  19.38   0.01428262    5.068    0.803
        14 -16.3486     51.4439    202.6098   1.1843713694e+02   2.5959395088e+01     11.57131      2.42137  49.00   0.04018471    4.323    0.769
        15 -11.9705    194.5678    196.7897   8.7140373262e+01   4.0326437883e+00     1.152267     0.729735 -69.86  0.004382952    4.109    0.757
        16 -12.0917    204.5123    198.8258   8.5559349486e+01   1.9693580324e+00    0.5339906    0.2836178  34.90  0.002568954    1.753    0.430
        17 -11.1374    183.8456    205.3281   9.0833311500e+01   4.4807059839e+00    0.3159983    0.1943802  17.92  0.001505069    1.961    0.490
        18 -11.4688    108.4619    203.3902   1.0644148107e+02   1.7752951220e+01    0.2632647    0.2324795  56.98  0.001049522    1.020    0.020
        19 -14.6283     46.4947    223.2635   1.2111967643e+02   2.2352024018e+01     1.957329     1.159947  59.38   0.01228015    1.394    0.283
        20 -12.1753    112.5819    197.3600   1.0469812126e+02   1.8323772076e+01     0.421667    0.3840727 -12.43  0.002565199    1.382    0.276
        21 -16.4739     35.5761    249.9224   1.2479218201e+02   1.8670039547e+01      7.69673     2.124198  29.55   0.01903789   13.726    0.927
        22 -10.8666     30.5629    195.3006   1.2208126567e+02   2.9867667755e+01    0.3236938    0.1500389  53.00  0.001205421    1.928    0.481
        23  -9.7925     81.9013    194.9504   1.1113849639e+02   2.3566718706e+01    0.2040841    0.1775429  71.62  0.001286636    1.009    0.009
        24 -11.8958     74.3889    189.0464   1.1208188717e+02   2.5916351008e+01    0.4685752    0.2482247  69.39  0.002098053    2.370    0.578
        25  -9.2284    164.3154    210.2915   9.5651562396e+01   7.0213927961e+00    0.1324037   0.09871721   8.34 0.0002603352    1.595    0.373
        26 -11.0846    113.9511    207.9286   1.0588141429e+02   1.5963434355e+01    0.3334566    0.2210934  68.90  0.001730785    1.755    0.430
        27  -9.8033     94.7477    187.1514   1.0723746984e+02   2.3343434699e+01    0.1974761    0.1643623  76.96 0.0004172571    1.150    0.130
        28 -10.9921     99.0624    181.5615   1.0543283178e+02   2.3898112569e+01    0.4120109    0.2886924 -30.27   0.00201313    2.087    0.521
        29 -10.9137    145.5211    181.5580   9.4746642689e+01   1.5830357895e+01    0.2924857    0.2523035  68.90  0.001148024    1.278    0.218
        30 -10.2583    204.5479    176.0593   8.1104435261e+01   5.7668077343e+00    0.3098283    0.2531466 -34.65 0.0008628721    1.250    0.200
        31 -10.0207    196.9781    176.0534   8.2616913776e+01   7.1770690594e+00    0.3127146      0.25591  53.01  0.001699308    1.425    0.298
        32 -11.4554    141.1314    173.8542   9.4323394172e+01   1.8245257773e+01    0.5689685    0.4058352  81.49  0.002037378    2.059    0.514
        33 -10.0482    188.6317    174.9546   8.4102080300e+01   8.9523552697e+00    0.2746547    0.2498672 -58.36  0.001012404    1.320    0.242
        34 -12.1783     73.1751    174.5729   1.1051383502e+02   2.9345657377e+01    0.4054625    0.2589584 -41.53  0.002013184    2.046    0.511
        35 -12.1359     77.1107    169.7708   1.0890836171e+02   2.9902320204e+01    0.3591156    0.2648888 -46.36 0.0008212308    1.549    0.355
        36 -15.5084     10.7339    206.6398   1.2668849426e+02   2.9453194223e+01    0.7162069    0.4814378 -68.97  0.003402407    1.534    0.348
        37 -10.9524     47.4831    172.6591   1.1629297423e+02   3.3047102233e+01    0.4041635    0.2351865 -57.94 0.0009531925    1.700    0.412
        38 -10.2381     51.9486    172.0048   1.1518209927e+02   3.2674953444e+01    0.3149582     0.209894  83.30 0.0009387673    1.457    0.313
        39  -9.6031     52.5201    167.4831   1.1451344307e+02   3.3656267586e+01    0.2483008     0.144613 -65.01 0.0008630514    1.550    0.355
        40  -9.7773     54.4958    164.4574   1.1366677277e+02   3.4127464963e+01    0.2435466    0.1427248 -60.94 0.0006905392    1.579    0.367
        41 -10.5161    230.3928    166.1736   7.4148012631e+01   2.7321827267e+00    0.1948164    0.1196073 -42.87 0.0008887184    1.720    0.419
        42  -9.8665    186.7453    165.2099   8.2470217140e+01   1.1134629830e+01    0.2547505    0.1763775 -41.47 0.0009216482    1.469    0.319
        43 -10.7929    159.1508    162.3907   8.7913508069e+01   1.7167133439e+01    0.3385045    0.2824367 -74.16 0.0007728103    1.467    0.318
        44 -10.1047    236.5070    158.4547   7.1417259704e+01   2.9003788933e+00     0.138511    0.1193507 -10.01 0.0001050043    1.009    0.009
        45 -12.2029     91.7419    153.8026   1.0271031768e+02   3.1459756594e+01    0.6790782    0.4813847 -25.08  0.003182018    2.053    0.513
        46 -11.5024    133.8669    145.0740   9.0226418523e+01   2.5948437867e+01     1.204434    0.3309536 -54.89  0.002976575    5.265    0.810
        47 -10.7460    174.5543    148.9001   8.1517444855e+01   1.6798952316e+01    0.3417334    0.2873681 -47.95 0.0009083061    1.237    0.192
        48 -10.1952    188.0216    152.5234   7.9435174399e+01   1.3306605538e+01      0.30978    0.1953339 -73.40  0.001049912    3.726    0.732
        49  -8.7475    109.6904    148.2565   9.7036367334e+01   2.9754169938e+01    0.1460441    0.1118851  72.48 0.0002050542    1.522    0.343
        50 -10.5000    143.8711    146.1645   8.8008696157e+01   2.3706064964e+01    0.3903513    0.2039152 -63.62  0.001333607    2.979    0.664
        51 -10.9226     85.7834    144.9997   1.0268946262e+02   3.4499082640e+01    0.3289545     0.245049  69.84  0.001664853    1.504    0.335
        52 -11.0153    104.5736    139.2691   9.6548828690e+01   3.2778424940e+01    0.5566816    0.3581206 -26.07  0.002294674    2.322    0.569
        53 -12.3114     92.1696    139.3762   9.9906540889e+01   3.4844998363e+01    0.2786819    0.2500011 -49.29 0.0004120532    1.127    0.113
        54  -9.9233    101.9503    250.2144   1.1313056126e+02   1.0080520884e+01    0.1950731    0.1253288  59.51  0.001219907    1.404    0.288
        55 -10.7916    105.9454    130.8387   9.4365024858e+01   3.4537530231e+01    0.3581597    0.3135135 -70.08  0.001187041    1.150    0.130
        56 -11.1698    135.7438    127.8884   8.5784162042e+01   2.9443908116e+01    0.6635374    0.1909259 -49.03  0.001894894    3.576    0.720
        57 -10.7184    113.1588    130.0091   9.2220446001e+01   3.3412953900e+01    0.3482609    0.3020266 -12.01  0.001171682    1.352    0.260
        58 -10.2470    160.8653    128.0558   7.9686394466e+01   2.4044843257e+01    0.3520746    0.2743685 -80.35  0.001583814    1.744    0.427
        59  -9.2754     97.0131    128.7634   9.6372513108e+01   3.6592437781e+01    0.1948141      0.18733  56.79 0.0002016986    1.085    0.079
        60 -11.1308    100.4112    125.9159   9.4791703614e+01   3.6687413396e+01    0.3122898    0.2390411 -31.19 0.0008157331    1.484    0.326
        61 -11.3545    119.4611    123.3870   8.8960141742e+01   3.3750545368e+01    0.5733858    0.3696551 -17.35  0.002175811    2.583    0.613
        62 -10.1922    108.9420    119.0013   9.0781778373e+01   3.6780399735e+01    0.2193346    0.2120262 -46.78 0.0003571735    1.017    0.017
        63  -9.9339    167.8394    112.6990   7.4156139267e+01   2.5675653446e+01    0.4079901    0.2750123 -73.05  0.001415799    2.370    0.578
        64 -10.3711    134.5339    106.0174   8.0450981093e+01   3.4543471781e+01    0.3924682    0.1504847 -45.69  0.001294607    2.569    0.611
        65 -11.7492    118.4327    109.9885   8.5853191914e+01   3.7020828030e+01    0.6264891    0.4704826  70.85  0.002387068    1.742    0.426
        66 -10.2249    205.5227    110.1712   6.5773188363e+01   1.7593257511e+01    0.3103563    0.2171512  40.68 0.0006036575    1.537    0.349
        67 -11.9586    195.5283    207.3698   8.8868916482e+01   2.1386449253e+00    0.3627381    0.2429384  30.74  0.001986599    1.342    0.255
        68 -11.3442     53.4018     92.3117   1.0141742646e+02   5.1636500804e+01     0.596444     0.212824 -61.03  0.002192521    2.762    0.638
        69 -11.4117    207.5518    194.1461   8.4087798097e+01   2.1977930935e+00    0.3374668    0.2395656 -43.02   0.00183988    1.592    0.372
        70  -9.0536    161.4087     88.5344   6.8939716247e+01   3.1966656825e+01    0.1549264    0.1498704 -39.54 9.116897e-05    1.023    0.022
        71 -10.6941     39.3897     88.3611   1.0529230148e+02   5.4063705362e+01     0.237598    0.1680517  14.54  0.001335916    1.705    0.413
        72  -9.7837    157.0084     81.3256   6.7824191954e+01   3.4380544811e+01    0.2177492    0.2055712  47.46 0.0005481606    1.070    0.065
        73  -9.5094    184.5219     77.0400   6.0881170650e+01   2.8453886706e+01    0.2327721    0.1478141 -34.11 0.0005012642    1.554    0.356
        74 -10.2829     62.5545     69.1759   9.1870973056e+01   5.5640251564e+01     0.234599    0.2208468   2.72 0.0003294956    1.145    0.127
        75  -9.3562     93.9278    249.8699   1.1456723717e+02   1.1275931129e+01     0.158808    0.1358164  44.78 0.0004327677    1.220    0.180
        76 -18.0962      7.3144    239.9504   1.2893224062e+02   2.3394549159e+01     13.64178     1.594314 -77.67   0.03196016    7.485    0.866
        77  -9.6960     72.1064    231.1663   1.1693347765e+02   1.7609460297e+01     0.184653    0.1223802  69.29  0.000568865    1.363    0.267
        78 -13.8861     73.7781    155.9727   1.0767654594e+02   3.3627349978e+01    0.7248207    0.6397222  61.37  0.001293495    1.130    0.115
        79 -10.9521    151.2541     54.5680   6.0821033360e+01   4.0386407315e+01    0.2963213    0.2592754 -77.96 0.0004130835    1.292    0.226
        80 -11.1644    152.8678     48.0916   5.8398844927e+01   4.0969275438e+01    0.3372639     0.277795 -74.75 0.0009139002    1.416    0.294
        81  -9.2180     29.6964    211.0001   1.2340586079e+02   2.6684497637e+01    0.1460789    0.1097167  82.68 0.0001816573    1.074    0.069
        82 -10.0788     62.1588    220.8976   1.1793570753e+02   2.0888022779e+01    0.3756869    0.1878847  61.05  0.001633661    1.900    0.474
        83  -9.9714    189.9145     14.9917   4.2507559708e+01   3.5798888622e+01    0.2093645    0.1884536 -87.46  0.000670157    1.007    0.007
        84 -10.8488    174.8948    212.6586   9.3887348331e+01   4.7992475403e+00    0.2802244     0.109267  33.92  0.001105269    2.556    0.609
        85  -9.1247    152.4843    211.4353   9.8277101537e+01   8.8554938379e+00    0.1335202    0.1168578  37.90   7.7831e-06    1.010    0.010
