#   1 NUMBER                 Running object number                                     
#   2 MAG_AUTO               Kron-like elliptical aperture magnitude                    [mag]
#   3 X_IMAGE                Object position along x                                    [pixel]
#   4 Y_IMAGE                Object position along y                                    [pixel]
#   5 X_WORLD                Barycenter position along world x axis                     [deg]
#   6 Y_WORLD                Barycenter position along world y axis                     [deg]
#   7 A_WORLD                Profile RMS along major axis (world units)                 [deg]
#   8 B_WORLD                Profile RMS along minor axis (world units)                 [deg]
#   9 THETA_WORLD            Position angle (CCW/world-x)                               [deg]
#  10 FWHM_WORLD             FWHM assuming a gaussian core                              [deg]
#  11 ELONGATION             A_IMAGE/B_IMAGE                                           
#  12 ELLIPTICITY            1 - B_IMAGE/A_IMAGE                                       
         1 -13.0282    194.6955     30.9980   6.7628101823e+01   3.2889467113e+01     1.216866     1.026457  69.66  0.006375931    1.114    0.103
         2 -13.5759    209.2564     13.1117   6.1588119537e+01   3.1482437400e+01      1.34875    0.9803908  37.52  0.007695617    1.880    0.468
         3 -10.4114     14.7397     12.9716   1.0913816891e+02   6.9764972917e+01    0.1560414    0.1102472 -19.32  0.000586178    1.068    0.064
         4 -10.4624    248.8424    249.3873   1.0685257229e+02  -1.4212805445e+01     0.247281    0.1634691  26.36  0.001596094    1.283    0.221
         5 -10.8681    138.7110    249.2484   1.2730735496e+02   3.6264859865e+00    0.3053149    0.2039379 -47.06   0.00176227    1.836    0.455
         6 -10.9305    125.6009    250.0748   1.2989533168e+02   5.6822503490e+00    0.3427253    0.1500701  41.01  0.001300579    1.995    0.499
         7 -10.4603     66.0479    249.4345   1.4071133893e+02   1.4987356757e+01    0.2308663    0.1601143  72.87 0.0005929576    1.168    0.144
         8 -13.5139     33.0293    246.9677   1.4613754079e+02   1.9739395379e+01     1.670956     1.047729  30.22    0.0102892    2.425    0.588
         9 -13.8110      6.1348    244.3090   1.5028507173e+02   2.3239916070e+01     1.967771     1.194469 -83.14   0.01427891    1.360    0.264
        10 -13.4075      8.7615    207.1966   1.4754331166e+02   3.0358388232e+01    0.9380666    0.7480008 -88.20  0.004535075    1.190    0.160
        11 -15.3227      6.8694    154.1241   1.4338440583e+02   4.2171471528e+01     9.682575     1.967772 -74.35   0.03152172    4.652    0.785
        12  -8.8036    152.6743    212.9426   1.1914292135e+02   7.7774497818e+00    0.1778031    0.1695644 -85.06 0.0003019977    1.119    0.106
        13  -8.7872    229.3836    229.6881   1.0692148219e+02  -8.6767206948e+00    0.1167403    0.1004649  68.66 0.0002724984    1.811    0.448
        14 -11.3313     62.4394    196.1862   1.3595610468e+02   2.6531978215e+01    0.3427727    0.2489135 -50.63 0.0006631086    1.656    0.396
        15 -11.4958    105.0734    245.3446   1.3320165162e+02   9.8873444942e+00    0.3952172    0.2209439  69.03   0.00199039    2.057    0.514
        16 -11.5244     68.2840    188.4089   1.3371772819e+02   2.7484781246e+01    0.2888435    0.2352633 -60.98 0.0004967668    1.298    0.229
        17 -14.6241     52.6885    210.9138   1.3957122856e+02   2.4590103805e+01     7.646752      0.84271  47.30   0.02162406    6.470    0.845
        18 -10.6871     78.2297    176.0674   1.2971780270e+02   2.8900281094e+01    0.2590784     0.216327 -65.97  0.000387882    1.161    0.139
        19 -12.9241     65.0661    173.8837   1.3245527728e+02   3.1314147089e+01    0.5196689     0.283527 -45.36   0.00169061    2.267    0.559
        20 -11.6294     85.5624    166.8588   1.2650221111e+02   2.9947858962e+01    0.6655172    0.5776126  74.68  0.003822142    1.105    0.095
        21  -9.6419     98.3210    151.3370   1.2049383900e+02   3.1549098882e+01     0.273718    0.2442375 -89.70 0.0007188639    1.091    0.084
        22 -11.7416     86.9036    150.3370   1.2321393067e+02   3.3690246480e+01    0.3011818     0.248819 -48.59 0.0005218254    1.239    0.193
        23 -12.3023     67.7615    143.9915   1.2699220129e+02   3.8078182829e+01    0.7073349    0.5037214  80.90    0.0023338    1.631    0.387
        24  -8.6739    134.0000    147.0099   1.1062625231e+02   2.5785049898e+01    0.2621958     0.087061 -49.13 0.0008061799    2.968    0.663
        25  -8.7961    101.1581    147.1531   1.1892607834e+02   3.2053934300e+01    0.2202004    0.1947431 -32.67 0.0004726391    1.286    0.223
        26 -12.4042     35.8999    229.5250   1.4436818168e+02   2.2806324407e+01    0.3300572    0.2677168 -75.97 0.0007843644    1.369    0.269
        27  -8.5508    192.4279    144.4329   9.6757198578e+01   1.3616510759e+01       0.1512    0.1472608 -50.78 8.964324e-05    1.019    0.019
        28  -9.4775    109.7505    136.8073   1.1447433521e+02   3.2948266519e+01    0.3922472    0.2405564 -30.06   0.00134665    2.306    0.566
        29 -10.2911     97.1243    133.7409   1.1713158993e+02   3.5950870086e+01    0.2619839    0.2130079 -39.68 0.0003810034    1.284    0.221
        30 -10.3303     50.3315    129.8983   1.2910559646e+02   4.3660101250e+01    0.2352719     0.200985  78.58 0.0005394613    1.250    0.200
        31 -11.4070     57.5187    131.0370   1.2734971982e+02   4.2521987440e+01    0.5613158    0.2672867 -73.88  0.002214944    2.663    0.624
        32 -11.0671     81.7919    248.7913   1.3785419231e+02   1.2841344713e+01    0.2619858    0.2224767  29.19  0.001687753    1.665    0.399
        33  -8.8334    106.9791    123.3582   1.1207833003e+02   3.6604843151e+01    0.1973535    0.1834619  43.49 0.0003123292    1.133    0.117
        34 -13.8011     42.2704    221.0436   1.4251321084e+02   2.3767306871e+01     1.052932    0.6441379  62.44  0.004811644    1.395    0.283
        35 -10.3251    168.0729    113.0624   9.4253892459e+01   2.5698915392e+01    0.3783907    0.2929296 -80.10  0.001059626    1.607    0.378
        36  -9.1229    203.4728    111.5203   8.6646786771e+01   1.7677164208e+01    0.1521325    0.1451699 -56.50 9.237319e-05    1.012    0.012
        37  -9.1678    157.5261     77.4715   8.6859991327e+01   3.5094331460e+01    0.1496799    0.1461222  51.40 7.875133e-05    1.033    0.032
        38 -12.4278     98.1879    247.7315   1.3475019169e+02   1.0537405324e+01    0.6585459    0.3533459  45.59  0.003591927    1.586    0.369
        39 -10.0629    144.4155    243.6929   1.2546855210e+02   3.6065410503e+00    0.2081189    0.1271474 -59.09 0.0009462667    1.970    0.492
