#   1 NUMBER                 Running object number                                     
#   2 MAG_AUTO               Kron-like elliptical aperture magnitude                    [mag]
#   3 X_IMAGE                Object position along x                                    [pixel]
#   4 Y_IMAGE                Object position along y                                    [pixel]
#   5 X_WORLD                Barycenter position along world x axis                     [deg]
#   6 Y_WORLD                Barycenter position along world y axis                     [deg]
#   7 A_WORLD                Profile RMS along major axis (world units)                 [deg]
#   8 B_WORLD                Profile RMS along minor axis (world units)                 [deg]
#   9 THETA_WORLD            Position angle (CCW/world-x)                               [deg]
#  10 FWHM_WORLD             FWHM assuming a gaussian core                              [deg]
#  11 ELONGATION             A_IMAGE/B_IMAGE                                           
#  12 ELLIPTICITY            1 - B_IMAGE/A_IMAGE                                       
         1 -13.7129    192.1024     49.2946   3.3992293785e+01   3.0769904195e+01     20.72891     1.853936 -40.71   0.04932247    6.485    0.846
         2 -11.5822    232.3162     36.0687   2.6503141484e+01   2.3677547683e+01     2.812274    0.7986752 -27.86   0.01116181    2.876    0.652
         3 -13.5428    181.5160     80.7859   4.4275402405e+01   2.8667711414e+01     3.747038     1.807854 -24.92  0.001820238    2.338    0.572
         4 -12.3195    214.0248     25.4818   2.5298280197e+01   2.8634642967e+01     1.613078     1.075223 -77.45  0.009067384    1.598    0.374
         5 -14.1651    228.9913     92.5352   4.0233106438e+01   1.7444983010e+01       6.4475     1.384534 -42.74   0.01855333    5.646    0.823
         6 -14.3074    243.5252     64.6868   3.2242418274e+01   1.8289034560e+01     3.539879      1.11312  66.28  0.003631878    4.311    0.768
         7 -13.1044    249.4623     41.9120   2.6561505052e+01   1.9775768828e+01     1.949319    0.4629464 -27.17  0.001085872    3.417    0.707
         8 -14.3566    220.8496     79.2397   3.8144865453e+01   2.0713831217e+01     4.682724     3.802941  -1.19   0.02859386    1.325    0.245
         9 -12.4523    219.7661     35.9987   2.7523215788e+01   2.6257014913e+01     2.299565    0.6508186 -31.80  0.009084311    2.679    0.627
        10 -10.7924    133.8295     22.7614   3.3856984670e+01   4.8847635457e+01    0.5462159     0.265722 -24.49  0.001976837    2.170    0.539
        11  -9.3930     79.1800     16.0021   4.4013689260e+01   6.3966057170e+01    0.3421729    0.2353022 -30.79   0.00089512    1.502    0.334
        12 -10.5978    222.1997     19.0155   2.3042931023e+01   2.7545840701e+01     0.762298    0.3267986  63.74  0.003663341    2.513    0.602
        13 -11.6208    247.4603      8.2659   1.9065736645e+01   2.3509985298e+01    0.4659579    0.3100359  20.98  0.000882189    2.350    0.574
        14 -10.5219    250.1374      2.5393   1.7670359528e+01   2.3520871887e+01    0.2095793    0.1688958  -0.86  0.001348085    1.565    0.361
        15  -8.4092     90.3334     12.5089   3.8720175542e+01   6.1598640895e+01    0.2435806     0.135903 -25.00 0.0009888903    1.891    0.471
        16 -10.1899    120.1212      9.2608   3.0709386788e+01   5.4015434655e+01    0.3761747    0.3254969 -34.86 0.0009644262    1.203    0.169
        17  -8.7711    128.4711      9.0151   2.9269404348e+01   5.1774043667e+01    0.2119346     0.142253 -24.04 0.0006160406    1.568    0.362
        18  -9.5779    147.4412      4.6188   2.5121689000e+01   4.7065911204e+01    0.2902636    0.2508711  16.95 0.0008498901    1.357    0.263
        19  -8.8494    136.8011      4.0162   2.6138813548e+01   4.9977762795e+01     0.230679    0.1928531  84.08 0.0002943297    1.114    0.103
        20  -9.1557    236.5391      2.2371   1.8173924393e+01   2.6180214115e+01      0.22558    0.1762974  -8.41   0.00149627    1.504    0.335
        21 -13.0396    202.0645     84.7872   4.2064516580e+01   2.3689248325e+01      2.83369     1.676629   9.05   0.01146102    3.042    0.671
        22  -8.2098    187.6448     10.0223   2.3132922779e+01   3.6282054486e+01     0.185497    0.1537175 -35.49 0.0005508777    1.158    0.136
        23  -8.1768    230.5070      1.2615   1.8213319184e+01   2.7487011333e+01    0.1092642   0.09491321 -71.76 -0.0001602007    1.165    0.142
        24  -9.2750    241.9640    183.0976   5.6456186803e+01   4.1565765627e+00    0.1905971     0.128033  -7.76 0.0004254568    1.190    0.160
        25 -10.1777    189.8514    249.0409   7.4706497576e+01   3.0425953919e+00    0.1813264    0.1367209   5.86 0.0003393761    1.151    0.131
        26  -9.0736    135.1649    249.2898   8.4685609430e+01   9.3678019246e+00    0.2947393     0.144007  51.67  0.001228889    3.127    0.680
        27 -12.3495    160.9725     91.5763   5.1067015230e+01   3.1455833601e+01     1.554511    0.7265024 -45.48 0.0008002609    2.229    0.551
        28  -8.6792    250.1916    248.7813   6.5136871557e+01  -3.1867283723e+00    0.1789813   0.06111107 -35.01  0.001033101    3.561    0.719
        29  -9.5916    156.2659    247.9687   8.0572631337e+01   7.0374620926e+00    0.2603232    0.1586862  27.78 0.0003387477    1.198    0.166
        30  -9.3355    157.9478    243.5026   7.9755139152e+01   7.3845013764e+00    0.1912445    0.1547404  -5.90 0.0004590253    1.303    0.233
        31  -8.5033    158.8029    238.9305   7.9062196390e+01   7.8509387299e+00    0.1598987    0.1166566   9.97 0.0003338595    1.200    0.167
        32  -7.7702    187.0784    237.0233   7.3677922384e+01   4.6864721485e+00    0.1329196   0.09277972  17.41 0.0005318535    1.040    0.038
        33  -8.6522    130.6398    236.7224   8.4265234822e+01   1.1608753988e+01    0.2622426    0.1315604  51.47   0.00134528    2.731    0.634
        34 -10.4892    241.5368    165.9927   5.3521411361e+01   6.1720091551e+00    0.3917293    0.1473426  37.68  0.001985218    2.714    0.632
        35 -10.4731    195.0902    158.4516   5.9703897376e+01   1.3934148694e+01     0.511659    0.4483806 -80.03  0.002324507    1.929    0.482
        36  -9.5377    192.5247    153.4777   5.9206694593e+01   1.5087056655e+01    0.2408632     0.200953  37.22 0.0008373206    1.307    0.235
        37  -8.2188    199.4652    163.4942   5.9871866488e+01   1.2520044520e+01    0.1654907     0.107571  24.98 0.0009408321    1.451    0.311
        38 -12.1241     14.4194    156.9228   1.0542959804e+02   4.0308882735e+01     1.771592     0.998601 -79.68  0.009600344    1.716    0.417
        39  -9.4518    159.5288    165.6404   6.8102293916e+01   1.8586580491e+01    0.2351535    0.1996375   6.43 0.0003407148    1.092    0.084
        40  -9.2922    154.1822    159.5261   6.8133901133e+01   2.0530786902e+01    0.3556245    0.2701898 -71.85  0.001843038    2.083    0.520
        41  -7.5969    220.5157    160.4631   5.5727249412e+01   9.7724674988e+00    0.1195896   0.09893663  -4.19 0.0001532665    1.067    0.063
        42 -12.2898     42.5842    145.2347   9.6139675396e+01   4.0501990529e+01    0.7919918    0.7708492  13.50  0.002832548    1.190    0.160
        43  -7.7268    227.3171    159.6945   5.4506645238e+01   8.8900372377e+00    0.1022731   0.09303652 -44.18 0.0007027658    1.628    0.386
        44  -8.2057    103.0029    158.7442   8.0455934268e+01   2.9183566408e+01     0.184031    0.1585557  36.11 0.0002722179    1.050    0.048
        45  -8.2939    205.9522    155.5219   5.7211300817e+01   1.2641271380e+01    0.1812095    0.1144601  36.13 0.0005397238    1.568    0.362
        46  -9.5005    133.8710    146.8424   7.0416760756e+01   2.6422432440e+01    0.7583197    0.2738778 -56.88  0.002303433    4.660    0.785
        47  -8.6261    164.7030    149.0619   6.3827697701e+01   2.0533230374e+01    0.2714436    0.2029709 -84.29  0.001094041    2.605    0.616
        48  -8.5842    173.4571    149.4879   6.2099597940e+01   1.8932795763e+01    0.1356173    0.1182689   5.38 8.213813e-05    1.031    0.030
        49  -8.3796    147.5328    149.5352   6.7708815273e+01   2.3482762642e+01    0.1384519    0.1270208  21.16 -2.237805e-05    1.031    0.030
        50  -8.9901    223.7053    145.8561   5.2404825514e+01   1.1215570219e+01    0.2983362    0.2354288 -75.74 0.0008621927    2.688    0.628
        51  -9.0054    217.7827    145.0821   5.3185677205e+01   1.2234827858e+01    0.3111631      0.19658 -13.67   0.00175033    1.564    0.361
        52 -10.4766    213.6482    140.1204   5.2850290703e+01   1.3576705734e+01    0.3431551    0.2978345 -39.13  0.001759661    1.375    0.273
        53  -9.3072    202.5795    141.8530   5.5064894648e+01   1.5149331534e+01    0.4012268    0.2504333 -57.33  0.001465852    2.912    0.657
        54  -9.5672    192.3276    144.0719   5.7350745550e+01   1.6546189093e+01    0.2268285    0.1840779  40.17 0.0005845499    1.332    0.249
        55  -8.8590    159.3757    142.4280   6.3615197912e+01   2.2646522038e+01    0.2683798    0.2124116  15.53 0.0005623481    1.277    0.217
        56  -7.7516    166.3013    142.6784   6.2183580824e+01   2.1348329301e+01    0.1278262    0.1120432  89.66 0.0002475723    1.629    0.386
        57  -8.9934    228.1620    140.6074   5.0679553215e+01   1.1224447664e+01    0.2729077    0.1135098 -42.12  0.001225524    2.738    0.635
        58  -9.8488    194.7674    138.3102   5.5708377345e+01   1.7007347420e+01    0.2966239    0.1930309 -57.99   0.00140228    2.541    0.607
        59  -9.0370    145.0000    138.9891   6.6149522131e+01   2.5921734713e+01    0.2305388   0.08083931 -44.82 0.0008079295    2.981    0.665
        60  -8.8205     65.7037    143.2597   8.8765074161e+01   3.8187437188e+01      2.94818    0.8201131  40.27   0.01011831    3.015    0.668
        61 -12.5286     30.8145    148.4743   1.0004670187e+02   4.0904218230e+01    0.8727635    0.7098383 -35.13  0.002073593    1.539    0.350
        62  -9.6624    223.4017    128.9440   4.9007157649e+01   1.3527831854e+01    0.2602577    0.1856513  14.41 0.0004233465    1.469    0.319
        63  -9.9614    160.4413    128.7597   6.0423378998e+01   2.4898481748e+01    0.4231389    0.3463443 -20.27  0.002319384    1.238    0.192
        64  -9.2451    136.0396    128.1606   6.5967774094e+01   2.9734522443e+01    0.4484271    0.1967499 -48.02  0.001722281    2.424    0.588
        65  -8.8742    224.3281    231.5005   6.6694785854e+01   1.0389938937e+00    0.1874473    0.1700924 -72.91  0.001336815    3.146    0.682
        66  -9.1492    201.9283    125.8057   5.1764431456e+01   1.7637371248e+01    0.2143514    0.1773168 -37.73  0.000443638    1.265    0.210
        67  -7.7481     91.4817    126.4685   7.7980685869e+01   3.8287663859e+01    0.1482076    0.1386112  55.82 0.0002564085    1.031    0.030
        68 -10.3321    224.1442    120.1942   4.7039606267e+01   1.4589742540e+01     0.521477    0.2982763 -56.25  0.001897592    3.216    0.689
        69  -8.4922     54.2340    122.8762   8.9507344144e+01   4.4703660900e+01    0.2075017     0.176344  70.58 0.0003640477    1.140    0.123
        70 -12.8724    236.2666     73.5872   3.5022610005e+01   1.8535708637e+01    0.7356099    0.5915642 -44.77  0.002725064    1.190    0.160
        71 -10.0753    125.9229    230.8364   8.4583990023e+01   1.3039625643e+01    0.1979323    0.1763924 -23.25  0.000702548    1.368    0.269
        72  -9.5433    200.4998    115.6775   4.9736167069e+01   1.9417018273e+01    0.2425362    0.2064281 -87.61 0.0008801622    1.699    0.411
        73  -8.5295    174.0250    113.2480   5.3979758191e+01   2.4940460944e+01    0.3095548    0.1967188 -39.21  0.001097309    1.538    0.350
        74 -10.2603    134.7135    110.1743   6.2032882676e+01   3.3626546284e+01    0.8190942    0.1866626 -44.61  0.002213965    4.476    0.777
        75 -11.1978    135.1345    100.0693   5.9297838186e+01   3.5566696211e+01    0.7657569    0.5812575 -84.54 0.0009256477    1.880    0.468
        76  -8.3472     85.9495    113.4144   7.7008557676e+01   4.2329852827e+01    0.2436744     0.200621 -76.25 0.0004632141    1.309    0.236
        77 -10.2150    205.2030    109.9624   4.7653460574e+01   1.9391838154e+01    0.4142675    0.3400646   6.42  0.001772809    1.243    0.195
        78 -10.1902    208.1443    105.0238   4.6045481189e+01   1.9562138801e+01    0.2837168    0.2367386 -38.20 0.0003761229    1.189    0.159
        79 -10.3973    170.9824    106.3528   5.2890799518e+01   2.6739313050e+01    0.4402968    0.2529855 -49.09  0.001296556    1.962    0.490
        80 -11.7426    123.5312    104.2497   6.3450101534e+01   3.7182001160e+01     1.191512    0.8270065 -61.60  0.005358823    1.726    0.421
        81  -9.5224    144.6417    106.5876   5.8684141248e+01   3.2248537760e+01    0.4025266    0.2330214  29.63  0.001436418    2.169    0.539
        82  -9.2304    150.6176    104.5420   5.6766736575e+01   3.1364784218e+01    0.3204836    0.2550939  21.27 0.0007867036    1.396    0.284
        83 -10.2479     73.9241    106.4343   7.9564029940e+01   4.6031605899e+01    0.2679168    0.2282269 -63.82 0.0001808727    1.177    0.151
        84  -8.3600    221.7787    109.8816   4.5125267108e+01   1.6400500167e+01    0.1942742    0.1546002  -3.19 0.0008491339    1.226    0.184
        85 -10.4585    144.7711     95.1785   5.5622925329e+01   3.4404268341e+01    0.3809316    0.3502502 -49.59 0.0009559005    1.116    0.104
        86  -9.8648    114.4849     94.4840   6.3358066012e+01   4.1168441877e+01    0.2999698    0.2275719 -37.60  0.001038482    1.379    0.275
        87 -10.7675    131.8412     89.6500   5.7238555843e+01   3.8363710109e+01    0.4930481    0.3377989  63.53  0.002179144    1.720    0.418
        88  -9.7326    147.1289     86.4195   5.2620908866e+01   3.5506403165e+01    0.4695121    0.1435614  50.18  0.001463845    3.254    0.693
        89  -9.2214    125.0999     85.2508   5.7719079147e+01   4.0759802519e+01    0.2923847    0.1985503 -38.36 0.0009293359    1.504    0.335
        90  -9.1784    148.1832     82.9732   5.1388103873e+01   3.5890498148e+01    0.2798845    0.1984189  68.58  0.001274264    1.682    0.405
        91  -9.0134    140.0974     79.0933   5.2089329122e+01   3.8483266720e+01    0.2387854    0.2100257   7.27  0.000683575    1.281    0.219
        92  -8.8151    132.3077     78.0235   5.3654842914e+01   4.0510849752e+01    0.2219395    0.1882158 -43.67 0.0005616665    1.180    0.153
        93  -9.9988    125.8384     72.9365   5.3708576312e+01   4.3001879148e+01    0.5658889    0.2304985 -45.03  0.001471994    2.524    0.604
        94 -10.7011    152.4503     71.4799   4.7048294183e+01   3.6894832042e+01    0.6278701    0.3640454  71.79  0.002487002    2.331    0.571
        95  -8.5936    131.2752     73.3917   5.2463692175e+01   4.1626029735e+01    0.2138188     0.147376  63.38 0.0009415584    1.598    0.374
        96  -9.8995    143.3191     64.7823   4.6891579209e+01   4.0243628397e+01    0.5071312     0.258357 -53.42  0.001768144    2.452    0.592
        97  -9.6695    144.4320     59.6199   4.4978153250e+01   4.0828003503e+01    0.3495492    0.2996668 -23.23 0.0008494844    1.225    0.184
        98  -8.9353    125.7454     62.7982   5.0370078506e+01   4.4905225649e+01    0.2750188     0.186019 -36.03   0.00123052    1.498    0.332
        99 -10.2735    135.2674     58.9552   4.6764511412e+01   4.3222229251e+01    0.4694105    0.3041556 -31.51  0.001617227    1.592    0.372
       100  -8.8329    207.9687     60.2918   3.4998943266e+01   2.5821892093e+01     0.174199    0.1676692 -41.49 0.0004076537    1.083    0.076
       101  -8.1779     72.8782     58.6264   6.6234808342e+01   5.7652055779e+01    0.2050675    0.1868474  52.19 0.0005229813    1.127    0.113
       102 -10.0834    238.4339    175.7962   5.5723649443e+01   5.4318483907e+00    0.2641735    0.2204394  60.64  0.001265175    2.385    0.581
       103  -8.0897    103.7131     54.5341   5.3553638264e+01   5.1759388038e+01    0.2002592     0.149233  65.11 0.0006927284    1.462    0.316
       104  -8.8059     77.4996    222.5608   9.4092948422e+01   2.0311537954e+01    0.1981233    0.1433628  26.94 0.0002734816    1.225    0.184
       105  -8.7135    111.0023     52.9743   5.0806912380e+01   5.0284229103e+01    0.2221463    0.2168794 -57.37  0.001195612    1.035    0.034
       106  -9.5032    133.3826     48.0090   4.3374525831e+01   4.5481233589e+01    0.5685987    0.1688521 -40.36  0.001766055    3.211    0.689
       107  -9.8071    199.2506     45.6445   3.2121901751e+01   2.9602509988e+01     0.429003    0.1882152 -30.95  0.001469207    2.008    0.502
       108  -9.1566    213.5016    175.9268   5.9706273382e+01   8.7687476803e+00    0.2115898    0.1682675  18.63  0.000657354    1.172    0.147
       109 -11.6397    137.8735     43.0703   4.0662524963e+01   4.5073286849e+01    0.6472114     0.459791  87.62  0.002980398    1.652    0.395
       110 -10.9823    133.3999     39.8822   4.0416690925e+01   4.6702303325e+01    0.4951848    0.3726734 -64.83 0.0003688509    1.473    0.321
       111  -8.9985    110.7531     40.0021   4.5788326733e+01   5.2539923259e+01    0.2012674    0.1299376 -33.28 0.0005839312    1.588    0.370
       112  -8.7753     10.3282     44.3409   9.5371551182e+01   6.9212515795e+01    0.1482028   0.08146772 -41.34 0.0007051479    1.738    0.425
       113  -9.6284    164.7485     30.9871   3.2047061639e+01   3.9739280419e+01    0.7227007    0.2469835 -34.78  0.002211944    2.547    0.607
       114  -9.2403    171.1703     33.5222   3.2002428480e+01   3.7806806470e+01    0.2643053    0.2084637 -32.40 0.0004708305    1.231    0.188
       115  -8.9832    205.0839     37.8509   2.9379002525e+01   2.9231505934e+01    0.2566791    0.1734615 -22.23 0.0005991054    1.469    0.319
       116  -7.2977     53.3508     33.7225   6.4782165343e+01   6.6569046056e+01     0.139745    0.1144272  76.20 0.0002926163    1.642    0.391
       117 -10.4178    133.5997     28.6464   3.6157923616e+01   4.8183993514e+01    0.6371279    0.2795846 -10.75  0.001908948    4.283    0.767
       118  -8.3078     80.3093    221.6673   9.3401342185e+01   2.0133765262e+01    0.1727343    0.1223271  55.30 0.0005079784    1.363    0.266
       119 -10.9466    145.1693     29.1325   3.4324874284e+01   4.5056034665e+01    0.4739377    0.3334629 -11.36  0.002253824    1.681    0.405
       120  -9.0553     78.4119     29.5367   5.1363334106e+01   6.2135639804e+01    0.4092256    0.2036297 -34.16  0.001659155    2.074    0.518
       121  -9.2504    188.0208     29.2718   2.8733016317e+01   3.4174548539e+01    0.3003967    0.1850586 -22.76 0.0008550645    1.645    0.392
       122  -7.7875    189.5024    171.4953   6.3168660075e+01   1.2898330287e+01    0.1248996    0.1064995   7.61 -0.0003259148    1.058    0.055
       123  -8.2576    159.6976     28.3086   3.1855805781e+01   4.1358476449e+01      0.20374    0.1816483  75.74 0.0003960014    1.112    0.100
       124  -8.9927    157.7747     25.5677   3.1198056392e+01   4.2180036610e+01     0.277606    0.2135016 -35.52 0.0005640629    1.268    0.211
       125  -7.8234     92.4003     26.4671   4.5080667826e+01   5.9241192810e+01    0.1441157    0.1421772  60.64 0.0001042502    1.031    0.030
       126  -9.5098    179.0596     23.9488   2.8099854488e+01   3.6954110675e+01    0.4454129     0.338127  76.44  0.002445288    1.328    0.247
       127 -10.4109    243.4248     21.5892   2.2317986089e+01   2.3009142721e+01    0.2598875    0.1966169 -29.26 0.0007489401    1.180    0.153
       128  -8.4135    238.8959     19.4987   2.2100728820e+01   2.4094447002e+01    0.1485579    0.1138701  89.60  0.000977844    1.430    0.301
       129  -8.6935     78.4369     22.3038   4.7658585599e+01   6.3260810525e+01    0.2549203    0.1454937 -25.83 0.0005130971    1.918    0.479
       130 -10.0492    128.3778     18.5805   3.3157583028e+01   5.0796232930e+01    0.3425246     0.259824  67.74 0.0008180768    1.252    0.201
       131  -8.9677    224.5225    218.6219   6.4811750787e+01   2.3489397248e+00    0.2114393    0.1543766  35.02  0.001241775    1.732    0.423
       132  -8.6112    149.4732    217.9612   7.8279916145e+01   1.1858011623e+01    0.1689455    0.1280215  23.13 7.050503e-05    1.030    0.029
       133  -8.5777     33.6356    218.7186   1.0356385359e+02   2.5700018560e+01    0.1020362   0.08393103  -6.84 0.0007015324    1.682    0.405
       134  -9.1626     37.0029    214.7125   1.0262163603e+02   2.6113114153e+01    0.1720954    0.1243574  40.91  0.001174047    1.084    0.078
       135  -9.0336    189.1776    210.3035   6.9598030893e+01   7.6457804915e+00    0.2797065    0.2118949  55.09  0.001166409    2.308    0.567
       136  -7.8764    228.4903    207.3991   6.2480980670e+01   3.0948908805e+00    0.1085791   0.07964077   6.23 0.0001588158    1.040    0.039
       137  -8.6419    206.9843    206.0522   6.5810974848e+01   5.8811557294e+00    0.1526443    0.1359429  40.12  0.001122316    1.738    0.425
       138  -9.1719      9.7111    203.9086   1.0839315807e+02   3.0629265188e+01     0.177367    0.1681369  65.76 0.0005756491    1.289    0.224
       139 -13.3490    244.2827     71.1380   3.3631136396e+01   1.7390052366e+01     2.045295    0.2199576 -37.65  0.002051323    4.943    0.798
       140  -7.9420    236.5929    202.7185   6.0487284315e+01   2.6502946350e+00    0.1332948   0.08822284 -27.53 0.0005966831    1.549    0.355
       141  -9.8950    193.0346    194.9569   6.6520962136e+01   9.1220525205e+00    0.6621165    0.3631463 -56.47  0.002660467    5.287    0.811
       142  -8.8148     13.2163    188.1256   1.0706403726e+02   3.3524964777e+01    0.1862433    0.1394336  38.06 0.0003766764    1.181    0.153
       143  -9.8780    213.6214    186.1488   6.1457555541e+01   7.4531077967e+00    0.2410245     0.126052  46.96  0.001238662    2.727    0.633
