#   1 NUMBER                 Running object number                                     
#   2 MAG_AUTO               Kron-like elliptical aperture magnitude                    [mag]
#   3 X_IMAGE                Object position along x                                    [pixel]
#   4 Y_IMAGE                Object position along y                                    [pixel]
#   5 X_WORLD                Barycenter position along world x axis                     [deg]
#   6 Y_WORLD                Barycenter position along world y axis                     [deg]
#   7 A_WORLD                Profile RMS along major axis (world units)                 [deg]
#   8 B_WORLD                Profile RMS along minor axis (world units)                 [deg]
#   9 THETA_WORLD            Position angle (CCW/world-x)                               [deg]
#  10 FWHM_WORLD             FWHM assuming a gaussian core                              [deg]
#  11 ELONGATION             A_IMAGE/B_IMAGE                                           
#  12 ELLIPTICITY            1 - B_IMAGE/A_IMAGE                                       
         1 -11.9184    205.5651     35.9743   3.9278754445e+01   3.0046834674e+01    0.6100675    0.5592206  84.82  0.001376577    1.166    0.142
         2 -11.4955    231.4468     13.3006   3.1951132790e+01   2.7206116118e+01    0.9798952    0.4565369 -80.97  0.004891799    2.313    0.568
         3 -11.4002    233.7873      8.6768   3.0857953286e+01   2.7240430995e+01    0.8833482    0.4185152 -69.16  0.004692911    2.032    0.508
         4  -9.8014     40.8115      6.5988   6.6890621431e+01   6.9128194538e+01    0.2094391   0.08348719 -27.46  0.001012109    2.614    0.617
         5 -10.1482     59.2311      3.4820   5.8014156483e+01   6.6376225078e+01    0.2597345    0.2044525 -53.94  0.001637988    1.989    0.497
         6  -9.2188     73.4675    236.8717   1.0947594542e+02   1.5118218484e+01    0.2384208    0.1504767 -69.97  0.001259086    1.698    0.411
         7 -10.1157    140.2792    248.9374   9.6764969608e+01   3.1364460342e+00    0.2625059    0.1868327 -47.44  0.001551301    1.649    0.394
         8 -17.6915     14.6459    204.1015   1.1938755207e+02   2.9079811885e+01     14.78527     4.097066 -78.15   0.05795583    3.355    0.702
         9  -9.6003     99.4168    180.8712   9.6274481494e+01   2.3713351388e+01    0.2638402    0.2109646  29.04 0.0005976741    1.317    0.241
        10 -11.0883    106.6234    248.6868   1.0373718550e+02   8.1570804068e+00    0.4327121    0.2886083  57.63  0.001932839    1.500    0.333
        11 -10.2968     46.2423    210.9649   1.1296973811e+02   2.4154669247e+01    0.3014239    0.2008383 -72.24  0.001466785    1.452    0.311
        12  -8.4965    185.0878    172.5170   7.4326640973e+01   1.0111895966e+01    0.2182636    0.1397569  39.24 0.0006411086    1.582    0.368
        13  -9.3219    102.3436    172.6694   9.4140695476e+01   2.5192694261e+01    0.1586234    0.1110808  70.28 4.221289e-05    1.752    0.429
        14 -10.2693     71.4888    170.5063   1.0197009330e+02   3.0502133260e+01    0.2915387    0.2427187 -64.80   0.00064064    1.166    0.143
        15 -11.0442     75.4121    165.9445   1.0021093170e+02   3.1072835953e+01    0.6030297    0.3569404 -32.21  0.002102685    2.526    0.604
        16  -9.4581     41.5547    208.0862   1.1376242547e+02   2.5353932925e+01    0.3692686     0.186534  62.15  0.001327309    1.998    0.500
        17  -8.0096    110.7914    167.5938   9.1021937773e+01   2.4965163150e+01    0.2180103    0.1338083  47.98 0.0008532914    1.657    0.397
        18  -9.1880    149.2470    228.9689   9.2088311675e+01   5.3060399931e+00    0.1619432    0.1147806 -49.73 0.0008872765    1.597    0.374
        19 -11.3870     83.8678    158.3421   9.6618551128e+01   3.1697674085e+01    0.7055274     0.652548 -37.59  0.003930686    1.176    0.150
        20 -12.3765     58.4610    131.6622   9.9280673966e+01   4.2045786558e+01     1.371719    0.5829136 -77.45  0.004101171    4.325    0.769
        21 -12.0694     69.8392    144.5262   9.8180892970e+01   3.7257489727e+01    0.8629192    0.5835285  66.32  0.002813451    1.790    0.441
        22  -9.3133     75.7808    209.8463   1.0609400907e+02   2.0566483608e+01    0.2912306    0.2133411  81.35 0.0007571994    1.410    0.291
        23 -10.9819    112.3088    204.3698   9.6755523595e+01   1.6237815385e+01    0.5492002    0.2223781  48.81  0.002045553    2.654    0.623
        24 -10.1697     90.6176    151.0453   9.3394178948e+01   3.2441207537e+01    0.6529071    0.4052829 -25.48  0.002069737    2.534    0.605
        25 -10.9168     53.8426    149.2847   1.0365172286e+02   3.8169327732e+01     0.481913    0.3020556 -74.62  0.002315604    1.573    0.364
        26  -9.7593    134.3127    146.6420   8.0642853693e+01   2.5530256906e+01    0.6134053     0.210544 -53.43   0.00187885    3.226    0.690
        27 -10.9674    113.1067    195.9015   9.5269522839e+01   1.7984047860e+01    0.4183881    0.2886318  -4.27  0.001833306    2.357    0.576
        28  -9.0434    103.2165    138.1857   8.7196786914e+01   3.3451969876e+01    0.3812937    0.2656368 -13.73   0.00157914    2.180    0.541
        29  -9.6531    105.8829    131.2955   8.4903253303e+01   3.4636140638e+01    0.5609939    0.3169024 -52.65  0.002317645    1.741    0.426
        30 -10.6033     91.6188    136.7869   9.0249232393e+01   3.5815191646e+01    0.2925957    0.2576397 -37.36 0.0005040574    1.182    0.154
        31 -11.0431     70.4026    134.4536   9.6131334143e+01   3.9715494283e+01    0.4652408    0.2909063  47.64  0.002131879    1.728    0.421
        32 -10.7319    122.8893    200.5272   9.3657802942e+01   1.5332021705e+01    0.4190229    0.2682136 -86.46  0.001776599    2.507    0.601
        33  -9.8234    135.3625    127.8986   7.6054107543e+01   2.9618137152e+01    0.4128808    0.1919079 -49.56  0.001509735    2.166    0.538
        34 -10.2321    113.0256    128.5800   8.2246573681e+01   3.3938305581e+01    0.3838265    0.2779093  13.64  0.001125823    1.832    0.454
        35  -9.3075     99.7937    124.4543   8.5094592605e+01   3.7396028403e+01    0.2931983    0.2546659   2.16  0.001033349    1.320    0.243
        36 -12.0052     72.3934    152.2251   9.8791197110e+01   3.4949473890e+01    0.5499059    0.4522035 -67.59 0.0008699422    1.156    0.135
        37  -8.5020    108.6881    117.9843   8.0928779634e+01   3.7265150523e+01    0.2125314     0.197264 -51.90 0.0005103555    1.063    0.059
        38  -8.7258    231.2792    113.8536   5.3337315163e+01   1.2463389823e+01    0.2098082    0.1858988  84.48  0.001093894    1.281    0.220
        39 -12.0782     41.5737    109.7300   1.0060114906e+02   4.9482148644e+01    0.7071638     0.367643 -57.57  0.003283322    1.666    0.400
        40 -10.7540     45.2500    109.2363   9.9240520780e+01   4.9202138936e+01    0.3331169    0.2747924 -88.92  0.001375822    1.355    0.262
        41  -8.2432    205.5215    110.4397   5.6723999977e+01   1.8186052544e+01    0.1422151    0.1313688 -51.61  0.000138552    1.007    0.007
        42  -9.8927    194.4571    198.2004   7.7358796307e+01   3.6101727861e+00    0.3812186    0.2406579 -59.57  0.001762906    2.352    0.575
        43  -8.9682    114.6728    109.6918   7.7098709990e+01   3.7984839608e+01    0.1571326    0.1230369  -4.76 0.0002758749    1.656    0.396
        44  -9.2257     59.7828    197.3727   1.0844314503e+02   2.5590679738e+01    0.2261719    0.1893192 -78.74 0.0003386924    1.152    0.132
        45  -9.0034    155.8883     88.2401   6.0844518491e+01   3.3384155442e+01     0.408323    0.2619148 -73.22  0.001621011    2.391    0.582
        46 -10.4101    142.2812    227.0239   9.3306947832e+01   6.7717836947e+00    0.2555533    0.1828742  12.23  0.001339028    1.624    0.384
        47 -12.0266     58.3621    183.7679   1.0718994651e+02   2.9016097032e+01    0.8267995    0.7375909 -63.17  0.003558149    1.185    0.156
        48  -9.6130     50.0948    181.2702   1.0898103676e+02   3.0651892782e+01    0.2446791    0.2123231 -89.52 0.0004552262    1.037    0.036
        49 -11.4363    184.8564     54.0032   4.6394511148e+01   3.2314332925e+01    0.4554475    0.4226899 -15.30  0.001617307    1.313    0.239
        50 -11.9955    197.0278     44.0290   4.2216307822e+01   3.0910112500e+01    0.8250419    0.7581085  82.24  0.003352109    1.130    0.115
        51  -9.6584    105.7684    236.6086   1.0253079354e+02   1.0571724631e+01    0.1947939    0.1013286  44.31 0.0009436767    1.661    0.398
        52  -9.2067     55.7172    222.4706   1.1192975133e+02   2.0456675652e+01    0.2298997    0.1882366  71.61 0.0007847861    1.056    0.053
        53  -8.8503     79.5783    182.8017   1.0165510516e+02   2.6326617202e+01    0.2005135    0.1316058 -81.39 0.0007410969    1.688    0.408
        54 -10.1297     72.8045    245.5781   1.1042838600e+02   1.3477421231e+01    0.4152868    0.3198836  57.35  0.001836884    1.083    0.077
        55 -11.0177    135.9999    213.6436   9.2681657396e+01   1.0400399650e+01    0.4034832    0.2504637  27.29  0.001948692    1.647    0.393
        56  -9.3941     83.3074    244.1025   1.0811600215e+02   1.2337594198e+01    0.1786043    0.1530733 -48.82 0.0007905627    1.464    0.317
