#   1 NUMBER                 Running object number                                     
#   2 MAG_AUTO               Kron-like elliptical aperture magnitude                    [mag]
#   3 X_IMAGE                Object position along x                                    [pixel]
#   4 Y_IMAGE                Object position along y                                    [pixel]
#   5 X_WORLD                Barycenter position along world x axis                     [deg]
#   6 Y_WORLD                Barycenter position along world y axis                     [deg]
#   7 A_WORLD                Profile RMS along major axis (world units)                 [deg]
#   8 B_WORLD                Profile RMS along minor axis (world units)                 [deg]
#   9 THETA_WORLD            Position angle (CCW/world-x)                               [deg]
#  10 FWHM_WORLD             FWHM assuming a gaussian core                              [deg]
#  11 ELONGATION             A_IMAGE/B_IMAGE                                           
#  12 ELLIPTICITY            1 - B_IMAGE/A_IMAGE                                       
         1 -13.1306    181.8171     35.6979   6.5943531999e+01   3.4837852952e+01     1.091879    0.8796692  22.22  0.004596355    1.617    0.382
         2 -11.6335    186.1769     29.1212   6.3782040058e+01   3.4610005643e+01    0.4600536    0.4077893  69.93  0.001459865    1.083    0.076
         3  -9.7597     85.5958     12.5135   7.7581142142e+01   5.8060159539e+01    0.3785631    0.1719852  65.22  0.001543311    3.653    0.726
         4 -12.3181    202.7157      4.4292   5.6451040570e+01   3.3506455448e+01    0.8348458     0.448309  71.11  0.004214131    1.571    0.363
         5 -10.2195    164.7270    217.3136   1.1117772134e+02   5.1254829759e+00     0.287192    0.1637839  18.20  0.001179852    2.463    0.594
         6 -10.6342    140.0380    249.7227   1.2149845186e+02   3.2966623917e+00     0.358835    0.2770923  63.17  0.001726728    1.487    0.327
         7 -10.5552    140.7740    245.5669   1.2075422471e+02   3.9171781036e+00     0.261269    0.2005784  51.64 0.0008922584    1.290    0.225
         8 -10.8342    127.6810    248.8448   1.2387982813e+02   5.4238167915e+00    0.3742216    0.2889515  -8.37  0.002137798    1.794    0.442
         9  -8.5008    117.4865    250.5673   1.2616172845e+02   6.7112438242e+00      0.12691    0.1096746  47.40 1.662806e-05    1.009    0.009
        10 -19.5613     34.2013    151.0010   1.3129535376e+02   4.0065923641e+01     20.65524     3.258561 -65.06   0.05298128    6.229    0.839
        11  -9.7570    192.2843    193.0374   1.0075450407e+02   4.8571274342e+00    0.3814716    0.2190854 -63.15  0.001415649    3.301    0.697
        12 -11.0367     60.8148    188.1977   1.3009468277e+02   2.8251368240e+01    0.3450376    0.3004688 -87.16  0.002122773    1.051    0.049
        13 -10.2613     63.6567    186.3015   1.2916293409e+02   2.8318726995e+01     0.265348    0.1824129  77.81 0.0008764072    1.666    0.400
        14  -9.6496     90.3600    183.7450   1.2237551302e+02   2.5065186138e+01    0.2928599    0.2097822  73.30  0.001242711    1.696    0.410
        15  -9.9399     99.3338    180.8868   1.1970398993e+02   2.4297705571e+01    0.2538409    0.2135658  27.72 0.0006797218    1.284    0.221
        16  -8.4728      9.8210    214.5704   1.4369429828e+02   2.8029720008e+01    0.2904033    0.1789079 -68.79  0.001269855    1.442    0.307
        17 -10.7571    103.4842    171.9554   1.1705437334e+02   2.5686396468e+01    0.4600922    0.3327219 -28.60  0.002194624    1.694    0.410
        18 -10.3095    111.2162    212.1038   1.2207063198e+02   1.5366618962e+01    0.2628055    0.1929218 -83.90  0.001349289    1.658    0.397
        19  -8.8727    142.0478    170.5572   1.0733115092e+02   1.9011064713e+01    0.3092432    0.1966757 -86.84  0.001041156    3.561    0.719
        20  -9.5754    129.2154    211.2044   1.1790402549e+02   1.2532354615e+01    0.2346682      0.15881  72.60  0.001061322    2.141    0.533
        21 -10.1087    195.2615    168.5972   9.5075282355e+01   9.0455573928e+00    0.3321899    0.2709027  30.68 0.0007936915    1.253    0.202
        22  -7.8444    113.4532    160.4525   1.1227091216e+02   2.6631257837e+01    0.1471302    0.1440572 -55.12 5.506784e-05    1.011    0.011
        23 -11.4006    100.4201    153.9451   1.1429184588e+02   3.0419433220e+01     0.625012    0.3773376 -35.25  0.001552539    1.924    0.480
        24  -9.7772    134.4255    148.1756   1.0431611861e+02   2.5482938492e+01    0.4717721    0.1455381 -51.87  0.001351071    3.714    0.731
        25 -11.0334    106.6073    206.7980   1.2228418022e+02   1.7265134742e+01    0.4881831     0.296468 -46.62   0.00234532    1.770    0.435
        26 -10.8369    110.7516    138.9946   1.0830382327e+02   3.2062934186e+01    0.5559071    0.2844858 -31.11  0.001966365    2.781    0.640
        27 -10.7943     99.7113    139.0264   1.1127601239e+02   3.4012113528e+01    0.3136197    0.2811944   3.87 0.0003997189    1.202    0.168
        28  -9.9986    105.8710    130.6396   1.0766934875e+02   3.4840825009e+01    0.4105381    0.3103061 -52.70  0.001792869    1.318    0.241
        29  -9.3296    105.1004    126.0522   1.0678105311e+02   3.6007028354e+01     0.302711    0.2088528 -36.32 0.0006133607    1.463    0.316
        30  -9.8737    116.7448    130.0287   1.0460166705e+02   3.2963610094e+01    0.3214494    0.2561279  -8.15  0.001034088    1.492    0.330
        31  -9.0091    111.7020    119.0201   1.0323663951e+02   3.6331505862e+01    0.2065219    0.1939979 -25.14 0.0004228327    1.020    0.020
        32 -11.5891     73.8641    116.8596   1.1351115790e+02   4.3180930626e+01    0.4571616    0.3872986  88.68  0.002493985    1.523    0.343
        33  -8.6900    205.5683    110.1539   7.9915560883e+01   1.8152560966e+01    0.2298364    0.1729166  46.59 0.0007143873    1.413    0.292
        34  -9.3070    167.7901    112.8588   8.7938237446e+01   2.5887363352e+01    0.3565602    0.2349563 -71.91  0.001422987    2.414    0.586
        35 -10.7765    104.7248    199.3619   1.2153516038e+02   1.9211824382e+01    0.3951893    0.3010972 -13.18  0.001975053    1.857    0.461
        36  -9.3446    156.0896    199.8794   1.0989090220e+02   1.0110448988e+01    0.3128895    0.2230598  78.67  0.001375321    2.323    0.570
        37  -9.8695    175.0811     73.5834   7.6497350128e+01   3.1168386989e+01    0.2993676    0.2375679 -83.08 0.0007386751    1.461    0.316
        38  -8.6908    150.6289     80.1758   8.3124590145e+01   3.5666510623e+01    0.1999155    0.1374646 -23.23 0.0005810938    1.683    0.406
        39 -11.8804    167.4287     50.3479   7.1867138065e+01   3.6296616218e+01    0.4753461    0.3932466  48.50  0.001081552    1.183    0.155
        40  -9.2919    169.0245    235.8251   1.1342910358e+02   1.0105759913e+00    0.2030925    0.1858024 -20.57 0.0003783453    1.157    0.136
        41  -9.7171    183.0097    218.8045   1.0759215077e+02   1.6918934278e+00    0.2323443    0.1494606  11.31 0.0008278834    1.959    0.489
        42  -9.9048    112.7395    196.1908   1.1914717483e+02   1.8587046656e+01    0.3941576    0.2374493   8.32   0.00143106    3.428    0.708
        43  -9.6095    111.7761    217.7788   1.2280969075e+02   1.4073437945e+01    0.1926735    0.1527833  66.86 0.0008053473    1.340    0.254
