#   1 NUMBER                 Running object number                                     
#   2 MAG_AUTO               Kron-like elliptical aperture magnitude                    [mag]
#   3 X_IMAGE                Object position along x                                    [pixel]
#   4 Y_IMAGE                Object position along y                                    [pixel]
#   5 X_WORLD                Barycenter position along world x axis                     [deg]
#   6 Y_WORLD                Barycenter position along world y axis                     [deg]
#   7 A_WORLD                Profile RMS along major axis (world units)                 [deg]
#   8 B_WORLD                Profile RMS along minor axis (world units)                 [deg]
#   9 THETA_WORLD            Position angle (CCW/world-x)                               [deg]
#  10 FWHM_WORLD             FWHM assuming a gaussian core                              [deg]
#  11 ELONGATION             A_IMAGE/B_IMAGE                                           
#  12 ELLIPTICITY            1 - B_IMAGE/A_IMAGE                                       
         1 -14.7683    146.4405     61.6241   9.1174283281e+01   4.0109989015e+01     1.377265     1.260717   1.92  0.001056588    1.081    0.075
         2 -14.7507    157.1229     46.6963   8.4005886946e+01   3.9815191190e+01      1.33514     1.085544 -27.21  0.003864136    1.242    0.195
         3 -14.6936    167.9347     15.5983   7.1953388259e+01   4.0895920147e+01     1.064407    0.9938154  88.64   0.00385658    1.107    0.096
         4 -13.9024    186.9990     12.3395   6.8271448280e+01   3.6369494174e+01    0.9709805    0.5681568 -73.02  0.004277163    2.221    0.550
         5 -11.1161     13.1909    239.8865   1.5097602659e+02   2.4756010904e+01    0.1460727    0.1080625 -89.80   0.00113249    1.296    0.228
         6 -20.0859     93.6714    225.4847   1.3666234713e+02   1.7682007984e+01     7.835733     6.132668  67.45   0.05152823    1.097    0.089
         7 -13.5940    163.8125    156.6808   1.1213521056e+02   1.8362904054e+01    0.5307271    0.4311292 -39.44  0.001185579    1.292    0.226
         8 -13.4956    160.0353    151.3168   1.1183455289e+02   2.0129270118e+01    0.5109127    0.4109221 -23.79  0.002075292    1.379    0.275
         9 -10.7340     22.9766    156.0501   1.4377701532e+02   3.9623677528e+01    0.1721579    0.1378918 -89.59  0.000433369    1.028    0.027
        10 -10.2556     21.7238    232.4089   1.4931324962e+02   2.5156453856e+01    0.1026973   0.07770957  60.11 0.0001692349    1.212    0.175
        11 -11.3997     24.5409    215.7454   1.4793014884e+02   2.7765798459e+01    0.1455829    0.1068567  58.35 0.0002690591    1.205    0.170
        12 -11.4491      8.1571    149.1252   1.4634546120e+02   4.2308154149e+01     0.198266    0.1331025 -61.83 0.0007731745    1.440    0.306
        13 -13.0386    173.7423    148.6468   1.0832321447e+02   1.7849733133e+01    0.4207684    0.4126647 -60.51  0.001542464    1.134    0.118
        14 -11.9595    151.6386    249.4759   1.2907955478e+02   5.4106689003e+00    0.3261238    0.1659044  35.70  0.001866786    1.725    0.420
        15 -11.3174     10.8593    144.2826   1.4534083439e+02   4.3127062242e+01    0.2111866    0.1723774 -48.24 0.0003690339    1.505    0.336
        16 -12.2594    174.0474    140.3507   1.0641557387e+02   1.9323199083e+01     0.274657    0.2207697 -48.29 0.0006644909    1.343    0.255
        17 -13.2540     11.6531    205.7605   1.4951856283e+02   3.0809894394e+01    0.3664687    0.2851343  23.86  0.002545579    1.951    0.487
        18 -11.6749     36.0221    136.0648   1.3863195955e+02   4.2739622366e+01    0.1851474    0.1521168 -85.62 0.0004001961    1.040    0.039
        19 -12.3056    148.1519    133.8031   1.1066450943e+02   2.5973867963e+01    0.2811583     0.221571  86.82 0.0007494247    1.708    0.415
        20 -10.5717     24.8972    202.5771   1.4704241768e+02   3.0139556397e+01    0.1653122    0.1149918 -74.90 0.0003243136    1.382    0.276
        21 -10.7209     26.9810    194.9603   1.4614732147e+02   3.1375809373e+01    0.1926881    0.1383137  58.91  0.001209776    1.226    0.184
        22 -13.5803    160.9096    128.1060   1.0643618303e+02   2.4440621624e+01    0.5846483    0.4685669  33.71  0.002268326    1.258    0.205
        23 -10.3178     21.6214    194.1628   1.4706526505e+02   3.2051595061e+01    0.1328685    0.1004838  89.97 0.0003259479    1.118    0.105
        24 -10.4705     12.9768    121.7903   1.4258201800e+02   4.7834752468e+01    0.1777926    0.1102518 -38.16  0.001069701    2.036    0.509
        25 -19.0904     78.9799     93.3298   1.1904598183e+02   4.7165834820e+01     17.12134    0.7427117 -52.25   0.02309458   20.030    0.950
        26 -11.7112    141.1515    120.8013   1.0925464254e+02   3.0051405054e+01    0.3787266    0.2363172  65.23  0.001183459    2.286    0.563
        27 -12.2518     36.3112    117.2865   1.3597132581e+02   4.6900115211e+01    0.3176029    0.1757847 -57.05  0.001069322    1.533    0.348
        28 -10.8652    167.6932    112.6842   1.0109965753e+02   2.5929600156e+01    0.3075052    0.2278692 -81.33  0.001327506    2.080    0.519
        29 -11.1095    242.0725    184.5031   1.0272293197e+02  -8.2374931841e-01     0.185067    0.1137724  38.45 0.0004750094    1.530    0.346
        30 -10.8954    205.5175    110.1461   9.2750118868e+01   1.7821555329e+01    0.3188517    0.2099103  40.13 0.0008296432    1.553    0.356
        31 -10.9271     31.4965    104.4903   1.3528688947e+02   5.0206937074e+01    0.1959425    0.1848582 -30.60 0.0008972297    1.260    0.206
        32 -11.2892     34.8776    103.3517   1.3413597020e+02   5.0160121131e+01    0.2147388    0.1901936 -24.12   0.00079733    1.342    0.255
        33 -13.6749    196.8607    233.4235   1.1909236265e+02   3.8609849697e-01    0.3324819    0.3081454  69.05  0.002413765    1.506    0.336
        34 -11.4988    124.2207     95.7595   1.0701880239e+02   3.8664119823e+01    0.2070556    0.1750096  -6.11 0.0007098522    1.326    0.246
        35 -11.3371     28.2324    234.9686   1.4843180437e+02   2.4063305430e+01    0.1383151   0.09767872  83.16 0.0006629242    1.168    0.144
        36 -13.5395    199.9017    230.4815   1.1812089053e+02   2.6667349044e-01    0.6117207    0.1960891 -43.50  0.002594214    4.133    0.758
        37 -10.7407     23.6954     82.9577   1.3382819424e+02   5.5619561079e+01    0.2385758    0.1612862 -18.04  0.001284569    1.886    0.470
        38 -11.4287    142.0482     81.2292   9.8312853595e+01   3.7682965743e+01    0.2710089    0.2187966 -32.90 0.0005521978    1.218    0.179
        39 -11.2115    218.2069    219.4765   1.1317481665e+02  -1.3187084163e+00    0.2776634     0.149103 -44.56  0.001455268    2.590    0.614
        40 -11.0739    163.1532    244.3202   1.2647158409e+02   4.3211920846e+00    0.2583406    0.1672308  31.78 0.0009666866    1.396    0.284
        41 -13.3336    230.0478    168.1941   1.0155453088e+02   3.5392086094e+00    0.5278896     0.292353 -25.80  0.002565846    1.834    0.455
        42 -13.3221    160.8170     37.8789   8.0401340496e+01   4.0103015014e+01    0.4830365    0.4449558  37.65   0.00083044    1.042    0.041
        43 -11.2476     13.3399     59.7418   1.3253014128e+02   6.1312750823e+01    0.1844862    0.1534599 -70.47 0.0004919057    1.235    0.190
        44 -10.1302     24.7711     59.2118   1.2824993087e+02   6.0614985598e+01    0.1639552   0.09251933   1.30 0.0008691906    2.445    0.591
        45 -12.3273    153.6841    152.1512   1.1339833752e+02   2.1231388047e+01    0.3822491    0.2702003  67.43  0.001583324    1.840    0.457
