#   1 NUMBER                 Running object number                                     
#   2 MAG_AUTO               Kron-like elliptical aperture magnitude                    [mag]
#   3 X_IMAGE                Object position along x                                    [pixel]
#   4 Y_IMAGE                Object position along y                                    [pixel]
#   5 X_WORLD                Barycenter position along world x axis                     [deg]
#   6 Y_WORLD                Barycenter position along world y axis                     [deg]
#   7 A_WORLD                Profile RMS along major axis (world units)                 [deg]
#   8 B_WORLD                Profile RMS along minor axis (world units)                 [deg]
#   9 THETA_WORLD            Position angle (CCW/world-x)                               [deg]
#  10 FWHM_WORLD             FWHM assuming a gaussian core                              [deg]
#  11 ELONGATION             A_IMAGE/B_IMAGE                                           
#  12 ELLIPTICITY            1 - B_IMAGE/A_IMAGE                                       
         1 -14.0425    242.6131     49.6878   1.7004740600e+01   2.1929884819e+01     1.097054    0.9399887 -71.30  0.008458033    1.265    0.210
         2 -15.5487     39.0581     47.4155   6.2737533230e+01   6.7175583692e+01     1.496679     1.121088 -38.34   0.00610516    1.405    0.288
         3 -14.0131     48.1458     24.7017   4.5863711890e+01   7.0088307681e+01    0.9846916    0.4820271  42.59  0.004194969    1.972    0.493
         4 -13.2374     44.3698     22.7111   4.6810509500e+01   7.1201456542e+01    0.6268994    0.3470117  27.37  0.001929748    2.532    0.605
         5 -12.2533    135.6761     22.0502   1.9818932789e+01   4.8467694591e+01    0.3927219    0.3329107 -49.38  0.001523635    1.163    0.140
         6 -13.9891    120.4853     10.0970   1.7449633468e+01   5.3743220393e+01     1.095776    0.3681804  76.29  0.003020156    2.796    0.642
         7 -14.1168    107.9518      4.5687   1.6915948637e+01   5.7588835500e+01     1.427531    0.5660255  70.70  0.005847105    2.165    0.538
         8 -13.8393     92.7920      3.1961   1.8695063457e+01   6.1739010853e+01     1.490323    0.4832056  75.46  0.005280879    2.885    0.653
         9 -15.0382     73.9143     14.2989   2.8949441832e+01   6.5530829025e+01     1.843021    0.4722415  55.15  0.006109311    3.137    0.681
        10 -15.1679     85.5690     11.5331   2.4327316082e+01   6.2834699787e+01     1.923563      1.00206  64.34  0.008696584    1.685    0.407
        11 -11.8082    152.0845      9.9752   1.3974323008e+01   4.5636753882e+01    0.2639152    0.1730339 -89.39 0.0003249603    1.380    0.275
        12 -11.8570    138.0588      5.3775   1.3730647849e+01   4.9629905076e+01    0.2619099    0.2039554  70.63 0.0007183222    1.286    0.223
        13 -12.5007     73.6503      2.9038   2.2588541202e+01   6.6789311323e+01    0.5369169     0.437831 -54.10  0.002336221    1.305    0.234
        14 -11.0300      2.3258    115.6618   9.5802685091e+01   5.2127890791e+01    0.1606562   0.08808818  54.83 0.0007051494    1.725    0.420
        15 -11.9960    217.7208    112.5937   3.2727945647e+01   1.7390307789e+01    0.3135793    0.2401795 -59.73  0.001985596    1.479    0.324
        16 -13.7488    194.9942    112.9773   3.6052779431e+01   2.1136311038e+01    0.8498809    0.2502297 -41.25  0.003166933    2.881    0.653
        17 -11.4993    243.4348    103.4633   2.7849944144e+01   1.4787023623e+01    0.2308182    0.1533987 -50.83  0.001510547    1.446    0.308
        18 -12.4727    119.2490    103.3647   4.9297759987e+01   3.8121202113e+01    0.2895315    0.2057216  57.51  0.001318174    1.484    0.326
        19 -12.5281    134.0201     97.8417   4.4067048355e+01   3.6113225713e+01    0.4183294    0.3477898 -13.13  0.002033921    1.528    0.346
        20 -11.3502    200.8325     95.8449   3.1373247107e+01   2.2863448102e+01    0.3500037   0.07352544 -39.47  0.001133265    3.738    0.732
        21 -11.7023    114.5101     97.0335   4.8886969172e+01   4.0550951863e+01    0.2444517    0.1515602 -48.62  0.001034873    1.596    0.374
        22 -11.5381    218.8651     94.3473   2.8732908337e+01   1.9928459685e+01    0.2411206    0.1589071  78.21  0.001362841    2.176    0.540
        23 -13.9284     32.4411     88.6533   7.8588924896e+01   5.7393670903e+01      0.91534    0.4626265  26.80  0.003720348    1.967    0.492
        24 -12.6603    240.2378     89.0052   2.5295206152e+01   1.7232179015e+01      0.29047      0.24172 -12.27  0.002082902    1.409    0.290
        25 -10.6172    112.3197     89.3102   4.7306124075e+01   4.2739729599e+01    0.1532839    0.1276468   2.27 0.0005799028    1.644    0.392
        26 -11.7145    224.2039     86.3796   2.6414413327e+01   2.0182581854e+01    0.3288446    0.1217242  60.87  0.001486245    3.475    0.712
        27 -12.8749      6.0097     83.8991   9.1547758896e+01   6.0874603118e+01    0.3181685    0.3052207  23.79   0.00188506    1.114    0.102
        28 -11.2904    246.4171    182.8158   4.1749524614e+01   3.8136587778e+00    0.1548097   0.07589564 -26.39 0.0009509893    1.664    0.399
        29 -14.2031    226.1772     67.4983   2.2131374537e+01   2.2463506213e+01     1.215919      0.49339 -47.36  0.005967956    2.020    0.505
        30 -14.1584    231.3404     59.8659   2.0019594972e+01   2.2572434034e+01    0.7347529    0.5825582  82.32  0.005173138    1.487    0.328
        31 -13.3118    237.2099     79.1227   2.3564430041e+01   1.9043360962e+01    0.4046772    0.2752442 -34.65  0.001939296    1.203    0.169
        32 -14.7049    239.2248     70.2809   2.1548850098e+01   1.9888710709e+01     1.243506    0.4459548 -36.96  0.006125206    2.040    0.510
        33 -11.4216    213.0755     83.5186   2.7044229036e+01   2.2529044570e+01    0.2123496    0.1421667 -39.34 0.0008295395    1.218    0.179
        34 -11.2578    202.3174     81.8278   2.7960108176e+01   2.4760111729e+01    0.2792104    0.1623483 -13.50  0.001178288    3.083    0.676
        35 -12.1664     39.8418     81.3907   7.3255441041e+01   5.8485162194e+01    0.4101917    0.2822366   5.10  0.001818677    1.810    0.447
        36 -14.5972     22.7044     77.8967   8.1535327541e+01   6.1363419361e+01      1.22656    0.5380542  32.58  0.004859868    2.179    0.541
        37 -11.7981    219.6693     78.0261   2.5090196989e+01   2.2150966680e+01    0.4840086    0.1576338 -46.75   0.00201767    2.670    0.626
        38 -11.1533    176.1725     79.4698   3.1016202544e+01   3.0363947860e+01    0.3320063    0.2044747 -66.59  0.001541637    1.974    0.493
        39 -12.1363    210.8944     74.3146   2.5213745175e+01   2.4267413839e+01    0.2768019    0.2223547 -32.43  0.001767061    1.209    0.173
        40 -12.7926     60.8183     69.3293   5.9495384843e+01   5.8241428068e+01    0.4393203    0.2873029 -51.81  0.001952681    1.540    0.351
        41 -11.2052    189.2906     69.3166   2.6599457140e+01   2.9234799722e+01    0.2238399    0.2034215 -26.56 0.0008574969    1.249    0.199
        42 -11.3698    194.2843     68.6080   2.5799041835e+01   2.8322387415e+01    0.3016305    0.2080422 -53.23  0.001699846    1.273    0.215
        43 -14.1908    249.5710     69.4318   2.0514758847e+01   1.8353215580e+01     1.454589    0.3594106 -34.37  0.006133687    2.985    0.665
        44 -14.3084     27.5983     62.7971   7.5124388825e+01   6.4923108321e+01    0.7593184    0.4735135 -23.71  0.003310153    2.024    0.506
        45 -14.2625     54.0203     58.3144   5.8789221405e+01   6.2105463924e+01     1.042077    0.4759452 -54.50  0.003951504    2.265    0.558
        46 -14.9178     65.0047     41.9303   4.6581687963e+01   6.3365118185e+01    0.8528984    0.6930534  31.77   0.00438159    1.332    0.249
        47 -12.6925    247.8581    144.8839   3.5109931271e+01   8.5781580488e+00    0.2710217    0.2538909  69.61  0.002199453    1.644    0.392
        48 -12.3969     43.5298     62.4656   6.5802336538e+01   6.2878610483e+01     0.262617    0.2611527  60.30 0.0008344246    1.005    0.005
        49 -10.3734    169.2935     60.3612   2.6961724346e+01   3.4930714116e+01    0.1324241    0.1106103   9.76 0.0004050171    1.702    0.413
        50 -11.3849    197.4326     57.6893   2.2751242451e+01   2.9265523455e+01    0.2571465    0.1003372 -38.94  0.001080727    2.053    0.513
        51 -14.4763     52.4504     44.9129   5.4022346808e+01   6.5369061483e+01    0.8564683    0.5432758  58.56  0.003776932    1.868    0.465
        52 -12.1218      8.8630     63.3231   8.7034424207e+01   6.6374234427e+01    0.4870928    0.2958364 -54.41  0.002348004    1.525    0.344
        53 -10.9553    183.6940     53.7542   2.3306421437e+01   3.2718893866e+01    0.2308272    0.1919599 -86.29  0.001396007    1.203    0.169
        54 -12.3174      2.5729     46.0844   8.8270117558e+01   7.1222341796e+01     0.345352    0.2700648  48.20   0.00146072    1.398    0.285
        55 -12.6993    223.8188     50.4472   1.8574961192e+01   2.5126248160e+01    0.7259982    0.3784342 -50.65  0.004081801    1.552    0.355
        56 -14.4852     52.1228     34.6630   4.9228700830e+01   6.7481377702e+01    0.9229453    0.6539757  77.03  0.004220271    2.038    0.509
        57 -12.0045     47.8629    141.6620   8.0709070371e+01   4.0745328110e+01    0.3061079    0.1472154  15.27  0.001106219    2.592    0.614
        58 -11.6907      3.3873    139.3803   9.6588726179e+01   4.5488711410e+01     0.301167    0.2264156  57.08  0.001629551    1.181    0.153
        59 -10.9246    166.3502     32.8973   1.9533475688e+01   3.9511575227e+01    0.2235858    0.1660106 -75.87 0.0004234777    1.232    0.188
        60 -13.7069     77.6658     30.0921   3.5925547684e+01   6.2435940405e+01    0.5512866    0.3362359 -43.05  0.002534996    1.719    0.418
        61 -13.6641     61.8385     26.0122   3.9909737035e+01   6.6858396789e+01    0.4374308    0.3163414  53.92  0.002075585    1.288    0.223
        62 -13.1418    234.2254    133.8756   3.4793474474e+01   1.1839637272e+01    0.4954267    0.2835301  33.97  0.002955492    2.222    0.550
        63 -13.7803    237.1650    127.0309   3.3127506303e+01   1.2404700891e+01    0.5831066    0.3608266  -6.96  0.003262199    2.294    0.564
        64 -13.2576    222.6952    130.3069   3.5628127111e+01   1.3975456691e+01    0.4331993     0.268444  58.90  0.002478517    2.391    0.582
        65 -11.2218    122.0267    126.7098   5.4283394076e+01   3.2304321717e+01    0.2197426      0.20028  41.07  0.001167005    1.103    0.094
        66 -14.2862    247.6304    114.8137   2.9592049696e+01   1.2655508900e+01     1.111497    0.4249088 -32.22  0.005577072    2.157    0.536
        67 -12.8226    238.6399    115.7745   3.0785269485e+01   1.3776209087e+01    0.3608639    0.2641887 -28.54  0.002480172    1.141    0.124
        68 -11.8420    205.6528    123.5682   3.6695224047e+01   1.7621686940e+01    0.2634241    0.1365458 -40.13  0.001345372    1.629    0.386
        69 -12.1072    220.8773    119.4861   3.3721214323e+01   1.5860927662e+01    0.2050432    0.1492438 -22.81  0.001132612    1.311    0.237
