#   1 NUMBER                 Running object number                                     
#   2 MAG_AUTO               Kron-like elliptical aperture magnitude                    [mag]
#   3 X_IMAGE                Object position along x                                    [pixel]
#   4 Y_IMAGE                Object position along y                                    [pixel]
#   5 X_WORLD                Barycenter position along world x axis                     [deg]
#   6 Y_WORLD                Barycenter position along world y axis                     [deg]
#   7 A_WORLD                Profile RMS along major axis (world units)                 [deg]
#   8 B_WORLD                Profile RMS along minor axis (world units)                 [deg]
#   9 THETA_WORLD            Position angle (CCW/world-x)                               [deg]
#  10 FWHM_WORLD             FWHM assuming a gaussian core                              [deg]
#  11 ELONGATION             A_IMAGE/B_IMAGE                                           
#  12 ELLIPTICITY            1 - B_IMAGE/A_IMAGE                                       
         1 -12.3729     69.1520    145.6219   1.0032712633e+02   3.6962673570e+01     1.990132     1.065511  78.67   0.00648169    4.007    0.750
         2 -12.5704    205.0043     39.5007   4.1243309641e+01   2.9297288632e+01     1.282284      1.03084  28.47  0.007389415    1.712    0.416
         3 -11.3538      1.9492     40.7313   1.0132935961e+02   6.7545263186e+01     1.004735    0.1505334 -59.22  0.003154761    5.583    0.821
         4 -11.3023      2.0604      8.2747   8.9026287646e+01   7.3144550918e+01     1.088214    0.2142934 -47.25  0.004224145    4.468    0.776
         5 -12.2257    218.0975     27.1760   3.6957210971e+01   2.7902217884e+01    0.9437376    0.7502067  33.75  0.005735354    1.789    0.441
         6 -11.1437    243.8711      3.8004   3.0015207459e+01   2.5111199013e+01    0.7112028    0.3730612  79.07  0.004233761    1.765    0.434
         7  -8.2143     47.6528      2.1586   6.2682714506e+01   6.8283426462e+01    0.1837967    0.1470894  40.99 0.0006980306    1.368    0.269
         8 -13.7303     30.2902    249.6617   1.2061368862e+02   1.8259718780e+01      4.86007     1.353249  26.46   0.01319915   10.013    0.900
         9  -9.2591    116.5173    247.8569   1.0361836838e+02   7.2477577619e+00     0.426118    0.2338518 -76.29  0.002004559    2.991    0.666
        10  -8.4869     86.7347    249.3456   1.0978713411e+02   1.1260624760e+01    0.1994644    0.1360251 -86.32 0.0007152282    1.690    0.408
        11 -13.6028     81.8901    220.4841   1.0776716293e+02   1.7614756116e+01     6.626644     1.307639  42.66   0.01141364    3.946    0.747
        12 -13.0862     47.2251    191.0248   1.1238166572e+02   2.8711131563e+01     2.342883     1.278484 -88.67   0.01108747    1.981    0.495
        13 -14.3091      6.7906    246.5372   1.2462863842e+02   2.1286510564e+01     1.841189     1.630608  75.00    0.0152052    1.316    0.240
        14 -10.3101     68.5621    170.1711   1.0446301007e+02   3.0972833159e+01      0.33398    0.2816559 -28.23  0.001080273    1.459    0.315
        15 -12.4037     56.9329    238.8875   1.1477620644e+02   1.7202461542e+01    0.7891811    0.5644568  51.05 0.0005785368    1.169    0.144
        16 -12.8108     18.8032    218.8578   1.2087508628e+02   2.5624836661e+01    0.9944011    0.8857411 -53.00  0.007298368    1.514    0.339
        17  -8.3961    114.5747    172.7799   9.3008524232e+01   2.3098583887e+01    0.2047853    0.1431308 -69.41 0.0009440777    1.638    0.390
        18  -7.9781    146.6577    172.3252   8.5034001554e+01   1.7334466406e+01    0.1528943    0.1191871  76.75 0.0007050993    1.734    0.423
        19 -13.5232      9.5573    207.3851   1.2199912352e+02   2.8955465384e+01     1.314417     1.021435 -53.23  0.006998081    1.627    0.386
        20 -11.2683     58.2173    129.8661   1.0067754865e+02   4.2354763740e+01     1.172828    0.4466305 -73.14  0.003359048    4.643    0.785
        21 -10.8993     84.9554    154.5876   9.7501854439e+01   3.2400950334e+01    0.7509527     0.457963 -33.68  0.001982884    2.172    0.540
        22 -10.9381     78.1986    160.7027   1.0041431917e+02   3.1920200692e+01    0.5940711    0.4019995  41.02 0.0004778664    1.493    0.330
        23 -11.6982     65.5105    156.8350   1.0323812335e+02   3.4670199773e+01    0.5101004    0.3284258 -44.53  0.001209358    1.680    0.405
        24  -9.9419     58.7870    229.4775   1.1358928396e+02   1.8857169321e+01     0.362678    0.2091412 -79.16  0.001660208    1.795    0.443
        25  -8.8737    133.7306    144.7175   8.2365499734e+01   2.6030484056e+01    0.4453785    0.1326654 -47.40  0.001321271    3.309    0.698
        26 -10.6522     87.3245    139.5461   9.3928586991e+01   3.5734881302e+01    0.3139788    0.2659827 -41.47 0.0005815674    1.199    0.166
        27  -8.4488    198.0642    139.6941   6.6610849701e+01   1.3926171432e+01    0.2907487       0.1929 -54.31  0.001330917    1.705    0.413
        28  -9.2749     76.6483    137.3201   9.6589444687e+01   3.7946415272e+01    0.2497706    0.2221727  43.75 0.0005951328    1.180    0.152
        29  -9.5632     71.0454    134.3087   9.7655631499e+01   3.9514446942e+01    0.2017225    0.1951762  62.65 0.0009415116    1.088    0.081
        30  -9.2336    108.0844    130.8194   8.6073040977e+01   3.4240508080e+01     0.585494    0.3018247  32.56   0.00225168    2.164    0.538
        31  -9.5950    100.3696    139.7249   9.0245490456e+01   3.3493109445e+01    0.5151738     0.340207 -15.97  0.002045755    2.438    0.590
        32  -9.0921     97.3332    126.3659   8.8128973955e+01   3.7254933047e+01     0.308764    0.2401114 -21.11 0.0009007105    1.531    0.347
        33  -8.1317     44.5192    123.9886   1.0383709698e+02   4.5434852648e+01    0.2188471    0.1239733 -64.57 0.0008371893    1.586    0.369
        34  -8.0929    106.8866    119.1802   8.3611688254e+01   3.7208935284e+01    0.2164549    0.2024811  75.19 0.0003070881    1.164    0.141
        35  -9.1298     32.8001    156.8809   1.1211018863e+02   3.8485983001e+01    0.3642417    0.1538764 -72.29  0.001571657    2.141    0.533
        36  -8.1906    205.8061    110.3816   5.8324169224e+01   1.7842701103e+01    0.1900571    0.1358673  40.42 0.0004300886    1.565    0.361
        37 -12.2851      5.0036    185.6649   1.2152954100e+02   3.4162427609e+01     1.055868    0.4534732 -84.34  0.001346354    2.038    0.509
        38  -8.2620    120.5079     98.4566   7.4216673103e+01   3.9104999531e+01    0.1523107    0.1496796 -10.19 8.191053e-05    1.011    0.011
        39  -8.1622     33.3137     96.6718   1.0225896737e+02   5.3196154142e+01    0.1302292    0.1003366  74.98 0.0004242175    1.671    0.402
        40  -8.0424     17.6488     90.3081   1.0661470412e+02   5.5974394514e+01    0.1240297   0.09344885  68.55 0.0007043461    1.714    0.416
        41  -8.8361    244.5058     86.4894   4.7092113181e+01   1.4011117405e+01    0.1309397    0.1132268 -46.77 2.279137e-05    1.043    0.041
        42  -8.6010     72.6275     83.2508   8.4751864554e+01   5.1314868326e+01    0.2521824    0.1727315  46.56 0.0007520219    1.686    0.407
        43 -10.4948     13.3929     60.2256   1.0150136377e+02   6.2928127754e+01    0.2999354    0.2123464 -66.02  0.001027588    1.494    0.331
        44 -11.8092    195.9415     45.6900   4.3914361896e+01   3.0565120087e+01    0.7439703    0.5282883  -5.19  0.003626092    2.136    0.532
        45 -10.4086     63.5382    175.6176   1.0652794185e+02   3.0328405426e+01    0.4918311    0.3072478 -37.58  0.002305002    2.132    0.531
        46 -14.5031      6.0855    144.4187   1.1784826817e+02   4.3772589102e+01     9.921431     2.880204 -83.76   0.03223179    4.415    0.774
        47 -10.6645    141.0202    223.2005   9.5169430942e+01   7.9393127197e+00    0.5166306    0.3478225  58.74  0.002647134    1.804    0.446
        48  -7.4108     48.6928     42.6511   8.0279571234e+01   6.2684036276e+01     0.137252   0.08827694 -10.51 0.0004022195    1.705    0.414
        49  -7.8000    136.8810     42.8323   5.3084253793e+01   4.5131154112e+01    0.1897804     0.162362 -78.84 0.0003945944    1.323    0.244
        50  -8.6414    138.5107     36.5811   5.0765978265e+01   4.5559369632e+01     0.318431    0.1980564 -73.92  0.001338491    2.496    0.599
        51 -12.6657     37.3680    200.2807   1.1554229151e+02   2.7719218480e+01     1.362854    0.6561565 -68.88   0.00246406    1.905    0.475
        52  -7.6761    107.6930    203.7006   9.9754866346e+01   1.7295627973e+01    0.1327105    0.1088028 -10.88 0.0003621556    1.594    0.373
