#   1 NUMBER                 Running object number                                     
#   2 MAG_AUTO               Kron-like elliptical aperture magnitude                    [mag]
#   3 X_IMAGE                Object position along x                                    [pixel]
#   4 Y_IMAGE                Object position along y                                    [pixel]
#   5 X_WORLD                Barycenter position along world x axis                     [deg]
#   6 Y_WORLD                Barycenter position along world y axis                     [deg]
#   7 A_WORLD                Profile RMS along major axis (world units)                 [deg]
#   8 B_WORLD                Profile RMS along minor axis (world units)                 [deg]
#   9 THETA_WORLD            Position angle (CCW/world-x)                               [deg]
#  10 FWHM_WORLD             FWHM assuming a gaussian core                              [deg]
#  11 ELONGATION             A_IMAGE/B_IMAGE                                           
#  12 ELLIPTICITY            1 - B_IMAGE/A_IMAGE                                       
         1  -8.0808    120.6524     20.9029   5.4377385015e+01   5.2365110458e+01    0.1938902    0.1186768 -36.49 0.0009374798    1.792    0.442
         2  -7.7543     83.3911     11.1875   6.0214881822e+01   6.1578117024e+01    0.1694874    0.1138076 -31.60 0.0006106887    1.645    0.392
         3  -8.5353     55.8419     10.2257   6.9502491965e+01   6.6734402470e+01    0.1953437    0.1535969 -25.30 0.0007488494    1.371    0.271
         4  -8.6885     90.9986      9.1802   5.7093203244e+01   6.0203695136e+01    0.2769882    0.1551709 -40.33 0.0009066663    2.245    0.555
         5  -7.8007     47.4464     10.2393   7.3044889353e+01   6.8045936906e+01    0.1584064    0.1050451 -33.20 0.0009396927    1.605    0.377
         6  -8.3253    101.4891      8.0169   5.3832348740e+01   5.8035264451e+01    0.1838823    0.1263735 -17.74 0.0007601507    1.538    0.350
         7  -7.9265      5.6775      8.2977   9.3735792309e+01   7.2981660313e+01   0.09058812   0.08698953 -17.71 0.0002576793    1.623    0.384
         8  -8.0041    237.3464      7.2303   3.4685812486e+01   2.5554847127e+01    0.1691909   0.09323384 -43.79 0.0001900414    1.591    0.371
         9  -8.6433     33.4665      5.0433   7.6834433781e+01   7.0643462730e+01     0.275959    0.1708298 -47.30  0.001494895    2.678    0.627
        10  -8.4265     78.9569      4.2659   5.8398736481e+01   6.3134981154e+01    0.2036623    0.1621322 -22.59 0.0007835608    1.381    0.276
        11  -7.8605     16.3407      3.1631   8.4933541805e+01   7.2845178616e+01     0.152151   0.09049786 -41.17 0.0007838382    1.777    0.437
        12  -7.5047    115.4961      2.5044   4.8466929490e+01   5.5298694355e+01    0.1309882    0.1160545  48.68 -9.175552e-05    1.052    0.050
        13  -8.4263     62.1081      1.4703   6.2663894301e+01   6.6586897763e+01    0.1722329    0.1087151  44.63 0.0004609335    1.501    0.334
        14  -7.5308     39.2882      1.6431   7.2186465458e+01   7.0257596070e+01    0.1031387    0.0905116 -33.64 0.0007024827    1.680    0.405
        15  -8.4769     67.5900    245.2539   1.1823044530e+02   1.5483874865e+01     0.195263    0.1026931 -79.00  0.001125318    2.082    0.520
        16  -9.8726    248.6000    242.6157   8.3871014214e+01  -1.0633904095e+01    0.3489278    0.1792284 -36.58  0.001947916    2.277    0.561
        17  -8.3488    184.0638    250.3054   9.6743009446e+01  -2.4217188212e+00    0.2042374    0.1244136  24.24  0.001184655    1.485    0.327
        18  -9.4065    104.0189    247.0634   1.1160744447e+02   1.0184205520e+01    0.4728043    0.2542505 -89.61  0.002239658    3.215    0.689
        19  -8.5656     93.8651    249.6373   1.1376524932e+02   1.1187352980e+01    0.2830735    0.1348409  63.94  0.001364263    2.630    0.620
        20  -7.6565     86.2570    250.6491   1.1526381622e+02   1.2064364591e+01    0.1167566   0.07185245  66.94 0.0004098139    1.603    0.376
        21  -8.7195      9.6890    244.1358   1.2817325076e+02   2.2214509403e+01    0.2275142   0.09232038  84.58  0.001267568    2.249    0.555
        22  -8.5203    202.0048    243.5290   9.2380330609e+01  -4.2016277042e+00    0.1896984    0.1669794 -46.01 0.0008152954    1.623    0.384
        23  -8.6663    168.9773    243.4028   9.8636584603e+01   8.7201171365e-01    0.1981556    0.1742383 -79.37 0.0007752796    1.630    0.387
        24  -8.3828    139.1848    244.1757   1.0451609527e+02   5.3895974696e+00    0.1682408    0.1305247  61.29 0.0006550301    1.393    0.282
        25  -9.3994     77.8130    243.1428   1.1616957903e+02   1.4522016612e+01    0.3040421    0.1670049  77.45  0.001654582    2.175    0.540
        26  -7.9254     58.3244    244.6400   1.1986212666e+02   1.6761328631e+01    0.1244747   0.06448366  64.65  0.000704304    1.780    0.438
        27  -8.2251     49.5986    243.3683   1.2133329474e+02   1.8049459702e+01    0.2116379   0.08496214  88.37 0.0009566371    3.388    0.705
        28  -7.7182     34.4874    244.4702   1.2404569179e+02   1.9582933740e+01    0.1101197   0.07994771  66.75 0.0004067896    1.010    0.010
        29  -8.3831    195.0102    242.9696   9.3605539064e+01  -3.0748464200e+00    0.1883884    0.1462305  17.79  0.000462726    1.075    0.069
        30  -8.9422    194.2899    239.6703   9.3237420549e+01  -2.5103941042e+00    0.2185439    0.1775287  48.64 0.0006979541    1.508    0.337
        31  -9.5003    160.1886    240.5508   9.9943742754e+01   2.6802517282e+00    0.3168501    0.2286447 -80.28  0.001307065    2.403    0.584
        32  -9.1360    183.3041    239.9185   9.5372160925e+01  -8.4965388284e-01    0.3845056     0.346742  80.97  0.002271155    1.652    0.395
        33  -8.2297    153.3965    242.2105   1.0149505067e+02   3.4891521761e+00    0.1493572     0.120239 -70.31 0.0007094967    1.691    0.409
        34  -8.1242     88.1248    242.1370   1.1413869365e+02   1.3295679523e+01    0.1621343    0.1155155  71.50 0.0005500974    1.354    0.262
        35  -8.8288    240.7470    239.2444   8.4673559698e+01  -9.1978501319e+00    0.3015861    0.1192658 -24.21  0.001404924    2.923    0.658
        36  -9.5335    109.0497    235.3389   1.0937910852e+02   1.1490730977e+01    0.5010599    0.2820854  85.48  0.002293571    3.090    0.676
        37  -7.9519     41.4339    239.9452   1.2255570925e+02   1.9628658965e+01    0.1566904   0.06993084  74.73  0.000711315    2.405    0.584
        38  -8.0874      2.6530    240.3126   1.2915221032e+02   2.3569870103e+01     0.113744   0.05026083  62.93  0.000621777    1.714    0.417
        39  -8.9940    135.9548    239.1173   1.0451277127e+02   6.7166414498e+00    0.2401978    0.1447202  53.52  0.001311061    1.666    0.400
        40  -8.3424    129.0336    238.8467   1.0584369451e+02   7.8366651918e+00    0.2077229    0.1152505  55.79 0.0007473395    1.934    0.483
        41  -8.9147    230.8363    236.9220   8.6042836837e+01  -7.5451193133e+00    0.2187837    0.1626273 -39.70 0.0009367972    1.819    0.450
        42  -9.1737    147.0161    245.9462   1.0322219334e+02   3.8991889101e+00    0.3084598    0.1996429  69.90  0.001536175    2.454    0.593
        43  -7.9474     25.4718    236.9610   1.2517329932e+02   2.1932673458e+01    0.1623003   0.06478003  74.92 0.0008099181    2.619    0.618
        44  -8.1853     12.9967    238.0000   1.2734986689e+02   2.3006358079e+01    0.1567611   0.05103751  34.91 0.0007992137    2.948    0.661
        45  -9.8469    214.8306    233.2190   8.8349060451e+01  -4.7408998130e+00    0.4580458    0.3554997  87.86  0.002263944    3.703    0.730
        46  -8.9469    203.2765    234.9688   9.0797240573e+01  -3.2328231340e+00    0.2465797      0.20548 -70.14  0.001025731    2.157    0.536
        47  -9.6701    175.7153    233.4567   9.5873135707e+01   1.3054603447e+00    0.4314768    0.2466578 -56.98  0.002141385    2.710    0.631
        48  -8.3538    170.4311    235.9545   9.7282435940e+01   1.7658427916e+00    0.1597203     0.124777 -42.98 0.0005148308    1.535    0.348
        49  -7.9489     58.0084    237.0000   1.1934569930e+02   1.8201238253e+01    0.1835073   0.05582158  36.68 0.0006913143    2.944    0.660
        50  -9.1462    247.8088    234.6842   8.2679651660e+01  -9.6051696145e+00    0.2462933    0.1618162 -17.21  0.001076993    1.380    0.276
        51  -9.2298    246.4379    229.1503   8.1968938609e+01  -8.7505046277e+00    0.3555484    0.1694352 -34.30  0.001481129    2.161    0.537
        52  -8.2750    152.6908    235.3356   1.0069683386e+02   4.6941329010e+00    0.1239215   0.09141267  63.26 0.0002800454    1.678    0.404
        53  -8.3240     99.8330    234.6649   1.1112400783e+02   1.2974123569e+01    0.2297722    0.1379733  74.74  0.001161339    2.110    0.526
        54  -9.2681     78.6644    234.5684   1.1523929991e+02   1.5974466497e+01    0.2338452    0.1526014  77.84  0.000861199    1.576    0.365
        55  -8.9628      8.1837    234.7956   1.2800657723e+02   2.4062236050e+01     0.129496    0.1086612  87.16   0.00094986    1.319    0.242
        56  -8.3660    122.8738    234.1047   1.0648517180e+02   9.6052291200e+00    0.1929208    0.1474152  63.63 0.0006471246    1.343    0.256
        57  -9.4138     67.9086    231.4803   1.1702944224e+02   1.7984498061e+01    0.4991553    0.2494478  84.51  0.002089738    2.576    0.612
        58  -8.2527    194.2223    232.8408   9.2181777318e+01  -1.5324948629e+00    0.1761979    0.1519973  32.82 0.0003883326    1.221    0.181
        59  -9.2304    141.8755    231.4008   1.0232006193e+02   7.0772520393e+00    0.5865483    0.2314071  54.71  0.002012188    4.260    0.765
        60  -8.1046    132.7798    232.9257   1.0435225342e+02   8.2622704774e+00    0.1970061    0.1367929  76.12  0.001070311    1.994    0.499
        61  -8.4953     92.2964    231.7910   1.1230746268e+02   1.4592180211e+01    0.2475181    0.1437122 -83.60 0.0009555563    2.165    0.538
        62  -9.1672    186.3887    230.6025   9.3343164874e+01   3.3219469558e-02     0.298192    0.2305115 -67.52  0.001467402    2.151    0.535
        63  -8.3842    157.5433    232.0511   9.9265926129e+01   4.4481988828e+00    0.1660478    0.1275805 -45.99 0.0004270697    1.543    0.352
        64  -8.6591    236.1018    230.9973   8.4105693283e+01  -7.5451157235e+00    0.1960133    0.1680595   5.79 0.0006781532    1.248    0.199
        65  -8.8455      1.7416    230.8932   1.2891117563e+02   2.5386242497e+01    0.1998759   0.09848421  74.49 0.0007322291    1.602    0.376
        66  -8.3808    207.0207    230.2550   8.9322988522e+01  -3.1511285561e+00    0.1890139    0.1542646  12.16 0.0003922073    1.034    0.032
        67  -8.5872    206.2072    226.2039   8.8803389159e+01  -2.4524305214e+00    0.2286545    0.1650749 -51.50 0.0008950239    2.033    0.508
        68  -9.1742    151.3335    228.9983   1.0007579552e+02   5.9573067724e+00      0.27743    0.1992171  89.89  0.001175994    2.314    0.568
        69  -9.5933    148.6825    224.6826   9.9992992217e+01   7.1240789543e+00    0.4001828    0.2796693  84.78  0.001378404    2.425    0.588
        70  -7.9472    229.6225    228.8118   8.4895547311e+01  -6.3380351392e+00    0.1509459    0.1083697 -35.42 0.0007046488    1.645    0.392
        71  -8.7194    162.2516    227.9828   9.7724977339e+01   4.3468012725e+00    0.2989703    0.1732567  56.68  0.001194311    2.303    0.566
        72  -8.8594    127.9692    227.4501   1.0461407172e+02   9.9853018181e+00     0.304308    0.1842308  60.32  0.001138436    1.924    0.480
        73  -8.1631    120.0175    227.9471   1.0629878507e+02   1.1146780412e+01     0.204848    0.1355937  65.63 0.0006879817    1.739    0.425
        74  -7.9691    223.1897    227.2120   8.5795461832e+01  -5.1814139989e+00     0.150877    0.1387314   9.59 0.0006014397    1.349    0.259
        75  -7.3808    178.2836    227.2924   9.4415108446e+01   1.8434122374e+00     0.125616   0.09017821   7.85  0.000218601    1.536    0.349
        76  -8.2243     49.0507    226.9755   1.2025364662e+02   2.1199456292e+01    0.1941793    0.1058799  66.54 0.0007853915    1.676    0.403
        77  -7.8920    200.1324    226.2119   8.9967680157e+01  -1.4999669437e+00    0.1570109    0.1432012  35.80  0.000555983    1.326    0.246
        78  -7.9229    188.9754    226.0314   9.2105239348e+01   3.0738649095e-01    0.1591681    0.1226715  27.80 0.0003392783    1.095    0.087
        79  -8.9372     93.9757    224.2368   1.1116323664e+02   1.5778380830e+01    0.3971653    0.1832462  59.99  0.001746816    2.623    0.619
        80  -8.7986    180.4547    224.1061   9.3476951508e+01   1.9888479821e+00    0.2358552    0.2034694  54.31 0.0006037637    1.408    0.290
        81  -9.0738    104.6980    223.6308   1.0890457153e+02   1.4303149718e+01    0.3210613    0.2032445  81.13  0.001356342    2.076    0.518
        82  -8.8601    216.5224    223.6663   8.6424018986e+01  -3.6891403785e+00    0.2114085    0.2030105   3.18  0.000938792    1.411    0.291
        83  -8.5306    173.0093    223.2730   9.4834213764e+01   3.3459484549e+00    0.2065203    0.1791763  81.37 0.0007185385    1.634    0.388
        84  -8.1829    113.8985    224.1670   1.0707934696e+02   1.2793974270e+01    0.2002298    0.1498375  62.55 0.0006091777    1.320    0.242
        85  -8.0686     60.2702    224.1543   1.1787399485e+02   2.0379405919e+01    0.2804604   0.07873984  52.21  0.001085739    3.458    0.711
        86  -7.6574     38.3040    224.6686   1.2210335060e+02   2.2889800156e+01    0.1229612   0.06550287  66.21 0.0007036593    1.656    0.396
        87  -7.3420    233.2930    223.6440   8.3338174851e+01  -6.1941697165e+00    0.1017743    0.1014659 -61.16 0.0004667009    1.689    0.408
        88  -9.1766    225.4244    222.0575   8.4493002265e+01  -4.8175802267e+00    0.2248083    0.1858153 -29.82 0.0007385821    1.428    0.300
        89  -8.6512    140.4541    222.6480   1.0139314100e+02   8.8292402542e+00    0.2450157    0.1695499  76.93  0.001091412    2.168    0.539
        90  -8.5617    239.0744    221.6212   8.1946602936e+01  -6.7649536688e+00    0.2039452    0.1900838 -39.54  0.001116221    1.693    0.409
        91  -9.3174    159.9569    221.1057   9.7146988412e+01   5.8717077202e+00    0.4901269    0.2250001  53.77  0.001737418    3.090    0.676
        92  -9.4388      6.7754    221.5283   1.2762479092e+02   2.6712150499e+01    0.3485511   0.07397584  57.10  0.001394146    4.176    0.761
        93  -9.1358    120.5141    219.3913   1.0509404110e+02   1.2650998497e+01     0.459434    0.2338377  62.46  0.001816366    2.945    0.660
        94  -8.5291     83.0195    220.8600   1.1302795942e+02   1.8001937274e+01    0.2708125    0.1430753  66.37   0.00131439    2.205    0.546
        95  -8.3283     72.9504    220.7983   1.1505814501e+02   1.9394912035e+01    0.2357244    0.1309866  75.18 0.0008958789    2.078    0.519
        96  -8.1623     27.5444    221.0029   1.2385765417e+02   2.4777079774e+01    0.1673965   0.09301373 -81.86  0.001032948    1.603    0.376
        97  -8.2803    202.8489    220.1361   8.8418452795e+01  -1.0363152010e+00    0.1807994    0.1645792  28.69 0.0005635045    1.267    0.211
        98  -8.8709    248.6616    217.9433   7.9603888830e+01  -7.6487543575e+00    0.3054397    0.2348114  69.58  0.001527583    3.747    0.733
        99  -9.3656    192.4213    221.4398   9.0671889446e+01   4.4988942683e-01    0.2821126    0.2464126 -88.22  0.001025935    1.844    0.458
       100  -8.1451    210.0285    219.2447   8.6885872839e+01  -2.0472662970e+00    0.1755942     0.145198  16.45 0.0003966857    1.051    0.048
       101  -9.4486    132.9882    216.1929   1.0203076387e+02   1.1230390586e+01    0.4545377    0.2857921  78.72  0.001833203    2.795    0.642
       102  -8.4284     62.0055    217.3945   1.1693469016e+02   2.1507383444e+01    0.2834414    0.1398817  69.12  0.001252447    2.308    0.567
       103  -8.7420     51.6492    217.4675   1.1899815526e+02   2.2774839743e+01    0.3006425    0.1569094  63.10 0.0009395131    1.801    0.445
       104  -7.6957    179.3325    217.6782   9.2652820809e+01   3.2035803805e+00    0.1261048    0.1017053  64.29 0.0007049787    1.701    0.412
       105  -8.6858    169.3956    216.3907   9.4463985431e+01   5.0872883027e+00     0.256045    0.2074591  70.10 0.0008097381    1.697    0.411
       106  -8.8205    142.8832    216.3654   9.9972132412e+01   9.5576564496e+00    0.3027633    0.2151009  83.41  0.001159724    2.167    0.539
       107  -8.0189     55.8322    217.2013   1.1814877419e+02   2.2319404762e+01    0.1375619    0.1325015  85.69            0    1.329    0.247
       108  -8.4130     18.5054    215.9867   1.2521940151e+02   2.6691627196e+01    0.1674116   0.09055079 -82.46  0.001033758    1.592    0.372
       109  -8.6394    232.3846    214.8058   8.1929876301e+01  -4.8679891313e+00    0.2035114    0.1913451  20.96 0.0008128742    1.453    0.312
       110  -8.2670    185.7937    214.6761   9.0846322358e+01   2.6088794019e+00    0.2123184    0.1756604 -82.41  0.000868285    1.979    0.495
       111  -8.1370    154.4017    215.2319   9.7384803468e+01   7.8245850403e+00    0.1680451    0.1298155 -65.06 0.0007256357    1.660    0.398
       112  -8.8470     93.4042    214.3041   1.1015179965e+02   1.7812719996e+01    0.3674644    0.1857518  61.36  0.001545156    2.340    0.573
       113  -9.4317    213.8036    212.2148   8.4921539094e+01  -1.6125357965e+00    0.3107175    0.2578422  59.43  0.000657523    1.834    0.455
       114  -9.4667     73.1409    211.9182   1.1412910957e+02   2.1163886655e+01    0.6852167    0.2526629  58.81  0.002527335    3.710    0.730
       115  -8.7140    161.6866    212.5304   9.5432059579e+01   7.0627416617e+00    0.2309334    0.2085411  78.40   0.00066934    1.381    0.276
       116  -8.2515    106.6104    213.1083   1.0720953366e+02   1.6053196162e+01    0.1977428    0.1494252  83.45 0.0008043557    1.470    0.320
       117  -7.7617    224.7372    212.3471   8.2888571820e+01  -3.3554477686e+00    0.1077558    0.1032933 -53.50 0.0003176665    1.606    0.377
       118  -8.9517    204.3916    211.0364   8.6524579110e+01   9.2917014258e-02    0.2420483    0.2066904 -63.44 0.0007248619    1.799    0.444
       119  -9.3776    175.4509    210.1467   9.2178400248e+01   5.1160082569e+00    0.3883905    0.2736528  70.15   0.00159222    2.452    0.592
       120  -8.3178    192.1378    210.6131   8.8869840071e+01   2.1988727009e+00    0.2058813    0.1816671 -43.65 0.0008891532    1.390    0.281
       121  -8.9560    147.8892    210.5268   9.8020165921e+01   9.7817816154e+00    0.2969767    0.2085221  67.75  0.001142621    1.933    0.483
       122  -9.1745    116.2954    210.4053   1.0477724473e+02   1.5059770188e+01    0.3306155    0.2198734  73.32 0.0009615088    1.923    0.480
       123  -9.1424      5.4940    207.4933   1.2714414940e+02   2.9614689860e+01     0.378402    0.1199161 -87.14  0.001727236    2.998    0.666
       124  -8.5147     85.6400    209.4363   1.1122820262e+02   1.9933255652e+01    0.3451694    0.1861665  70.93  0.001572626    2.433    0.589
       125  -7.7466     46.7964    210.1697   1.1935524482e+02   2.4845031586e+01    0.2249042   0.09118929  65.12 0.0009596557    2.949    0.661
       126  -8.2801     32.3483    210.1824   1.2221524277e+02   2.6455188218e+01     0.170491   0.08833558  88.61  0.000604881    1.807    0.446
       127  -9.0069    236.4607    208.3486   8.0009227666e+01  -4.5856445166e+00    0.2436222    0.2098522 -33.20 0.0009523624    1.476    0.323
       128  -8.7222    139.4330    208.2924   9.9481550680e+01   1.1639537415e+01    0.2744784    0.1959532  73.04 0.0006392515    1.906    0.475
       129  -9.2394    246.3201    207.3301   7.8067918774e+01  -5.9107123081e+00    0.2495633     0.177212 -28.92 0.0005142629    1.402    0.286
       130  -7.8940    156.4572    208.2097   9.5828015618e+01   8.7343954010e+00    0.1701064    0.1331298 -67.33 0.0008269337    1.657    0.397
       131  -9.8044    124.3561    206.2794   1.0244530250e+02   1.4561051479e+01    0.3317419    0.2119645  66.28            0    1.999    0.500
       132  -9.3582     99.3436    206.2221   1.0788854985e+02   1.8564005683e+01    0.3764845    0.2319099  82.40  0.001303007    2.191    0.544
       133  -8.5759     56.4392    205.4482   1.1696400841e+02   2.4676081370e+01    0.3233352     0.142986  64.26  0.001426558    2.659    0.624
       134  -8.4868     11.5484    206.5111   1.2596243503e+02   2.9271519049e+01     0.113187   0.08404259  77.94 0.0002446357    1.005    0.004
       135  -9.2920    194.8559    203.4291   8.7036009078e+01   2.9072351706e+00    0.3884358    0.2589868 -38.13  0.001365278    1.599    0.375
       136  -9.2717    192.3496    197.3447   8.6417310257e+01   4.3602910424e+00    0.3644599    0.2360487 -51.12  0.001101352    1.961    0.490
       137  -8.9817    183.8188    204.0904   8.9397958037e+01   4.7026198141e+00     0.301454    0.2244901  64.32 0.0008666557    1.985    0.496
       138  -8.6649    131.4559    204.3911   1.0061247206e+02   1.3745504003e+01     0.296976    0.1877531  69.93   0.00100156    2.331    0.571
       139  -8.3160    108.9328    205.1418   1.0565377550e+02   1.7292100514e+01    0.2111414    0.1602408  67.37 0.0005889508    1.357    0.263
       140  -8.1187     25.0126    205.0127   1.2328352750e+02   2.8287660980e+01    0.2140293   0.09066832  78.42  0.001009831    2.557    0.609
       141  -9.6014    163.7124    203.0724   9.3423895667e+01   8.4037284201e+00    0.3845583    0.2556194  58.74 0.0008248383    1.935    0.483
       142  -7.8802     34.6569    204.3367   1.2132315865e+02   2.7426258152e+01    0.1309932   0.06886618  66.03 0.0007049821    1.767    0.434
       143  -9.4209    250.0533    201.9013   7.6397163033e+01  -5.7158763718e+00    0.3577334    0.1647466 -33.85  0.001488631    2.042    0.510
       144  -9.8219    245.8180    193.9859   7.5614485400e+01  -3.9722813122e+00    0.3696296    0.2566855 -55.33  0.001888744    2.616    0.618
       145  -8.4311     17.3661    202.5627   1.2461091020e+02   2.9546230924e+01     0.228745   0.08007352  87.10 0.0009562382    3.289    0.696
       146  -9.3703    242.9369    200.8854   7.7449409682e+01  -4.5161267057e+00    0.3122477    0.1807315 -31.64 0.0008793023    1.636    0.389
       147  -8.5460    210.9017    202.0639   8.3615453972e+01   4.1113077363e-01     0.185621    0.1793469  20.60  0.000496178    1.327    0.246
       148  -8.9460    140.2883    201.0780   9.8156245609e+01   1.2882259827e+01    0.3223318    0.2299842 -84.21 0.0009523925    2.063    0.515
       149  -8.4465     80.1351    201.5912   1.1150212626e+02   2.2361724916e+01    0.2850003    0.1706814  74.08  0.001418145    1.943    0.485
       150  -7.7175     40.6669    202.3631   1.1994704625e+02   2.7185761601e+01    0.1342045   0.07136786  67.32 0.0007037259    1.814    0.449
       151  -8.1496    221.8392    201.3585   8.1393148088e+01  -1.2785352797e+00    0.1773782    0.1515562 -15.71 0.0005827837    1.170    0.145
       152  -9.1624    237.1648    198.2081   7.7967966929e+01  -3.2476683704e+00    0.4447336    0.1776739 -40.55  0.001921227    2.695    0.629
       153  -9.4023    149.5408    198.5773   9.5714479937e+01   1.1747290736e+01    0.4116848    0.2929403  89.13  0.001448122    2.306    0.566
       154  -8.9049    123.8899    199.3328   1.0150803623e+02   1.6033242877e+01    0.3081391    0.2195909  80.55  0.001307331    1.851    0.460
       155  -9.3506    112.8092    198.5298   1.0386203738e+02   1.8032470353e+01    0.4504599    0.2669185  69.34  0.001386752    2.397    0.583
       156  -9.1308     88.7372    198.5193   1.0923433172e+02   2.1777116475e+01    0.4152337    0.2375966  84.49  0.001579621    2.457    0.593
       157  -8.7654    176.9215    198.7024   8.9858885179e+01   6.8526754628e+00    0.2415331    0.1842123 -64.58 0.0006299501    1.848    0.459
       158  -8.8379    133.1816    196.6985   9.9021340289e+01   1.4982464256e+01    0.3457764    0.2377023 -55.15  0.001607865    1.590    0.371
       159  -8.3267    202.3470    197.8655   8.4504016454e+01   2.5340447528e+00    0.2275629    0.2088573 -71.60 0.0009628053    1.572    0.364
       160  -8.9007     61.4954    197.1413   1.1506306220e+02   2.5824295475e+01    0.4012704    0.1961247  71.08  0.001469037    2.628    0.619
       161  -8.3531     29.3846    197.7412   1.2188263966e+02   2.9381411394e+01    0.1579769   0.09394573 -71.21 0.0009411463    1.533    0.348
       162  -8.8446    215.8868    195.5714   8.1419642929e+01   5.9882692561e-01    0.3103852    0.1774999 -50.92 0.0009658023    2.559    0.609
       163  -8.8721    208.8152    196.5020   8.2969208570e+01   1.6473130075e+00    0.3371703    0.1425818 -30.85  0.001363906    2.651    0.623
       164  -8.3453     53.8039    197.2125   1.1672833017e+02   2.6764713618e+01    0.2229503    0.1000532  66.70 0.0009452826    2.775    0.640
       165  -8.0228     12.4669    197.5218   1.2524684701e+02   3.1057418986e+01    0.1172658   0.08503619  76.68 0.0002599834    1.065    0.061
       166  -7.8127     36.3106    196.6604   1.2037141014e+02   2.8886297748e+01    0.1303866    0.0726893  68.30 0.0007045053    1.691    0.409
       167  -8.7023    224.3184    193.8862   7.9493030301e+01  -5.4121137678e-01     0.284994    0.1574245 -46.60  0.001158572    2.319    0.569
       168  -8.7740    185.2126    194.8602   8.7419020202e+01   6.0542448813e+00    0.2393962    0.2233269 -30.33 0.0007351154    1.199    0.166
       169  -9.1913    160.8995    194.3181   9.2492750185e+01   1.0532199187e+01    0.3217088    0.2432293  72.78 0.0009099759    1.893    0.472
       170  -8.9142     43.8959    193.5462   1.1850068640e+02   2.8726993619e+01    0.3663598     0.170435  71.11  0.001663182    2.543    0.607
       171  -8.0089    230.9703    194.3284   7.8344691498e+01  -1.6925696085e+00    0.1840618     0.150489   7.85 0.0005385811    1.052    0.049
       172  -8.7091    172.9835    192.4070   8.9537180379e+01   8.7004779822e+00    0.4426488    0.2631704  63.33  0.001726621    3.079    0.675
       173  -8.6811     77.0143    194.0403   1.1129249659e+02   2.4431975765e+01    0.2443767    0.1742348  69.85 0.0007193419    1.375    0.273
       174  -8.1000     48.4807    202.4635   1.1834405455e+02   2.6269237883e+01    0.2251349    0.1020322 -87.41  0.001026137    2.517    0.603
       175  -8.4467    179.0421    191.8153   8.8138897965e+01   7.7088015204e+00    0.2301127    0.1824816 -58.80 0.0005538986    1.613    0.380
       176  -9.2402    139.5566    190.7024   9.6590960976e+01   1.5078168039e+01     0.375635    0.2722181  84.81  0.001087014    2.019    0.505
       177  -8.2451    127.8190    192.3827   9.9529003272e+01   1.6791824577e+01    0.1933901    0.1268548  28.58 0.0004726637    1.643    0.391
       178  -8.0223     22.6452    192.2939   1.2285166279e+02   3.1225560446e+01    0.1268721   0.06828842  64.81 0.0004469692    1.688    0.408
       179 -10.4950     92.3001    188.8879   1.0714833143e+02   2.3338837338e+01     0.942988    0.2828094  48.27  0.003171413    3.569    0.720
       180  -8.6197      6.3973    191.1748   1.2605093668e+02   3.2932779415e+01    0.1653731   0.08287673  86.11 0.0008244042    1.681    0.405
       181  -8.7408    148.5188    189.4614   9.4358776264e+01   1.3718508614e+01    0.2425485    0.1909081  78.96  0.000895265    1.692    0.409
       182  -9.0375    129.3123    188.7516   9.8589900494e+01   1.7288490770e+01    0.3127925    0.2229159  76.29  0.001254998    1.884    0.469
       183  -8.3096    237.1332    188.6284   7.6104290438e+01  -1.8248757715e+00    0.2159338     0.158018 -32.33 0.0005681096    1.363    0.266
       184  -8.7160    216.5608    187.9880   7.9806096808e+01   1.6978992593e+00    0.2473763    0.2093261 -35.16 0.0006173964    1.315    0.240
       185  -9.1979    156.0118    187.5359   9.2338245145e+01   1.2733769039e+01    0.3417989    0.2348472 -64.70 0.0009710353    1.932    0.482
       186  -9.8288    120.8006    186.5079   1.0018038940e+02   1.9237685122e+01    0.5860158    0.3124128 -74.12  0.002205551    3.146    0.682
       187  -8.9993     34.2244    188.0537   1.2008139610e+02   3.0990965482e+01    0.3725435     0.167418  82.76  0.001679446    2.590    0.614
       188  -8.3793    198.8735    191.6174   8.4004127120e+01   4.1840043059e+00    0.2501095    0.1774227 -52.58 0.0007495026    1.838    0.456
       189  -8.2244    230.4863    187.5152   7.7092471786e+01  -5.7340190946e-01    0.2102209    0.1183333 -43.70 0.0006636524    2.048    0.512
       190  -8.9720    191.4286    187.3082   8.4684156619e+01   6.2663291579e+00    0.3009519    0.2291179 -73.60 0.0009312101    2.233    0.552
       191  -9.1320     54.7077    186.8973   1.1547523769e+02   2.8935015608e+01    0.4104102     0.207663  74.07  0.001566189    2.451    0.592
       192  -8.7904    165.0161    186.8116   9.0215198134e+01   1.1215412372e+01    0.2699022    0.2329519 -84.61 0.0009787778    1.523    0.343
       193  -9.2330    109.6678    186.1131   1.0270727340e+02   2.1195901469e+01    0.3831354    0.2395674  72.75  0.001127873    2.231    0.552
       194  -8.7007    249.1147    185.4334   7.3358393616e+01  -3.2404009101e+00    0.2395858    0.1660326 -33.45  0.000736202    1.415    0.293
       195  -8.9945    182.9503    184.8765   8.5979017505e+01   8.2584284450e+00    0.3483015     0.193867 -49.34 0.0009619653    2.093    0.522
       196  -8.7091    210.2148    184.4098   8.0324056821e+01   3.3939328415e+00    0.2354295    0.2109379 -33.39 0.0006222622    1.262    0.207
       197  -8.7161    202.7079    184.7296   8.1877687385e+01   4.6775733010e+00    0.2606626    0.1839101 -45.20 0.0007465581    1.604    0.377
       198  -9.1107     66.5491    184.5498   1.1252194709e+02   2.7967140079e+01    0.3593965     0.210851  69.55  0.001092675    1.901    0.474
       199  -8.2045    224.1187    183.8398   7.7539253298e+01   1.0724052829e+00    0.1886209    0.1753544 -10.01 0.0003935345    1.216    0.177
       200  -8.2718    196.9715    183.5570   8.2803851641e+01   5.9193609910e+00    0.2207105    0.1890094 -64.88 0.0007241941    1.613    0.380
       201  -9.0629    174.2840    183.1336   8.7491420074e+01   1.0194772838e+01    0.4309638    0.2233475 -43.90  0.001453929    2.028    0.507
       202  -8.0496      1.8575    183.8545   1.2651690345e+02   3.4873182577e+01    0.1627442    0.1019239  69.00 0.0008400053    1.334    0.250
       203  -9.0517     44.4620    182.3986   1.1730543913e+02   3.1147946456e+01    0.3519154    0.1889521  68.11  0.001158842    1.974    0.493
       204  -9.2130    147.5392    180.7155   9.2987206396e+01   1.5671824645e+01    0.3534073    0.2709305 -87.00  0.001084291    1.832    0.454
       205  -7.8346     83.3261    182.6371   1.0837364667e+02   2.6073966962e+01    0.1474809   0.09440263  71.38 0.0007040266    1.793    0.442
       206  -9.6153     25.6015    178.7582   1.2115372382e+02   3.3931830111e+01    0.6767407    0.2490698  77.05  0.002349506    4.511    0.778
       207  -7.3812    240.4861    180.4572   7.3866190096e+01  -1.1262917664e+00    0.1343627     0.111031  -5.04 0.0008089606    1.003    0.003
       208  -8.7346    137.6050    179.4002   9.5037943389e+01   1.7775299482e+01    0.2989058    0.2187481  80.13 0.0009797127    1.921    0.479
       209  -9.2918    191.5978    178.5382   8.2898195651e+01   7.8084285310e+00    0.3026049       0.2506  60.02 0.0007366844    1.540    0.350
       210  -8.4192    169.1839    178.6345   8.7720414761e+01   1.2020269280e+01    0.2415798    0.1970807 -55.76   0.00073617    1.419    0.295
       211  -9.0524     35.9511    176.7472   1.1866576346e+02   3.3354961516e+01    0.5000068     0.205556  80.24  0.001859666    3.723    0.731
       212  -9.3973    248.5834    176.7792   7.1705829090e+01  -1.8728005968e+00    0.4303908    0.2781822 -47.80  0.002229359    2.036    0.509
       213  -8.7267    250.4948    172.8871   7.0582961722e+01  -1.5909973971e+00    0.2419376    0.1744669 -23.42 0.0006991514    1.193    0.162
       214  -8.5331    231.2090    176.9477   7.4819013534e+01   9.6648822498e-01    0.2652506    0.1646189 -42.58  0.000707962    1.755    0.430
       215  -8.4466    217.7746    177.5245   7.7454842473e+01   3.2071996403e+00    0.2544448    0.1733532 -49.43 0.0008339116    1.842    0.457
       216  -8.6328    205.1277    177.7580   7.9979166204e+01   5.4451129826e+00    0.2348106    0.1882419 -42.80  0.000653867    1.384    0.278
       217  -8.7703    129.4138    177.4718   9.6610622110e+01   1.9672760953e+01    0.3127109     0.208473  77.48 0.0009679048    2.321    0.569
       218  -9.3427    182.9703    175.8772   8.4173636841e+01   9.9279079000e+00    0.4118231    0.2456317 -42.13   0.00124097    1.728    0.421
       219  -7.9904     97.5181    177.5335   1.0424938111e+02   2.5074212858e+01    0.1366735     0.130761  77.44 0.0002175948    1.058    0.055
       220  -8.9254     89.0279    176.9138   1.0619905646e+02   2.6531172136e+01    0.2907208    0.2005976  78.36 0.0009921152    1.673    0.402
       221 -10.0074     57.3115    173.3793   1.1333470154e+02   3.1711521663e+01    0.8143027    0.3647361  79.95  0.002694959    4.425    0.774
       222  -8.8477     13.0736    176.8904   1.2372164802e+02   3.5482389528e+01    0.2669277    0.1189882  65.22  0.001335446    2.257    0.557
       223  -7.9334    211.5447    176.5031   7.8450818304e+01   4.4949411907e+00     0.141354    0.1241016  -0.88 0.0001998621    1.006    0.006
       224  -9.2454    158.8751    175.0945   8.9323254118e+01   1.4687675186e+01    0.3920415     0.288701  80.41  0.001386892    2.135    0.532
       225  -9.5066    104.2717    174.6363   1.0215384702e+02   2.4643024606e+01    0.5118485    0.3168291  73.59  0.001838364    2.317    0.568
       226 -10.5991     76.0464    169.6618   1.0829892645e+02   3.0114184934e+01     1.371928    0.5074474 -69.84  0.004865244    3.228    0.690
       227  -7.7066    241.3072    174.3260   7.2466282441e+01  -3.1573888506e-01    0.1397216   0.09230836  -0.92 0.0002777675    1.651    0.394
       228  -9.4397    175.6817    172.2920   8.5012494443e+01   1.2012347259e+01    0.3663085    0.2355186 -44.10 0.0009206387    1.616    0.381
       229  -8.3673    143.0532    172.7083   9.2506964076e+01   1.8186230984e+01    0.2394373    0.2030255 -68.93 0.0005645582    1.337    0.252
       230  -8.1961    194.3112    172.3513   8.1057580569e+01   8.4270776233e+00    0.1527247    0.1074599  -0.56 0.0007045044    1.721    0.419
       231  -8.5557    134.7853    171.7204   9.4273423335e+01   1.9941447507e+01    0.2778406    0.2046913 -67.14 0.0006227424    1.584    0.369
       232  -9.6675    121.4261    170.3755   9.7240727308e+01   2.2665711045e+01    0.4754679    0.3006591 -71.45  0.001166458    2.027    0.507
       233  -9.1595     45.0823    170.8284   1.1594000793e+02   3.3739034518e+01    0.4144525    0.2009399 -85.19  0.001614333    2.232    0.552
       234  -8.6992    230.7536    169.7898   7.3411252905e+01   2.1997076303e+00    0.2476797     0.166068 -20.41  0.001282404    1.425    0.298
       235  -8.2567    205.6417    170.3548   7.8331210261e+01   6.6513103860e+00    0.1947462    0.1721898 -76.92 0.0007959946    1.616    0.381
       236  -8.2867    198.1229    170.0549   7.9788927066e+01   8.1227271239e+00    0.2089225    0.1816413 -81.37 0.0005388304    1.656    0.396
       237  -9.1457    167.1336    168.6790   8.6159057980e+01   1.4389868481e+01    0.3266154    0.2549234  81.74 0.0008852681    1.899    0.473
       238  -8.8124    149.6703    169.5946   9.0346300224e+01   1.7588896750e+01    0.2852646    0.2273635 -73.77 0.0007257508    1.575    0.365
       239  -8.4795    224.0832    174.3180   7.5593833774e+01   2.6254868844e+00    0.2266909      0.18706 -50.16 0.0007086818    1.546    0.353
       240  -8.2046    244.6009    169.3488   7.0859017238e+01  -8.7190837215e-02    0.1823003    0.1592464 -55.53 0.0006327019    1.613    0.380
       241  -8.3868    218.8420    168.3759   7.5333726908e+01   4.5586163029e+00    0.2200608    0.1798501 -34.98 0.0005084371    1.248    0.199
       242  -8.9662    111.8136    167.6670   9.9109542092e+01   2.4963669197e+01    0.4068551    0.2670241  86.24  0.001384678    2.275    0.561
       243  -8.3676     88.5754    168.8459   1.0507654774e+02   2.8469388625e+01    0.2728485    0.1654408 -77.59   0.00102966    1.913    0.477
       244  -9.0015    191.9043    166.4741   8.0313998184e+01   9.9784313207e+00    0.3310322     0.205567 -44.72 0.0008074584    1.691    0.409
       245  -8.9011    185.0673    166.5603   8.1779069559e+01   1.1294208036e+01    0.2726687      0.20235 -54.94 0.0007046317    1.623    0.384
       246  -9.3756     20.6925    166.3258   1.2117604727e+02   3.7216507876e+01     0.389361    0.1675923  66.78  0.001207699    2.706    0.631
       247  -8.1466     13.3471    167.6870   1.2295447942e+02   3.7532351571e+01    0.1281796   0.07119934  67.13 0.0007046659    1.715    0.417
       248  -8.5273    140.6668    166.3170   9.1818572429e+01   2.0012205742e+01    0.2435959    0.1787233  54.66 0.0007604597    1.462    0.316
       249  -9.6549    135.6447    163.9517   9.2556278318e+01   2.1483176198e+01    0.4367239    0.2813816  58.27 0.0009255289    1.857    0.461
       250 -10.1281     95.1335    163.1732   1.0250282771e+02   2.8779159105e+01    0.8026643    0.4253034  72.69  0.002628971    3.969    0.748
       251  -8.2077    234.0440    164.7468   7.1747331912e+01   2.4470821072e+00    0.2346551    0.1695193 -38.44 0.0007243734    1.393    0.282
       252  -9.3816     33.4583    163.5222   1.1791437010e+02   3.6672993983e+01    0.5103893    0.1968202  53.20  0.002177476    2.857    0.650
       253  -8.1341    240.0019    164.0756   7.0548921459e+01   1.5220821070e+00    0.1943229    0.1666419 -60.86 0.0009034344    1.676    0.403
       254  -8.6469    213.0149    163.7863   7.5470525708e+01   6.4295509534e+00    0.2480609    0.1915124 -34.73 0.0006933011    1.265    0.209
       255  -8.4192    159.4517    164.3225   8.6997372039e+01   1.6790112185e+01    0.2418192    0.1806125  62.39 0.0006887454    1.652    0.395
       256  -8.5454    246.0361    163.0509   6.9289426816e+01   6.5905309369e-01    0.2038233    0.1730065 -15.90 0.0004834087    1.056    0.053
       257  -8.4000    204.8876    163.0411   7.6912649889e+01   8.1042027028e+00     0.209729    0.1938525 -54.80 0.0005166301    1.319    0.242
       258  -8.9537     60.4437    160.6615   1.1092037900e+02   3.4330257709e+01    0.3783909    0.2571162 -76.52  0.001385944    1.373    0.272
       259  -9.3874      3.3708    162.4781   1.2478424031e+02   3.9489414416e+01     0.377576    0.1587261  54.76   0.00154769    2.363    0.577
       260  -8.9734    151.6286    161.2699   8.8180027347e+01   1.8975761718e+01    0.3231829    0.2567326 -74.29 0.0009540531    1.602    0.376
       261  -9.0435    177.5079    160.6002   8.2132352370e+01   1.3953242758e+01    0.3266919    0.2693802 -77.12  0.001098158    1.667    0.400
       262  -8.8453    243.5739    159.4032   6.8934091072e+01   1.6563261623e+00      0.38717    0.1999153  26.49  0.001038154    2.442    0.590
       263  -9.7585    250.1875    157.8631   6.7489193495e+01   7.7633024962e-01    0.3669834    0.1643693 -36.05 0.0008630172    1.972    0.493
       264  -8.8967    246.6274    155.7502   6.7632169115e+01   1.7151985496e+00    0.2652569    0.1895147 -18.38 0.0007702392    1.273    0.214
       265  -8.4181    227.5344    159.2533   7.1744008226e+01   4.5225921994e+00    0.2646972    0.1801061 -51.36 0.0009624712    1.857    0.461
       266  -8.6670    128.3114    159.2835   9.3421695202e+01   2.3906412494e+01     0.317142     0.240498  76.59 0.0009183323    1.695    0.410
       267  -9.6505    105.8859    158.3245   9.8899107743e+01   2.8146610603e+01    0.4903595     0.313156  69.46   0.00133339    2.160    0.537
       268  -8.4148    237.1507    159.1534   6.9995839300e+01   2.8147573380e+00    0.1865606    0.1568025 -43.64  0.001071121    1.368    0.269
       269  -9.3769    167.6829    157.5427   8.3658984674e+01   1.6548689412e+01    0.3598059    0.2841108 -79.17  0.001130722    1.791    0.442
       270  -8.5329    196.6266    158.0002   7.7484478412e+01   1.0642646567e+01     0.224579    0.2091653  51.96  0.000536625    1.244    0.196
       271  -8.2721    188.1485    157.7256   7.9198805312e+01   1.2383627962e+01    0.2564499    0.1931785 -47.69 0.0007020754    1.431    0.301
       272  -8.4874    217.9989    156.5842   7.2936846563e+01   6.7537510526e+00    0.2675324    0.1851287 -48.31 0.0007004678    1.651    0.394
       273  -9.1829    157.6096    156.5714   8.5769116685e+01   1.8784208958e+01    0.2761896    0.2597883 -81.34 0.0007112212    1.203    0.169
       274  -9.3231    119.5532    155.4328   9.4850557421e+01   2.6406803406e+01    0.4110983    0.2877575 -82.58  0.001560779    1.950    0.487
       275  -9.4462     81.8871    155.1648   1.0455910166e+02   3.2726750699e+01    0.5119147    0.2974201  73.01   0.00170023    2.569    0.611
       276  -9.2511     49.7269    155.3461   1.1292509279e+02   3.6889914782e+01    0.4571798    0.2367271  68.31  0.001667181    2.531    0.605
       277  -8.0985    242.6385    154.8752   6.8119449347e+01   2.5468718522e+00     0.196231    0.1549078 -27.22 0.0004195041    1.126    0.112
       278  -7.7350    239.7229    153.3178   6.8281665140e+01   3.3144909231e+00    0.1964389    0.1333989  52.39 0.0002786267    1.870    0.465
       279  -7.6835    204.8479    155.3521   7.5225295107e+01   9.5127135071e+00    0.1968899    0.1705442 -38.61 0.0004901526    1.199    0.166
       280  -9.0031    144.5978    154.5215   8.8426600294e+01   2.1827636604e+01    0.3645584    0.2750597 -44.94  0.001137172    1.339    0.253
       281  -9.8975    132.8026    152.8954   9.0985254020e+01   2.4497870539e+01    0.4748189    0.3408108  82.30  0.001229031    2.065    0.516
       282  -9.0943    133.6015    148.1838   8.9772402402e+01   2.5409686027e+01    0.3428117     0.225622 -42.59  0.001527669    1.547    0.354
       283  -9.3909     67.7673    153.7181   1.0802238843e+02   3.5059280331e+01    0.4258634    0.2555603  73.64  0.001271149    2.162    0.537
       284  -7.5736    232.9396    153.9143   6.9600876435e+01   4.4356327876e+00    0.2029884    0.1700691 -63.95 0.0006648914    1.678    0.404
       285  -8.9176    151.9299    152.4467   8.6208166906e+01   2.0812536156e+01    0.2862751    0.1974383 -39.20  0.001085924    1.482    0.325
       286 -10.3420    149.0471    145.0155   8.5234671928e+01   2.3018126831e+01     0.696427    0.4671202 -83.74  0.001505716    2.791    0.642
       287  -9.0989     19.8991    152.6811   1.2008698459e+02   4.0464532876e+01    0.2152025    0.1386314 -69.69  0.000695348    1.293    0.227
       288  -8.5503      8.6842    153.4252   1.2285156893e+02   4.1173946811e+01    0.2002003    0.1058542  34.45  0.001134352    2.092    0.522
       289  -9.6037     28.8840    150.4164   1.1761816131e+02   4.0214271890e+01     0.490766    0.2178111  73.18  0.001945247    3.263    0.694
       290  -8.8151      2.7617    150.6163   1.2401787708e+02   4.2243244322e+01    0.2896894    0.1157859 -84.93  0.001378317    2.180    0.541
       291  -9.6931    248.7656    149.4909   6.5923944115e+01   2.3461963162e+00    0.3541116    0.2002163 -34.82 0.0007580023    1.551    0.355
       292  -9.1700    242.6387    149.9312   6.7043115507e+01   3.3501344044e+00    0.3043695    0.2672541  49.67  0.001816527    1.421    0.296
       293  -8.8301    189.3819    150.4778   7.7305556193e+01   1.3537489892e+01    0.2902981    0.2423942 -61.99 0.0007207909    1.473    0.321
       294  -8.2242    182.2217    151.2152   7.9009769852e+01   1.4861058098e+01    0.2019151    0.1820432 -75.38 0.0005327041    1.371    0.271
       295  -8.2773    162.9015    150.9736   8.3295872622e+01   1.8889544237e+01    0.2408064    0.1927569  88.51 0.0006818564    1.752    0.429
       296  -8.6480     98.4598    150.8729   9.9431894983e+01   3.1161815828e+01    0.2832433     0.214905  72.26 0.0007829207    1.527    0.345
       297  -8.1517    237.4152    150.4834   6.8059974757e+01   4.1953607991e+00    0.1763141    0.1372153  53.29 8.727548e-05    1.619    0.382
       298  -9.0483    233.5695    147.7182   6.8119222681e+01   5.3610754693e+00    0.3010247    0.1961848 -40.50 0.0009114144    1.484    0.326
       299  -8.0403    212.8393    149.8492   7.2417645302e+01   8.9443520507e+00     0.186639    0.1682969 -49.42 0.0003296138    1.277    0.217
       300  -9.9391     39.6315    147.4480   1.1450385892e+02   3.9887809497e+01    0.6126134    0.3178851  76.31  0.002180351    2.531    0.605
       301  -8.4442    198.7813    149.0854   7.5032931910e+01   1.1889568191e+01    0.2185954    0.1976851 -52.13 0.0004854327    1.258    0.205
       302 -10.2104     89.2629    146.2547   1.0101735365e+02   3.3758431305e+01    0.7047017    0.3945664 -87.39  0.002475277    3.306    0.698
       303 -10.3971    106.6885    143.6929   9.5819652650e+01   3.1474435667e+01    0.8751036    0.5850943 -74.50  0.002273569    1.856    0.461
       304  -8.9034     78.3095    147.4451   1.0418917452e+02   3.5122019797e+01    0.3099016    0.2010113  69.47 0.0008590783    1.937    0.484
       305  -8.8612     57.1337    135.3201   1.0796169095e+02   4.0913065781e+01    0.3597091    0.2191887  -4.46   0.00150665    3.032    0.670
       306 -10.2908     54.7932    144.8615   1.1011845164e+02   3.8848914007e+01    0.7844942    0.3862993  71.50  0.002728099    3.548    0.718
       307  -8.6865     51.4562    138.4983   1.1005885024e+02   4.0796406498e+01    0.2457646    0.1983109 -36.56 0.0009395689    1.427    0.299
       308  -8.2090    223.3202    146.9593   6.9790641405e+01   7.4229627984e+00    0.2065734    0.1667928 -28.17 0.0003538702    1.130    0.115
       309 -10.0669    139.2237    145.2749   8.7716969794e+01   2.4953069867e+01    0.4946197    0.3400033 -81.71  0.001307768    2.347    0.574
       310  -9.4843     13.4794    146.3971   1.2105395518e+02   4.2457045486e+01    0.3393464     0.183375  68.03  0.001212508    1.957    0.489
       311  -7.9311    206.5303    146.4930   7.2882579161e+01   1.0808916056e+01    0.1478442    0.1365896 -15.00 0.0001783076    1.036    0.034
       312  -8.2414    175.6657    146.1908   7.9297445889e+01   1.7230461792e+01    0.2330219    0.1871352 -55.50 0.0005546832    1.401    0.286
       313  -8.6356    240.3636    145.2414   6.6395491043e+01   4.5291268247e+00    0.2207917    0.1785735 -46.74 0.0004645182    1.383    0.277
       314  -8.9617    242.7132    143.3422   6.5578580111e+01   4.4163602452e+00    0.3873576    0.2016741 -24.03  0.001686538    2.027    0.507
       315  -9.8017    125.0316    142.7085   9.0763451834e+01   2.8327146136e+01    0.5429652    0.3560846 -79.59  0.001459874    2.415    0.586
       316  -8.6363    247.0065    143.8322   6.4976066574e+01   3.5665343871e+00    0.2390573    0.1695312 -31.57 0.0005414499    1.229    0.187
       317  -8.8940    165.4450    144.1164   8.1134256178e+01   1.9802352192e+01    0.2832176    0.2244246  53.21 0.0007000237    1.365    0.267
       318 -10.7470     69.2387    141.1674   1.0557446133e+02   3.7927774837e+01    0.6797025    0.4444996 -64.25  0.002365247    1.401    0.286
       319  -7.8710    235.4747    142.9530   6.6721682090e+01   5.8105176042e+00    0.1945538     0.111214 -53.46   0.00080838    2.439    0.590
       320  -7.8712    194.0535    143.7582   7.4773148626e+01   1.3874784602e+01    0.1871136    0.1271768  44.35 0.0003900607    1.519    0.342
       321  -9.7569      2.8592    141.6516   1.2324615325e+02   4.4314943153e+01    0.4681096    0.2212872  77.96  0.002299123    2.218    0.549
       322  -7.6105    230.6177    142.2306   6.7406605001e+01   6.8469722029e+00    0.2054046    0.1233622 -26.87 0.0009489616    1.603    0.376
       323  -8.1836    182.1466    141.9065   7.6866907792e+01   1.6732619043e+01    0.2251781    0.2081708 -74.18 0.0005131229    1.280    0.219
       324  -8.4215    250.4771    141.0121   6.3792962437e+01   3.4075404966e+00    0.2091425    0.1171158 -35.85 0.0007971337    1.555    0.357
       325 -10.1074     23.4353    138.2495   1.1763229371e+02   4.3607390327e+01     0.510664    0.2442962  65.94  0.002102182    2.687    0.628
       326  -7.9354    218.5886    138.7374   6.8780812265e+01   9.8006966975e+00    0.2001118    0.1292755 -43.85 0.0005239306    1.551    0.355
       327  -8.6681    172.4144    138.2911   7.8162354381e+01   1.9537201439e+01    0.3072208    0.2370061 -76.47 0.0004077816    1.843    0.457
       328  -8.7732    241.2745    137.6098   6.4538312650e+01   5.6274904196e+00    0.2529911    0.1572679 -17.00 0.0008415322    1.781    0.439
       329  -8.1280    207.5060    138.0253   7.0720049886e+01   1.2175896609e+01    0.2233244    0.1389522 -38.52 0.0007035842    1.522    0.343
       330  -8.6449    197.5949    137.7445   7.2626543416e+01   1.4289159593e+01    0.2773237    0.2120982 -59.87  0.000755506    1.627    0.385
       331  -9.4608    139.5410    137.4898   8.5848765774e+01   2.6638385618e+01    0.3633599    0.2450334  -3.01  0.001384191    2.491    0.599
       332  -8.0256     80.6288    138.2805   1.0188294857e+02   3.7022629954e+01    0.1498296    0.1066144  69.60 0.0007012488    1.696    0.410
       333  -8.9831    151.0422    136.1426   8.2669383670e+01   2.4546935837e+01    0.4214308    0.2459182  21.75  0.001508534    2.637    0.621
       334  -9.3978     38.8813    135.9973   1.1316339227e+02   4.2748871154e+01    0.3175819    0.1844417  70.83  0.000920849    2.118    0.528
       335  -9.0847    250.7113    130.2010   6.1359126686e+01   5.1118288293e+00    0.4568668    0.1174611 -35.97  0.001502077    3.341    0.701
       336  -9.1077    248.4607    135.4270   6.2879583580e+01   4.6714339665e+00    0.3097923    0.1997645 -38.58 0.0007300083    1.398    0.285
       337  -8.5627    246.9311    130.1824   6.1948466458e+01   5.8074002543e+00    0.2685192    0.1673808 -44.63 0.0005865957    1.585    0.369
       338  -8.1234    187.8587    135.5823   7.4129356752e+01   1.6773482932e+01    0.2618249    0.1711564 -42.46  0.000781809    1.504    0.335
       339  -7.8391    162.4156    136.2996   7.9984166997e+01   2.2094946876e+01    0.2140027    0.1476279 -53.10 0.0006784179    1.577    0.366
       340 -10.4621     83.3696    133.0118   1.0007825036e+02   3.7900564253e+01    0.5771999    0.3351144 -71.41  0.001241352    2.007    0.502
       341  -8.8649     85.0122    122.8694   9.7464721254e+01   4.0123683046e+01    0.5405883     0.341581  -9.09  0.002073977    2.936    0.659
       342  -9.6277     63.6949    133.9210   1.0586112693e+02   4.0441594974e+01    0.4442087    0.1908402 -45.27  0.001732033    2.530    0.605
       343 -10.4279     60.1230    125.2634   1.0532535422e+02   4.3027452292e+01    0.7625321    0.4319356  75.93  0.002539864    3.016    0.668
       344  -8.0538    237.5704    133.7849   6.4290927407e+01   6.9616041105e+00    0.2008244     0.119228 -43.75 0.0009371625    1.655    0.396
       345  -8.0788    231.4535    133.9814   6.5376989346e+01   8.1017392904e+00    0.2185502    0.1278203 -35.09 0.0003814888    1.538    0.350
       346  -8.6217    179.4866    133.8895   7.5522904709e+01   1.8913425749e+01    0.2813022    0.2385996 -75.13 0.0007491948    1.491    0.329
       347 -10.7027    132.8532    130.8173   8.5975900345e+01   2.9513411806e+01    0.8347042    0.5684831 -51.87  0.002620441    1.486    0.327
       348  -9.1026    112.9135    133.4432   9.1914584432e+01   3.2787968601e+01    0.3492115    0.2508156  71.65 0.0007239066    1.871    0.465
       349 -10.4560     98.2268    130.1340   9.5251927342e+01   3.6197376948e+01     0.742068    0.3389658 -56.92  0.001720594    2.186    0.543
       350  -8.6807     99.6768    120.0422   9.2519069653e+01   3.8369418993e+01      0.44368    0.2663909  11.42  0.001603991    3.002    0.667
       351  -9.2107    143.0383    131.7739   8.3598442783e+01   2.7193616619e+01    0.3068876    0.2504806 -70.12 0.0007405275    1.448    0.309
       352  -9.2894    168.3800    129.5952   7.6955470227e+01   2.2212903426e+01    0.3874047    0.2602419 -58.07  0.000829802    1.806    0.446
       353  -9.9468     72.9670    129.1253   1.0229748223e+02   4.0378356126e+01    0.4441581    0.2679794 -78.54  0.001174884    2.053    0.513
       354 -10.2179     12.7800    128.8151   1.1940307225e+02   4.6681232825e+01    0.5726464    0.2628619  86.68  0.002460287    2.494    0.599
       355  -7.6506    220.7185    130.0192   6.6348977318e+01   1.0925726322e+01    0.1906766    0.1204994 -35.68 0.0008817196    1.451    0.311
       356  -8.1163    204.4461    130.2867   6.9470218716e+01   1.4254483016e+01    0.2039666     0.137001 -46.17 0.0006748702    1.522    0.343
       357  -8.0460    192.7287    130.1969   7.1801206431e+01   1.6778507091e+01     0.235939    0.1842469 -53.95  0.000472053    1.427    0.299
       358  -9.3736    152.9130    129.0653   8.0482934531e+01   2.5689824899e+01    0.4380378    0.2584224 -55.89 0.0009635258    1.997    0.499
       359  -7.7887      1.4808    130.4422   1.2257785540e+02   4.7022336852e+01    0.1211878   0.09340087 -83.83  5.21717e-05    1.047    0.045
       360  -7.9016    211.4529    129.2286   6.7870341112e+01   1.2977034345e+01    0.2074708    0.1327026 -46.81 0.0006055248    1.617    0.382
       361  -8.2608    186.3353    129.6606   7.3007214627e+01   1.8270785012e+01    0.1569341    0.1245696 -77.85  0.000705133    1.753    0.430
       362 -10.7921     44.7837    123.4886   1.0955059376e+02   4.5216248489e+01     1.096733    0.5524634  78.21  0.003886419    3.885    0.743
       363 -10.1470    118.2031    125.3278   8.8562511951e+01   3.3693486104e+01    0.6668446    0.4615651 -88.57  0.001758216    2.346    0.574
       364  -7.8593    228.4536    125.4953   6.3919468643e+01   1.0158783452e+01    0.1450369    0.1295314 -32.38 0.0005049473    1.065    0.061
       365  -8.9394    179.3311    124.8343   7.3310467562e+01   2.0772741819e+01    0.2771343    0.2413128 -81.18 0.0005407714    1.418    0.295
       366  -8.9937    144.1214    125.1693   8.1687688934e+01   2.8429472956e+01    0.2414491    0.2148943  -0.46  0.000370862    1.219    0.180
       367 -10.3029     28.5723    122.6785   1.1417854749e+02   4.6946764505e+01    0.7178443    0.3497845  77.81  0.002854505    3.258    0.693
       368  -9.2428     26.9235    113.7082   1.1332750603e+02   4.9261250635e+01    0.3136579    0.1866668  12.58  0.001616664    2.224    0.550
       369  -8.7490    200.9545    123.2846   6.8441878492e+01   1.6317443729e+01    0.4218178    0.2682802  22.31   0.00144883    2.150    0.535
       370  -7.9575    188.5232    124.0314   7.1146222695e+01   1.8897578552e+01     0.216861    0.1294027 -59.51 0.0007503133    2.410    0.585
       371  -9.3187    158.5927    121.5723   7.7212919576e+01   2.6055950986e+01    0.4393307    0.3031467 -71.30  0.001193658    2.186    0.543
       372  -9.6266     71.4113    120.1497   1.0093798545e+02   4.2800124306e+01    0.5805975    0.3598475  84.54  0.002272923    2.641    0.621
       373  -7.4380    195.0000    121.9818   6.9302886364e+01   1.7866528486e+01     0.249758   0.08411064 -38.55 0.0004735932    2.832    0.647
       374  -8.7913    171.9552    121.5255   7.4102849940e+01   2.3087023420e+01    0.2895072    0.2114584 -55.05 0.0005951621    1.529    0.346
       375  -9.9821    131.1776    118.9027   8.3443394025e+01   3.2559982006e+01    0.5240962    0.3642777  88.02  0.002015349    2.491    0.598
       376  -9.9375    141.5282    118.6879   8.0685426108e+01   3.0415108660e+01    0.4382778    0.3106508 -65.40  0.001052903    1.791    0.442
       377 -10.0194      2.8042    116.5296   1.2079072649e+02   5.0222149514e+01    0.6436048    0.2639292 -88.11  0.002848841    2.598    0.615
       378  -7.8384    231.5830    117.8174   6.1579669383e+01   1.0852000899e+01    0.2061931    0.1206037 -45.03 0.0006930957    1.667    0.400
       379 -10.3833    109.4756    112.9342   8.7914950665e+01   3.8254959709e+01     0.995028    0.4508784 -53.50  0.002620829    2.290    0.563
       380  -7.4727    219.2568    116.6265   6.3397736270e+01   1.3608814853e+01    0.1498232    0.1083507 -57.98 0.0003376036    1.650    0.394
       381  -8.1211    185.9440    116.0503   6.9655955979e+01   2.1032515203e+01    0.2434213    0.1885369 -71.27 0.0006742247    1.703    0.413
       382  -8.9287    250.2466    114.6629   5.7923446705e+01   7.7180406566e+00    0.1881004    0.1774094  20.64  0.001166267    1.188    0.158
       383 -10.1124    249.2503    108.1607   5.6583478078e+01   8.9606153054e+00    0.4147201     0.279302 -18.09   0.00209828    1.618    0.382
       384 -10.8123    248.8829    103.8316   5.5641288456e+01   9.7298956916e+00    0.4556323    0.3705969 -20.39  0.002621585    1.207    0.172
       385  -8.1059    193.1493    115.2371   6.7969287217e+01   1.9567328456e+01    0.2084572    0.1779003 -64.02 0.0004928402    1.345    0.257
       386  -8.2713    167.1979    114.7730   7.3424932942e+01   2.5541969743e+01    0.2178865     0.185857  -2.42 0.0005702407    1.301    0.231
       387 -10.2174     92.7378    112.4165   9.2719385298e+01   4.1383102590e+01    0.6408706    0.3544892 -64.80  0.001497409    2.231    0.552
       388  -8.8768     93.9996    104.4907   9.0316558714e+01   4.3033262585e+01    0.3608095    0.2333534  10.65  0.001293504    2.324    0.570
       389 -10.0436     78.9110    112.5110   9.6959027770e+01   4.3572615883e+01    0.6307312     0.408228 -85.81  0.002020753    2.401    0.583
       390  -8.8547     59.4793    115.0083   1.0352386845e+02   4.5627098681e+01    0.2855656    0.1803613  -3.09  0.001170017    2.512    0.602
       391 -10.0586    133.5804    109.6328   8.0349182722e+01   3.4116534012e+01    0.6338096    0.3182408 -55.00  0.002178174    2.415    0.586
       392 -10.1643    121.8658    112.3325   8.4254524420e+01   3.5959864517e+01    0.4463652    0.3355935 -68.29 0.0008576514    1.624    0.384
       393 -10.4235    118.6659    104.7421   8.3098884486e+01   3.8318194997e+01    0.6847408    0.4719521 -84.86  0.002636897    2.570    0.611
       394 -10.2449    108.8356     98.8503   8.4297714839e+01   4.1589526051e+01    0.6644199    0.4624107  79.17  0.001176019    2.488    0.598
       395  -8.9412    107.6403     92.6763   8.2876459506e+01   4.3185832113e+01    0.5418373    0.2782633  26.65  0.001915444    2.780    0.640
       396  -9.9805     14.5239    111.6250   1.1676883947e+02   5.0675846389e+01     0.419393    0.2121274  59.17  0.001627213    2.618    0.618
       397  -8.3341    174.8714    112.0950   7.0996026894e+01   2.4332607219e+01    0.2419136    0.2099309 -66.51 0.0006049839    1.314    0.239
       398  -8.6985    159.0527    111.8052   7.4532481394e+01   2.8004438851e+01    0.2822913    0.2233423 -43.76 0.0006564448    1.249    0.199
       399 -10.2404     66.3332    109.6320   1.0023159023e+02   4.6056488026e+01    0.6604486     0.339278 -61.59  0.002391078    1.869    0.465
       400  -7.6288    182.7541    109.3736   6.8582849358e+01   2.3058798299e+01    0.1583029    0.1184671 -62.67 0.0004640907    1.630    0.387
       401  -9.0316     43.2484    109.5082   1.0753144826e+02   4.8795397593e+01    0.2948157     0.141737  20.81  0.001303615    2.635    0.620
       402  -8.3007    189.4632    108.1072   6.6867186081e+01   2.1761811110e+01     0.234038    0.1464271 -39.67 0.0005572761    1.528    0.346
       403  -9.6315    150.5535    103.1736   7.4219528461e+01   3.1732114747e+01    0.5298106    0.3231742 -61.93  0.001618799    2.346    0.574
       404  -9.8496    139.8494    104.2859   7.7230625641e+01   3.3907251134e+01    0.5093352    0.3182045 -49.68     0.001337    1.661    0.398
       405 -10.5426     45.6729    102.4597   1.0535412043e+02   5.0252340687e+01    0.7487462     0.427621  72.72  0.002997557    3.225    0.690
       406 -10.6113     22.9717    102.7934   1.1281077881e+02   5.2197735313e+01    0.7227023    0.3863092  74.35  0.002718329    2.928    0.658
       407  -8.5434    166.8026    104.3144   7.0700727098e+01   2.7749819212e+01    0.2747414    0.2044882 -50.12 0.0005888593    1.398    0.285
       408  -9.3516      6.8481    102.6998   1.1789021870e+02   5.3263985395e+01    0.3783374    0.1912117  86.91   0.00182461    2.323    0.570
       409  -9.9826    128.4381    102.0855   7.9642635240e+01   3.6866152369e+01     0.373171    0.2982025 -69.15 0.0006655716    1.527    0.345
       410  -7.8780    175.5323    102.4705   6.8268358985e+01   2.6075563438e+01    0.1560117    0.1510959 -32.83 9.819659e-05    1.019    0.019
       411  -8.1408    159.8633    101.1793   7.1429819595e+01   2.9992770396e+01    0.2362906    0.2113761 -70.98 0.0004436352    1.260    0.207
       412  -9.4446     82.0155     99.2655   9.2701634139e+01   4.6240588543e+01     0.587693    0.2749849 -55.39  0.001705551    2.108    0.526
       413 -10.2193     63.7022     95.9769   9.7872809301e+01   4.9670802993e+01    0.6346554    0.3835659 -78.44  0.001763354    2.548    0.607
       414  -9.2968     95.0379     97.0596   8.7984678738e+01   4.4561468888e+01    0.3248533    0.2305649 -58.87 0.0005276128    1.512    0.338
       415  -8.2873    151.4813     95.4543   7.1802086285e+01   3.3093588658e+01    0.1601875    0.1501612   1.42 0.0008070564    1.089    0.082
       416  -7.7152    188.6701     94.3045   6.3346385985e+01   2.4524432640e+01     0.156958    0.1205035 -72.80  0.000268081    1.654    0.395
       417  -8.2140    164.8619     94.1136   6.8292571577e+01   3.0212797715e+01    0.2425018    0.2092337 -63.31 0.0004753354    1.285    0.222
       418  -8.1782    176.2414     93.2259   6.5570148773e+01   2.7674357175e+01    0.2181035    0.1784046 -62.27 0.0005796606    1.374    0.272
       419  -9.1527    138.9777     92.3328   7.4022594408e+01   3.6597949625e+01    0.3663282    0.2791193 -82.85 0.0009273739    1.902    0.474
       420 -10.3548    123.8668     91.3154   7.7778402503e+01   4.0145422785e+01    0.5984269    0.4630337  17.54  0.001745577    1.505    0.336
       421  -8.8423     45.9915     92.3377   1.0304038884e+02   5.2632287974e+01    0.3536015     0.207697   0.23  0.001611414    2.505    0.601
       422  -9.3540      5.6620     92.4057   1.1679645373e+02   5.5742474318e+01    0.3262365    0.1729987  60.08  0.001284162    2.653    0.623
       423  -8.0270    157.8173     91.7889   6.9237733043e+01   3.2332941184e+01    0.2145442    0.1841002 -65.37  0.000461649    1.317    0.241
       424  -9.7148     34.9292     90.0624   1.0638256515e+02   5.4247800081e+01    0.5140417    0.2718827 -80.94  0.001903102    2.706    0.630
       425  -8.4509     35.4906     82.5172   1.0449095049e+02   5.5953754256e+01    0.2733325    0.1380264 -34.76  0.001261486    2.105    0.525
       426  -9.1754     23.1877     90.1363   1.1048266443e+02   5.5185136142e+01    0.2979618    0.2420063  -5.72   0.00143241    1.459    0.314
       427  -8.1824    150.9994     89.0317   7.0046868841e+01   3.4478712317e+01     0.243669    0.1922077 -70.92 0.0005569385    1.605    0.377
       428  -9.6010    246.3609     88.2754   5.2384375896e+01   1.2710737441e+01    0.2397738    0.1674438  43.41  0.001263573    1.689    0.408
       429 -10.1620     86.6663     85.5571   8.7354293381e+01   4.8587871306e+01    0.7684307    0.4315992 -45.16  0.001451901    1.650    0.394
       430  -8.7343     65.2904     87.4084   9.5107386287e+01   5.1447121781e+01    0.4153515    0.2308865  -1.11  0.001484889    3.632    0.725
       431  -7.9260    164.1256     87.2083   6.6475661614e+01   3.1706020920e+01    0.2155244    0.1838183 -65.23 0.0004929248    1.318    0.241
       432  -9.8945     48.3277     84.1457   1.0023927158e+02   5.4287824362e+01    0.5000617    0.3409108 -88.11    0.0020968    2.225    0.551
       433  -7.5290    179.2942     85.6682   6.2824169643e+01   2.8333677238e+01    0.1585003    0.1194658 -67.93 0.0005975615    1.636    0.389
       434  -9.7976    104.7521     83.4761   8.0978410821e+01   4.5722503453e+01    0.4496292    0.3326681 -68.01  0.001094089    1.832    0.454
       435  -8.9057    104.8430     77.7514   7.9147060548e+01   4.6887378192e+01    0.3555284    0.2194039   7.43  0.001298813    2.852    0.649
       436  -8.2848    157.9449     84.1173   6.6963162777e+01   3.3769863891e+01    0.2351687    0.2061688 -63.38 0.0004304494    1.257    0.204
       437  -9.0983    140.6665     82.7692   7.0715524823e+01   3.8111592885e+01    0.3697628    0.2524203 -54.85 0.0007521196    1.703    0.413
       438  -7.9643    185.2875     82.6546   6.0800632944e+01   2.7423370003e+01    0.1586694    0.1163965 -65.39 0.0007022239    1.652    0.395
       439  -9.6146     24.6367     80.5224   1.0801102533e+02   5.7312385373e+01    0.4392131    0.2559919 -85.53  0.001319549    2.383    0.580
       440  -9.2669      9.7602     81.0386   1.1350983737e+02   5.8156127964e+01    0.3187146    0.1900684  62.10  0.001457633    2.432    0.589
       441  -8.5088    150.0977     80.5643   6.7728549147e+01   3.6312074434e+01    0.3024534    0.2072862 -52.60 0.0007487421    1.633    0.387
       442  -9.5598    119.0893     79.7615   7.5574689003e+01   4.3536072553e+01    0.4732813    0.2715702 -54.75  0.001410793    2.191    0.544
       443  -8.9279     74.4265     80.2438   8.9897505444e+01   5.1730164524e+01    0.3532318    0.2319545 -66.62  0.001102996    2.038    0.509
       444  -8.3304    166.8957     79.6831   6.3675394039e+01   3.2419897831e+01    0.2520351    0.2086333 -20.74 0.0003399726    1.275    0.216
       445  -7.9877    184.3880     78.5154   5.9813311950e+01   2.8361794053e+01    0.1513757    0.1429682 -45.83 0.0002160228    1.035    0.033
       446  -9.9896     63.4243     73.4814   9.1768293657e+01   5.4799129324e+01     0.802803    0.3047775 -58.04  0.002705763    3.473    0.712
       447  -8.5667     65.5201     62.9122   8.7602911340e+01   5.6709112226e+01    0.4259709    0.2422057  -4.18  0.001552177    3.107    0.678
       448  -8.4665    202.3621     76.0730   5.5937606058e+01   2.4445474822e+01    0.3001346    0.1421093 -26.44  0.001103929    2.468    0.595
       449  -9.3443    128.0027     75.5333   7.1756284820e+01   4.2398608279e+01     0.359357    0.2794394 -60.93 0.0007273587    1.564    0.361
       450  -7.7978    156.8742     76.6150   6.4960098828e+01   3.5408115903e+01    0.2121281    0.1494371  65.73  0.000528397    1.626    0.385
       451  -8.5246    140.5259     75.5418   6.8509760032e+01   3.9512941032e+01    0.2624866    0.2096307 -76.85 0.0006725193    1.650    0.394
       452  -9.6775     82.5737     72.9468   8.4817679410e+01   5.1974098886e+01    0.4206013    0.2956116 -67.02  0.001089163    2.043    0.511
       453  -8.4156    163.5028     73.4862   6.2560823424e+01   3.4346339604e+01    0.2995507     0.148723 -36.91 0.0008018963    1.982    0.495
       454  -8.0878    151.4883     73.4757   6.5230139659e+01   3.7274707425e+01     0.152195    0.1512508 -46.04 3.369999e-05    1.040    0.038
       455  -8.6761    115.5926     72.8334   7.4344993335e+01   4.5641273881e+01     0.268135    0.1816002 -44.54 0.0008037764    1.506    0.336
       456  -8.2052     42.6912     73.1277   9.9423874513e+01   5.7379219305e+01    0.2061895    0.1549166 -68.38 0.0006193981    1.488    0.328
       457  -9.0647     29.1827     70.7004   1.0399225852e+02   5.9176863891e+01    0.5765111    0.2402364 -21.36  0.001945847    4.812    0.792
       458  -7.8558    175.4860     72.5305   5.9821416063e+01   3.1564370959e+01    0.1498251    0.1487445 -35.64 1.661957e-05    1.010    0.010
       459  -8.9198    105.8506     71.8072   7.6900649655e+01   4.7868996839e+01    0.2625077    0.2164565 -54.46 0.0005846758    1.374    0.272
       460  -9.7043     95.0411     69.7221   7.9602618483e+01   5.0394665098e+01    0.8240561     0.276729 -42.83  0.002464407    2.862    0.651
       461  -9.3458     97.6613     60.7600   7.5672883849e+01   5.1593468805e+01    0.3561379    0.3009433 -28.99  0.001340802    1.136    0.120
       462  -9.4781     51.4848     69.6462   9.5069340251e+01   5.7160647487e+01    0.4631013    0.2587568 -67.75  0.001490041    2.627    0.619
       463  -7.6432    156.9878     69.9981   6.2915546942e+01   3.6547647948e+01    0.1860328    0.1719745 -30.76 0.0003386866    1.082    0.076
       464  -8.7342    147.0646     68.1852   6.4605364519e+01   3.9274776808e+01    0.3197664    0.2099812 -40.12 0.0005279871    1.532    0.347
       465  -8.6063    138.5311     66.1813   6.6014505191e+01   4.1665449464e+01    0.3052011     0.204967 -48.78 0.0008892867    1.642    0.391
       466  -8.8395    121.6024     66.0756   7.0400818423e+01   4.5586506291e+01    0.3251145    0.2373242 -58.90 0.0009341739    1.744    0.427
       467  -8.4858     83.3674     65.6178   8.2108949410e+01   5.3319064581e+01    0.4567591    0.2598853  -3.79  0.001539139    3.755    0.734
       468  -9.0329    110.1368     63.8606   7.2924163806e+01   4.8479912586e+01    0.3079827    0.2333441 -52.91 0.0006160326    1.542    0.352
       469  -8.5785     37.2871     64.4599   9.9096499061e+01   5.9813616442e+01     0.246638    0.1965018  72.54 0.0008276179    1.902    0.474
       470  -8.0609    158.1576     62.1046   6.0220202527e+01   3.7582758083e+01    0.2080286    0.1766743 -64.38 0.0003897525    1.315    0.239
       471  -9.0909     16.6861     70.2035   1.0873486669e+02   6.0202578405e+01    0.2515146    0.1828852 -88.35 0.0009521884    1.712    0.416
       472  -9.6764     73.3943     59.4475   8.3497933057e+01   5.6187378697e+01    0.3894628    0.2382943 -49.74  0.001100103    1.746    0.427
       473  -8.0615    147.1127     59.1356   6.1697935201e+01   4.0780885576e+01    0.2055643     0.176168 -58.20 0.0004280395    1.296    0.228
       474  -9.8455     23.3789     56.3880   1.0250994827e+02   6.2739008004e+01    0.4107613    0.2702878 -89.93  0.001820566    2.760    0.638
       475  -8.2269    130.8296     58.0761   6.5252878302e+01   4.4856447205e+01    0.2264837    0.2018244 -61.92 0.0005135849    1.296    0.228
       476  -9.3046      7.4215     57.1572   1.0945196704e+02   6.3593695921e+01     0.256313    0.1922424 -89.02  0.000919783    1.711    0.416
       477  -9.2912    119.2319     55.5485   6.7437175435e+01   4.7938756381e+01    0.4528828    0.2271926 -47.20   0.00135237    2.380    0.580
       478  -8.2158    140.0451     56.0302   6.2312494314e+01   4.2995587846e+01    0.2312939    0.1793451 -65.23 0.0005209553    1.622    0.384
       479  -9.2958     54.1380     55.1365   8.9338242646e+01   5.9826626851e+01    0.3066465    0.2270133 -64.30 0.0009707995    1.842    0.457
       480  -8.8213     44.1599     55.6506   9.3563720273e+01   6.0932706493e+01    0.2422516    0.1944944 -70.28 0.0007722174    1.685    0.406
       481  -8.6859    105.9262     53.4876   7.0508078290e+01   5.1183437324e+01    0.2595877    0.1992521 -49.29 0.0006203069    1.512    0.339
       482  -7.7618    152.5086     53.4265   5.8674639271e+01   4.0350066233e+01    0.1494806    0.1409835  35.91 0.0001755547    1.043    0.041
       483  -9.5494     92.4500     50.7469   7.3708710692e+01   5.4378213007e+01    0.3827882    0.2467887 -46.45  0.001103625    1.755    0.430
       484  -8.1222     89.0129     59.9658   7.8217968486e+01   5.3390201622e+01    0.2084182    0.1818191 -77.95 0.0006768242    1.607    0.378
       485  -8.4951    144.7876     48.9556   5.8882853345e+01   4.2927519041e+01    0.2404732    0.1586787 -56.61 0.0006005869    1.910    0.477
       486  -8.4458    130.0152     49.3317   6.2455604023e+01   4.6436746541e+01    0.2082751    0.1878617  48.82 0.0005317244    1.101    0.091
       487  -8.6252    120.8112     47.4908   6.4152602410e+01   4.8860887296e+01    0.2435741    0.1994881 -27.77 0.0003961732    1.237    0.192
       488  -8.5412    112.3244     47.0291   6.6291396184e+01   5.0842407897e+01    0.2336732    0.2077234 -87.93 0.0005350126    1.461    0.315
       489  -9.0135     82.0386     46.6265   7.5652175546e+01   5.7028914635e+01    0.2642477    0.2132199 -47.14 0.0006784121    1.459    0.315
       490  -8.4370     45.0206     44.5623   8.9291477039e+01   6.2989227033e+01    0.2271965     0.165587 -51.14  0.000630488    1.515    0.340
       491  -8.8926     16.8779     44.7105   1.0189567300e+02   6.5615874277e+01    0.2247954    0.1530343 -58.37  0.000792212    1.431    0.301
       492  -9.0105    132.9709     43.3816   5.9672422448e+01   4.6608631531e+01    0.3031895    0.1935997 -41.20 0.0008576367    1.677    0.404
       493  -9.0449     58.3920     42.8057   8.3047040230e+01   6.1542207463e+01    0.2706127    0.2086508 -57.07  0.001061182    1.784    0.440
       494  -8.6096     93.1763     42.4334   7.0291208049e+01   5.5585123575e+01    0.2744583     0.200489   4.85 0.0008176048    1.480    0.324
       495  -9.4279     69.6694     41.3682   7.8066411791e+01   6.0045709267e+01    0.4623711    0.2549976 -47.39  0.001921196    2.152    0.535
       496  -9.2965      5.2166     42.1105   1.0650584141e+02   6.6842717286e+01    0.2971435    0.1860453 -76.56  0.001268868    2.093    0.522
       497  -8.6164    106.0416     41.5221   6.6021198564e+01   5.3047509257e+01    0.2600065    0.1907691 -45.46 0.0007308095    1.580    0.367
       498  -7.7366    140.2985     41.6464   5.7412684915e+01   4.5074313651e+01    0.1491901    0.1121123 -65.38  0.000467841    1.696    0.410
       499  -8.8197     36.9082     40.8272   9.1442395714e+01   6.4603560437e+01    0.2122895    0.1699281 -46.12 0.0005929639    1.327    0.247
       500  -8.8583     95.3786     37.9905   6.7847716470e+01   5.5809571933e+01    0.2721696    0.2025574 -48.17 0.0007548092    1.665    0.399
       501  -8.2976     80.7193     36.4593   7.2054632228e+01   5.8893352783e+01    0.2420918     0.153399 -40.51 0.0007741057    1.708    0.415
       502  -9.1971     26.0437     35.3655   9.4395654684e+01   6.6687864288e+01    0.2739652    0.1779905 -54.31 0.0009298878    1.663    0.399
       503  -7.8883    125.8160     35.6291   5.8612696952e+01   4.9377022067e+01    0.1847441    0.1335751  64.14 0.0002553591    1.476    0.323
       504  -8.6750    111.9954     34.7716   6.1789470273e+01   5.2684801240e+01    0.2385841    0.1995086 -21.81 0.0005547544    1.220    0.180
       505  -7.9787    104.4778     34.4821   6.3753561892e+01   5.4385455764e+01    0.1412505    0.1274266  18.13 0.0003007432    1.014    0.014
       506  -7.6564     88.5189     34.5072   6.8628701059e+01   5.7690996309e+01    0.1381012     0.123114   7.72 -2.472542e-05    1.039    0.038
       507  -9.0290     48.4753     33.2464   8.3300487312e+01   6.4551143717e+01    0.2699795    0.1998175 -39.75 0.0006923692    1.389    0.280
       508  -8.5172    119.1827     32.9630   5.9250935456e+01   5.1279501063e+01    0.2651097     0.202723 -60.45 0.0009452593    1.731    0.422
       509  -8.4845     60.5211     32.6450   7.8011250769e+01   6.2913866583e+01    0.2353112    0.2010559 -63.15 0.0007485501    1.857    0.462
       510  -9.0218     72.2624     30.9571   7.2767685658e+01   6.1231813588e+01    0.2752954    0.1968635 -49.64 0.0009953532    1.917    0.478
       511  -7.9797    139.4111     31.5253   5.4133584290e+01   4.6612755005e+01    0.1397417    0.1332425  45.78 0.0001991702    1.030    0.029
       512  -9.0158     12.8660     30.3675   9.8988439822e+01   6.8665672051e+01      0.28877    0.1598809 -60.34  0.001514503    2.060    0.515
       513  -8.5429    101.6047     29.7008   6.2681553558e+01   5.5640087920e+01    0.2338162    0.1669513 -35.02 0.0007624913    1.506    0.336
       514  -7.9502     42.0247     29.9698   8.4765244228e+01   6.5922356912e+01    0.1571064    0.1209968 -21.90 0.0004790646    1.072    0.067
       515  -8.7834     81.4286     27.6737   6.8121150200e+01   6.0014370750e+01     0.249756    0.2170249 -64.22 0.0007476217    1.715    0.417
       516  -8.7209      3.7570     27.9003   1.0276168053e+02   6.9688853941e+01     0.192907    0.1425803 -64.23 0.0006956645    1.597    0.374
       517  -7.6571    136.6765     27.3572   5.3251790259e+01   4.7783230325e+01    0.1460501     0.106726 -65.76 0.0007045055    1.769    0.435
       518  -7.9485    110.0000     27.0258   5.9327736901e+01   5.4122175338e+01    0.2160773   0.07815726 -27.19 0.0007153006    2.886    0.653
       519  -8.8642     91.7370     26.4150   6.4261800271e+01   5.8136673263e+01    0.2895068    0.2001875 -41.11 0.0008322838    1.701    0.412
       520  -8.2964    164.2588     23.9434   4.7148351404e+01   4.1286281229e+01    0.1780942     0.175185 -38.46 0.0002882213    1.097    0.088
       521  -8.3220    104.4311     23.1939   5.9285002232e+01   5.5819355369e+01    0.1824027     0.123723 -36.88 0.0004910412    1.643    0.391
       522  -8.0410     34.8072     23.5619   8.5313534733e+01   6.7825671434e+01     0.156474    0.1092416  36.52 0.0009426497    1.802    0.445
       523  -8.6761    131.7667     20.3519   5.1781423437e+01   4.9762230330e+01     0.302755    0.1891804 -17.48  0.001042176    1.780    0.438
       524  -8.9855     63.5452     21.0486   7.1649984829e+01   6.4107142344e+01    0.2727289    0.2063535 -50.19 0.0009142917    1.968    0.492
       525  -8.8347     48.3983     21.9146   7.8313056090e+01   6.6331593759e+01    0.2099163    0.1859237  -4.02 0.0006032387    1.233    0.189
       526  -7.7507    191.3678    249.6835   9.5286575368e+01  -3.4331476686e+00    0.1148712   0.08705921  54.60 0.0007037516    1.779    0.438
       527  -7.6373     19.5559     21.4927   9.2024829318e+01   6.9714785018e+01    0.1183366   0.09177361 -23.95 0.0001035534    1.066    0.062
       528  -8.9203     74.0983     19.5061   6.7046130299e+01   6.2442180998e+01    0.2749042     0.188306 -45.19 0.0009578895    1.967    0.492
       529  -8.3374     87.8382     17.5813   6.1686933270e+01   5.9990659500e+01    0.1998489    0.1517191 -24.31 0.0004175231    1.369    0.269
       530  -8.0736     38.7261     18.1914   8.0958626652e+01   6.8174812277e+01    0.1792596    0.1412774 -36.66  0.001057405    1.470    0.320
       531  -7.3805    112.2748     21.6686   5.6657277522e+01   5.4227981812e+01    0.1301051    0.1064201 -60.91 0.0002988402    1.596    0.373
       532  -7.9480     30.2001     16.2378   8.4171155287e+01   6.9487331492e+01    0.1493181    0.1311582 -26.01 0.0008654663    1.403    0.287
       533  -8.1851     97.3395     15.2326   5.7934410008e+01   5.8245561178e+01    0.1802031    0.1151746 -31.99 0.0005086385    1.702    0.412
       534  -7.8490      7.5133     15.5142   9.5942099089e+01   7.1668647510e+01    0.1146746   0.08575299 -27.13 2.768644e-06    1.053    0.050
       535  -7.9560     17.0030     14.4783   9.0235152413e+01   7.1089431174e+01    0.1311203    0.0954602  43.99 0.0005678869    2.339    0.572
       536  -7.4651    119.6874     11.3363   5.0974733684e+01   5.3554896830e+01    0.1324968    0.1023666 -65.16 0.0007045724    1.688    0.407
       537  -9.0951    175.7351    247.6623   9.7942024825e+01  -7.8943340648e-01    0.2814654    0.2280272 -76.87  0.001147064    2.031    0.508
       538  -8.8449    132.3757    248.0624   1.0630259056e+02   5.8092769503e+00    0.2495785    0.1760327  75.04 0.0007661639    1.894    0.472
       539  -8.3473    113.1410    248.6676   1.1004382066e+02   8.5861777340e+00    0.1894392    0.1475709  85.57 0.0007606476    1.476    0.322
       540  -8.9138    242.8052    247.3109   8.5635443472e+01  -1.0409967174e+01    0.2787312      0.13398 -31.98  0.001461999    2.181    0.542
       541  -8.9497    232.4542    247.1615   8.7420230829e+01  -9.0086220687e+00    0.2077366    0.1569244 -10.59 0.0008867982    1.257    0.204
       542 -10.0021    224.0341    244.3536   8.8472781686e+01  -7.5055200634e+00    0.4359429    0.2336213 -45.03  0.002335064    2.768    0.639
       543  -8.2954    218.6582    248.1665   9.0041968806e+01  -7.2144955156e+00    0.1545275    0.1430713 -10.06 0.0006728538    1.458    0.314
       544  -9.0365    156.2599    247.8598   1.0169002180e+02   2.1784423591e+00    0.2076092    0.1993641  47.75 0.0007442366    1.230    0.187
       545  -9.0496    210.9448    246.5210   9.1189493568e+01  -5.9050544388e+00    0.1811816    0.1657892 -33.76 0.0006730824    1.550    0.355
       546  -9.1743    213.1209    242.4981   9.0162128642e+01  -5.7074637901e+00    0.2735921    0.1686999  27.53 0.0008978203    1.323    0.244
       547  -8.8251    146.3620    240.1190   1.0259384495e+02   4.9238501785e+00    0.3929641    0.2358454  70.31  0.001777525    3.189    0.686
       548  -9.1456    120.1726    245.5771   1.0836162087e+02   8.0569065563e+00    0.2872628    0.1873396  80.78  0.001597279    2.179    0.541
