#   1 NUMBER                 Running object number                                     
#   2 MAG_AUTO               Kron-like elliptical aperture magnitude                    [mag]
#   3 X_IMAGE                Object position along x                                    [pixel]
#   4 Y_IMAGE                Object position along y                                    [pixel]
#   5 X_WORLD                Barycenter position along world x axis                     [deg]
#   6 Y_WORLD                Barycenter position along world y axis                     [deg]
#   7 A_WORLD                Profile RMS along major axis (world units)                 [deg]
#   8 B_WORLD                Profile RMS along minor axis (world units)                 [deg]
#   9 THETA_WORLD            Position angle (CCW/world-x)                               [deg]
#  10 FWHM_WORLD             FWHM assuming a gaussian core                              [deg]
#  11 ELONGATION             A_IMAGE/B_IMAGE                                           
#  12 ELLIPTICITY            1 - B_IMAGE/A_IMAGE                                       
         1 -14.5313    249.7762     56.8601   5.9529816488e+01   1.8109114821e+01    0.7718827    0.2356417 -45.67  0.003322794    2.653    0.623
         2 -15.7739    172.1393      5.7646   5.7292714092e+01   4.0945503100e+01     2.040293    0.7809959  84.01  0.007970878    3.513    0.715
         3 -15.1096    239.7430      7.9167   5.1491835386e+01   2.6441770133e+01    0.7751097     0.357217 -57.96  0.004488536    1.847    0.459
         4 -11.3823      2.6941      8.3677   1.0382007610e+02   7.1201553036e+01   0.08569093   0.07938889  -6.97 0.0007035661    1.750    0.429
         5 -14.2838    138.7277      6.3368   6.1894080962e+01   4.8303569924e+01    0.4398884    0.2190719  61.68  0.001937333    1.604    0.377
         6 -14.6110    163.2580     11.1411   5.9658422596e+01   4.2413623139e+01    0.7013744    0.3858711 -70.48  0.003344091    2.273    0.560
         7 -11.2533    179.2566    226.6086   1.0608382820e+02  -6.7235885114e-01    0.3520916    0.2645939 -84.67 0.0007680568    2.235    0.553
         8 -15.7843    247.6902    231.7269   9.3671689306e+01  -1.1734590013e+01     2.718749    0.4732216 -40.85  0.008588951    5.159    0.806
         9 -20.5700     95.4961    193.9654   1.1967976307e+02   2.1048859293e+01     9.378727     7.482028  55.46   0.04682777    1.241    0.194
        10 -11.7525    179.4663    176.4853   9.6434165899e+01   9.6021779264e+00     0.369435    0.2162109  54.55   0.00150426    2.096    0.523
        11 -13.5617    175.6889    183.1493   9.8631899451e+01   8.8756003875e+00    0.4579584    0.3856637  28.63  0.001635903    1.235    0.190
        12 -11.9802    175.4900    178.5421   9.7729735390e+01   9.9184901961e+00    0.2515378     0.244654  63.86 0.0005376555    1.100    0.091
        13 -11.4651     12.3014    182.4350   1.3817166588e+02   3.4587397325e+01    0.1267881   0.09397837 -74.49 0.0002753874    1.115    0.103
        14 -10.9095      4.8873    177.6530   1.3940115811e+02   3.6373355752e+01    0.1549492    0.1281328  86.11 0.0003983409    1.098    0.089
        15 -11.3551    185.5497    176.4615   9.5122020902e+01   8.4425208175e+00    0.3436545    0.1413279 -46.86  0.001249674    2.340    0.573
        16 -12.1755    175.1813    223.3118   1.0636884027e+02   6.4417935798e-01    0.3168051    0.1862204 -45.58  0.001508601    1.755    0.430
        17 -11.7959    170.5738    229.5368   1.0842735600e+02   2.1529809213e-01    0.3231073    0.2514584  15.66  0.001773134    1.332    0.249
        18 -11.7377    171.6127    226.5148   1.0768784615e+02   6.2408148850e-01    0.2173445    0.1565557  26.56  0.001135267    1.369    0.270
        19 -10.2023      5.1987    163.9308   1.3795079582e+02   3.9646825014e+01    0.3345267    0.1744313 -27.29  0.001510359    3.300    0.697
        20 -11.2378     27.5317    227.7107   1.3904618583e+02   2.2454366253e+01    0.2547221    0.1029105 -71.55  0.001204281    2.174    0.540
        21 -11.4845      7.3899    225.1651   1.4276953596e+02   2.5163158486e+01   0.09143561   0.08710029   9.57 0.0006579451    1.592    0.372
        22 -12.8535     12.8971    159.9010   1.3559629166e+02   4.0006377840e+01    0.3062109    0.2122243  87.89  0.001075728    1.365    0.267
        23 -11.3749     18.9272    160.4892   1.3413832120e+02   3.9342249368e+01    0.1672549    0.1293512  33.78 0.0006502822    1.528    0.346
        24 -11.6697     17.5343    221.5636   1.4052870290e+02   2.4926630177e+01    0.1286377   0.09140733  75.61 0.0003940316    1.161    0.139
        25 -11.5234     18.1755    153.2348   1.3341206162e+02   4.1190551723e+01    0.1846113    0.1508974 -63.93 0.0004290747    1.086    0.079
        26 -12.6216    192.6589    217.6861   1.0168932919e+02  -1.2023218213e+00    0.2938892    0.2220515  25.91 0.0008709197    1.301    0.232
        27 -13.0933    177.3770    216.0597   1.0460448691e+02   1.6954634979e+00       0.4213    0.3204749  50.06  0.001652544    1.454    0.312
        28 -11.3967     13.0241    216.9997   1.4106460923e+02   2.6421455551e+01     0.180592    0.1420856 -84.01  0.001207861    1.123    0.109
        29 -12.9580    153.3593    143.4962   9.5109263188e+01   2.2314404885e+01    0.3254066    0.2690266 -63.70 0.0007572972    1.257    0.204
        30 -11.6414    166.0583    233.7457   1.1009544189e+02   1.6192680606e-01    0.1755693    0.1620615  -6.47 0.0006771937    1.087    0.080
        31 -14.5894     27.7099    130.6079   1.2738965880e+02   4.5876453480e+01    0.7393526    0.2932908 -40.81  0.002006544    2.851    0.649
        32 -15.0985     29.1744    138.7233   1.2829538118e+02   4.3761932824e+01    0.6217101    0.4954754 -58.30  0.003048801    1.076    0.071
        33 -11.6839    187.9656    210.7305   1.0137944933e+02   9.3135496210e-01    0.1915476    0.1678786  21.83 0.0003322423    1.112    0.101
        34 -11.9787    167.2164    138.6745   9.0799752182e+01   2.0464632776e+01    0.2809765    0.2362234 -32.45 0.0005715014    1.246    0.197
        35 -12.6790    125.6150    117.8833   9.5811263313e+01   3.3956320141e+01    0.2788186    0.2425014  67.28  0.000201443    1.257    0.204
        36 -12.6133    190.0853    205.9298   1.0003076193e+02   1.5154178482e+00    0.4469405    0.2769574 -55.33  0.002065487    1.892    0.472
        37 -11.7880    173.6740    210.0160   1.0429491831e+02   3.5585911273e+00    0.1976701    0.1724776 -35.52 0.0003941264    1.144    0.126
        38 -11.2610    202.0585    203.3579   9.7075231333e+01  -2.6154988740e-02    0.1834631    0.1696649  18.81 0.0004339837    1.109    0.099
        39 -11.8111     12.8107    197.2027   1.3944872387e+02   3.1020302032e+01    0.1980884    0.1764442 -73.31 0.0008839811    1.245    0.197
        40 -11.8358    144.4425    115.5812   9.0479170911e+01   3.0455178792e+01      0.33877    0.2519186  75.33   0.00151866    1.704    0.413
        41 -14.2030     58.7131    114.4289   1.1459988012e+02   4.6306933224e+01    0.5250534    0.3707334  60.19  0.001459589    1.911    0.477
        42 -14.6774     63.5155    108.5888   1.1169029064e+02   4.7003680230e+01    0.6524228     0.425714 -18.17  0.002317515    1.994    0.499
        43 -12.1830      8.9061    196.8912   1.4025802827e+02   3.1459191211e+01    0.2824621     0.168948  70.81 0.0009365708    1.584    0.369
        44 -12.5079     44.1078    113.8127   1.1911807855e+02   4.8223687469e+01    0.2232547     0.195208 -50.42 0.0003687083    1.028    0.027
        45 -10.4935    221.2731    231.2925   9.8461263015e+01  -8.0622526066e+00    0.1275987   0.08804573  -7.55 0.0002033167    1.518    0.341
        46 -11.5866    153.9554    108.1089   8.6353125499e+01   2.9929249889e+01    0.2837147    0.2124595  44.56   0.00135193    1.378    0.275
        47 -10.6728     24.3131    196.2185   1.3683717833e+02   3.0106308617e+01    0.1101373   0.09323088 -45.15  0.000306937    1.479    0.324
        48 -12.2059    195.5739    193.8528   9.6547823474e+01   2.9758865807e+00     0.251083    0.2164949  56.21 0.0008879516    1.366    0.268
        49 -12.4641     21.3067    191.3550   1.3702077326e+02   3.1581774300e+01    0.2801278    0.1822361 -83.67  0.001586973    1.305    0.234
        50 -11.7171      2.4459    104.7106   1.3078548223e+02   5.3814596384e+01    0.2396033    0.1596651 -37.15  0.001307228    1.405    0.288
        51 -13.1678     95.2805    103.4644   1.0051861511e+02   4.3042972906e+01    0.2705852    0.2369435 -32.78 0.0008618833    1.109    0.099
        52 -12.7708     22.2166    188.4078   1.3651239284e+02   3.2201069532e+01    0.2379403    0.2068442  82.56  0.001556281    1.108    0.097
        53 -11.3214     16.7666    193.4575   1.3823985735e+02   3.1527429178e+01     0.133048    0.1262041 -12.96 0.0004321568    1.460    0.315
        54 -12.0306    110.7535     89.3587   9.2166663383e+01   4.2976948289e+01    0.3150463    0.2140571  34.47  0.000657931    1.536    0.349
        55 -13.1062     89.0612     86.1710   9.7582091346e+01   4.7725024382e+01    0.4834924    0.3426014 -51.85  0.002030202    1.523    0.344
        56 -14.0957    249.1071     83.8351   6.4766470352e+01   1.4020898231e+01    0.6229164    0.2000466 -37.53  0.002284347    3.466    0.712
        57 -14.1578     43.6210     82.2572   1.1165130456e+02   5.5194903514e+01    0.4546731    0.3061338  42.97  0.002478966    1.855    0.461
        58 -12.5670     51.8236     79.8894   1.0808126638e+02   5.4676626865e+01    0.2213148    0.1842151  15.69 0.0007535256    1.227    0.185
        59 -11.2092     64.9951     79.4932   1.0340600926e+02   5.2945672901e+01    0.1922506    0.1294531  33.60 0.0007427169    1.534    0.348
        60 -12.1619    179.8588    190.2518   9.9154433412e+01   6.5684211372e+00    0.2259279    0.2184631 -35.72 0.0003912527    1.053    0.050
        61 -10.9348    194.5763    231.7927   1.0381908404e+02  -4.1095996685e+00    0.1359053   0.09174279  11.32 0.0004603052    1.670    0.401
        62 -10.3778     42.1481    247.5347   1.3785614710e+02   1.6402688860e+01    0.4300092    0.1297322  51.09   0.00177396    2.955    0.662
        63 -11.4335     56.2636     45.9784   9.5716659582e+01   5.9971958135e+01    0.1754655    0.1451408  -3.24 0.0006222108    1.035    0.034
        64 -11.6495     64.5225     41.8625   9.1366673529e+01   5.9300044256e+01     0.183129    0.1495203  21.15 0.0007087995    1.093    0.085
        65 -10.8348     69.5315     36.4836   8.7778842821e+01   5.9198673843e+01    0.1246312    0.1048247  14.54 0.0001334289    1.002    0.002
        66 -11.7660     24.0136     24.1977   1.0039953831e+02   6.7124247734e+01    0.1931447      0.10486   2.06  0.001080586    2.060    0.515
        67 -11.8526     10.7392    189.1744   1.3916876465e+02   3.3115698010e+01     0.179798    0.1306016 -85.64 0.0006494739    1.104    0.094
        68 -11.5121     10.6331    239.1708   1.4312426580e+02   2.1804371257e+01    0.2301122   0.08364104  48.28  0.001150012    2.316    0.568
        69 -10.5447    165.1088    237.6133   1.1093222449e+02  -4.1395485974e-01     0.165589    0.1510899  17.90  0.001004806    1.020    0.020
        70 -11.1794    191.2106    229.7195   1.0414368151e+02  -3.2013727726e+00    0.2287773    0.1413057 -26.31 0.0008070309    1.827    0.453
