#   1 NUMBER                 Running object number                                     
#   2 MAG_AUTO               Kron-like elliptical aperture magnitude                    [mag]
#   3 X_IMAGE                Object position along x                                    [pixel]
#   4 Y_IMAGE                Object position along y                                    [pixel]
#   5 X_WORLD                Barycenter position along world x axis                     [deg]
#   6 Y_WORLD                Barycenter position along world y axis                     [deg]
#   7 A_WORLD                Profile RMS along major axis (world units)                 [deg]
#   8 B_WORLD                Profile RMS along minor axis (world units)                 [deg]
#   9 THETA_WORLD            Position angle (CCW/world-x)                               [deg]
#  10 FWHM_WORLD             FWHM assuming a gaussian core                              [deg]
#  11 ELONGATION             A_IMAGE/B_IMAGE                                           
#  12 ELLIPTICITY            1 - B_IMAGE/A_IMAGE                                       
         1 -14.9689     79.7211    164.0372   1.1589444402e+02   3.1822079799e+01     2.496568     1.272472  37.76   0.01298024    2.050    0.512
         2 -14.0186      1.9699     27.8931   1.1518468637e+02   6.9430319768e+01      4.41963    0.3353417 -63.81   0.01217254    6.972    0.857
         3 -14.6121      4.0184     78.4530   1.2415579981e+02   5.8345865646e+01     4.036882     1.281206 -61.75   0.01980649    2.205    0.546
         4 -14.7307    197.0277     29.3247   5.6945921375e+01   3.1996908988e+01     2.589687     1.809365   8.14   0.01191249    1.762    0.432
         5 -11.5335    204.0779     19.6192   5.3038581374e+01   3.1266569496e+01    0.4726267    0.3426108  24.88     0.001182    1.635    0.389
         6 -13.8904    209.1066     12.7975   5.0405486667e+01   3.0682969400e+01     1.448265     1.160672   4.72  0.004842602    1.416    0.294
         7 -14.1193      2.4503    110.7589   1.2808418075e+02   5.1298492056e+01     10.01964          nan -72.32    0.0148877   25.046    0.960
         8  -9.9033    118.7142      2.4184   6.0067315414e+01   5.5328498593e+01    0.2700201    0.1397461  69.04  0.001147323    2.158    0.537
         9 -14.3421    120.0712    197.6952   1.1202744018e+02   1.9585020576e+01      2.06844      1.31195  65.20   0.01224901    1.626    0.385
        10 -11.3863    140.7254    249.4951   1.1412371996e+02   9.0391506273e+00    0.3569704    0.1105901  42.26  0.001810658    2.404    0.584
        11 -12.5760     56.8510    203.6080   1.2417319773e+02   2.7327367410e+01    0.7055792    0.5583143  85.86  0.004041898    1.190    0.159
        12 -12.2460     34.2021    215.5896   1.2880590995e+02   2.7823024399e+01     1.162836    0.9470247  45.95  0.009842717    1.506    0.336
        13 -11.9944     47.8893    213.8434   1.2642786377e+02   2.6613682303e+01    0.2815513    0.2303935 -59.31 0.0008057124    1.783    0.439
        14 -15.7461     50.7775    242.3653   1.2763456531e+02   2.1760175579e+01     2.856974     0.947786  42.12    0.0169439    2.336    0.572
        15 -14.6844      2.4848    229.2238   1.3432854326e+02   2.8704747740e+01    0.9605606    0.5242739  83.45  0.007150142    1.414    0.293
        16 -15.2262     11.0925    199.9772   1.3186751693e+02   3.2795719948e+01     1.426661    0.5139675 -71.99  0.008583968    2.521    0.603
        17 -14.7669      2.9443    190.4819   1.3283686944e+02   3.5210378825e+01     1.317934    0.3180807 -78.41  0.006544126    3.359    0.702
        18 -12.8230     82.7118    220.8957   1.2104749068e+02   2.1172281015e+01    0.5432755    0.4176604  69.29  0.002428079    1.083    0.076
        19 -13.1765     72.5004    217.5519   1.2251765285e+02   2.3033127379e+01    0.7511688    0.3542056  46.48  0.003190126    1.674    0.403
        20 -14.5594     69.1016    184.2682   1.2025582374e+02   2.9316643997e+01     1.420053     1.265832 -72.34   0.01066601    1.372    0.271
        21 -13.8806     34.8702    242.8992   1.3005348208e+02   2.3422695647e+01    0.4115729    0.3247701  50.44 0.0007090403    1.455    0.313
        22 -10.4879     96.5919    224.9593   1.1904392178e+02   1.8669092059e+01    0.2681258    0.1957335  62.98  0.001468968    1.094    0.086
        23 -13.4946     95.6074    194.1364   1.1620328308e+02   2.3881513984e+01     1.276997     0.871389  33.07   0.00793456    1.730    0.422
        24 -11.1896     79.1655    205.5433   1.2035375879e+02   2.4177292178e+01    0.4107921    0.3092776  33.94  0.002235024    1.640    0.390
        25 -10.2580     32.3881    206.7109   1.2861693965e+02   2.9527112670e+01    0.2435809   0.09665497  55.89 0.0005880359    1.929    0.482
        26 -10.4889    141.4035    200.2435   1.0841393739e+02   1.5758522222e+01    0.4077387    0.2559918  67.34   0.00227148    1.952    0.488
        27 -10.8532    199.4043    198.6305   9.7856910466e+01   6.2008329467e+00    0.2430449     0.184924  25.67  0.001589902    1.169    0.145
        28 -12.8666     50.8039    178.5565   1.2329052033e+02   3.2650657971e+01     1.084621    0.4642555 -70.11  0.005964282    2.170    0.539
        29  -9.6861    208.5107    186.5115   9.4275439413e+01   6.1783443345e+00    0.1261851    0.1026373  24.52 0.0008099975    1.049    0.047
        30 -10.8289      1.4930    170.9878   1.3221517042e+02   3.8957021462e+01    0.3725471    0.1004353 -83.02  0.001785833    3.101    0.678
        31 -11.3392      1.5033    166.4641   1.3199043330e+02   3.9827567078e+01    0.6114237    0.1008287 -77.82  0.002413251    4.567    0.781
        32 -13.0528     74.1149    227.2371   1.2297813454e+02   2.1279840950e+01    0.5921161    0.3394367  51.55   0.00265116    1.314    0.239
        33 -12.1562    126.9797    168.6265   1.0667078123e+02   2.3539914619e+01    0.6030213    0.5090806  71.88  0.003359603    1.144    0.126
        34 -11.1363    126.6163    160.9778   1.0552782705e+02   2.5026234347e+01    0.3150893     0.244268  65.95  0.001777313    1.276    0.217
        35 -14.0629     87.9128    185.6396   1.1674717258e+02   2.6513132769e+01     2.142352     1.493106   7.27   0.01074174    3.423    0.708
        36 -11.5095    138.2488    166.4991   1.0403418695e+02   2.1957644015e+01    0.5470588    0.3538186  83.00  0.001368848    2.440    0.590
        37 -11.2168    140.2758    159.6682   1.0246339782e+02   2.2831619962e+01     0.277489     0.255495 -54.28  0.001744615    1.186    0.157
        38 -10.1738     10.2158    159.0215   1.2987542648e+02   4.0580295511e+01    0.4106253    0.1391882 -76.76  0.002165599    2.356    0.576
        39  -9.4208    132.6451    246.7234   1.1513544379e+02   1.0539343327e+01    0.0994182   0.07025397  29.00 0.0007007702    1.650    0.394
        40 -13.0195      2.4771    144.8202   1.3058773782e+02   4.4072587212e+01     1.751103    0.2570257 -75.37  0.006522837    4.588    0.782
        41 -13.2549     14.1541    129.7339   1.2688319262e+02   4.6339149513e+01     1.116181    0.8948511 -76.81  0.006441982    1.200    0.167
        42 -14.9174      2.5784    243.1168   1.3473562412e+02   2.6565262555e+01     1.256052    0.4803791 -78.81  0.008949203    2.442    0.591
        43 -13.8152     69.2076    136.9422   1.1464452662e+02   3.8926844400e+01     1.553124    0.7815087 -56.93  0.007838582    1.909    0.476
        44 -14.1065     53.7047    131.9717   1.1767691548e+02   4.1957546211e+01     1.293879     1.111264 -23.38  0.005979578    1.714    0.416
        45 -11.7674     91.4713    144.3452   1.1056141961e+02   3.4151510863e+01    0.3241781    0.2754085 -76.33 0.0006182608    1.116    0.104
        46 -11.9678     36.1917    146.2747   1.2338217554e+02   4.0793765046e+01    0.7620313    0.5425259  87.18  0.004364339    1.135    0.119
        47 -12.4716    108.1588    131.5241   1.0444909412e+02   3.4142331010e+01    0.8378782     0.494667  38.39  0.004045876    1.817    0.450
        48 -11.8446     91.4794    132.8136   1.0866177011e+02   3.6604180448e+01     0.877028    0.6108227 -22.27  0.004166063    2.620    0.618
        49 -11.5849     99.5941    129.4255   1.0610162139e+02   3.6031982991e+01    0.4751923    0.3576731 -36.26  0.001396575    1.676    0.403
        50 -11.6270     36.0594    130.5033   1.2175884664e+02   4.4201070594e+01    0.5835506    0.3504721 -70.45  0.003331925    1.402    0.287
        51 -13.7828    141.4982    149.1459   1.0030599765e+02   2.4558457496e+01     1.851777    0.9523203  33.93  0.007881054    2.339    0.572
        52  -9.2343    108.6842    120.9923   1.0223233447e+02   3.6289677493e+01     0.191362     0.168585 -62.77 0.0004562294    1.100    0.091
        53 -12.0200     43.7511    113.4983   1.1763102056e+02   4.7190196436e+01    0.8165241     0.505277  68.15  0.004574537    1.742    0.426
        54 -10.8642    167.5232    112.4544   8.6713221229e+01   2.6103056538e+01    0.3105512    0.2582953 -79.55  0.001002687    1.489    0.328
        55 -12.4000     54.0970    105.8958   1.1362026639e+02   4.7754800320e+01    0.7677817    0.6074143  59.14  0.003559188    1.329    0.248
        56 -12.3993     60.3674     97.2317   1.1023941716e+02   4.8962672741e+01     1.018038    0.4869033 -52.87   0.00482133    1.869    0.465
        57 -13.6723    161.0923    126.7741   9.1483076651e+01   2.4846338880e+01     1.499828    0.9081351 -42.43  0.006929539    1.699    0.411
        58 -12.1920     83.0070     98.1995   1.0400886625e+02   4.5568114563e+01    0.5306244    0.3933537 -82.79    0.0028234    1.497    0.332
        59 -11.6938     90.8361     96.6571   1.0147386025e+02   4.4660769371e+01    0.5653993    0.2871095 -48.06  0.002498528    1.864    0.463
        60 -11.3704     84.6069     91.8326   1.0206519108e+02   4.6737565126e+01    0.6494159    0.3376989  52.13  0.002851404    2.272    0.560
        61 -11.8298     50.7863     90.3299   1.1168617939e+02   5.1684912278e+01    0.6165833     0.415051   9.10  0.003279236    2.318    0.569
        62 -13.4249    134.5250    136.3399   9.9332534788e+01   2.8353774576e+01     1.086964    0.7251946 -44.45  0.005475952    1.587    0.370
        63 -12.9878     51.1014     73.7486   1.0794825610e+02   5.5401376955e+01    0.6606152    0.5409681 -66.44  0.004133437    1.081    0.075
        64 -13.3755    187.6916     35.8780   6.0376881987e+01   3.3636307912e+01     1.260214    0.7322834  38.95  0.003871098    1.963    0.491
        65 -10.9893    193.1289    236.3670   1.0430805115e+02   2.7806929062e+00    0.1724208    0.1636689 -36.01   0.00110741    1.451    0.311
        66 -13.2160     58.4467    226.8967   1.2551787758e+02   2.3251323955e+01    0.8038252    0.3683662  48.60  0.005124815    1.633    0.388
        67 -13.2629    115.6656    223.8943   1.1570781763e+02   1.6131906676e+01     1.267072    0.7025395  41.23  0.007941068    1.544    0.352
        68 -13.2586     10.8941    113.0683   1.2614907145e+02   5.0212691786e+01     1.121996    0.4778404 -78.18  0.004899396    1.848    0.459
        69 -13.7159    156.9251    135.7596   9.4344871682e+01   2.4040906729e+01     1.620479     1.171914  67.84  0.008042277    1.662    0.398
        70 -13.4085     95.1705    209.7449   1.1788494492e+02   2.1284810935e+01     1.227081    0.6493759  64.14  0.006933896    1.894    0.472
