#   1 NUMBER                 Running object number                                     
#   2 MAG_AUTO               Kron-like elliptical aperture magnitude                    [mag]
#   3 X_IMAGE                Object position along x                                    [pixel]
#   4 Y_IMAGE                Object position along y                                    [pixel]
#   5 X_WORLD                Barycenter position along world x axis                     [deg]
#   6 Y_WORLD                Barycenter position along world y axis                     [deg]
#   7 A_WORLD                Profile RMS along major axis (world units)                 [deg]
#   8 B_WORLD                Profile RMS along minor axis (world units)                 [deg]
#   9 THETA_WORLD            Position angle (CCW/world-x)                               [deg]
#  10 FWHM_WORLD             FWHM assuming a gaussian core                              [deg]
#  11 ELONGATION             A_IMAGE/B_IMAGE                                           
#  12 ELLIPTICITY            1 - B_IMAGE/A_IMAGE                                       
         1 -14.2036    209.4081     25.3541   1.7257713841e+01   2.9456921139e+01    0.9240812    0.6236574  80.47  0.004749163    1.426    0.299
         2 -12.1542     39.2703     16.6652   5.5716195138e+01   6.7570107154e+01    0.2116188    0.1775668  -7.70 0.0005367236    1.111    0.100
         3 -12.4399    146.1216    249.4717   7.8196279462e+01   3.7118169979e+00    0.1998153    0.1718362  87.65 0.0008993784    1.376    0.273
         4 -16.9023    109.7020    228.9455   8.2531077301e+01   1.2981113902e+01     4.564296     3.589412  67.77   0.03014457    1.110    0.099
         5 -11.2410    175.9515    228.2622   6.9861866584e+01   1.8901929345e+00    0.3055096    0.1786202 -68.97  0.001336441    3.615    0.723
         6 -10.8460    210.9442    198.6758   5.8315598942e+01   2.1108050713e-01    0.1866053    0.1514202  32.80 0.0004539555    1.107    0.096
         7 -11.9298     63.0016    197.5411   8.8274602532e+01   2.6078248279e+01    0.2082397    0.1515777 -86.21  0.000388145    1.216    0.178
         8 -11.2761    193.0940    194.7795   6.1027262154e+01   4.1257194458e+00    0.2610056    0.1785094 -73.20  0.001176079    2.705    0.630
         9 -10.6529    191.4940    228.8074   6.7044234891e+01  -8.5793842053e-01    0.1566614    0.1244948 -34.82 0.0007717044    1.485    0.326
        10 -10.0167     14.4614    183.5043   9.6699391922e+01   3.4607772215e+01    0.1141104    0.0855291  86.39  0.000808836    1.053    0.050
        11 -12.6913    173.6891    178.0020   6.1817140916e+01   1.0869711088e+01    0.6316165    0.3827298 -48.97  0.002955981    1.815    0.449
        12 -12.6115    145.9315    178.5031   6.7838001722e+01   1.6260844833e+01    0.2652591    0.1991631 -76.21 0.0008246554    1.605    0.377
        13 -18.6574     25.3879     83.1898   8.1766734639e+01   5.6170524000e+01      13.2705    0.5604404 -63.50   0.02075319   18.562    0.946
        14 -11.3167     53.7650    173.9843   8.7696300304e+01   3.2375069442e+01     0.191533    0.1573156  85.61 0.0004722962    1.028    0.027
        15 -11.5689     54.0025    170.7392   8.7274212976e+01   3.3070330176e+01    0.2050494    0.1763342  73.34  0.001350784    1.121    0.108
        16 -13.3577     51.6412    166.0196   8.7252837589e+01   3.4426260039e+01    0.5115359    0.2852397  63.47  0.002488859    1.828    0.453
        17 -11.9763    180.7636    170.9760   5.8968712685e+01   1.0763188613e+01    0.3935062    0.2989583 -21.58  0.001773911    1.559    0.359
        18 -11.9338    178.7727    167.3648   5.8655633334e+01   1.1854870704e+01    0.4069784    0.2797362  38.57  0.001973471    1.410    0.291
        19 -11.1367     78.6856    223.7366   8.7815116920e+01   1.8662774736e+01    0.1847987     0.161788  68.09 0.0007152695    1.217    0.178
        20 -11.6759    160.5227    221.1316   7.1751133620e+01   5.7131676612e+00    0.1689694    0.1303831 -50.68 0.0008137831    1.542    0.352
        21 -10.6608      9.1394    166.3505   9.6504648591e+01   3.8747382372e+01     0.107781   0.05810687 -69.47 0.0003542457    1.561    0.360
        22 -11.1419      2.3074    164.2932   9.7759245199e+01   3.9753444192e+01    0.1037581   0.07261103 -59.55 0.0006998433    1.582    0.368
        23 -10.5417    167.4018    156.2660   5.8788268442e+01   1.6413642515e+01    0.1983991    0.1433951 -56.11 0.0005545508    1.522    0.343
        24 -15.1730    134.0135    147.2163   6.4517383384e+01   2.5287330387e+01     1.789648     0.498827 -53.31  0.005120049    4.059    0.754
        25 -12.3416    136.9855    145.9077   6.3534430128e+01   2.4973379051e+01    0.4768701    0.2999353 -76.77  0.001638748    2.401    0.583
        26 -10.2319     10.2159    152.9676   9.5189831947e+01   4.1585834746e+01    0.2757424    0.1502149 -20.18  0.001151858    5.396    0.815
        27 -10.5022    156.8394    150.7628   5.9963632248e+01   1.9785767718e+01    0.2056626    0.1736302  84.33 0.0002905028    1.347    0.258
        28  99.0000     49.2380    208.3051   9.1959287505e+01   2.5653287220e+01     5.065643     3.893347 -87.26   0.03535314    1.182    0.154
        29 -12.2067     64.5474    233.8536   9.1267150200e+01   1.8751094827e+01    0.2428111    0.1561292 -58.09  0.001435909    1.996    0.499
        30  -9.9014    179.6735    213.3079   6.6832658328e+01   3.5662507275e+00    0.1281783   0.09831986  68.18 0.0005512155    1.654    0.395
        31 -11.3977    149.4926    147.6808   6.0980267650e+01   2.1991633032e+01    0.2591674    0.2085782 -76.87 0.0005247145    1.429    0.300
        32 -12.3657      3.3692    146.5956   9.6167853871e+01   4.3527215758e+01    0.2026006    0.1733803  -3.28  0.001502506    1.783    0.439
        33 -10.9309    141.6164    144.7006   6.2178797731e+01   2.4284720604e+01    0.1545605    0.1222757   5.62 0.0007019794    1.775    0.437
        34 -12.2952     36.8823    142.3169   8.7847488899e+01   4.1538267011e+01    0.3012211     0.193366 -73.72  0.001140698    1.293    0.227
        35 -11.4151    145.4059    140.2340   6.0306433786e+01   2.4464954566e+01      0.21449    0.1440767 -60.79 0.0005821825    1.655    0.396
        36 -12.9230    118.9465    138.3426   6.6336757394e+01   3.0263962985e+01    0.4047128    0.2613947  43.24  0.001854414    1.563    0.360
        37 -12.8624     97.7930    131.0614   7.0245507247e+01   3.5826864784e+01    0.3201194    0.2935196 -43.59  0.000474391    1.191    0.160
        38 -11.2835    123.5164    132.4633   6.3915331826e+01   3.0709127531e+01    0.1521774    0.1426218  88.05 0.0001902733    1.034    0.033
        39 -13.2191    135.3976    127.7705   5.9877386137e+01   2.9329602169e+01    0.4732794     0.334009 -45.29  0.002187029    1.432    0.302
        40 -12.3487     76.9093    122.0091   7.4035616359e+01   4.1318356450e+01    0.4075888    0.2762891 -79.62  0.001478989    1.637    0.389
        41 -12.1590    115.8603    125.6567   6.4342104953e+01   3.3767800257e+01     0.257616    0.2055107 -41.70 0.0008080856    1.318    0.241
        42 -11.3859    103.6680    120.5434   6.6404208871e+01   3.7238185508e+01    0.2550998    0.2331607  -6.23 0.0006811795    1.312    0.238
        43 -10.4204     85.2830    118.5704   7.1002536816e+01   4.0838453327e+01    0.1525913     0.105901  88.16 0.0006942573    1.858    0.462
        44 -13.9361    117.1690    108.4439   5.9846272965e+01   3.7415534213e+01    0.8178116    0.5529779 -78.13  0.003411719    2.126    0.530
        45 -11.4508    190.1536    210.1441   6.4289407546e+01   2.1804423248e+00    0.2408276      0.18314 -45.19 0.0006640893    1.542    0.351
        46 -10.5130      1.8895    112.6241   9.3233302469e+01   5.1197379625e+01    0.1326867    0.1143753  18.47 0.0008169286    1.563    0.360
        47 -12.4600     84.6059    106.6040   6.8509507096e+01   4.3733435207e+01    0.5222735    0.2736456  58.37  0.001503813    2.789    0.641
        48 -13.0179    113.5636    100.6517   5.8796711801e+01   3.9866457077e+01    0.7676659    0.4452223  81.39  0.002011232    5.970    0.833
        49 -11.4238    107.0181     95.6616   5.9281705242e+01   4.2244770745e+01    0.2746969    0.2067906 -68.54 0.0007229928    1.534    0.348
        50 -11.4117     72.2783     98.8518   7.0333561473e+01   4.7392850418e+01    0.2283047    0.1822317  53.75 0.0008479698    1.409    0.290
        51 -10.5300    135.9977     96.9815   5.1851099068e+01   3.5902731805e+01    0.1849305     0.177919 -51.60 0.0003125292    1.027    0.026
        52 -11.9672     63.6080     87.4806   7.0263434240e+01   5.1162684935e+01    0.3513038    0.2167841  51.38  0.001360709    2.024    0.506
        53 -11.4142     94.7400     86.3386   6.0275048500e+01   4.6550862114e+01     0.395804    0.2179787  62.12   0.00127431    3.096    0.677
        54 -11.2975     83.9253     84.4526   6.3043346613e+01   4.8811079289e+01    0.3274612    0.1840561  54.48  0.001103393    2.363    0.577
        55 -11.2853     79.2981     82.1293   6.3844382691e+01   5.0055888274e+01    0.2353263    0.2138706  70.76 0.0004023314    1.278    0.217
        56 -11.7707     48.7371     77.3103   7.2600247528e+01   5.5226034278e+01    0.2034832    0.1877308 -88.58 0.0005522454    1.252    0.201
        57 -10.9529    113.9024     76.1607   5.1679862374e+01   4.4951668401e+01    0.2243032    0.2011955 -86.45 0.0005821515    1.297    0.229
        58 -12.5862      7.3957     75.0957   8.6213714619e+01   5.9168549499e+01     0.274397    0.1257508 -46.55  0.001267214    1.840    0.457
        59 -13.7373    170.1949     66.7279   3.5189709123e+01   3.3436816105e+01     0.471197    0.4524787  10.75  0.000764684    1.126    0.112
        60 -10.7689    111.5867     71.8522   5.0994465873e+01   4.6277579644e+01    0.2039272     0.136205 -52.47 0.0004424916    1.622    0.384
        61 -11.0024    150.0620     67.0463   3.9609821731e+01   3.8409616435e+01    0.2427705     0.186582 -76.75 0.0007202902    1.644    0.392
        62 -11.1991     51.7365     62.7571   6.7552793466e+01   5.7940915416e+01    0.1619081    0.1484223 -79.15  0.000631651    1.334    0.251
        63 -14.3660    186.1738     53.5677   2.8381938971e+01   3.1481178662e+01     1.173561    0.8887408  33.53  0.003699932    1.573    0.364
        64 -12.9658    192.0192     47.6633   2.5741340964e+01   3.0865894648e+01    0.4469072    0.3895361  32.12 0.0009161958    1.325    0.245
        65 -11.3409     67.4711     54.9731   5.9464249900e+01   5.7367061306e+01    0.1953067    0.1710877  19.85 0.0005149071    1.201    0.167
        66 -10.9498     52.0203     51.4978   6.3917979164e+01   6.0123846586e+01    0.1696696    0.1239183  27.74 0.0004735344    1.506    0.336
        67 -10.3444     65.0264     48.2049   5.8000770121e+01   5.8977385913e+01    0.1613281    0.1023797  33.33 0.0004126844    1.680    0.405
        68 -15.6703     68.2729    159.1239   8.2513285568e+01   3.3833038589e+01     3.941664     1.816277  84.11   0.01225344    4.959    0.798
        69 -10.5624     65.8529     43.5935   5.6040373793e+01   5.9672517913e+01    0.1698848    0.1218583  47.18 0.0009403018    1.710    0.415
        70 -10.2426     58.5355     36.5425   5.6101712982e+01   6.1937449663e+01    0.1268444    0.1084738 -16.46 7.714212e-05    1.022    0.022
        71 -16.8170     70.5993    143.1222   7.9521274938e+01   3.7239654707e+01     4.753212     1.945077  41.51   0.02009363    2.472    0.596
        72 -13.1207    207.5397     31.1466   1.9009512360e+01   2.9190601016e+01    0.8027092    0.3780217  77.03  0.003226253    2.341    0.573
        73 -11.6104     98.0493    246.9754   8.6506372736e+01   1.1668747034e+01    0.3784804    0.1686341  60.78  0.001533278    2.276    0.561
        74 -10.4815     60.5379     21.4710   4.9190877511e+01   6.3965880226e+01    0.1245082    0.1047665  -4.88  0.000298235    1.024    0.023
