#   1 NUMBER                 Running object number                                     
#   2 MAG_AUTO               Kron-like elliptical aperture magnitude                    [mag]
#   3 X_IMAGE                Object position along x                                    [pixel]
#   4 Y_IMAGE                Object position along y                                    [pixel]
#   5 X_WORLD                Barycenter position along world x axis                     [deg]
#   6 Y_WORLD                Barycenter position along world y axis                     [deg]
#   7 A_WORLD                Profile RMS along major axis (world units)                 [deg]
#   8 B_WORLD                Profile RMS along minor axis (world units)                 [deg]
#   9 THETA_WORLD            Position angle (CCW/world-x)                               [deg]
#  10 FWHM_WORLD             FWHM assuming a gaussian core                              [deg]
#  11 ELONGATION             A_IMAGE/B_IMAGE                                           
#  12 ELLIPTICITY            1 - B_IMAGE/A_IMAGE                                       
         1 -11.7212    152.7718     30.9094   5.4535798500e+01   4.3565350346e+01    0.3178751     0.245406  -9.70 0.0008052947    1.474    0.322
         2 -16.8138    241.7917    224.1955   8.5019230935e+01  -7.5966992992e+00     4.190981     1.527269 -35.65   0.01977573    2.868    0.651
         3 -17.2103     11.5898    227.4792   1.2850458891e+02   2.5422332496e+01     3.611651     1.471281 -79.04   0.02143916    2.121    0.528
         4 -21.0061    122.0138    172.9723   1.0019339312e+02   2.1886506755e+01       10.407     7.724815  44.45   0.04963475    1.292    0.226
         5  -8.1594    211.8469    250.1666   9.4398895968e+01  -6.4001549583e+00    0.3966897    0.1526247  29.03  0.001668324    2.617    0.618
         6 -10.5628    166.7297    236.2662   1.0063992439e+02   2.4340172035e+00    0.1490013    0.1041159 -30.39 0.0008841114    1.792    0.442
         7 -11.1333    111.8616    250.8360   1.1258930227e+02   8.6707727016e+00    0.1267586    0.0699812  40.24 0.0007256973    1.514    0.340
         8  99.0000     79.0962    231.4918   1.1676723189e+02   1.6702181234e+01    0.3522179    0.2573574 -33.88  0.002087602    2.460    0.594
         9 -10.0855    200.3237    233.0498   9.3885740261e+01  -2.4640350078e+00    0.1377383    0.1231662  -1.11  0.000158756    1.188    0.158
        10  99.0000    138.2526    248.0588   1.0747239225e+02   5.1307355553e+00    0.2941637    0.1422872  33.40  0.001501486    2.007    0.502
        11 -11.1751    147.5372    232.4378   1.0378274156e+02   6.1327593239e+00    0.1265587    0.1200679   1.51 0.0008746976    1.235    0.190
        12 -11.3803    159.3042    238.9151   1.0240308548e+02   3.2234985084e+00    0.1140598   0.08830306  46.08 0.0005543492    1.143    0.125
        13 -11.5312     85.6193    229.7206   1.1537534792e+02   1.6119760347e+01    0.2996737    0.1651564  62.16  0.001660616    1.727    0.421
        14 -10.9757    196.8969    230.4351   9.4112085158e+01  -1.5604450973e+00     0.163079     0.114591  32.09 0.0004878072    1.184    0.155
        15 -10.8579    181.6808    227.8855   9.6579851069e+01   1.2657928692e+00     0.146175    0.1367178  -2.54 0.0004287373    1.185    0.156
        16 -10.4461    219.1549    226.9522   8.9475763565e+01  -4.5715120353e+00    0.1602869    0.1369666  18.48            0    1.135    0.119
        17 -10.5133     76.7495    227.1830   1.1681607305e+02   1.7826801740e+01    0.1090518   0.06779818  59.25 0.0002307361    1.355    0.262
        18 -11.6200     65.0135    226.7536   1.1898237513e+02   1.9474807303e+01    0.2091195    0.1766902 -12.54  0.001370808    2.129    0.530
        19 -10.5458    195.7560    223.9952   9.3305419547e+01  -4.5734753976e-01    0.1250149    0.1037828 -24.29 0.0002126569    1.319    0.242
        20  -9.4054    195.4351    219.9400   9.2708201717e+01   1.9094943703e-01    0.1409352    0.1194549 -17.18 0.0001142469    1.250    0.200
        21  99.0000    119.4300    247.5435   1.1087490594e+02   8.0764935209e+00      0.19061    0.1114939  32.63  0.001079614    1.747    0.428
        22 -10.1469    210.5919    215.8493   8.9174439775e+01  -1.6921023560e+00    0.1529191     0.134586  -6.94 0.0003282902    1.160    0.138
        23 -10.2414    196.9549    216.3248   9.1821157006e+01   4.7928382414e-01    0.1752829    0.1341736  33.81  0.001060276    1.149    0.130
        24 -10.6100    197.2440    211.8788   9.1014573879e+01   1.1055502861e+00    0.2649643    0.1505973  32.89 0.0009523376    1.590    0.371
        25 -10.9798    210.9494    198.0257   8.5928538726e+01   9.1079419398e-01    0.3190516    0.2023142  -0.80  0.001551708    2.051    0.512
        26 -11.5137    209.3076    194.5698   8.5595892298e+01   1.7361418891e+00    0.3116145    0.2316175 -24.68 0.0006783337    1.357    0.263
        27 -10.7452     99.6383    247.8882   1.1450992416e+02   1.0928334658e+01    0.1072729   0.06146627  36.71  0.000606745    1.661    0.398
        28 -11.2373      2.0981    166.2721   1.2684272551e+02   3.8805579930e+01      0.23024    0.1279862 -87.87  0.001339568    1.392    0.282
        29 -10.4694    150.7778    246.2639   1.0494315999e+02   3.4608726246e+00    0.1046796   0.08052452  61.14 0.0006670753    1.401    0.286
        30 -11.5653    180.9947    245.6352   9.9289325118e+01  -1.1662828392e+00    0.1217553   0.09276511  41.73 0.0004609044    1.188    0.158
        31 -11.2861    131.1627    245.2343   1.0845743036e+02   6.6624210069e+00   0.08805291   0.08209409  12.07 0.0006196479    1.330    0.248
        32 -10.7582    114.5745    245.7396   1.1157650871e+02   9.0962531328e+00    0.1176471   0.08290373  47.97  0.000751887    1.129    0.114
        33 -11.0834     27.9694    143.2648   1.1887489524e+02   4.1916854157e+01    0.2086787    0.1467547 -76.88 0.0003275881    1.153    0.133
        34 -10.9489    106.5610    245.1140   1.1298297723e+02   1.0386149671e+01    0.2911683    0.0909458  42.77  0.001297169    2.483    0.597
        35 -10.9894     22.9194    137.3413   1.1948339125e+02   4.3764970641e+01    0.2084713    0.1428401 -72.91 0.0002563074    1.176    0.150
        36 -10.8530     27.9571    135.2159   1.1793714734e+02   4.3830404355e+01    0.2630326    0.1488265 -63.82  0.001434981    1.466    0.318
        37 -11.0783     93.5395    244.1472   1.1526520882e+02   1.2430462898e+01    0.1470894   0.09838542  84.84  0.000925466    1.616    0.381
        38 -10.5933     18.6679    134.4682   1.2025123177e+02   4.4795005947e+01    0.2045017    0.1482395 -85.33 0.0003705102    1.128    0.113
        39  99.0000    150.0593    240.9246   1.0440579060e+02   4.3857989216e+00    0.2754974    0.1406405 -36.48  0.001361545    2.883    0.653
        40 -11.3721     24.6674    123.9284   1.1739800958e+02   4.6811089241e+01    0.2678083    0.1959001  67.24 0.0009050675    1.433    0.302
        41 -10.6521    150.3245    236.5382   1.0378909863e+02   5.0280317058e+00    0.2112424    0.1537729 -76.49  0.001254481    1.956    0.489
        42 -10.7672     33.2119    122.1145   1.1477402006e+02   4.6497228446e+01    0.1893349    0.1755469 -88.53 0.0003442013    1.152    0.132
        43 -12.4320     38.1240    119.2287   1.1294203904e+02   4.6728147022e+01    0.2751932    0.2378301 -15.35 0.0008277539    1.475    0.322
        44 -11.2905    125.9701    240.3374   1.0886717873e+02   8.2533970545e+00    0.3124364    0.1649124  62.27  0.001541139    2.370    0.578
        45 -10.7508     29.4321    118.7641   1.1535802251e+02   4.7643020913e+01    0.1945512    0.1762114  46.52 0.0003912238    1.306    0.234
        46 -11.4410     28.4480    111.8840   1.1462071064e+02   4.9379025050e+01    0.3413884     0.189114 -83.74  0.001065511    1.847    0.459
        47 -10.6663     63.6591    240.4898   1.2032029617e+02   1.7116656705e+01    0.1232674   0.09308957  50.33 0.0003666165    1.224    0.183
        48  99.0000     74.5423    241.4991   1.1846216689e+02   1.5512146855e+01    0.2302681    0.1200007  58.11  0.001089688    1.621    0.383
        49 -13.1188     70.3088    239.9282   1.1909309489e+02   1.6353166929e+01    0.3054329    0.2059451 -84.50  0.002058898    1.478    0.323
        50 -11.2055     66.0680     98.0041   1.0025139770e+02   4.8629846902e+01    0.2090014    0.1840093 -52.81  0.001211863    1.010    0.010
        51  99.0000     66.5042    237.4829   1.1958108846e+02   1.7290925764e+01    0.4139061    0.1785419 -78.84  0.002127831    2.645    0.622
        52 -10.3960    145.7937    240.8474   1.0519812200e+02   5.0721310767e+00    0.2709606    0.1001743  34.14  0.001126755    2.779    0.640
        53 -11.4616     43.1426     96.7919   1.0737683869e+02   5.1623690451e+01    0.2178184    0.1867243 -67.21 0.0004111376    1.069    0.065
        54 -11.8466     35.6520    238.9571   1.2506718535e+02   2.0768622902e+01     0.194114    0.1524842  82.18 0.0003118435    1.193    0.162
        55 -12.5069    145.4952     91.4293   7.5416010030e+01   3.5165896445e+01    0.4521827    0.3454419 -69.46    0.0010541    1.632    0.387
        56 -11.7653    145.8122     87.3521   7.4141497793e+01   3.5915970523e+01    0.3395324    0.2779106 -63.45 0.0007937733    1.374    0.272
        57  99.0000    107.9551    239.5915   1.1216233944e+02   1.1113217873e+01     0.261378   0.09324177  42.73  0.001207091    2.233    0.552
        58 -10.1007     54.5013     91.4876   1.0247788933e+02   5.1626180025e+01    0.1379228    0.1189323 -54.01 -1.50532e-05    1.007    0.007
        59 -12.2573    108.5924     88.5352   8.4528978756e+01   4.3730109244e+01    0.3752849    0.2907979 -56.26 0.0009540009    1.342    0.255
        60  99.0000    101.3810    237.7840   1.1320489663e+02   1.2397675581e+01    0.2749329    0.1042589  43.46 0.0007826551    2.107    0.525
        61  99.0000    105.7292    234.6207   1.1205883357e+02   1.2307509324e+01    0.2474026    0.2306764  26.48  0.001772715    1.364    0.267
        62 -12.2507    138.1307     80.3852   7.3958910479e+01   3.9077657047e+01    0.3390645    0.2988461  52.88 0.0003807638    1.171    0.146
        63 -11.2394    118.6355     78.2952   7.8523646535e+01   4.3823637062e+01    0.2612648    0.2346184 -71.00 0.0009837206    1.267    0.211
        64 -11.4381    103.3716    231.2029   1.1214423892e+02   1.3266918136e+01    0.2306669    0.1622394 -87.37  0.001420525    1.586    0.369
        65 -10.8289     85.0685    239.4051   1.1637696199e+02   1.4446608678e+01    0.1412497   0.07957105  58.25 0.0008194154    1.523    0.343
        66 -10.3331     56.2508    239.2812   1.2153708104e+02   1.8268850530e+01     0.143213   0.09177313  68.08 0.0005410571    1.261    0.207
        67 -11.2219     78.3354    238.3616   1.1751376637e+02   1.5558757667e+01    0.1068483   0.09060786  62.64 0.0007661633    1.148    0.129
        68 -10.1945     75.9703     70.4835   8.9372103188e+01   5.3389082949e+01    0.2123035    0.1732497 -39.99  0.000337498    1.106    0.096
        69 -10.9270    131.0885     36.1049   6.0873641787e+01   4.8224736393e+01    0.2242885    0.1854725  25.72 0.0004243953    1.236    0.191
