#   1 NUMBER                 Running object number                                     
#   2 MAG_AUTO               Kron-like elliptical aperture magnitude                    [mag]
#   3 X_IMAGE                Object position along x                                    [pixel]
#   4 Y_IMAGE                Object position along y                                    [pixel]
#   5 X_WORLD                Barycenter position along world x axis                     [deg]
#   6 Y_WORLD                Barycenter position along world y axis                     [deg]
#   7 A_WORLD                Profile RMS along major axis (world units)                 [deg]
#   8 B_WORLD                Profile RMS along minor axis (world units)                 [deg]
#   9 THETA_WORLD            Position angle (CCW/world-x)                               [deg]
#  10 FWHM_WORLD             FWHM assuming a gaussian core                              [deg]
#  11 ELONGATION             A_IMAGE/B_IMAGE                                           
#  12 ELLIPTICITY            1 - B_IMAGE/A_IMAGE                                       
         1 -17.1634    172.9560     69.1082   7.0975981960e+01   3.2146277968e+01     5.673266     2.885843  51.16    0.0244438    2.052    0.513
         2 -19.1288    186.5758    133.4491   8.4465156682e+01   1.8383508919e+01     7.615075     4.759701  48.42   0.03779916    1.728    0.421
         3 -12.9988    248.4936      4.8713   4.8559616834e+01   2.3839513001e+01    0.5394381    0.3198126 -47.80  0.003620898    1.248    0.199
         4 -11.9596    227.6216      6.1905   4.9775399591e+01   2.7742096047e+01    0.1458329    0.1392372  83.69 0.0006736022    1.350    0.259
         5 -10.9154     26.1316      7.7867   9.3044426702e+01   7.5356484636e+01    0.2444959    0.1823803  28.20  0.001017158    1.214    0.176
         6 -13.2077    238.7376      4.3313   4.8862560248e+01   2.5729810324e+01    0.4704751     0.254807 -25.90   0.00278108    1.917    0.478
         7 -10.2584    178.3545      5.2097   5.2536940169e+01   3.8791184788e+01    0.1879609   0.09728505 -40.89 0.0007557019    1.738    0.425
         8 -10.4351    202.3215      4.2829   5.0701577174e+01   3.3305346247e+01    0.1117288    0.0897645  50.89 0.0002672707    1.591    0.371
         9 -10.7506     86.3301    158.9449   1.1448411922e+02   3.1627094603e+01    0.2017038    0.1929607  53.84 0.0007791505    1.041    0.039
        10 -11.0890    202.1035    249.4318   1.0192798490e+02  -1.2200071695e+00     0.194325    0.1483513  -0.07 0.0004674318    1.139    0.122
        11  -9.9844      2.3919    242.7486   1.4289055833e+02   2.3150821758e+01    0.1319021   0.09487312 -79.23 0.0009397097    1.632    0.387
        12 -11.9208    189.6534    241.7859   1.0312186542e+02   1.1593243035e+00    0.4032671    0.1616228  25.87  0.001920687    2.138    0.532
        13 -10.3273    208.0846    240.9661   9.9698785840e+01  -8.9324331206e-01    0.1817417    0.1047087   1.41  0.001124448    1.666    0.400
        14 -12.5609    127.4004    238.1620   1.1514004616e+02   9.6533980653e+00    0.2855557    0.2108752  32.48 0.0005687421    1.111    0.100
        15 -10.9556    182.5806    237.3887   1.0383155927e+02   2.5942376604e+00    0.3622319    0.1422947  25.82  0.001759346    2.262    0.558
        16 -10.2117     80.5418    238.5067   1.2554100830e+02   1.5667153004e+01     0.124157   0.09836217  34.60 6.964029e-05    1.042    0.040
        17 -11.9107    233.2626    236.0349   9.4768038577e+01  -3.0854134499e+00    0.2943372    0.1674838   7.10  0.001965469    1.517    0.341
        18 -11.5692    245.4067    234.4686   9.2632536202e+01  -4.1663986136e+00    0.2415216   0.08359187 -33.54  0.001326605    2.685    0.628
        19  -9.4161    143.6928    236.3137   1.1145391649e+02   7.7757683232e+00    0.1165486   0.08474927  48.20 0.0002704249    1.624    0.384
        20 -10.6208    102.7460    236.1578   1.2033008828e+02   1.3245792843e+01    0.2126324    0.1067193  57.33 0.0009557577    2.838    0.648
        21  -9.6380    208.4487    233.4653   9.8550322950e+01  -2.6457802702e-02    0.1127507   0.08479347   6.39 0.0001079912    1.042    0.041
        22 -10.1974    201.2930    233.2979   9.9794163119e+01   8.4056086426e-01    0.1156261   0.07046506   0.94  0.000189691    1.564    0.360
        23 -10.2551    249.6183    231.7605   9.1589900404e+01  -4.2989731661e+00    0.1318059   0.08168805 -30.38 0.0009484916    1.653    0.395
        24 -11.7267    176.4523    229.8963   1.0394755636e+02   4.3967725523e+00    0.3049631    0.1808977 -23.58  0.001263028    1.835    0.455
        25 -11.0841    183.4211    229.1225   1.0249230526e+02   3.6056729045e+00    0.2006717    0.1602041  22.42 0.0004902281    1.206    0.171
        26 -10.4884     69.3359    230.1484   1.2739375747e+02   1.8582524774e+01    0.2046812    0.1458734  25.62 0.0004587868    1.288    0.223
        27 -11.6458    196.9978    226.9111   9.9628105183e+01   2.1889797337e+00    0.2434466    0.1763024 -20.93   0.00109057    1.336    0.251
        28  -9.7086     52.6128    228.2609   1.3113838085e+02   2.0918218599e+01    0.1365216   0.06742908  49.03 0.0006974833    1.689    0.408
        29 -13.2183    245.4516    222.0494   9.0750233252e+01  -2.8059168491e+00    0.3774464    0.2273776  -7.00 0.0007821785    1.380    0.275
        30 -11.1960    203.1963    225.4120   9.8279989125e+01   1.6192215606e+00    0.2726045    0.1617682  20.96  0.001000636    1.417    0.294
        31 -11.2202    205.7587    222.0139   9.7303901474e+01   1.7453239042e+00    0.2274403    0.1675228 -11.40  0.001577024    1.185    0.156
        32 -11.9738    163.5222    223.9178   1.0566596960e+02   6.9894652187e+00    0.3995103    0.1897418  32.22  0.002049506    1.755    0.430
        33 -12.5603    182.5542    221.6521   1.0155234174e+02   4.7628003321e+00    0.4164638    0.2330196  16.20  0.002282685    1.737    0.424
        34 -11.2090    187.0228    221.4956   1.0067280160e+02   4.1971829194e+00    0.2444886    0.1937802  48.53  0.001571405    1.855    0.461
        35 -12.1378    129.2219    222.4069   1.1279091668e+02   1.2008772193e+01    0.4109142    0.2585197  -8.13   0.00205256    2.273    0.560
        36 -10.7662    217.0985    221.8986   9.5309729544e+01   3.8893482196e-01     0.156678    0.1313696   6.26 0.0003398063    1.275    0.215
        37 -10.1478    237.4917    221.4960   9.1900316698e+01  -1.8872731314e+00    0.1100475   0.07964242  -1.72 0.0001045323    1.007    0.007
        38 -11.9775    230.2004    219.8688   9.2813786895e+01  -8.8293191139e-01     0.406244    0.2091166  43.83  0.002188619    3.073    0.675
        39 -14.2391    218.3768    209.8516   9.3185979422e+01   1.7673749192e+00    0.5803809    0.3617179  -1.58  0.001170117    1.531    0.347
        40 -12.0912    226.5996    209.7484   9.1795052371e+01   7.7952869677e-01    0.3270507    0.1858766  22.65  0.001416735    1.599    0.375
        41 -16.7180    146.6386    192.6723   1.0448970882e+02   1.4663415904e+01     4.583707     3.114153  68.58   0.02088234    2.755    0.637
        42 -16.4739    170.5907    198.2219   1.0023261569e+02   1.0016782723e+01     3.595101     1.626718  37.99   0.01523241    2.050    0.512
        43 -13.0972     97.2005    150.1687   1.0975299498e+02   3.1916541027e+01    0.5198262    0.3346897 -70.39  0.001480018    1.897    0.473
        44 -11.7682     93.4342    214.3981   1.2013572737e+02   1.8488064993e+01    0.3385397    0.2421525  25.70  0.001055146    1.259    0.206
        45 -12.2000     81.4090    150.5126   1.1455270834e+02   3.4442869445e+01    0.5402522    0.3416734  85.27  0.001906287    2.272    0.560
        46 -12.2598     90.1192    150.0673   1.1183366118e+02   3.3138057143e+01    0.4362304    0.2518708 -49.27   0.00126362    1.851    0.460
        47 -10.9601    128.5089    211.0179   1.1141794119e+02   1.4108221853e+01    0.1751865    0.1330622 -49.63 0.0006153339    1.563    0.360
        48 -10.5311     13.6645    149.3326   1.3605904361e+02   4.2808353091e+01    0.1500422   0.08139438  56.76  0.000705218    1.736    0.424
        49 -10.9513     56.9571    145.6110   1.2153599991e+02   3.9236586103e+01    0.2480925     0.204416 -86.28 0.0009054674    1.236    0.191
        50 -12.5412    100.1027    140.1727   1.0694935118e+02   3.3772356861e+01    0.3709102    0.2410329  29.94 0.0008408236    1.563    0.360
        51 -12.2730    146.5716    208.6636   1.0701520460e+02   1.1855139019e+01    0.3839447    0.3270784  -1.81  0.001427042    1.153    0.133
        52 -11.3974     86.9498    140.4526   1.1101849186e+02   3.6002497209e+01    0.2709107    0.2266261 -60.44  0.000391081    1.250    0.200
        53 -10.9828     71.7007    138.0714   1.1546744797e+02   3.9052560762e+01    0.2071646    0.1945296 -71.55 0.0004902808    1.095    0.087
        54 -10.3925     11.6918    207.6971   1.3972260544e+02   2.9292944271e+01    0.1071451   0.09117687 -36.26 0.0002700174    1.604    0.376
        55 -10.5107     76.8419    201.9613   1.2287992534e+02   2.3273450514e+01    0.2773749    0.1772528 -81.11  0.001061126    1.929    0.482
        56 -11.3273     78.9339    129.5175   1.1145132926e+02   4.0055971434e+01     0.399621    0.2141646 -48.44   0.00161306    1.967    0.492
        57 -12.1499    226.9040    199.4554   9.0050472641e+01   2.0591480986e+00     0.341556    0.2711023 -39.04  0.001583747    1.649    0.394
        58 -13.3349    101.4473    126.5546   1.0361632554e+02   3.6753917040e+01    0.4973161    0.4511914 -86.36  0.002579483    1.194    0.162
        59 -12.0642    129.4940    199.7993   1.0956806005e+02   1.6020900255e+01    0.2876425    0.2533644   0.34  0.001760976    1.156    0.135
        60 -11.8368     87.7243    127.9038   1.0823275656e+02   3.8951246687e+01    0.3990314    0.2818724 -17.68  0.001685765    2.033    0.508
        61 -17.3465    184.0143    107.4032   7.8933370378e+01   2.3380193178e+01     2.679643     2.122375   2.39     0.014151    1.550    0.355
        62 -11.0647     34.2888    118.0328   1.2549875903e+02   4.9132039299e+01    0.2059269    0.1770263 -76.18 0.0003949029    1.116    0.104
        63 -10.6383     23.5281    198.8567   1.3636625503e+02   3.0130561017e+01    0.2089732    0.1517992  36.69 0.0002822149    1.214    0.176
        64 -10.8139     45.7903    201.1945   1.3080834860e+02   2.7291073639e+01    0.2613516    0.2015584 -63.00  0.001059608    1.492    0.330
        65 -10.8396      9.8158    117.1624   1.3479131428e+02   5.1397233574e+01    0.1873779    0.1473713 -48.26 0.0004057478    1.324    0.245
        66 -11.0470    249.5132    114.2309   7.0894043699e+01   1.0478936687e+01    0.2595314    0.1924274   1.26  0.001659013    1.612    0.380
        67 -11.6502      5.8168    114.1969   1.3605730456e+02   5.2414539093e+01    0.2418944    0.1642558  83.69 0.0006406791    1.394    0.282
        68 -10.6359    101.9407    194.7114   1.1557379476e+02   2.1223140370e+01    0.2021317    0.1574666  34.04 0.0002768401    1.110    0.099
        69 -12.4027     86.0077     99.7680   1.0203935213e+02   4.6115019144e+01     0.673987    0.2939224 -43.50  0.002355671    2.521    0.603
        70 -10.9413    241.4869    104.1576   6.9800150995e+01   1.3134679518e+01    0.2425902    0.1555243 -26.82 0.0007624984    1.408    0.290
        71 -11.7444    190.6951    249.0523   1.0392219997e+02   1.2941863421e-01    0.3111953    0.1410599  29.46  0.001788419    1.765    0.433
        72 -10.1598    245.8488    100.8953   6.8623069804e+01   1.2865490276e+01    0.1574083    0.1156354 -47.75 0.0002656433    1.285    0.222
        73 -12.5012    118.1956    191.2630   1.1100240842e+02   1.9430397494e+01    0.4731902    0.4514663 -69.58  0.001908131    1.231    0.188
        74 -10.6944     72.1869     97.4761   1.0647656148e+02   4.9210523238e+01    0.2494573     0.210858  87.88 0.0006687758    1.350    0.259
        75 -11.6412     33.1020     94.7410   1.2204469638e+02   5.5392487365e+01    0.2628849    0.2160142 -62.62 0.0003372317    1.159    0.137
        76 -11.4233     74.9286     93.4806   1.0435812797e+02   4.9695507292e+01    0.2985565     0.258681  47.11 0.0004182178    1.146    0.128
        77  -9.7104     84.3116    192.7098   1.1986624699e+02   2.4223164117e+01    0.1432006   0.09316291  55.58 0.0003677414    1.585    0.369
        78 -10.8565    121.2166    218.0548   1.1403472257e+02   1.3902043212e+01    0.2539578    0.2122588 -56.81 0.0009758796    1.486    0.327
        79 -11.2387     87.7250     89.1390   9.8422294663e+01   4.8257463071e+01    0.3006006    0.2109347   9.97  0.001233639    2.079    0.519
        80  -9.9118    242.9384     88.3900   6.6354393863e+01   1.5039105848e+01    0.1576912    0.1342634 -34.11  0.001084773    1.063    0.059
        81 -10.1942    106.6433    190.2865   1.1375531306e+02   2.1426065518e+01    0.1461245   0.09713149  55.30 0.0007022659    1.675    0.403
        82 -10.1419     79.7087     87.9683   1.0098392025e+02   5.0110783528e+01    0.2160539    0.1990188 -56.97 0.0004415634    1.115    0.103
        83  -9.6657     91.3033    190.3241   1.1772586420e+02   2.3728465770e+01     0.136141     0.106014 -12.58 0.0007031097    1.638    0.390
        84 -12.4852    111.3282    184.7646   1.1173538501e+02   2.1843958815e+01     0.544866    0.3329055 -73.17  0.002435597    2.391    0.582
        85 -10.6121    226.9759     81.2690   6.6592764668e+01   1.8870725072e+01    0.3827142    0.2001612  36.01  0.001316685    3.112    0.679
        86 -10.3488     42.4794    158.9905   1.2785388604e+02   3.7616385998e+01    0.2064379    0.1340531 -76.36 0.0004208674    1.556    0.357
        87 -11.7708    107.2504     82.6425   9.0008252832e+01   4.5460204102e+01    0.2774465    0.2549444 -32.04 0.0004518671    1.153    0.133
        88 -12.7231    222.6610     76.9327   6.6117392585e+01   2.0293802752e+01    0.3591672     0.246881 -61.63  0.001166178    1.546    0.353
        89 -10.3976    225.4825     72.1410   6.4720240010e+01   2.0407969302e+01    0.2352546    0.1456051 -22.62 0.0008235633    1.771    0.435
        90 -12.0482      7.2501     72.6712   1.3050118485e+02   6.3113932192e+01    0.3930741    0.2092462 -69.60   0.00102674    1.675    0.403
        91  -9.9754    241.0117     72.4964   6.3195475824e+01   1.7480217860e+01    0.1495601      0.11924  71.60 0.0005735404    1.478    0.323
        92 -11.6294    100.1407     71.4399   8.8579479155e+01   4.9370271271e+01    0.2871677    0.2630442  60.93 0.0003799428    1.080    0.074
        93 -10.4397     94.1098     72.1754   9.0807216587e+01   5.0586144126e+01    0.2081019    0.1816483  79.92 0.0003931443    1.286    0.222
        94 -10.1164     63.1318     68.6277   1.0153565320e+02   5.7620877811e+01    0.2032519    0.1829259  23.85 0.0004159037    1.100    0.091
        95 -10.2243     43.7298     68.9710   1.1069872697e+02   6.0608166962e+01    0.1990285    0.1824228 -44.10 0.0003397749    1.065    0.061
        96 -11.3203    243.1206     65.8872   6.1592530438e+01   1.7953669763e+01    0.3822002    0.2090168 -79.04  0.001901319    2.767    0.639
        97 -10.7051     31.8111    187.0184   1.3343764043e+02   3.1991310678e+01    0.2131465    0.1639961  38.24 0.0002762753    1.168    0.144
        98 -16.2205    231.1434    122.4015   7.4898055756e+01   1.2255763965e+01     1.746677     1.457322 -62.38   0.01133832    1.495    0.331
        99 -16.8247    189.7320    169.3457   9.1237238017e+01   1.1764210152e+01     2.746313     1.817248  20.00   0.01478764    1.569    0.363
       100 -10.0485    230.3003     62.9634   6.2170545664e+01   2.0702779167e+01    0.1737811    0.1321983 -36.93 0.0005172589    1.157    0.136
       101 -10.8797    130.6709     61.6733   7.6942725887e+01   4.3744947552e+01    0.2058045    0.1949714  27.59 0.0006898858    1.160    0.138
       102 -12.1851    132.9844     58.9634   7.5531847498e+01   4.3609349455e+01    0.2802183    0.2187781  46.37 0.0004464581    1.311    0.237
       103 -10.6674    247.7045    185.3515   8.4426533010e+01   1.3097052511e+00    0.2323132    0.1047021  32.01  0.001298068    2.328    0.570
       104 -10.8727     29.8651     62.1701   1.1587808199e+02   6.3936100405e+01    0.2015559    0.1894571  60.11 0.0004227832    1.193    0.162
       105  -9.9295    250.6666    184.6728   8.3879475295e+01   1.0400058570e+00    0.1485908   0.08786248 -16.63 0.0009356446    1.465    0.317
       106 -10.4850      9.6619     60.2928   1.2687551743e+02   6.6077361859e+01    0.1330265   0.09532323  54.78 0.0003418499    1.647    0.393
       107 -16.5746    172.9112    155.0275   9.1761481207e+01   1.7079344035e+01     2.710727     1.489344  15.88  0.009223838    3.090    0.676
       108 -16.7839    212.7961    137.5030   8.0768683014e+01   1.3043760694e+01     2.329462     1.436006  64.79   0.01104644    2.794    0.642
       109 -10.3432    172.5908    247.0626   1.0704532815e+02   2.5452154274e+00    0.2253227    0.1285945  37.39  0.001327636    1.691    0.409
       110 -12.6248    124.7943     53.8407   7.5679094197e+01   4.6515399610e+01    0.5422099    0.1751142  53.38  0.001779204    2.811    0.644
       111 -16.3767    225.6509    178.9209   8.6689714905e+01   4.9801050292e+00       2.4131      1.60248  20.27   0.01509502    1.475    0.322
       112 -10.2340    249.3270     53.1082   5.8388478933e+01   1.8428502443e+01    0.1635696    0.1148706 -44.12 0.0004117126    1.116    0.104
       113 -10.4431     56.6689     52.9121   9.8693142835e+01   6.2160264261e+01    0.2337798    0.1877627  23.53 0.0002599592    1.248    0.199
       114 -13.7000    140.0397     48.4331   7.0617311526e+01   4.3436484121e+01    0.7619914     0.492869 -46.81  0.002665558    1.572    0.364
       115 -12.4262    242.4968     48.4657   5.7947827544e+01   2.0220760121e+01    0.2280087    0.2182966 -54.02 0.0006565558    1.235    0.190
       116 -12.1125    138.0812    215.6130   1.0990051592e+02   1.1907492559e+01    0.3662482    0.2172715 -36.35   0.00193643    1.969    0.492
       117 -10.6582    230.1312     47.3089   5.8704067516e+01   2.2710373099e+01    0.1876513    0.1486699 -33.87 0.0004350293    1.222    0.181
       118 -10.6042     62.5799     47.8879   9.3880537229e+01   6.2061141914e+01    0.2540382    0.1872217  29.30 0.0005723542    1.367    0.269
       119 -12.6019    155.7530     44.6258   6.6658428685e+01   3.9959999245e+01    0.4647731    0.2629194 -35.47  0.001503813    1.761    0.432
       120 -11.5096    128.0151     46.5036   7.2416342313e+01   4.6819480366e+01    0.3225856     0.230085  -1.65  0.001135865    2.020    0.505
       121 -13.6163    168.6447     44.3015   6.4640928858e+01   3.6779728932e+01     0.771362    0.4409227  59.44  0.003641071    1.722    0.419
       122 -12.1168    180.8303     44.7831   6.3164860683e+01   3.3760986255e+01    0.4207943    0.2379001 -80.69  0.000416992    2.207    0.547
       123 -13.0200    175.8079     40.0075   6.2471696536e+01   3.5586693384e+01     0.450975    0.3245866 -46.02 0.0009991028    1.298    0.230
       124 -10.0245     92.2973    183.3302   1.1650826050e+02   2.5103372607e+01    0.1389704    0.1081531 -14.67 0.0002803576    1.639    0.390
       125 -10.5637     85.7629    180.9398   1.1794306348e+02   2.6610777560e+01    0.4065218    0.1798323 -67.30  0.001597875    2.776    0.640
       126 -11.1388    195.2716     43.9078   6.1244954495e+01   3.0512264426e+01    0.2186034    0.1844204  71.88 0.0003888437    1.239    0.193
       127 -12.9544    147.0359     43.0632   6.7607140989e+01   4.2398624930e+01    0.5908619    0.2854678  68.79  0.001402293    2.063    0.515
       128 -11.0279    149.0553     38.4715   6.5805101737e+01   4.2494377860e+01    0.2375091    0.2013907 -38.49  0.000353014    1.232    0.188
       129 -11.8046    117.5302     39.9225   7.2388936074e+01   5.0484892842e+01    0.3935997    0.2475616  36.86  0.001084186    1.886    0.470
       130 -12.3348     87.9214    173.5190   1.1629261422e+02   2.7971095977e+01    0.4710462    0.2894011 -50.06  0.002217352    1.802    0.445
       131 -10.4567    191.8080     40.1719   6.0654857002e+01   3.1776281760e+01    0.1647583    0.1566135  -5.66 0.0006216445    1.293    0.227
       132 -11.6799    131.8671     38.4896   6.8842867553e+01   4.6953157491e+01    0.4038346    0.1967069 -40.67  0.001670312    2.072    0.517
       133 -12.1790    133.3249     34.2729   6.7103276369e+01   4.7127444857e+01    0.4045487    0.2990003  65.95   0.00200693    1.248    0.199
       134  -9.8437     48.1831    180.8661   1.2839987072e+02   3.1636080058e+01     0.169822    0.1584857 -25.74 0.0003767185    1.299    0.230
       135 -11.3153    166.7667     38.6387   6.3252116628e+01   3.7984028441e+01    0.2797197    0.2527739 -39.04 0.0004375353    1.178    0.151
       136 -11.0973    166.8449     32.2434   6.1367820801e+01   3.8758608263e+01    0.2781497    0.1840188 -36.97  0.001011653    1.487    0.328
       137 -11.6296    181.9939     37.0220   6.0906352422e+01   3.4471926396e+01    0.2570267    0.2245383 -72.15 0.0003417956    1.015    0.015
       138  -9.7099     16.7152    176.6908   1.3691490020e+02   3.5838069563e+01    0.1204267   0.09507315 -44.34 0.0001921844    1.570    0.363
       139 -10.0269    233.1424     35.8683   5.5938519557e+01   2.3479422277e+01    0.1484086    0.1341694 -29.27 0.0004866603    1.288    0.224
       140 -11.4304     84.8760     35.2089   7.9539856962e+01   5.9359948428e+01    0.2717119    0.2440753 -16.04 0.0003333207    1.210    0.173
       141 -13.1141    198.9453     32.4753   5.7961701851e+01   3.1079155812e+01    0.3281325    0.2812233 -77.89 0.0006265328    1.078    0.073
       142 -10.1154     18.8317     39.3701   1.1508717944e+02   7.0301604145e+01    0.1795152    0.1167733   0.73 9.678197e-05    1.644    0.392
       143 -10.8982    188.0150     33.2789   5.9243627099e+01   3.3501138950e+01    0.1842934    0.1556835 -81.35 0.0004099056    1.085    0.078
       144 -11.7463    214.4776     31.7371   5.6433902126e+01   2.7760554177e+01    0.2429604     0.189758 -71.71 0.0003781594    1.153    0.133
       145 -10.4745    118.0392     30.5192   6.8740615165e+01   5.1613508487e+01    0.2324031    0.1343639  65.65 0.0007615821    1.594    0.373
       146 -11.7933    201.2946     22.6667   5.5298753330e+01   3.1662371238e+01    0.2913216    0.1658257 -37.61 0.0009289763    1.568    0.362
       147 -11.3226    203.9769     27.4186   5.6255585062e+01   3.0535035805e+01    0.2347832    0.1778839 -29.99 0.0006485883    1.380    0.275
       148 -10.6934    188.6579     27.0508   5.7530422002e+01   3.4076089973e+01    0.1877224    0.1561623 -53.64 0.0008769276    1.093    0.085
       149 -11.6887    216.3063     25.2689   5.4774853323e+01   2.8102796328e+01    0.2773548    0.1258937 -58.90  0.001337481    2.098    0.523
       150 -11.0261    210.3740     25.3684   5.5243917406e+01   2.9361522512e+01    0.2623425    0.1700508  89.79   0.00119778    1.520    0.342
       151 -10.3089    175.0122     22.5031   5.7637934144e+01   3.7858639019e+01    0.1950448    0.1220488  77.32  0.000399422    1.505    0.335
       152 -11.6696    214.2034     19.6484   5.3609520898e+01   2.9159960070e+01    0.2147734    0.1795011 -56.73 0.0002715472    1.063    0.059
       153 -10.7957     20.6804     18.4332   1.0400985430e+02   7.4352018669e+01    0.2081046    0.1838295 -25.29 0.0003152254    1.131    0.116
       154 -11.2469     59.5255    216.1376   1.2856901688e+02   2.2524301740e+01     0.355433    0.2584745  -5.14  0.001983565    1.919    0.479
       155 -13.3911    100.9807    172.5363   1.1254409643e+02   2.6142190658e+01    0.4482028    0.3583291 -84.88  0.001044992    1.514    0.339
       156 -11.9769    238.6341     16.4503   5.1408482155e+01   2.4537631839e+01    0.2217059    0.1276387 -32.11  0.001054681    1.579    0.367
       157 -11.0219    234.8945    215.2589   9.1335530741e+01  -8.6331789299e-01    0.2474785    0.1526125   6.24  0.001046652    1.428    0.300
       158 -10.3520     49.9892     16.0188   8.3899038256e+01   6.9855611917e+01    0.2212539    0.1510214  17.25  0.001129418    1.665    0.399
       159 -10.1502     12.5118     14.9275   1.0873082298e+02   7.5927988733e+01    0.1853219    0.1146621 -47.97  0.001027795    1.575    0.365
       160  -9.8124      1.8130     15.1433   1.1860273291e+02   7.6769876766e+01    0.1707228    0.1169015 -27.90 0.0003327809    1.274    0.215
       161 -10.6380     89.8880     13.8260   6.8241190130e+01   6.0832403115e+01    0.2124401    0.1730359  40.61 0.0004804906    1.206    0.171
       162 -10.5076    222.3006     13.3199   5.1641732232e+01   2.8118547708e+01    0.1047165   0.09130863  34.74  0.000272789    1.623    0.384
       163 -11.5755    248.2467    159.4735   7.9747091278e+01   4.5730622058e+00    0.2066181    0.1621562 -29.94 0.0006057707    1.217    0.178
       164 -12.8908    156.6340    244.6732   1.0986515632e+02   4.8635743643e+00     0.323262    0.2148599 -14.89  0.002018958    1.697    0.411
       165 -10.6503    244.9213    170.8708   8.2288705243e+01   3.5098955635e+00    0.1704714     0.130097 -12.72 0.0004274614    1.034    0.032
       166 -12.4980    124.8861    215.7350   1.1289059066e+02   1.3790382569e+01    0.4611166    0.3152983  41.16  0.002393358    1.339    0.253
       167 -12.6431    243.7065    243.5402   9.4215613263e+01  -4.9566633685e+00    0.2340075    0.1616974   7.95  0.001405264    1.122    0.109
       168 -12.4002    234.1688    243.8434   9.5755706625e+01  -4.0335309355e+00    0.2411644    0.1481549 -18.11  0.001171038    1.390    0.281
       169 -12.1522    142.7920    215.8498   1.0889513329e+02   1.1187921201e+01    0.3285728     0.269984  34.03  0.001223123    1.171    0.146
       170  -9.7012     51.5178    245.4666   1.3250575146e+02   1.7824407796e+01      0.12092    0.0899271  42.76 5.285544e-05    1.011    0.010
       171 -10.2633    121.2013    243.0166   1.1702543946e+02   9.6951080120e+00    0.2337307    0.1202446  40.48  0.001259682    1.659    0.397
       172 -10.5077     32.4307    242.7522   1.3651743756e+02   2.0343652689e+01    0.1351049    0.1055842 -69.43  0.000942931    1.602    0.376
