#   1 NUMBER                 Running object number                                     
#   2 MAG_AUTO               Kron-like elliptical aperture magnitude                    [mag]
#   3 X_IMAGE                Object position along x                                    [pixel]
#   4 Y_IMAGE                Object position along y                                    [pixel]
#   5 X_WORLD                Barycenter position along world x axis                     [deg]
#   6 Y_WORLD                Barycenter position along world y axis                     [deg]
#   7 A_WORLD                Profile RMS along major axis (world units)                 [deg]
#   8 B_WORLD                Profile RMS along minor axis (world units)                 [deg]
#   9 THETA_WORLD            Position angle (CCW/world-x)                               [deg]
#  10 FWHM_WORLD             FWHM assuming a gaussian core                              [deg]
#  11 ELONGATION             A_IMAGE/B_IMAGE                                           
#  12 ELLIPTICITY            1 - B_IMAGE/A_IMAGE                                       
         1  -9.9227     92.3080     49.7723   3.4764542678e+01   5.3752668983e+01    0.4041591    0.2206706 -47.09  0.001816292    2.303    0.566
         2 -10.7170     40.9978     13.8532   3.9521490534e+01   6.7543494316e+01    0.2223692    0.1583589  13.46 0.0002652106    1.167    0.143
         3  -9.4161     97.4246     12.8043   2.0253007706e+01   5.7102312962e+01    0.2568156    0.1238066  -8.48  0.001127728    3.114    0.679
         4  -9.2813     67.5012      1.2996   2.4031465836e+01   6.4222137334e+01    0.1858936   0.08928099  51.23  1.79828e-06    1.715    0.417
         5  -8.9566    247.8390    247.8345   4.4906459353e+01  -1.1799567109e+01    0.1413203    0.1211509  -4.18 0.0005333914    1.331    0.249
         6 -10.4002     53.7471    249.3479   8.4733792789e+01   1.5532062953e+01    0.2791615     0.257661  -5.86  0.001601218    1.530    0.347
         7 -11.1487     18.9891    248.0672   9.1464732905e+01   1.9812426756e+01    0.5427332    0.2058108  64.53   0.00257226    2.665    0.625
         8  -9.8764      4.2831    249.3902   9.4257117592e+01   2.1041930612e+01    0.2132848    0.1376646  63.25 0.0006403874    1.186    0.157
         9  -8.7478    196.4956    248.4895   5.4619448989e+01  -5.2341365418e+00     0.127066     0.101913  11.45 0.0008105804    1.006    0.006
        10  -9.8143    107.1295    247.0591   7.3260605461e+01   8.5423181122e+00    0.3092323    0.1735895 -78.64  0.001422544    2.779    0.640
        11  -9.7658     34.0334    247.2233   8.8511080764e+01   1.8324970388e+01    0.2429257    0.1449145  30.26 0.0008826937    1.800    0.444
        12 -10.6605     73.5589    244.3719   8.0175508712e+01   1.3911872578e+01     0.266378    0.2190024  37.56 0.0008681917    1.198    0.166
        13 -10.1249     97.9604    241.3900   7.4587731404e+01   1.1008430837e+01     0.270789    0.1879507  18.26  0.001071218    1.737    0.424
        14  -9.0277      7.6768    242.3418   9.3278233497e+01   2.2096840051e+01    0.1251159   0.06090926  62.79 0.0007050716    1.728    0.421
        15  -8.3839    250.5125    241.4989   4.3400530578e+01  -1.1279765004e+01    0.1170097   0.08837861  -4.01 9.909287e-05    1.013    0.013
        16  -9.7636    107.8485    237.8108   7.1974386673e+01   1.0218719105e+01    0.3656467    0.1899511 -59.21  0.001755928    2.214    0.548
        17  -9.9181     13.2180    250.2700   9.2666428081e+01   1.9980828902e+01    0.2521624    0.1078196  43.11  0.001040104    1.862    0.463
        18  -9.6004    231.3065    234.3650   4.5627747182e+01  -7.9120440521e+00    0.2168557    0.1830984  -0.07 0.0007966559    1.150    0.131
        19 -11.2624     87.3847    227.5713   7.5319857673e+01   1.5393060834e+01    0.4705119    0.2262878  42.74  0.001938202    1.800    0.444
        20 -11.2164     90.8955    230.7710   7.4905975431e+01   1.4205054739e+01    0.4576769     0.274139 -50.65  0.002208673    1.933    0.483
        21  -9.4580    168.8203    233.7285   5.7982780338e+01   1.3181711721e+00    0.5229455    0.1976426  35.79  0.002144161    2.328    0.570
        22  -9.5546    100.1914    233.3986   7.3133724540e+01   1.2269615783e+01    0.2326669    0.1527192  66.05  0.001182962    1.779    0.438
        23 -11.2796     98.5097    225.5778   7.2530429056e+01   1.4139127201e+01    0.4079826    0.3680346  57.60  0.001701597    1.048    0.046
        24  -9.4980    161.1085    232.1310   5.9388379338e+01   2.8277995680e+00    0.3135836    0.1624536  36.51  0.001479549    1.697    0.411
        25  -9.9245    237.8171    229.9402   4.3691932319e+01  -8.1197374798e+00    0.2910609    0.2048231  -0.22  0.001264981    1.250    0.200
        26 -10.9238    162.3818    225.4317   5.8037222168e+01   3.8361696651e+00    0.4202091    0.3026889  13.58  0.002077703    1.447    0.309
        27  -8.6838    144.8056    227.4141   6.2242233958e+01   6.3452953997e+00    0.1938261    0.1200548  25.31 0.0004028627    1.606    0.377
        28  -9.2499     65.6645    227.3363   8.0186622039e+01   1.8508120700e+01    0.1421998   0.08373763  62.93  0.000705189    1.746    0.427
        29  -9.4061    169.5685    224.7446   5.6361729277e+01   2.7905952487e+00    0.4151726     0.250537  60.46  0.001726572    3.006    0.667
        30 -10.2579    117.7188    227.4896   6.8384044370e+01   1.0731370768e+01    0.3997161    0.1811419  48.46  0.001558795    2.249    0.555
        31 -11.2390    126.2995    220.9377   6.5464834744e+01   1.0667787697e+01     0.346302    0.2650173  61.58 0.0007957363    1.475    0.322
        32 -10.0791    121.2099    222.5977   6.6885509385e+01   1.1162123124e+01    0.3054222    0.1278724  32.03  0.001197876    2.330    0.571
        33 -10.0717    114.9601    221.2576   6.8139945279e+01   1.2451041592e+01    0.2998328    0.1887698 -53.54  0.001381266    1.754    0.430
        34  -8.4347    174.4976    222.5179   5.4927641235e+01   2.3911381243e+00    0.1369475    0.1196692  16.24 0.0008103721    1.015    0.015
        35  -9.5102    108.9892    222.4814   6.9698027715e+01   1.3151626196e+01     0.215041    0.1237961  36.14 0.0006616575    1.559    0.358
        36 -11.2664     95.6234    217.8175   7.2189924743e+01   1.6235896877e+01    0.5226718     0.368401  50.16  0.001241716    1.314    0.239
        37  -9.7957     99.8699    217.1486   7.1100294097e+01   1.5721646155e+01    0.2828308    0.2098475  57.48 0.0005406738    1.339    0.253
        38  -9.3025    157.7911    221.0173   5.8325733923e+01   5.4146237500e+00    0.2150467    0.1743811   1.38 0.0009431222    1.297    0.229
        39  -9.2263    212.4987    220.5195   4.6791244401e+01  -3.1824652934e+00     0.130751    0.1089565   1.00 -4.361353e-05    1.001    0.001
        40  -9.0002    149.0000    219.9395   6.0117972637e+01   7.0880429600e+00    0.2095601   0.08055122 -49.89 0.0007943274    2.887    0.654
        41  -9.5388     75.0043    219.3596   7.7196505999e+01   1.8948285475e+01    0.2912285     0.164578  51.04   0.00109073    1.655    0.396
        42  -9.2349    143.5179    217.0242   6.0891519186e+01   8.5820788767e+00     0.199012    0.1410009 -49.76  0.001023672    1.565    0.361
        43 -10.2528    170.5192    215.2587   5.4547540807e+01   4.3728695393e+00    0.2620128    0.2235791  17.27 0.0007480193    1.055    0.052
        44  -9.2622    151.9308    216.0530   5.8817880956e+01   7.3515527406e+00    0.2309708     0.164808   1.93  0.001130564    1.747    0.428
        45 -10.0592    131.0439    214.7302   6.3408656825e+01   1.1150348329e+01    0.2734734    0.1819658 -51.60  0.001167201    1.653    0.395
        46  -9.8375    190.6540    214.9484   5.0200209682e+01   1.1248412403e+00    0.2554798    0.1778557   8.09  0.001276083    1.537    0.350
        47  -9.2402     63.5243    214.0632   7.9264430889e+01   2.1703370764e+01    0.1925373    0.1256332 -74.18  0.001018984    1.565    0.361
        48  -9.1414    228.3138    213.6918   4.2575636629e+01  -4.3844994050e+00       0.1083    0.1044195 -88.03 0.0003358383    1.627    0.385
        49  -9.8589     77.3099    211.8475   7.5760199547e+01   2.0285688132e+01    0.3137519    0.2733824  -6.03  0.001829508    1.478    0.323
        50  -9.2568    116.4852    210.9648   6.6262739222e+01   1.4377338615e+01    0.1905257    0.1242729  87.71 0.0008088744    2.446    0.591
        51 -10.2220    212.5720    207.7366   4.4481726653e+01  -1.0865275355e+00    0.3574942    0.2102996  38.36  0.001836113    1.739    0.425
        52  -9.1541    186.3217    204.6473   4.9249013784e+01   3.6906590535e+00    0.1325094    0.1130228  78.22 0.0007047455    1.753    0.429
        53 -11.8362    173.0952    191.0117   4.9557533375e+01   8.6032246303e+00    0.8699965    0.3578688  34.15  0.003250565    2.496    0.599
        54 -12.1173    178.1821    196.7560   4.9529731068e+01   6.5753707123e+00    0.9148894    0.6188439 -13.43   0.00431944    1.846    0.458
        55  -9.9563     10.3581    207.0935   9.0624945613e+01   2.9278973330e+01    0.3639384    0.1233565  25.36  0.001566581    3.435    0.709
        56  -9.4731    130.7359    202.7363   6.1531374989e+01   1.3726715532e+01    0.2879426    0.1867514 -83.37  0.001179586    2.638    0.621
        57 -11.7154     14.2984    195.3665   8.8892605517e+01   3.1565444927e+01    0.6668811    0.3176971 -41.90  0.001988458    3.262    0.693
        58 -11.3354    166.4287    200.1005   5.2751717318e+01   7.9869107605e+00    0.7345184    0.5138308 -33.05  0.003688953    1.514    0.339
        59 -10.8995    125.7943    197.0452   6.1766536048e+01   1.5823806422e+01    0.4275307    0.3045058  26.10    0.0011731    1.445    0.308
        60  -9.2658    112.8866    194.1837   6.4479089126e+01   1.8691987168e+01    0.2412527    0.2022203 -32.58 0.0003997635    1.351    0.260
        61  -9.5480    105.1481    197.6203   6.6964949443e+01   1.9208245221e+01    0.2738757    0.2030041 -46.88 0.0009625516    1.465    0.318
        62  -9.5459      2.0000    197.9822   9.1824309932e+01   3.2043270580e+01     0.194672   0.05754807 -77.10 0.0005690659    2.916    0.657
        63  -9.3489    144.9984    197.4835   5.7219285634e+01   1.2331235663e+01      0.20466    0.1255086  12.40 0.0005642144    2.402    0.584
        64  -9.1203     36.5024    195.9259   8.3749240562e+01   2.9190471458e+01    0.1931016    0.1165615 -74.02 0.0006009813    1.543    0.352
        65  -9.5572    112.7159    197.9861   6.5142948048e+01   1.7862179695e+01    0.3896592     0.200639  59.01  0.001426009    2.841    0.648
        66  -9.5147     66.8852    194.8178   7.6164517788e+01   2.5681506641e+01    0.3379842    0.1746337  60.49  0.001403808    2.345    0.574
        67  -8.7172     77.3198    192.6537   7.3241805792e+01   2.4713033720e+01    0.1518754    0.1003326  67.52 0.0007049246    1.731    0.422
        68  -9.2368    155.9960    191.4959   5.3538947547e+01   1.1602314495e+01    0.2168521    0.1379903  38.22 0.0003598287    1.491    0.329
        69  -9.3496    104.0568    189.0000   6.5856185046e+01   2.1373492786e+01    0.2867112    0.1860377  39.74 0.0009405712    1.454    0.312
        70 -11.4245     97.9241    188.2025   6.7298444609e+01   2.2572370192e+01    0.5731328    0.3630174  54.78  0.001404295    1.696    0.410
        71 -10.9228     94.3111    182.1946   6.7261151483e+01   2.4582065574e+01    0.4548121    0.3887163 -74.39  0.001696787    1.211    0.174
        72  -9.7343    138.7880    189.1639   5.7199514309e+01   1.5235264998e+01    0.2960154    0.2122454 -65.74  0.001392539    1.706    0.414
        73  -9.3902    129.2194    188.4273   5.9413501950e+01   1.7127867681e+01    0.2140631    0.1313925  47.46 0.0007736648    1.642    0.391
        74 -11.7114     10.0041    186.5524   8.9190289730e+01   3.3980636830e+01    0.6293792     0.328061  51.93  0.002275675    1.846    0.458
        75 -11.6769     12.4252    179.9378   8.8068622886e+01   3.5320625414e+01    0.4606434    0.3741277 -70.39  0.001503925    1.172    0.146
        76 -11.5209      4.8708    177.1092   8.9655683739e+01   3.6602768850e+01    0.7343807    0.2810274  86.88  0.002961721    3.081    0.675
        77  -9.7551      1.6541    177.7156   9.0470513911e+01   3.6708119087e+01    0.1973246    0.1022632 -73.06 0.0008413417    1.615    0.381
        78 -10.6846    162.4280    194.1204   5.2548743989e+01   9.8983010362e+00    0.3956245    0.2342026  56.70  0.001560081    2.358    0.576
        79  -9.4630    155.5450    186.9802   5.2788434831e+01   1.2629901574e+01    0.2214088    0.1457736 -46.25 0.0005542907    1.581    0.368
        80  -8.8332     55.6399    187.3147   7.8057655799e+01   2.8959591502e+01     0.149466   0.09260248  63.80 0.0007042807    1.753    0.430
        81 -10.4279    109.3700    184.8697   6.3799402992e+01   2.1435322670e+01     0.436462    0.3311149  53.37  0.001679225    1.341    0.255
        82 -11.2620    173.0762    195.8343   5.0477322689e+01   7.6538998725e+00    0.4016247    0.3340245 -38.27  0.001169205    1.242    0.195
        83 -10.5396    175.2685    184.3434   4.7780548126e+01   9.5398173278e+00    0.3385069    0.2581868  87.21  0.001131952    2.181    0.542
        84  -9.1585    120.1714    184.5988   6.0993634774e+01   1.9610312525e+01    0.2785277    0.1150022 -56.55 0.0009191936    2.675    0.626
        85  -9.6847    209.6398    184.6959   4.0690280475e+01   3.4110493584e+00    0.1446188    0.1002262  -1.00 0.0007038642    1.726    0.421
        86 -11.1955     19.5891    181.9787   8.6507540056e+01   3.4200443065e+01    0.4685698    0.2573552 -57.60  0.002458263    1.771    0.435
        87  -8.7600     74.3609    183.6910   7.2727413600e+01   2.7286359779e+01    0.1540965    0.1006088  64.30 0.0007040692    1.740    0.425
        88 -10.2009     45.2801    180.4295   7.9874688720e+01   3.1887390713e+01    0.6489964    0.1516051 -63.76  0.002166255    3.567    0.720
        89 -10.1140    147.8217    179.7465   5.3224444036e+01   1.5617328481e+01    0.2780043    0.2059066 -85.20  0.001232332    2.042    0.510
        90  -9.6695    139.1389    179.9574   5.5381929616e+01   1.7197801772e+01    0.3232859    0.2226207  74.67  0.001336187    2.302    0.566
        91  -9.4523     88.7876    176.9953   6.7867730179e+01   2.6716906347e+01    0.2809419    0.1773411  51.40  0.001273713    1.645    0.392
        92  -8.9246     60.1404    176.7675   7.5498800603e+01   3.0936777458e+01    0.2552105    0.1276344  64.51 0.0009517412    2.908    0.656
        93  -9.9640    204.9890    175.4801   3.9775408343e+01   5.9005658254e+00    0.2221182    0.1847312 -29.01  0.001247718    1.126    0.112
        94 -10.2645     77.9150    175.7232   7.0579383949e+01   2.8699192826e+01    0.3989402    0.2009845  56.74  0.001531314    2.532    0.605
        95  -9.2394     29.9215    175.5714   8.3279460654e+01   3.4735914718e+01    0.2173854    0.1594531  76.87 0.0006779021    1.319    0.242
        96 -11.8815    150.3795    164.2453   4.9462144107e+01   1.8521030926e+01    0.9718745    0.3968774 -40.34  0.003339949    2.713    0.631
        97 -10.5095    148.6893    174.8393   5.2044185153e+01   1.6523350326e+01    0.3113439    0.2415444  25.40 0.0008784774    1.322    0.244
        98  -9.9529    105.3180    174.9204   6.3106211319e+01   2.4476366082e+01    0.3362078    0.2081926  75.19  0.001268093    2.699    0.630
        99  -9.8145     24.3375    174.3461   8.4580086517e+01   3.5578433047e+01    0.2654424    0.1464332  65.20  0.001148641    1.985    0.496
       100  -9.4528    134.9301    171.3318   5.4742244313e+01   1.9925367643e+01    0.2621255    0.2175211 -67.10  0.001053294    1.361    0.265
       101 -10.3205    177.4395    169.2901   4.4256163049e+01   1.2178488237e+01    0.4947016    0.3342802 -54.14  0.002301091    1.674    0.402
       102 -10.7070    204.1006    187.3953   4.2310821993e+01   3.8556473499e+00    0.4113427    0.3073457 -66.06  0.002065405    2.026    0.506
       103  -9.6990     68.4679    169.8789   7.2237051398e+01   3.1500502116e+01     0.275427    0.2050354  69.87  0.000881134    1.473    0.321
       104  -9.7874     28.9751    169.7101   8.2882346843e+01   3.6252072947e+01    0.1793399    0.1644883  76.04  0.001080559    1.080    0.074
       105 -10.6519    206.5470    168.5352   3.8061521183e+01   6.9207047119e+00    0.3650519    0.1920449 -39.28  0.001628851    1.803    0.445
       106  -8.7001    168.3027    169.6138   4.6368095986e+01   1.3868118507e+01    0.1513886    0.1210625 -89.23 0.0007017804    1.792    0.442
       107  -9.0741     54.8500    169.0025   7.5839787759e+01   3.3527548053e+01    0.2463129    0.1486327  76.23  0.001083382    2.121    0.529
       108 -10.7731    121.9915    168.4890   5.7501003644e+01   2.3008332349e+01    0.6552855    0.4071954 -60.38  0.002704417    1.801    0.445
       109  -8.9480    199.9511    166.8378   3.9015947238e+01   8.4363902154e+00    0.2143855    0.1775296  -7.99 0.0003919705    1.251    0.201
       110 -10.1811    139.7852    165.3815   5.2313839946e+01   2.0339491486e+01    0.4632507    0.3193248  84.69  0.001828657    2.502    0.600
       111 -11.0925    219.1597    165.4168   3.5040996467e+01   5.2751209630e+00    0.3633567    0.2980179 -45.97  0.001696272    1.255    0.203
       112  -9.5971     98.6458    165.6732   6.3214404236e+01   2.7841603762e+01    0.3565045    0.2114132  62.32  0.001395759    2.328    0.570
       113  -9.9098     93.5956    160.6893   6.3681421124e+01   2.9905466447e+01    0.5453781    0.3098056  70.52  0.001856707    3.308    0.698
       114  -9.2129     19.4453    166.5341   8.5038049396e+01   3.7912564276e+01    0.1288716    0.1097782 -88.58 4.796377e-05    1.025    0.024
       115  -9.5162     80.5200    164.3458   6.7994223805e+01   3.1099561718e+01    0.3988255    0.2283495  80.90   0.00140648    3.204    0.688
       116  -9.3826    197.6454    182.3053   4.2614330121e+01   5.9133276923e+00    0.1349183    0.1149404  82.11 0.0005257244    1.715    0.417
       117  -9.4748     37.2209    163.4872   7.9927069593e+01   3.6933746272e+01     0.339282    0.1658938  70.45  0.001300202    3.070    0.674
       118 -12.0966    249.4504    155.2844   2.7901461981e+01   2.0332953257e+00    0.9235743    0.2614701 -41.77   0.00345442    3.038    0.671
       119 -10.4055     23.4060    160.4205   8.3322195261e+01   3.9044289982e+01    0.4337675    0.2117092  19.00  0.002008569    2.527    0.604
       120 -10.1778      8.2792    159.5481   8.7263852114e+01   4.0507419260e+01    0.4845599    0.1832422  75.59  0.001578205    4.807    0.792
       121  -9.3213    177.2007    160.0092   4.2351792149e+01   1.4123800419e+01    0.2728225    0.1754126 -52.13  0.001218738    1.688    0.408
       122 -10.2595    142.6947    158.6559   5.0171859089e+01   2.1282544021e+01    0.7827685    0.2144195  41.35    0.0022575    3.547    0.718
       123  -9.1676    128.4845    158.9717   5.3872160339e+01   2.3994271512e+01    0.2110287    0.1398995 -79.74 0.0008084753    2.410    0.585
       124 -12.7368    206.1015    152.9988   3.4914755362e+01   9.9293016633e+00     0.946197    0.5655401 -56.35  0.004170083    2.080    0.519
       125 -10.0165    168.0023    157.7362   4.3920301078e+01   1.6421735852e+01    0.3497971    0.2641552 -69.76  0.001619718    1.742    0.426
       126  -9.2527    157.8124    155.9769   4.5907720585e+01   1.8845451862e+01    0.2484121    0.1818222 -77.51  0.001069894    1.997    0.499
       127  -9.8428     49.6712    154.8855   7.5232156154e+01   3.7667600317e+01    0.4354868    0.2408839  67.19  0.001789967    2.542    0.607
       128 -10.4684    133.7065    153.1428   5.1271315370e+01   2.4316267217e+01     0.555639    0.3627907  77.07  0.002040325    2.783    0.641
       129  -9.4350    119.3842    154.6825   5.5385024971e+01   2.6739039280e+01     0.345896    0.2397998 -87.66   0.00140097    2.232    0.552
       130 -10.0732     81.5749    154.0818   6.5860301645e+01   3.3473322554e+01    0.3586829    0.2482359  83.38   0.00105783    1.941    0.485
       131 -10.7510     68.3080    153.4631   6.9595769695e+01   3.5598340348e+01    0.5169479    0.3370971 -88.62  0.001783575    1.980    0.495
       132  -9.4200     99.4819    151.8866   6.0308872058e+01   3.1046228601e+01    0.4258809    0.2571208 -84.44  0.001509495    2.991    0.666
       133  -9.8790    153.8102    151.4387   4.5868042762e+01   2.0644817855e+01    0.3003663    0.2236372 -46.29  0.001415623    1.359    0.264
       134 -11.4566    189.6992    150.4367   3.7621135461e+01   1.3590582405e+01    0.4279817    0.3230064 -62.04  0.002094431    1.594    0.373
       135 -10.2472    187.1943    144.9841   3.6941896180e+01   1.5175962841e+01    0.3342286    0.2956833  75.77   0.00178645    1.334    0.251
       136  -9.8224    182.5669    149.9018   3.8997974666e+01   1.5118974952e+01     0.404387    0.2328418 -50.66  0.001582091    1.847    0.459
       137  -9.3962     91.0340    151.0716   6.2557611460e+01   3.2688397312e+01    0.2524712    0.1827502  72.12  0.001134439    1.771    0.435
       138  -9.2690     22.4846    150.9799   8.2468935682e+01   4.1436166647e+01    0.1930827   0.09877814  80.43 0.0008103728    2.567    0.610
       139  -9.8212    105.4620    157.6050   5.9785746015e+01   2.8606117144e+01    0.3598631    0.2631599  69.75  0.001133559    1.729    0.422
       140  -9.7873     28.1105    148.8929   8.0602609678e+01   4.1441899172e+01    0.4515144    0.1959009  84.13  0.001431738    4.588    0.782
       141  -9.8327     40.1313    147.8682   7.6960780526e+01   4.0493214471e+01    0.4876675    0.2042065  52.51  0.001807897    3.212    0.689
       142  -9.6508     38.4206    142.7605   7.6704728911e+01   4.1941826645e+01    0.2756012    0.1653274 -58.19   0.00124931    1.486    0.327
       143  -9.7197    224.1387    147.9580   3.0574767664e+01   7.5491309006e+00    0.2868082    0.1964189  38.24  0.001252457    1.609    0.379
       144  -8.9531    142.6793    148.3335   4.7919632695e+01   2.3603201405e+01    0.1588491    0.1251746  83.29 0.0007049539    1.700    0.412
       145 -11.0236    148.8468    143.0452   4.5188070207e+01   2.3508615700e+01    0.9453449    0.4077727 -53.69  0.003199768    2.744    0.636
       146 -10.1891    107.2555    145.0245   5.6672934739e+01   3.1305790621e+01    0.5815513    0.3714318  76.62  0.002130809    2.800    0.643
       147 -10.3181     56.1473    145.3010   7.1787026849e+01   3.9262233344e+01    0.5329173    0.3005559  66.87  0.001876441    2.682    0.627
       148  -9.1946     13.0447    145.8143   8.4528214005e+01   4.3464927822e+01    0.2105611    0.1192999  56.29  0.000784174    1.999    0.500
       149  -9.9374    188.6474    156.8447   3.9223218724e+01   1.2523330065e+01    0.3564322    0.1700964 -48.27  0.001403121    2.180    0.541
       150  -9.5066    165.9326    144.0087   4.1352802287e+01   1.9742420387e+01    0.2457065    0.1933484  88.52   0.00112927    1.751    0.429
       151 -10.3189    125.0438    142.7226   5.1251074247e+01   2.8437286115e+01    0.5034226    0.3405316 -88.95   0.00191572    2.568    0.611
       152  -9.6628     88.1691    143.6978   6.1909988392e+01   3.4971687785e+01    0.3190378     0.233085  83.94  0.001292791    1.831    0.454
       153  -9.6657    182.1671    141.4573   3.7206678546e+01   1.6907571998e+01    0.3194735    0.2332615 -78.12  0.001415117    2.034    0.508
       154  -9.5987      2.8007    141.9873   8.6999473592e+01   4.5101168736e+01    0.2154513    0.1189942  72.60  0.001079386    2.073    0.518
       155 -10.2393     69.1844    139.9854   6.6872003795e+01   3.8823823903e+01    0.3952693    0.2330717 -87.86  0.001498185    2.783    0.641
       156 -11.4086    248.3546    134.0471   2.3887723287e+01   5.7630565732e+00    0.4148685    0.1320736 -40.82  0.001623467    2.669    0.625
       157  -9.3944    106.4595    138.9337   5.5563349605e+01   3.2906936647e+01    0.2390519    0.1511156 -51.12 0.0006537717    1.585    0.369
       158 -10.2777     82.1310    137.2966   6.2392337949e+01   3.7521561578e+01    0.3803219    0.2659703 -38.42  0.001780353    1.523    0.343
       159 -10.6438     83.8726    131.7917   6.0687873478e+01   3.8580276243e+01    0.5111644    0.3595264  86.79  0.001511482    2.078    0.519
       160 -10.1765     23.5652    138.0916   8.0492103281e+01   4.4503487458e+01     0.480887     0.237351  69.39  0.001904141    3.174    0.685
       161 -10.7297    202.6910    136.2489   3.1948608759e+01   1.3769568272e+01    0.2953672    0.2453753  46.98 0.0004284999    1.277    0.217
       162 -11.2426    197.5486    136.5801   3.3003678895e+01   1.4735380234e+01    0.3823675     0.316654 -33.43  0.002050513    1.173    0.147
       163  -9.3887    172.3929    137.6587   3.8452866695e+01   1.9716197199e+01    0.2929837    0.1315833 -55.82 0.0007953909    3.112    0.679
       164 -10.6364    188.8966    121.8741   3.1358975724e+01   1.9365716399e+01      0.54136    0.2846066 -23.67  0.001879427    3.192    0.687
       165 -10.5072     40.3822    135.7870   7.5008493204e+01   4.3462231177e+01    0.3978389    0.2809281  -8.18  0.002036985    1.819    0.450
       166 -10.6472     41.6031    130.1165   7.3671699186e+01   4.4730033921e+01    0.3702492    0.2891266 -83.57  0.001185095    1.355    0.262
       167  -9.5990     99.4868    160.3805   6.1983432733e+01   2.8981847264e+01    0.2667412    0.2522208 -57.47 0.0005604787    1.066    0.062
       168  -9.7708    179.7543    133.3082   3.5863931446e+01   1.9052165676e+01    0.3597758    0.1941937 -56.14   0.00129978    2.296    0.564
       169 -10.7436    110.9899    130.8717   5.2419051137e+01   3.3949072220e+01    0.6180913    0.4629224  83.29  0.002114901    1.891    0.471
       170 -11.3949    116.5445    124.0338   4.9197127035e+01   3.4430463020e+01    0.8647118    0.7421238 -15.67  0.003836691    1.296    0.229
       171 -10.7119    132.4176    130.6528   4.6470726224e+01   2.9687945495e+01    0.7497877     0.386071 -60.72  0.002602528    2.732    0.634
       172  -9.5153    143.0299    131.4957   4.3935696219e+01   2.7269003229e+01    0.3022444    0.2226119 -64.49  0.001153058    1.621    0.383
       173  -9.8077    168.8089    129.2615   3.7291585845e+01   2.2207912774e+01    0.4312914    0.2092178 -51.84  0.001510283    2.310    0.567
       174  -9.9359    153.0072    128.2901   4.0710710194e+01   2.5824092153e+01    0.4874973    0.2498232 -57.75  0.001731716    2.594    0.614
       175 -11.3882     99.1286    125.3048   5.4575645194e+01   3.7483080958e+01     1.139786    0.5709919 -54.00  0.004202955    2.065    0.516
       176  -9.8625     73.1906    128.6814   6.3339643335e+01   4.1011589611e+01    0.4684124    0.2687109 -75.53  0.001815894    2.533    0.605
       177  -9.9242     12.9473    129.2206   8.2521901930e+01   4.7492851635e+01    0.3759597    0.2006468  67.56  0.001717045    2.551    0.608
       178  -9.7317    162.7755    135.9405   4.0223858769e+01   2.2108707006e+01    0.2931388    0.2164051 -63.34  0.001337135    1.612    0.380
       179 -10.5380     59.5855    123.9478   6.6705367050e+01   4.4087350204e+01    0.6093287    0.3642418  77.26  0.002286619    3.171    0.685
       180 -10.5437    180.8334    120.6417   3.2687996869e+01   2.1337342184e+01    0.4087386    0.2878795 -20.07  0.001847723    1.815    0.449
       181 -10.6904    105.0289    123.7832   5.2458036500e+01   3.6737019834e+01     0.343957    0.2764899   7.39  0.000794474    1.465    0.317
       182 -10.8689     43.8501    122.0071   7.1479364850e+01   4.6468717909e+01    0.7819161    0.4301015  86.87  0.002891449    3.413    0.707
       183 -10.9355     27.6955    122.5040   7.6863863106e+01   4.7949131996e+01    0.6724107    0.4961911 -54.93  0.003857277    1.187    0.158
       184 -10.0130     12.7980    121.3956   8.1500027794e+01   4.9385282349e+01    0.3128918   0.06822561 -50.97  0.001092842    3.460    0.711
       185  -9.2190    172.6619    120.6707   3.4407604643e+01   2.3111352775e+01    0.3140005    0.1761758 -60.94  0.001170405    2.515    0.602
       186  -9.5502    158.4414    120.6113   3.7563511257e+01   2.6248186140e+01    0.3779527    0.2147707 -56.24  0.001483296    2.108    0.526
       187 -10.5460    141.4951    117.6264   4.0918289856e+01   3.0593511719e+01      0.88463    0.2966854 -50.59  0.002615402    3.538    0.717
       188  -9.8675     70.9452    119.5153   6.2051129134e+01   4.3557256014e+01    0.3279656     0.219663 -78.96  0.001297029    2.048    0.512
       189 -10.0404    130.6888    117.4092   4.3661676136e+01   3.2972298804e+01    0.6291718    0.3016116 -54.42  0.002241098    2.490    0.598
       190 -10.3431      2.6959    115.6735   8.3952882097e+01   5.1374249025e+01    0.6251996    0.2498168 -87.60  0.002360869    3.594    0.722
       191  -9.9655    185.9954    114.6363   3.0236942730e+01   2.1376272028e+01    0.3956562     0.205887 -44.16  0.001452364    1.868    0.465
       192 -11.2124    108.8930    112.5949   4.8523387381e+01   3.8525842805e+01    0.8655193    0.3834423 -55.16  0.002992278    2.715    0.632
       193  -9.5310     22.5122    115.0212   7.7339337298e+01   5.0186962959e+01    0.2724847     0.159928 -81.22  0.001326439    1.922    0.480
       194  -9.7619     22.5906    110.2567   7.6500547984e+01   5.1314161294e+01    0.3137129     0.188406 -73.89  0.001431811    1.690    0.408
       195 -11.0686     22.6875    101.4129   7.4857364638e+01   5.3380558665e+01    0.7076554    0.3799882  69.40  0.002752922    3.798    0.737
       196 -10.2605     21.4212     92.2535   7.3514928277e+01   5.5579248314e+01    0.5189838    0.1651569 -35.75   0.00174239    4.123    0.757
       197 -11.1631     14.5951    111.8577   7.9484995960e+01   5.1532646490e+01    0.5606285    0.3622165  79.66  0.002936171    1.972    0.493
       198 -11.0728     16.7802    105.2905   7.7651923504e+01   5.2923780324e+01    0.5391426    0.3341275 -32.91  0.002905195    1.640    0.390
       199 -11.1154    188.0137    134.8898   3.4515055548e+01   1.7012154604e+01    0.5007226    0.2052822 -45.32  0.001806004    2.394    0.582
       200 -10.5710     92.7056    112.2517   5.3343449802e+01   4.1667887373e+01    0.4792932    0.3300859 -72.24  0.001668561    2.000    0.500
       201 -10.7559     79.4076    112.6256   5.7679299050e+01   4.3861615213e+01     0.601931    0.3956691 -86.86  0.002262377    2.735    0.634
       202 -10.0355    121.9901    111.5895   4.4526830739e+01   3.6072113664e+01    0.5148255    0.2543069 -53.48  0.001900003    2.327    0.570
       203  -9.0869    159.3053    111.4463   3.5094647998e+01   2.7918536605e+01    0.2607724    0.1822318 -62.78 0.0007160237    1.729    0.421
       204  -9.0440    174.5059    111.0312   3.1690358186e+01   2.4598398524e+01    0.2357583    0.1451561 -43.19  0.001036427    1.606    0.377
       205 -10.7234     66.3265    110.0614   6.1399285340e+01   4.6467490065e+01     0.395736    0.2783162 -80.62  0.001825788    1.973    0.493
       206  -9.1532    183.0000    108.9867   2.9481770296e+01   2.3103424456e+01    0.2456707   0.08219738 -40.80 0.0008013406    2.935    0.659
       207 -12.1107    249.6892    103.6805   1.7661219116e+01   1.0530037242e+01    0.7789203    0.1933883 -36.13  0.002455484    4.500    0.778
       208  -9.8952    139.9473    103.9752   3.7788927505e+01   3.3764712342e+01    0.5129047    0.2569646 -52.98  0.001903504    2.362    0.577
       209  -9.7277    133.5114    108.8432   4.0712476049e+01   3.4186398532e+01    0.4097617    0.2442868 -60.24  0.001604207    2.201    0.546
       210 -11.0192     45.5716    102.0343   6.6759622443e+01   5.1020906993e+01    0.7518963    0.4316018  68.05  0.002766256    3.825    0.739
       211 -10.1300    150.0560    101.9252   3.4797751887e+01   3.1894871156e+01    0.5822079    0.2316673 -50.99  0.001900133    3.062    0.673
       212  -9.0072    166.5064    103.0283   3.1394302800e+01   2.7937150528e+01    0.2353818    0.1462568 -43.90  0.001035072    1.613    0.380
       213 -10.5087    128.6635    100.5426   3.9781885375e+01   3.6956879640e+01     0.589637     0.323263 -46.06  0.002408532    1.891    0.471
       214  -9.9402      6.8557    102.7420   8.0693288713e+01   5.4160556043e+01    0.2305621    0.1475201  79.00 0.0009578613    2.026    0.506
       215  -8.9868    175.5104    101.0297   2.9033083063e+01   2.6269993928e+01    0.2318776    0.1435374 -42.53  0.001035637    1.604    0.376
       216 -10.6859    108.8856     98.5108   4.4766339656e+01   4.1563009802e+01    0.5656677    0.4093724  70.72  0.001998706    1.946    0.486
       217  -9.4788    107.7733     91.8233   4.3221761558e+01   4.3162347996e+01    0.3248118     0.247511   2.24  0.001361586    1.649    0.393
       218 -10.0396     82.1242     98.8030   5.3243081820e+01   4.6528318582e+01    0.5470784    0.2759885 -58.35  0.002116177    2.442    0.591
       219 -10.7787     63.8434     95.7674   5.8708000729e+01   5.0079867041e+01    0.5353815    0.3594911 -88.34   0.00221636    2.820    0.645
       220  -9.6374     63.7570     87.8156   5.6605479171e+01   5.1821420639e+01    0.3996207     0.185874 -23.94  0.001155232    4.962    0.798
       221 -10.0747     94.8997     96.5816   4.8499588585e+01   4.4711713680e+01    0.4491693    0.2504695 -58.24  0.001790223    2.282    0.562
       222  -9.6098     95.4963     92.0038   4.7026573553e+01   4.5556271933e+01    0.3243591    0.2085088 -17.64  0.001343112    2.195    0.544
       223  -9.4208    189.1204    106.3054   2.7669151254e+01   2.2254738888e+01     0.295181    0.1548616 -48.62 0.0009633863    1.924    0.480
       224 -10.1342     44.0646     92.1252   6.4982528966e+01   5.3443140452e+01    0.3092024      0.17151 -24.60    0.0013564    2.252    0.556
       225  -9.7037    138.7919     90.6474   3.4489931094e+01   3.6634879024e+01    0.5309809    0.1953555 -45.40  0.001787873    2.887    0.654
       226 -10.3350    124.6323     90.3403   3.8043871521e+01   3.9867607942e+01     0.478482    0.3164954 -66.63  0.001763289    2.211    0.548
       227  -9.4952    126.2087     84.1854   3.5878442737e+01   4.0687592073e+01    0.3894347    0.2439147   5.99  0.001364069    3.298    0.697
       228 -10.4147      4.7544     90.9204   7.9489207490e+01   5.6977440951e+01    0.3426996    0.2197406  70.16  0.001838866    2.235    0.553
       229 -10.5468     34.7999     87.2390   6.7305819399e+01   5.5514592425e+01    0.8654802    0.2563446 -56.94  0.003200943    2.989    0.665
       230  -9.1669    159.5828    100.3310   3.2212548589e+01   3.0031474228e+01    0.2957653    0.1413112 -46.34  0.001129777    2.158    0.537
       231 -10.5650     86.7859     85.2077   4.7875168457e+01   4.8568050521e+01    0.7794688    0.4097438 -52.35  0.002716984    2.174    0.540
       232 -10.6849     48.4333     83.7814   6.1197968740e+01   5.4749991286e+01    0.4583046    0.3233132 -83.99  0.002191433    2.349    0.574
       233 -10.0992     49.5107     76.7176   5.8826661784e+01   5.6096434986e+01    0.2727173    0.1720318   3.08 0.0009629332    1.904    0.475
       234 -10.1615      7.1506     84.5587   7.7422791751e+01   5.8263361380e+01    0.2716038     0.111001 -48.91  0.001284714    1.896    0.473
       235 -10.3953    104.3689     82.4047   4.1500617835e+01   4.5711789123e+01    0.4684676    0.3124192 -64.99  0.001605372    2.224    0.550
       236  -9.5354    140.8116     81.8132   3.1558066284e+01   3.7797356828e+01    0.4350515    0.1864369 -44.90  0.001611578    2.484    0.597
       237  -8.9385    116.8134     83.1997   3.8135764110e+01   4.2937935840e+01     0.201554    0.1703591   7.06 0.0003191233    1.323    0.244
       238 -10.5359     27.7228     71.2362   6.6088956460e+01   5.9609866714e+01    0.8280286    0.3300616 -19.42  0.002239635    7.134    0.860
       239  -9.8397      9.4074     81.0295   7.5844973684e+01   5.8906216543e+01    0.3807112    0.1314015  40.71  0.001455625    4.332    0.769
       240  -9.5077     74.6242     80.2745   5.0558020658e+01   5.1680013361e+01    0.3043719    0.1830016 -60.52  0.001311946    2.298    0.565
       241  -9.3199    180.8010     79.7257   2.2745260469e+01   2.8818448328e+01    0.2863808    0.1727312 -63.28  0.001235296    2.085    0.520
       242 -10.5910     24.4691     80.2338   6.9678752260e+01   5.7992651070e+01    0.4309648    0.2731585 -82.40  0.001808921    2.400    0.583
       243  -8.8968    150.0000     78.9886   2.8675033781e+01   3.6153596573e+01    0.2421707   0.08488407 -38.37 0.0008090704    2.989    0.665
       244  -9.8745    127.9990     73.4278   3.2298680929e+01   4.2211815016e+01    0.6317537    0.2179898 -39.73   0.00216744    3.040    0.671
       245  -8.6039    157.4703     75.4903   2.6131775321e+01   3.4991632981e+01    0.1455331    0.1375007  72.65   0.00013421    1.005    0.005
       246  -9.5882    140.4384     74.0023   2.9450543558e+01   3.9245211857e+01    0.4002927    0.1356398 -41.80   0.00135436    3.072    0.674
       247  -9.9102     10.0126     74.2354   7.4159798395e+01   6.0335513785e+01    0.2173139    0.1610484 -42.28 0.0003278429    1.097    0.088
       248 -10.5567    248.5161     73.4738   1.1826842633e+01   1.5421703584e+01    0.2183673    0.1137276 -29.66  0.001038466    2.404    0.584
       249 -10.3594     82.3534     72.2221   4.5417072762e+01   5.1894329592e+01    0.4526771    0.3084595 -66.98    0.0018146    2.399    0.583
       250 -10.3501     82.4867     65.8569   4.3338141046e+01   5.3027696568e+01    0.4568153    0.2522736 -12.32  0.001611458    3.581    0.721
       251  -9.7483     95.1586     70.8572   4.0802116181e+01   4.9711668041e+01    0.4571311    0.2523845 -57.61  0.001784903    2.835    0.647
       252  -9.9843     62.4530     70.7517   5.2081007378e+01   5.5485071376e+01    0.3394434    0.1241378 -44.19   0.00130656    2.648    0.622
       253  -9.1939     42.4157     72.2071   6.0340233063e+01   5.7881673934e+01    0.1815639    0.1240328 -60.58 0.0009541075    1.720    0.419
       254  -9.3491    105.6665     71.3365   3.7760047179e+01   4.7478907852e+01    0.2203334    0.1789787 -88.81 0.0008592315    1.729    0.422
       255 -10.4539     51.2561     68.3383   5.5655583677e+01   5.7545761342e+01     0.624059    0.2505307 -57.33  0.002242905    3.662    0.727
       256  -9.7747     16.4482     68.9006   7.0221053428e+01   6.1022478977e+01    0.3623751    0.1691502 -65.95  0.001674193    2.470    0.595
       257  -9.1131    146.6341     67.0778   2.6109877544e+01   3.8930973878e+01    0.3202322    0.1386281 -37.15  0.001241849    2.453    0.592
       258  -8.9137    106.3362     67.2977   3.6307528194e+01   4.8037650082e+01    0.1494133    0.1083813  16.12 0.0004922248    1.653    0.395
       259  -9.4348    138.4463     65.7519   2.7549322416e+01   4.1070704059e+01    0.2739733    0.1360226 -42.86 0.0008855361    2.156    0.536
       260  -9.2900    121.4823     64.7830   3.1381580906e+01   4.5135474836e+01    0.4121444    0.1412682 -38.64   0.00143683    3.087    0.676
       261  -9.3181    110.1425     63.2781   3.3961907906e+01   4.7892059128e+01     0.264035    0.1864055 -65.55  0.001114104    2.080    0.519
       262 -10.2831     37.1815     63.2659   5.9852358450e+01   6.0251417975e+01    0.3634136    0.2076094 -63.42  0.001706285    2.488    0.598
       263  -9.6938     17.9727     61.7352   6.7696204835e+01   6.2365208484e+01    0.2881001    0.1252999 -42.16  0.001107959    1.907    0.476
       264  -9.8687    100.0318     59.5256   3.5678663852e+01   5.0651342188e+01     0.278378    0.1872551 -54.64  0.001323496    1.956    0.489
       265  -9.9823     73.2727     59.2072   4.4345129007e+01   5.5833888113e+01    0.3840186    0.2370207 -52.99  0.001427913    2.134    0.531
       266  -8.5543    164.3165     59.6542   2.0571308594e+01   3.5871466228e+01    0.1483265    0.1041029 -74.49 0.0007048285    1.721    0.419
       267  -9.5634     24.5205     58.5115   6.3892301803e+01   6.2448399135e+01    0.1742372    0.1599112  69.83 0.0009528366    1.585    0.369
       268  -9.2241     25.3322     55.3447   6.2577363295e+01   6.2980340343e+01    0.2067138   0.09823459 -44.82  0.001040204    1.809    0.447
       269 -10.8583      7.3943     57.0310   7.1160639172e+01   6.4035670264e+01    0.3011258    0.2013405 -81.38  0.001498879    2.273    0.560
       270  -9.4700    119.2189     55.5632   2.9119245491e+01   4.7088092739e+01    0.2595803     0.158159 -57.60  0.001122866    2.337    0.572
       271 -10.0852     62.8307     51.9012   4.5687889450e+01   5.8809614036e+01    0.6768685    0.1708733 -40.80  0.002266668    4.029    0.752
       272  -9.8566     53.9084     53.0030   4.9573238351e+01   5.9989307675e+01    0.4089904    0.1832604 -55.10  0.001525411    3.853    0.740
       273  -9.4721     44.3671     55.1932   5.4246968026e+01   6.0905988578e+01     0.277996    0.2014455 -67.77  0.001460684    2.267    0.559
       274 -11.5701     45.5363     49.0015   5.1626565245e+01   6.1838904304e+01    0.3038957    0.2173037 -29.41 0.0005228334    1.297    0.229
       275  -8.9545    130.2567     46.7001   2.3754082559e+01   4.5811634354e+01    0.2060065     0.122779 -16.10 0.0009052725    2.360    0.576
       276  -9.4708     81.9979     46.4608   3.6907442547e+01   5.6277722631e+01     0.209407    0.1725644 -22.61 0.0007851965    1.261    0.207
       277 -10.9964    174.2167    244.9974   5.8606851683e+01  -1.4167980527e+00     0.390408    0.2812443  59.64  0.002104106    2.099    0.524
       278  -9.8128    113.5303     42.2704   2.6319285007e+01   5.0248110635e+01    0.4810201    0.2598775  -8.20  0.001835207    3.439    0.709
       279  -9.2731     23.1903     46.6284   6.0778963479e+01   6.4788681564e+01    0.1693514    0.1018174   5.35 0.0009470215    1.685    0.406
       280  -8.7389      1.4788     45.9746   7.0941974928e+01   6.6515754281e+01      0.16574   0.09405752 -51.09 0.0004255376    1.479    0.324
       281  -9.9630     16.6621     43.2663   6.2764516895e+01   6.5968262928e+01    0.3944476    0.1341252 -54.67   0.00168382    3.131    0.681
       282  -9.6038     58.3872     42.5809   4.4035334089e+01   6.1004377566e+01    0.2299102    0.1134082 -51.41  0.000954056    3.228    0.690
       283 -10.9718      4.7676     40.2281   6.7632067104e+01   6.7384732641e+01    0.4278983    0.1993791 -66.48  0.001959763    3.373    0.704
       284 -10.0173      6.1910     33.9748   6.4882822924e+01   6.8397225783e+01    0.2467634    0.1379821 -24.73  0.001481118    1.541    0.351
       285  -9.0608     36.8721     40.2843   5.2253222181e+01   6.4396870189e+01    0.1759379    0.1380653  70.58 0.0009417197    2.746    0.636
       286  -9.9784     30.8290     50.9334   5.8708251461e+01   6.3252385136e+01    0.2097556    0.1761948 -63.83   0.00120604    1.656    0.396
       287  -8.9039     80.5143     36.0145   3.3613292041e+01   5.8025096402e+01    0.1701539    0.1118943 -56.44 0.0008100153    2.507    0.601
       288  -9.3149    123.5657     40.1621   2.3244294049e+01   4.8230756772e+01    0.2251332    0.1637838  40.07 0.0004677431    1.325    0.245
       289  -9.3498     26.3737     36.2190   5.5613784673e+01   6.6257539248e+01    0.1597336    0.1077733 -49.12 0.0009523239    1.738    0.425
       290  -8.9665     38.2943     35.3511   4.9743333469e+01   6.4999807688e+01    0.1301298   0.08144902  -8.60 0.0005190922    1.680    0.405
       291  -9.1810     69.0346     40.9915   3.9417951370e+01   5.9460425812e+01     0.186709    0.1675204  86.26 0.0009170623    1.707    0.414
       292  -8.8807    119.4560     32.9651   2.1896708319e+01   5.0062739268e+01    0.1812865    0.1055205 -55.88 0.0008080571    2.467    0.595
       293  -9.0975     49.5955     32.3753   4.3667802164e+01   6.3866606785e+01     0.219166    0.1085806 -49.82   0.00095328    3.282    0.695
       294  -8.9866     60.4334     32.2241   3.9272090012e+01   6.2165867665e+01    0.1657775    0.1174393 -41.43 0.0009501047    1.722    0.419
       295  -9.6679    105.8160     37.4110   2.6689309344e+01   5.2591603514e+01    0.2270038    0.1490104  24.22 0.0009500006    1.773    0.436
       296  -9.5732     27.5154     28.9818   5.2270973649e+01   6.7272798417e+01    0.1770509   0.08103786 -23.27 0.0008104676    2.594    0.614
       297  -8.9081     81.6444     27.3327   3.0008939190e+01   5.8885447084e+01    0.1223355    0.1030682 -88.30  0.000704404    1.791    0.442
       298  -9.1829     84.0219     39.9696   3.3923712009e+01   5.6809286605e+01    0.2246663    0.1467276  18.24  0.001130974    1.745    0.427
       299  -8.5250     91.3457     25.6758   2.6512583016e+01   5.7095728711e+01    0.1241269    0.1021041 -85.86 0.0007050159    1.740    0.425
       300  -9.5087     44.3689     25.1869   4.2959514117e+01   6.5629840000e+01    0.1936932     0.135478  17.01 0.0003744809    1.237    0.191
       301  -8.7193    110.4778     24.4881   2.1182814101e+01   5.3058376230e+01    0.1340649    0.1121897  45.94 0.0001283446    1.034    0.033
       302  -8.3917     58.7279     22.2974   3.5919154718e+01   6.3719794187e+01    0.1028393   0.09990456  70.98            0    1.525    0.344
       303 -10.1751     13.0778     21.0840   5.6424434439e+01   6.9936806971e+01    0.2501231    0.1575647  14.85 0.0007404275    1.441    0.306
       304  -8.5841     84.7075     21.3134   2.6807472686e+01   5.8943938530e+01    0.1147687    0.1007029 -84.76 0.0003026911    1.593    0.372
       305  -8.3208    118.6389     24.6876   1.9417409221e+01   5.1179512532e+01    0.1428789   0.08665205  35.71 0.0007041732    1.750    0.429
       306  -8.7430     40.8271     21.1895   4.2819508292e+01   6.6665871827e+01    0.1669441    0.1146324   6.42  0.000324196    1.322    0.243
       307  -8.7134     63.3041     20.6577   3.3546433880e+01   6.3114229176e+01    0.1090884    0.1009207 -85.26 0.0004487793    1.682    0.405
       308  -8.8180     50.5048     15.4785   3.6241978788e+01   6.5880856970e+01    0.1264901   0.09357902  16.14 5.781939e-05    1.129    0.114
       309 -11.7577    167.2283    242.2632   5.9651810462e+01   1.0419439440e-01    0.7242126    0.3319159  30.68  0.003059672    1.971    0.493
       310 -11.6393    166.1832    248.0018   6.0735381267e+01  -6.9186645621e-01    0.5912623    0.2778314  29.86  0.002772143    1.910    0.477
