#   1 NUMBER                 Running object number                                     
#   2 MAG_AUTO               Kron-like elliptical aperture magnitude                    [mag]
#   3 X_IMAGE                Object position along x                                    [pixel]
#   4 Y_IMAGE                Object position along y                                    [pixel]
#   5 X_WORLD                Barycenter position along world x axis                     [deg]
#   6 Y_WORLD                Barycenter position along world y axis                     [deg]
#   7 A_WORLD                Profile RMS along major axis (world units)                 [deg]
#   8 B_WORLD                Profile RMS along minor axis (world units)                 [deg]
#   9 THETA_WORLD            Position angle (CCW/world-x)                               [deg]
#  10 FWHM_WORLD             FWHM assuming a gaussian core                              [deg]
#  11 ELONGATION             A_IMAGE/B_IMAGE                                           
#  12 ELLIPTICITY            1 - B_IMAGE/A_IMAGE                                       
         1 -13.4303    228.9463      7.0204   3.2390454865e+01   2.7754493567e+01     1.644492     1.018823  50.58  0.009036914    2.038    0.509
         2 -13.2487    196.1405     42.0561   4.3963116865e+01   3.1011392210e+01     1.066905    0.9692265 -61.46  0.003317799    1.056    0.053
         3 -13.5964    204.5648     33.7596   4.0825281603e+01   3.0116449076e+01     1.103655    0.8779234 -13.85  0.001374802    1.585    0.369
         4 -11.9177     32.5789     17.7260   7.8325768189e+01   6.8545190375e+01    0.4686397    0.1715665 -28.99  0.002033973    2.863    0.651
         5 -10.3291     64.5040      9.0168   6.0887828760e+01   6.4641623721e+01    0.1960394    0.1772147 -60.87  0.001286615    1.713    0.416
         6 -11.9282     58.6829      3.4472   6.0311061659e+01   6.6231473833e+01    0.6353115     0.222969  39.01  0.002841504    2.473    0.596
         7 -12.4479    104.2120    210.8784   1.0316735852e+02   1.6303608284e+01     1.774737    0.2355604 -56.53  0.004558718    6.936    0.856
         8 -11.6728    140.1621    247.8072   1.0046262730e+02   3.8602970591e+00    0.5755455    0.3969909 -52.24  0.003476519    1.746    0.427
         9 -11.1107    111.0590    197.8039   9.9710124214e+01   1.8007079409e+01    0.3488899    0.2320577  33.01   0.00175073    1.490    0.329
        10 -10.2155    147.8494    186.7727   8.9250894554e+01   1.4050010228e+01    0.3974987    0.2586694 -39.83   0.00133358    1.618    0.382
        11 -10.7467    184.7850    211.9767   8.5784653912e+01   2.8761868862e+00    0.2496331    0.1845385  30.12  0.001248664    1.234    0.190
        12 -10.0708    120.0103    186.2797   9.5721949511e+01   1.9046847080e+01     0.197474    0.1827137  38.81 0.0002392613    1.047    0.045
        13 -10.2392    142.8629    209.2827   9.4294771799e+01   1.0372237180e+01    0.2353654    0.1958144 -66.97  0.001331905    1.438    0.305
        14  -9.0797     91.0901    182.8303   1.0219834517e+02   2.4521547907e+01    0.2187814    0.1795206  73.26   0.00064201    1.260    0.206
        15 -10.4941     99.4154    180.7929   9.9825114110e+01   2.3694288642e+01    0.2574081    0.2433551  49.05 0.0005606707    1.055    0.052
        16 -15.0175     71.9660    151.0335   1.0201731480e+02   3.5001561158e+01     4.209889     2.541753  79.01  0.009966024    2.492    0.599
        17 -10.1961    187.2117    175.7047   7.8326966156e+01   9.0634712408e+00    0.3588929    0.2885887 -46.61  0.001245065    1.349    0.258
        18  -8.7840    148.4114    175.2651   8.6910459975e+01   1.6375029715e+01    0.3032022    0.2245073 -78.87  0.001138931    1.972    0.493
        19  -9.8207    146.4537    171.5409   8.6629813530e+01   1.7541211064e+01    0.2335257    0.2248944  19.52 0.0005686273    1.017    0.017
        20 -11.4017     48.5336    171.2413   1.1117281505e+02   3.3020669999e+01    0.4782977    0.3034654 -35.73  0.002359326    2.155    0.536
        21 -11.9176    111.5897    204.2625   1.0055872772e+02   1.6538442172e+01    0.6899074    0.4116465 -84.34 0.0009883236    2.737    0.635
        22 -10.9816    107.3665    203.6289   1.0143296532e+02   1.7343244060e+01    0.3360283    0.2421045  72.05  0.001098436    1.647    0.393
        23 -10.1904    234.6151    171.8044   6.8322596336e+01   1.4943254323e+00    0.1951262    0.1136314 -43.01 0.0009561401    1.735    0.424
        24 -11.0370    192.9849    195.1273   8.0991905901e+01   4.4537435838e+00    0.9014671    0.4752527 -60.34  0.003074673    4.429    0.774
        25  -8.7259    193.4859    170.9174   7.6017450946e+01   8.8211049449e+00    0.2166482     0.136232 -38.71 0.0005701235    1.538    0.350
        26 -10.1092    240.3796    169.1743   6.6779146954e+01   9.9736440261e-01    0.1852819     0.111105 -41.87 0.0003584593    1.634    0.388
        27  -9.4674    185.0283    168.6732   7.7318028424e+01   1.0828164866e+01    0.2504504    0.2126019 -67.74 0.0009530552    1.538    0.350
        28  -9.5693    134.1558    164.0877   8.8101308218e+01   2.1492576668e+01    0.4904581    0.3265533  82.96  0.001872191    2.784    0.641
        29 -11.3344    121.4708    196.9719   9.7153387368e+01   1.6476324851e+01    0.5049666    0.2878763 -72.87 0.0009169405    2.648    0.622
        30  -9.5429     89.6995    211.8844   1.0653640820e+02   1.8267738429e+01    0.2342523    0.1978445  76.94 0.0005220252    1.158    0.136
        31 -11.5642     91.6222    151.6640   9.6726570919e+01   3.1899346836e+01    0.7344338    0.5391027 -13.56   0.00340286    1.904    0.475
        32 -11.1610    133.8116    145.4303   8.4178574516e+01   2.5805738314e+01     1.271829     0.329258 -53.57  0.003033808    5.392    0.815
        33  -9.3350    174.6738    149.0964   7.5257113186e+01   1.6784709803e+01    0.2588903    0.2134929  53.88   0.00080424    1.363    0.266
        34 -10.4087    104.1362    138.2251   9.0503490459e+01   3.3062449104e+01    0.5448112    0.3364319 -26.05   0.00214487    2.318    0.569
        35 -10.2615    105.9636    130.8014   8.8311750229e+01   3.4518396142e+01    0.3981793    0.3342641 -55.05    0.0011387    1.169    0.145
        36 -11.6403     91.9208    137.5589   9.3807480507e+01   3.5304687894e+01    0.2894297    0.2610676 -36.11 0.0003855042    1.126    0.112
        37 -10.6043    135.6689    127.8777   7.9539504259e+01   2.9423344962e+01    0.7371985    0.1430066 -50.25   0.00147906    7.147    0.860
        38 -11.1618    119.6718    122.8290   8.2552159283e+01   3.3800302750e+01    0.6133464    0.4102072   5.11  0.002386028    2.396    0.583
        39  -9.3087    160.9625    127.4740   7.3215107125e+01   2.4172781975e+01    0.3542731     0.196829 -58.83  0.001282859    2.487    0.598
        40 -10.3470    100.1150    124.8947   8.8601034018e+01   3.6977321170e+01    0.3199024     0.254512 -15.73 0.0006985615    1.487    0.328
        41 -10.4011    113.0403    128.9532   8.5889819942e+01   3.3650096465e+01    0.3886392    0.3020954   1.26 0.0009395759    1.630    0.387
        42  -9.2980    108.7826    118.1698   8.4442901747e+01   3.6980630931e+01    0.2168635    0.2069641 -72.90 0.0003774048    1.118    0.105
        43  -9.9640    231.3348    113.6575   5.6207451057e+01   1.2056881485e+01    0.2681719    0.2399405 -44.24 0.0008024654    1.073    0.068
        44  -8.7033    167.6587    112.5025   6.7871983778e+01   2.5803023343e+01    0.3025611    0.1882155 -64.90  0.001140974    2.439    0.590
        45  -9.5639    134.6772    102.1367   7.3009250016e+01   3.5257950114e+01    0.4421473    0.1528222 -43.46  0.001399258    2.839    0.648
        46 -10.9393    115.2719    109.5747   8.0344514548e+01   3.7690421169e+01     1.126088    0.6288139 -16.76  0.003308314    4.224    0.763
        47  -8.1989    141.5727    108.5089   7.2993501107e+01   3.2410376190e+01    0.1559825    0.1506047 -31.44 0.0001436097    1.020    0.020
        48 -10.9702     57.1576     96.1079   9.5203605875e+01   5.0424741807e+01    0.5184506    0.2654787  45.61  0.002060738    2.473    0.596
        49  -9.0969     81.9390    195.1313   1.0615291129e+02   2.3058339802e+01    0.2420927    0.1990875 -50.86  0.001399941    1.334    0.250
        50  -8.2612    157.5540     90.0273   6.4041633381e+01   3.2510146684e+01     0.214842    0.1268717 -59.86 0.0008045741    2.353    0.575
        51  -9.4283    205.6499    110.2256   5.9698332097e+01   1.7902965154e+01    0.2565759    0.2408044  24.96 0.0005945236    1.146    0.128
        52  -8.7907    234.3224     85.6886   4.9373746370e+01   1.6103659083e+01    0.1403435   0.09564589 -64.09 0.0004116782    1.653    0.395
        53  -8.6808    157.2451     82.5982   6.1998578770e+01   3.3959583264e+01    0.2079161    0.1409034  41.84 0.0004737849    1.533    0.348
        54  -9.2790     61.3513     68.8713   8.5941901516e+01   5.5852696141e+01    0.2099203      0.18735  31.98 0.0005616784    1.276    0.216
        55 -18.3089     19.6945    209.9772   1.2128425685e+02   2.7241939984e+01     12.58022     4.888666 -79.76   0.06130947    2.362    0.577
        56 -12.9318    184.6438     51.3807   4.8077087555e+01   3.2457183521e+01    0.9186663     0.845916 -19.63 0.0009777545    1.206    0.171
        57  -9.1884    168.6290    233.3647   9.2640907254e+01   1.8662890449e+00    0.2066432    0.1711323  41.59 0.0005736914    1.247    0.198
        58 -10.6738    204.8107    199.3694   7.9419187828e+01   1.7434930658e+00    0.3417648    0.1857406  -9.50   0.00131878    3.117    0.679
        59  -9.0726    125.6597    190.7056   9.5134036540e+01   1.7114680017e+01    0.1434074    0.1117594  -4.93 0.0004503156    1.655    0.396
        60  -9.9714    150.2034    220.4072   9.4471011387e+01   7.0565259871e+00    0.1983522    0.1122382  44.75 0.0009534923    1.701    0.412
        61  -9.5699    198.1721     23.4732   3.9018135496e+01   3.2818825084e+01    0.2316694    0.1991449  33.66 0.0007794125    1.451    0.311
        62 -10.2544    156.9804    218.0073   9.2643015530e+01   6.3845686873e+00    0.2097056    0.1650098  66.99  0.001144076    1.712    0.416
        63  -8.8791    189.5073     14.9955   3.7854607415e+01   3.5766774895e+01    0.1795004     0.123481 -33.39 0.0005219994    1.540    0.351
        64 -10.9929    163.0950    212.4548   9.0419766035e+01   6.3829246886e+00    0.4653102    0.1885346  37.71  0.001905609    2.249    0.555
