#   1 NUMBER                 Running object number                                     
#   2 MAG_AUTO               Kron-like elliptical aperture magnitude                    [mag]
#   3 X_IMAGE                Object position along x                                    [pixel]
#   4 Y_IMAGE                Object position along y                                    [pixel]
#   5 X_WORLD                Barycenter position along world x axis                     [deg]
#   6 Y_WORLD                Barycenter position along world y axis                     [deg]
#   7 A_WORLD                Profile RMS along major axis (world units)                 [deg]
#   8 B_WORLD                Profile RMS along minor axis (world units)                 [deg]
#   9 THETA_WORLD            Position angle (CCW/world-x)                               [deg]
#  10 FWHM_WORLD             FWHM assuming a gaussian core                              [deg]
#  11 ELONGATION             A_IMAGE/B_IMAGE                                           
#  12 ELLIPTICITY            1 - B_IMAGE/A_IMAGE                                       
         1 -10.2430      1.7897     52.0281   1.0609123655e+02   6.5733010331e+01    0.6953182      0.05563 -62.43  0.001812509    7.425    0.865
         2 -11.7851    215.7325     35.2954   3.9594628368e+01   2.7455759874e+01     0.846441    0.6533673 -68.47   0.00484832    1.147    0.128
         3 -11.3317    223.1707     28.2223   3.7228943967e+01   2.6689772092e+01    0.6845225    0.4446464  74.14  0.001594252    1.480    0.324
         4 -11.6175    238.4357     14.2427   3.2946518284e+01   2.5073179818e+01    0.6742203    0.5000618 -64.00   0.00261852    1.083    0.076
         5  -9.2731      1.6513     16.4891   9.4413334424e+01   7.2413315022e+01    0.3084572   0.08709878 -51.18  0.001382495    3.087    0.676
         6  -9.5756      2.1293      7.4446   9.0016449897e+01   7.3810788714e+01    0.4211951   0.09229708 -45.07  0.001796389    3.532    0.717
         7  -9.4926    134.7806    235.1047   9.9278241153e+01   6.4018914292e+00     0.260441    0.1609091 -58.42  0.001373829    1.951    0.487
         8 -10.1593     51.1295    249.8328   1.1780012186e+02   1.5623426448e+01      0.77245     0.192644  32.01  0.002736753    4.746    0.789
         9 -11.0228     83.5667    246.4168   1.1119123253e+02   1.1994526558e+01    0.5881211    0.4360668 -54.85  0.002484464    1.654    0.396
        10 -11.3980     70.2437    248.5968   1.1402608457e+02   1.3402746708e+01    0.8176067    0.7234619  23.32  0.005729927    1.461    0.316
        11 -10.6380     59.9740    247.4202   1.1592700359e+02   1.4969759509e+01    0.4820282    0.3251428  82.60  0.001941835    1.436    0.304
        12  -9.3983     38.3702    250.4944   1.2022431717e+02   1.7029068694e+01     0.426852    0.1094339  37.68   0.00188273    3.027    0.670
        13  -9.4967     24.5207    247.5185   1.2257190824e+02   1.9156546704e+01    0.3201878    0.1135992  28.20  0.001396258    3.849    0.740
        14  -9.6361     27.2487    250.4878   1.2224623616e+02   1.8292349361e+01    0.5560827    0.1238602  37.46  0.002425644    3.318    0.699
        15  -9.3914     32.7100    248.6886   1.2115131620e+02   1.8023395244e+01     0.391792     0.160449 -78.95  0.002071579    2.429    0.588
        16  -9.7254     29.3530    246.6513   1.2164424029e+02   1.8791197639e+01    0.3201163    0.1452769  55.90  0.001567993    1.756    0.431
        17 -12.9172      3.8078    167.2970   1.2164862023e+02   3.8563146079e+01     2.068175     1.622345 -53.13   0.01369793    1.453    0.312
        18 -13.2926      2.7148    124.9404   1.1805094079e+02   4.8876689713e+01     5.639591    0.8300358 -76.08   0.01290997    8.337    0.880
        19 -12.5478      3.2986    244.0246   1.2615689126e+02   2.2001530479e+01     1.866982    0.7684255 -73.02   0.01080212    2.274    0.560
        20 -13.3097     35.1802    196.6496   1.1683781429e+02   2.8733697990e+01     2.558893      1.31928  72.37   0.01153965    2.031    0.508
        21  -8.9505     83.8845    219.0790   1.0826362540e+02   1.7426278578e+01    0.2505688    0.1700838  77.66  0.001347659    1.598    0.374
        22 -10.9005    126.3216    230.2810   1.0042215869e+02   8.6404146033e+00     0.464513    0.2959516 -57.61  0.002486466    1.811    0.448
        23  -8.5108     59.5377    232.0747   1.1474051078e+02   1.8059129389e+01    0.1738191    0.1121734 -74.72 0.0006816922    1.569    0.363
        24 -11.1606     24.4781    207.0833   1.2000731686e+02   2.7520353458e+01    0.4029685    0.3294127 -39.19  0.000856227    1.764    0.433
        25  -8.8569    134.5087    229.5098   9.8561981205e+01   7.4751188577e+00    0.2196009    0.1195179 -40.64 0.0001916673    2.273    0.560
        26 -10.9656     84.7779    231.1130   1.0939811970e+02   1.4806991294e+01    0.6276839    0.3250039 -79.38   0.00259366    2.461    0.594
        27  -8.6483     77.5077    221.5595   1.0993248404e+02   1.7815168503e+01    0.2606311     0.123825 -67.22  0.001226133    2.220    0.549
        28  -8.3265     73.2559    219.6084   1.1064822060e+02   1.8825017740e+01    0.1755514    0.1189126  28.94 0.0009527648    1.650    0.394
        29  -8.9640     44.4421    218.8977   1.1673983785e+02   2.2706010397e+01    0.2517346    0.1813409  29.52 0.0007128629    1.623    0.384
        30 -10.5727     86.9092    224.5574   1.0822509820e+02   1.5837446725e+01    0.3566961     0.261437  71.34  0.002068838    1.359    0.264
        31 -10.9583    103.8947    229.1369   1.0509524875e+02   1.2367653843e+01    0.5459124    0.1901847  36.47  0.002184797    2.554    0.609
        32 -11.0522    115.0614    230.5827   1.0287671930e+02   1.0358684448e+01    0.4011773    0.3419374  56.87  0.002506879    1.098    0.089
        33 -10.4019     14.5795    250.0335   1.2446770074e+02   1.9732201469e+01    0.5321863    0.2892585  48.03  0.002100347    1.463    0.317
        34 -10.0723     60.6249    173.8635   1.0820336062e+02   3.1115972434e+01    0.3495935    0.2587544 -41.91 0.0007198769    1.621    0.383
        35  -9.9449     54.5348    179.8203   1.1049884376e+02   3.0442216740e+01    0.4116628    0.2860996 -28.49  0.001822265    2.183    0.542
        36  -9.9166     71.8718    163.9999   1.0382516824e+02   3.2023011885e+01    0.3693171    0.2838274 -64.90 0.0005252003    1.228    0.186
        37 -11.6620     78.7138    157.3207   1.0087232660e+02   3.2692626550e+01     1.709535    0.9239042  65.66  0.005774033    2.772    0.639
        38 -10.3303     70.0077    145.4912   1.0125495606e+02   3.6957730038e+01    0.4652939    0.2933676  29.95  0.001595026    1.756    0.431
        39 -10.7738     67.5122    142.5105   1.0144531405e+02   3.8066015316e+01    0.4981458    0.3294013  51.34  0.001488182    1.635    0.388
        40  -7.4888     40.6714    165.2822   1.1226568014e+02   3.5648358459e+01    0.1394379   0.08980226  66.70 0.0002909671    1.604    0.377
        41 -11.4676     57.9928    160.4523   1.0702965426e+02   3.4793299909e+01    0.5466689    0.3112181 -43.98  0.001407031    2.052    0.513
        42  -9.4073     33.1532    156.9199   1.1324160988e+02   3.8520085249e+01     0.516584    0.1454571 -68.96  0.001859643    2.995    0.666
        43  -7.7964    122.9323    151.2893   8.7701506180e+01   2.6536617801e+01    0.2078444    0.1921168  43.04 0.0003031375    1.088    0.081
        44  -9.2843     95.8920    142.1112   9.3162444296e+01   3.3734914626e+01    0.6708337    0.3911812 -22.94  0.002281502    3.331    0.700
        45 -10.2182     82.6546    141.7471   9.6892343273e+01   3.6010719975e+01    0.3366697    0.2454503 -47.99 0.0004593893    1.356    0.263
        46 -10.5802     59.3054    135.4753   1.0261022663e+02   4.0957678449e+01    0.6702132    0.2560427 -72.31  0.002111788    3.623    0.724
        47  -8.5722     94.4696    127.6357   9.0406927869e+01   3.7573829732e+01     0.292827    0.2004496 -46.99 0.0008394482    1.416    0.294
        48 -10.0667      8.5214    125.5268   1.1640862913e+02   4.8372285928e+01    0.2335218    0.1838445 -71.94 0.0008716644    1.025    0.025
        49  -9.0844    106.6845    131.6419   8.7775613484e+01   3.4379343361e+01    0.3540744    0.3207484  16.12  0.001039082    1.208    0.172
        50  -7.8027    104.8984    120.1244   8.5527026938e+01   3.7501002147e+01    0.2017738    0.1793469 -15.05 0.0002575144    1.239    0.193
        51  -7.8517    206.2434    110.9604   5.9234474021e+01   1.7456268036e+01    0.1978135    0.1164785 -40.48 0.0006442661    1.561    0.359
        52  -7.5741     62.3308     71.0098   8.5895616525e+01   5.5870471425e+01    0.2442861   0.08826587 -33.56 0.0007051562    4.412    0.773
        53  -9.5626      1.9928     63.8336   1.0878567118e+02   6.3216163755e+01    0.4979928   0.07942186 -65.47  0.001531802    5.070    0.803
        54  -8.5967     13.3632     59.9906   1.0292084285e+02   6.3401152737e+01    0.1783063    0.1286668 -52.40  0.000433636    1.169    0.145
        55  -9.6231    114.7861    244.2251   1.0460645820e+02   7.8439607734e+00    0.4240949    0.1329518 -55.18  0.001713898    3.619    0.724
        56 -11.3303    208.9852     39.1681   4.1263258064e+01   2.8487688298e+01    0.4746762    0.4262133  -7.33  0.002854225    1.463    0.317
        57  -9.8505     93.9827    244.6965   1.0891763387e+02   1.0837225227e+01    0.2966215    0.1352073  39.31   0.00145907    1.828    0.453
        58 -10.3131    103.7227    241.8488   1.0661432241e+02   9.9424558910e+00    0.3524533    0.2229615  10.91  0.001653299    2.772    0.639
        59 -12.9737      9.0416    207.1409   1.2319843564e+02   2.9019372763e+01     1.443231    0.9053212 -86.58  0.005143878    1.320    0.242
        60  -8.4541    129.3260     36.8466   5.3381275354e+01   4.8103838265e+01    0.2605241    0.1793914  88.98 0.0007584848    1.949    0.487
        61  -8.6869     20.0578    238.4740   1.2288365415e+02   2.1395525020e+01    0.1709983    0.1215448  81.38  0.000469458    1.156    0.135
        62  -7.8470     48.6181    237.1788   1.1734696082e+02   1.8400875893e+01    0.1500703    0.1016333 -68.21 0.0005709777    1.581    0.367
