#   1 NUMBER                 Running object number                                     
#   2 MAG_AUTO               Kron-like elliptical aperture magnitude                    [mag]
#   3 X_IMAGE                Object position along x                                    [pixel]
#   4 Y_IMAGE                Object position along y                                    [pixel]
#   5 X_WORLD                Barycenter position along world x axis                     [deg]
#   6 Y_WORLD                Barycenter position along world y axis                     [deg]
#   7 A_WORLD                Profile RMS along major axis (world units)                 [deg]
#   8 B_WORLD                Profile RMS along minor axis (world units)                 [deg]
#   9 THETA_WORLD            Position angle (CCW/world-x)                               [deg]
#  10 FWHM_WORLD             FWHM assuming a gaussian core                              [deg]
#  11 ELONGATION             A_IMAGE/B_IMAGE                                           
#  12 ELLIPTICITY            1 - B_IMAGE/A_IMAGE                                       
         1  -8.6430     97.3750     15.1339   2.3438870998e+01   5.9333169589e+01    0.2859174     0.104953 -36.57  0.001089234    2.620    0.618
         2  -8.5059     55.6835      9.6967   3.2711061250e+01   7.0570765513e+01    0.2489353    0.1762943 -71.57 0.0005941288    1.851    0.460
         3  -8.5123     91.1631      8.8847   2.1773495612e+01   6.1637115053e+01    0.2273382    0.1722174 -70.53 0.0007858008    1.329    0.248
         4  -7.4347    215.6433      8.6762   9.5864637544e+00   3.1531707971e+01    0.1032426    0.0888591  36.70 4.746979e-05    1.769    0.435
         5  -7.7593    101.3414      7.7200   1.9327985578e+01   5.9052035780e+01    0.1483085   0.09391154 -68.79 0.0004017024    1.627    0.385
         6  -8.0446     70.4459      6.0141   2.5266102349e+01   6.7317703312e+01    0.1905662    0.1374074 -26.58 0.0006063026    1.543    0.352
         7  -8.4748     33.6250      5.1811   4.1104232665e+01   7.6054534449e+01    0.3033389    0.1433984 -45.71  0.001314378    2.625    0.619
         8  -8.5117     79.1179      3.6611   2.1696452315e+01   6.5300296474e+01    0.2747778    0.1661004 -44.91  0.001345958    1.755    0.430
         9  -7.5903     44.5115      2.5507   3.2666682815e+01   7.4000954270e+01    0.1321693     0.120293  59.32 0.0002386883    1.066    0.062
        10  -8.1898     62.6896      1.5133   2.4803595800e+01   6.9712163953e+01    0.1825525     0.122495  82.14 0.0009260534    1.518    0.341
        11  -7.7859     15.5588      2.5206   5.4371173314e+01   7.9724748050e+01    0.1250319    0.1134985  14.91 0.0001537117    1.050    0.048
        12  -9.3730    146.8160    245.7391   6.7888599665e+01   5.9837178236e+00    0.2265838    0.1659494  44.29  0.001297344    1.721    0.419
        13  -9.0768    247.8409    234.5315   4.9272129914e+01  -2.3315939925e+00     0.213523    0.1458235 -37.89  0.001399614    1.964    0.491
        14  -9.6152    246.5907    228.9671   4.8677283282e+01  -1.6285539986e+00     0.458228    0.1503258 -31.72  0.002646677    2.498    0.600
        15  -8.9412    249.0067    248.8569   5.1025908343e+01  -3.9063988405e+00    0.2935059    0.1140337 -23.16  0.001871269    2.241    0.554
        16  -9.7806    248.7979    242.2823   5.0186948866e+01  -3.2205366927e+00    0.3250285    0.1461901 -35.85  0.001821626    2.123    0.529
        17  -9.2734    232.7233    247.3429   5.3174698321e+01  -2.4610879902e+00    0.2749631    0.1360566 -37.02  0.001558973    2.095    0.523
        18  -9.2895    211.4436    247.3250   5.6464492047e+01  -6.3549253551e-01     0.271243     0.193034 -54.72  0.001445765    3.139    0.681
        19  -8.9173    132.7076    248.2876   7.1018536847e+01   7.1367559696e+00    0.2908727    0.1922867  54.19  0.001117675    2.264    0.558
        20  -7.8660     86.4639    250.4811   8.1099370080e+01   1.1821388237e+01    0.1204468     0.091522  29.45 0.0004101641    1.020    0.019
        21  -7.6648     26.3420    250.3183   9.4549615372e+01   1.7859009703e+01    0.1065126   0.08378734 -11.85 0.0006970463    1.716    0.417
        22  -9.4254    119.9926    244.9133   7.3309247533e+01   9.0501466405e+00    0.3032204    0.2023423  61.52  0.001576557    2.360    0.576
        23  -8.3583     67.5224    244.9800   8.4936510916e+01   1.4787759082e+01    0.1514739    0.1207269 -75.15  0.001030474    1.588    0.370
        24  -8.6462    169.2494    243.3653   6.3281804461e+01   3.9391355763e+00    0.2067487    0.1512658  44.00 0.0006650913    1.945    0.486
        25  -8.6941    139.3971    244.2037   6.9201340411e+01   7.0142670549e+00    0.1334864    0.1141382 -69.67 0.0009481324    1.794    0.443
        26  -8.5157    201.8822    242.6365   5.7418727471e+01   7.9331616936e-01    0.1695079    0.1296604 -43.12  0.000889473    1.914    0.478
        27  -8.3258     77.7899    243.1814   8.2463440654e+01   1.4009634802e+01    0.2159789   0.08684647  51.32 0.0009529763    2.857    0.650
        28  -9.3884    194.2018    240.2782   5.8410027276e+01   1.8212491455e+00    0.2542247    0.1765955 -44.38  0.001273025    1.946    0.486
        29  -9.1532    183.4738    240.1892   6.0279226573e+01   2.9007835306e+00     0.361512    0.2220991  48.64  0.002011068    3.244    0.692
        30  -9.2122    160.0837    240.0040   6.4601932970e+01   5.3726481217e+00    0.2595372    0.2079552  63.79  0.001382824    2.320    0.569
        31  -7.7954    153.4981    242.0204   6.6130084256e+01   5.7965451180e+00    0.1249291    0.1023883  78.87 0.0008076073    2.375    0.579
        32  -7.9749     88.1397    242.1477   8.0031526973e+01   1.3056795310e+01    0.1605698    0.1202789  49.25 0.0006198363    1.357    0.263
        33  -8.4445    213.8438    241.3322   5.5290666754e+01  -1.5952107399e-01    0.1367864    0.1048884  -8.17 0.0007409971    1.185    0.156
        34  -8.8132    146.7873    239.9991   6.7218429373e+01   6.8243930959e+00    0.2684804    0.1814343  62.52  0.001193163    3.107    0.678
        35  -9.4269    241.4606    238.0846   5.0661543778e+01  -2.1890302511e+00    0.4379127    0.1473352 -20.49  0.001942172    4.456    0.776
        36  -9.2188    135.5877    238.7695   6.9359058399e+01   8.2607453755e+00    0.2050934    0.1569277  49.65 0.0009370295    1.686    0.407
        37  -9.1523    230.6644    236.6172   5.2047188050e+01  -1.1151670664e+00    0.2840774    0.1550642 -33.69  0.001570564    1.725    0.420
        38  -8.1530    209.1700    238.1676   5.5621161251e+01   6.4560717536e-01    0.1279216    0.1066064  -5.65 0.0004656543    1.339    0.253
        39  -7.9323    129.0161    238.2374   7.0673591392e+01   9.0881948903e+00    0.1536058    0.1251037  55.67 0.0008383633    1.642    0.391
        40  -9.2257    236.0271    230.6528   5.0428797878e+01  -9.1226799442e-01    0.2963602    0.1624078 -12.95  0.001365612    1.540    0.351
        41  -7.9358     25.5114    237.0159   9.4257880394e+01   2.0437748979e+01    0.1774937   0.06680663  61.20 0.0008105695    2.611    0.617
        42  -9.9598    214.9043    233.2157   5.4020746505e+01   7.0137432343e-01    0.3561984    0.3083935 -81.70  0.002379795    3.418    0.707
        43  -9.0161    203.1704    234.5797   5.6125238222e+01   1.6566539329e+00    0.2139141    0.1552003 -45.69 0.0009647495    2.009    0.502
        44  -9.7436    175.6013    233.0196   6.0768251179e+01   4.6815739467e+00    0.3895501    0.2244392 -54.42  0.002225166    2.774    0.640
        45  -8.1331    170.1806    235.2636   6.2074866470e+01   4.9516747251e+00    0.1370401    0.1204038  18.43 0.0005590751    1.346    0.257
        46  -9.0985    109.2039    234.3468   7.4551489049e+01   1.2009685048e+01    0.4410527     0.167053  43.41  0.001443887    2.732    0.634
        47  -8.1913    122.9372    233.9909   7.1493576283e+01   1.0471943707e+01    0.1874177     0.129554  51.09   0.00112217    1.790    0.441
        48  -8.0786     99.6720    234.2982   7.6692421363e+01   1.3122647070e+01    0.1941236    0.1180078  51.56  0.001072358    1.860    0.462
        49  -8.3720     78.4785    233.9636   8.1558064452e+01   1.5598118236e+01    0.1592591    0.1246598 -84.70  0.001019936    1.614    0.381
        50  -9.1339     68.4612    232.3584   8.3795488124e+01   1.7009032107e+01    0.4337165    0.1442077  51.07  0.001663036    3.489    0.713
        51  -8.6347    194.4374    232.6653   5.7348728655e+01   2.7662865421e+00     0.159422    0.1423564 -12.72 0.0007451752    1.441    0.306
        52  -8.8218    139.9336    229.9539   6.7398969745e+01   9.1417837310e+00    0.2273949    0.1264924  44.16 0.0009627906    2.102    0.524
        53  -8.2587    132.9494    233.0121   6.9237239146e+01   9.4674367364e+00    0.1853527    0.1294751  49.20  0.001123981    1.798    0.444
        54  -9.3797    186.3112    230.4298   5.8471515936e+01   3.8985704484e+00    0.2570627    0.2235641 -72.69  0.001379718    2.299    0.565
        55  -8.3750     92.4712    231.4372   7.8066652282e+01   1.4465933104e+01    0.2802055    0.1429948  53.23 0.0008837239    2.381    0.580
        56  -8.8289      1.9940    230.8516   9.9595370118e+01   2.3653286714e+01    0.3185925   0.07898884  54.02   0.00136306    2.813    0.645
        57  -8.9838    151.4681    228.9742   6.4906522361e+01   7.9560039063e+00    0.2212955     0.191469  87.08  0.001346568    1.969    0.492
        58  -9.4470    148.4310    224.2696   6.4913534421e+01   9.0425970042e+00    0.2851223    0.2345036  72.80  0.001258571    2.062    0.515
        59  -8.0523    229.7530    228.9072   5.1117141631e+01  -1.5735667679e-01    0.1312886    0.1094889 -38.14 0.0009067317    1.896    0.473
        60  -8.8154    162.3492    227.6835   6.2576959869e+01   6.9059231994e+00    0.2584047    0.1740578  46.14  0.001398183    2.040    0.510
        61  -9.0103    128.1488    227.2440   6.9576993672e+01   1.0975586746e+01    0.3514663     0.177135  45.82  0.001463955    2.355    0.575
        62  -8.0772    120.1394    227.4836   7.1361657750e+01   1.1893373587e+01    0.1957075    0.1431105  75.46 0.0008718363    2.234    0.552
        63  -8.2192    222.8301    227.1017   5.1919939368e+01   6.9008187252e-01     0.148485   0.09120715  -9.73 0.0005132192    1.339    0.253
        64  -8.1803     49.6606    226.6285   8.7937702444e+01   2.0141404246e+01    0.2523649    0.1182606  65.52  0.001166744    2.548    0.608
        65  -8.6588    205.9543    225.4893   5.4398147693e+01   2.5255344572e+00    0.2148021    0.1290576 -43.62  0.001221352    2.038    0.509
        66  -8.3535    199.9954    225.8505   5.5450132028e+01   3.0838099140e+00    0.1657805    0.1306333 -37.71 0.0006749585    1.602    0.376
        67  -8.0614    177.3145    226.6784   5.9593915470e+01   5.3804944620e+00     0.160364    0.0904876  16.64 0.0008898339    1.587    0.370
        68  -8.9198    180.5822    224.2022   5.8648305280e+01   5.3701780791e+00     0.248017    0.1817738  40.57  0.001015085    1.792    0.442
        69  -8.8170     94.1620    224.0323   7.6938734266e+01   1.5630467866e+01    0.3804887     0.157428  50.79  0.001543087    3.125    0.680
        70  -8.8753    216.4652    223.0118   5.2336347871e+01   1.7953319923e+00    0.2106541     0.154988 -38.92 0.0008932161    1.708    0.415
        71  -8.3154    173.1644    223.2301   5.9893724202e+01   6.3354069548e+00    0.1663849    0.1512211 -83.75 0.0005414876    1.945    0.486
        72  -7.8363    113.6169    223.7681   7.2395664107e+01   1.3328310822e+01    0.1445159    0.1228612 -82.01 0.0004301913    1.593    0.372
        73  -8.7276    104.6919    223.4980   7.4414763884e+01   1.4461195685e+01    0.2974588    0.1990873  62.42  0.001630385    2.027    0.507
        74  -8.3389    163.3232    222.6621   6.1708252143e+01   7.5449709078e+00    0.1685872    0.1321355  45.56   0.00110544    1.718    0.418
        75  -8.7795    159.0074    220.4987   6.2264582815e+01   8.3805264797e+00    0.2481254    0.1671222  46.85  0.001096108    1.996    0.499
        76  -8.6547      8.5046    234.4862   9.8152545539e+01   2.2406965513e+01    0.1212563   0.09113198  43.26 0.0003235534    1.019    0.019
        77  -9.7912    239.0449    220.5026   4.8549972809e+01  -2.3668529380e-02     0.277681    0.1224242 -28.02  0.001209659    1.864    0.463
        78  -9.3021    225.5683    221.6268   5.0716383191e+01   1.0886183427e+00     0.192089    0.1679716   9.16   0.00116629    1.535    0.348
        79  -9.3556    192.3492    220.9429   5.6073184201e+01   4.5409555475e+00    0.2696444    0.2019238 -42.30   0.00104604    1.667    0.400
        80  -8.1755    140.3919    222.2228   6.6323504290e+01   1.0334260107e+01    0.1443128    0.1195292 -65.59 0.0005515612    1.711    0.415
        81  -9.0417    120.4138    219.0184   7.0291299585e+01   1.3336012280e+01    0.4515996    0.2092889  51.36  0.001844309    3.379    0.704
        82  -8.5662     82.7900    220.4962   7.9319604471e+01   1.7661189304e+01    0.2470502    0.1315364  55.89  0.001179561    2.220    0.550
        83  -8.1999     73.4517    220.9531   8.1650111399e+01   1.8663560162e+01    0.2752859    0.0963058  50.44  0.001028737    3.310    0.698
        84  -8.1587    202.5033    219.9878   5.4187223578e+01   3.5923366903e+00    0.1520836   0.09312148 -32.74 0.0004943382    1.525    0.344
        85  -7.6975     27.5205    220.5230   9.3095038186e+01   2.3587349879e+01    0.1274385    0.1017369  42.21 0.0002228927    1.027    0.026
        86  -8.4784    210.0240    218.9877   5.2792931530e+01   2.9464197087e+00    0.1621106    0.1259809  -8.26 0.0005681252    1.091    0.083
        87  -9.4542    248.4471    217.6258   4.6804730232e+01  -5.2979632525e-01    0.1954502    0.1632171  54.64  0.001420329    3.139    0.681
        88  -8.4736     61.9288    216.9457   8.4189340965e+01   2.0788779188e+01    0.2809283    0.1428539  65.94   0.00106705    2.494    0.599
        89  -8.9392     51.6121    217.3687   8.6834408186e+01   2.1832678669e+01    0.2536809    0.1602252  84.95  0.001102463    1.850    0.459
        90  -8.6396    169.2170    215.8157   5.9601694916e+01   7.8917107776e+00    0.2198829    0.1878913 -72.21 0.0008668369    1.984    0.496
        91  -8.5948    142.8924    216.3564   6.5017143125e+01   1.0998354768e+01    0.2040385     0.177823 -86.14 0.0009584537    1.749    0.428
        92  -9.3216    132.9193    215.8827   6.7107011608e+01   1.2322948787e+01    0.4225194    0.2712849  63.89  0.002040787    2.938    0.660
        93  -8.9633    232.1477    214.3332   4.8658896255e+01   1.3428056333e+00    0.2081649    0.1443318 -35.86  0.001031393    1.594    0.373
        94  -8.0733     18.7604    215.2651   9.5085127130e+01   2.5501193465e+01    0.1820832   0.08738319 -66.54 0.0008958149    2.410    0.585
        95  -8.4969    185.6553    214.1587   5.6282146862e+01   6.2309593700e+00     0.156725    0.1371517 -34.50 0.0008549428    1.446    0.309
        96  -8.7286     92.8729    213.6861   7.6159923391e+01   1.7774194921e+01    0.3512476    0.1809905  49.11  0.001552126    2.066    0.516
        97  -9.4295     72.5897    211.2752   8.0989585333e+01   2.0734536546e+01    0.7339938    0.1961446  49.10  0.002183537    4.941    0.798
        98  -9.3777    214.0557    211.8200   5.1079327704e+01   3.4589626818e+00     0.257975    0.2406364  21.88  0.001657926    1.660    0.398
        99  -8.0945    154.3967    215.1221   6.2450017857e+01   9.7830807052e+00    0.1449884    0.1170117 -58.10 0.0006599732    1.707    0.414
       100  -9.1062    204.3584    210.8677   5.2528162691e+01   4.6137547610e+00    0.2184963    0.1795494 -38.82 0.0008458737    1.568    0.362
       101  -9.5342    175.5748    209.9340   5.7525536458e+01   8.0290526948e+00    0.3686269    0.2735158  64.23   0.00197685    2.881    0.653
       102  -8.5524    161.7911    212.1725   6.0536467388e+01   9.3491026551e+00    0.1708864    0.1539434  30.82  0.001004243    1.343    0.256
       103  -8.0550    106.4204    212.2999   7.2727029562e+01   1.6337712492e+01    0.1542318     0.127534 -87.51 0.0004634595    1.584    0.369
       104  -8.3179    192.3219    210.3994   5.4529591221e+01   6.0116247101e+00     0.159833    0.1311381 -47.06 0.0005140122    1.686    0.407
       105  -8.8243    147.9478    210.3020   6.3109662826e+01   1.1378396951e+01    0.2613689    0.2080128  75.60  0.001304233    2.170    0.539
       106  -8.8761    116.1766    210.2166   7.0166557937e+01   1.5479443586e+01    0.2854293    0.1866321  58.31 0.0008541989    2.081    0.520
       107  -9.0570      6.0011    207.8529   9.8114035937e+01   2.8190328338e+01    0.3996605   0.09058449  61.38  0.001377465    3.972    0.748
       108  -9.2325    236.5271    208.1914   4.7099583582e+01   1.6662027692e+00     0.254301    0.1841818 -44.11  0.001348843    1.972    0.493
       109  -8.5393     85.4406    209.3837   7.7542582076e+01   1.9561972511e+01    0.2934798    0.1551257  55.81 0.0009692105    2.279    0.561
       110  -8.2462     32.6465    210.3479   9.1284553739e+01   2.5283776531e+01    0.1503712   0.07026448  51.24 -1.817625e-05    1.830    0.453
       111  -7.9298     46.7361    209.6112   8.7551649629e+01   2.4009836480e+01    0.2034274   0.09135888  36.59 0.0009449356    1.721    0.419
       112  -9.4665    246.4711    207.0353   4.5516656957e+01   8.6591479266e-01    0.2405049    0.1345073 -32.14  0.001205566    1.492    0.330
       113  -9.4121    250.1788    201.5953   4.4187237487e+01   1.1609195953e+00    0.3690396    0.1414136 -38.32  0.001969469    2.315    0.568
       114  -9.0066    245.3128    192.9799   4.3518563507e+01   2.6641737678e+00      0.22693    0.1893256 -52.88  0.001266278    2.132    0.531
       115  -8.0355    156.5569    207.7733   6.0955857200e+01   1.0709402014e+01    0.1455171    0.1194533 -54.80 0.0006280057    1.593    0.372
       116  -8.2166    138.9845    207.9082   6.4695703906e+01   1.2937821208e+01    0.1857702    0.1450984  54.62 0.0005715207    1.678    0.404
       117  -8.0759    126.6255    208.3830   6.7517103555e+01   1.4460863461e+01    0.1878747    0.1406572  52.89  0.001056916    1.625    0.385
       118  -9.1061     99.4453    206.0208   7.3668790971e+01   1.8463248215e+01    0.3391323     0.207953  64.34  0.001261128    2.337    0.572
       119  -8.6537     56.3494    205.0798   8.4673065483e+01   2.3948524708e+01    0.3093817    0.1582093  58.49  0.001069633    2.085    0.520
       120  -9.0812    183.9665    203.9159   5.5047570727e+01   7.9320416684e+00    0.2459632    0.2209254  65.47  0.001227749    1.872    0.466
       121  -8.1143    109.2001    205.1200   7.1175262076e+01   1.7365902143e+01     0.179696    0.1445718  53.73  0.001058344    1.381    0.276
       122  -7.9560     76.3330    205.6701   7.9482551397e+01   2.1461048509e+01    0.1449297   0.08622608  53.09 0.0007052015    1.722    0.419
       123  -9.2771    194.8878    203.1145   5.2964892126e+01   6.7596961286e+00    0.3005087    0.1896111 -33.76  0.001063152    1.470    0.320
       124  -9.3210    192.4173    197.2312   5.2474443375e+01   7.9131026102e+00    0.2982619    0.2036185 -43.64 0.0008976472    1.634    0.388
       125  -9.6034    163.7422    202.8643   5.8767645936e+01   1.0601087293e+01    0.4066333    0.2176626  45.58  0.001136359    2.452    0.592
       126  -8.7058    131.3565    203.7459   6.5806556031e+01   1.4685081397e+01    0.2630118     0.192739  55.71  0.001129748    1.777    0.437
       127  -7.6995     24.5501    204.5396   9.3125385428e+01   2.7344528671e+01    0.1361831    0.1032457  48.35 0.0002238856    1.071    0.066
       128  -7.8427     41.2378    202.4743   8.8526263936e+01   2.6172445148e+01    0.2693847    0.0959953  84.81 0.0008865538    4.474    0.776
       129  -8.9876    243.2453    200.5939   4.4987149156e+01   1.9385685180e+00    0.2582085    0.1301891 -35.57 0.0008967214    1.705    0.414
       130  -8.4706    210.9966    201.8111   5.0042557559e+01   5.1180477514e+00    0.1745782    0.1321806 -41.81 0.0006648152    1.621    0.383
       131  -8.8723    140.5441    200.9194   6.3350373774e+01   1.3970364926e+01    0.3074261    0.2258103  64.08  0.001196666    2.135    0.532
       132  -7.6930     73.0000    201.9696   7.9979517160e+01   2.2664051655e+01     0.192459   0.07843833 -67.56 0.0005137701    2.830    0.647
       133  -8.6520     48.2488    201.5246   8.6563444043e+01   2.5639842509e+01    0.3476557    0.1344245  59.63  0.001297314    3.127    0.680
       134  -8.3956     10.0275    202.4553   9.6906325658e+01   2.9078466541e+01    0.1968783    0.1100367  25.04  0.001029203    1.591    0.372
       135  -7.9617    221.7878    201.0595   4.8213814574e+01   4.0525163671e+00     0.140678   0.07295106 -35.06 0.0004728851    1.684    0.406
       136  -8.2770     79.9323    200.9721   7.8055004170e+01   2.2016146317e+01    0.2241631    0.1387481  55.55 0.0007891647    1.731    0.422
       137  -9.5165    149.6723    198.5468   6.1018565593e+01   1.3168174792e+01     0.376923    0.2883324  77.40  0.001530039    2.390    0.582
       138  -9.5632    122.8049    197.7155   6.6929680832e+01   1.6974605091e+01    0.4426375    0.2976934  74.82  0.002074745    2.688    0.628
       139  -8.9890    236.9868    198.2055   4.5503852895e+01   2.8487513626e+00    0.2383527    0.1224114 -41.42  0.000972547    2.040    0.510
       140  -8.5006    177.0109    198.6606   5.5528084245e+01   9.5932762622e+00    0.1970807    0.1643039 -52.55 0.0006151599    1.612    0.380
       141  -9.0317    112.9274    198.2881   6.9374639446e+01   1.8213973574e+01     0.398377      0.22282  55.11  0.001775178    2.445    0.591
       142  -8.9748     88.6952    198.2285   7.5462200372e+01   2.1476072095e+01    0.3625134    0.2135582  63.64  0.001651916    2.279    0.561
       143  -8.3403    202.7160    197.8719   5.0794676119e+01   6.6020584125e+00    0.1758874     0.147336  53.67  0.001121727    2.013    0.503
       144  -8.9277     61.2252    196.8876   8.2644986466e+01   2.5212461498e+01    0.4554323    0.2008228  60.88    0.0017487    2.955    0.662
       145  -7.8954     29.3198    197.6590   9.1478069748e+01   2.8469669524e+01    0.1505177   0.07624586  52.79 0.0005179815    1.717    0.418
       146  -8.2795     12.3948    197.2002   9.6093004636e+01   3.0090536244e+01    0.1888302    0.1019072  71.83 0.0009467063    1.753    0.430
       147  -8.6400    215.9169    195.4375   4.8246211433e+01   5.4405901406e+00    0.1922711    0.1379622 -42.23 0.0007403012    1.637    0.389
       148  -7.9858    132.9925    195.9094   6.4303159075e+01   1.5915551670e+01     0.193952    0.1534139  59.68 0.0006454807    1.654    0.395
       149  -8.9574    185.2657    194.7238   5.3361514412e+01   9.1705087472e+00    0.2004212    0.1920377 -70.53 0.0007165045    1.595    0.373
       150  -8.9450    160.7572    194.1156   5.8014328735e+01   1.2447532135e+01    0.2535482    0.2151965  65.40  0.001151328    1.776    0.437
       151  -9.1799     44.2701    193.7920   8.7071294491e+01   2.7846769492e+01    0.4265735    0.2018722  56.98  0.001864456    2.119    0.528
       152  -8.1963    231.1258    194.1784   4.5722690421e+01   3.9615834441e+00    0.1356505     0.110456 -26.09 0.0004488884    1.321    0.243
       153  -8.6314    224.6796    193.8664   4.6636203789e+01   4.6895369540e+00    0.1899401    0.1272521 -40.84 0.0009324983    1.642    0.391
       154  -8.6903     77.0747    193.8318   7.8029959368e+01   2.3942115927e+01    0.2391828    0.1972404  44.13 0.0006101863    1.092    0.084
       155  -8.2472    198.8698    191.5161   5.0426590736e+01   7.9782138914e+00    0.2007562     0.143858 -50.22 0.0007239267    1.850    0.459
       156  -7.7010    205.2403    191.6154   4.9364966626e+01   7.2008944255e+00    0.1015623   0.08553495 -48.05 0.0003466046    1.643    0.391
       157  -8.1249    179.1474    191.2086   5.3929488413e+01   1.0500464018e+01    0.1511557    0.1399268 -35.37 0.0005607137    1.343    0.255
       158  -8.3727    172.2151    191.2299   5.5262235030e+01   1.1404436800e+01     0.150604    0.1459478 -43.08 0.0005945538    1.377    0.274
       159  -9.1039    139.3936    190.3051   6.1999649861e+01   1.6071698245e+01    0.3094175    0.2439541  74.35  0.001306276    1.951    0.488
       160 -10.2396     92.5192    188.7995   7.3291386689e+01   2.3000356035e+01     1.028497    0.2404682  40.97   0.00318934    3.756    0.734
       161  -8.0034     90.3235    181.3500   7.2891780290e+01   2.4965317403e+01    0.2194505     0.165625 -34.76 0.0007771573    1.548    0.354
       162  -7.7458     61.3371    191.3055   8.2083071297e+01   2.6476592047e+01    0.1362281      0.10429 -19.17 0.0003984628    1.673    0.402
       163  -8.2808    237.1264    188.5655   4.3959443870e+01   4.0525484130e+00    0.1767555    0.1159174 -33.71 0.0006229873    1.366    0.268
       164  -8.3619    148.0922    188.7774   5.9834554390e+01   1.5126884302e+01    0.2111913    0.1709667 -67.99 0.0009080735    1.698    0.411
       165  -9.0351    129.2462    188.3647   6.4031365512e+01   1.7887502857e+01    0.2909934    0.2288226  81.70  0.000837882    1.890    0.471
       166  -9.1012     34.3930    188.1344   8.9465041309e+01   3.0220432063e+01    0.3805971    0.1624968  62.62  0.001533403    2.512    0.602
       167  -8.9590    216.5762    187.6978   4.6889124862e+01   6.4303404804e+00    0.1997897    0.1913027 -19.94  0.001043046    1.511    0.338
       168  -8.8842    191.4068    187.0491   5.0995329596e+01   9.5774823824e+00    0.2625017    0.1959399 -62.47  0.001142393    2.252    0.556
       169  -9.2293    156.0113    187.3569   5.7911374664e+01   1.4270509130e+01    0.2786089    0.2059054 -55.23 0.0009144684    1.658    0.397
       170  -9.4895    120.6107    185.9920   6.5735335652e+01   1.9606370450e+01    0.4346001    0.2780602 -79.64  0.001952988    2.636    0.621
       171  -9.0282     54.7535    186.7509   8.3507320106e+01   2.8328069121e+01    0.4660705    0.2058828  60.93  0.001579335    2.786    0.641
       172  -8.2600    230.4852    187.0751   4.4676284683e+01   4.9561461148e+00    0.1622261   0.08752191 -34.70 0.0007621087    1.557    0.358
       173  -8.4830    164.8595    186.5779   5.5958719774e+01   1.3177613502e+01    0.2155471    0.1683792 -63.65 0.0007253068    1.834    0.455
       174  -9.0680    109.6352    185.8047   6.8437650418e+01   2.1232103305e+01    0.3691312    0.2585165  72.54  0.001261693    2.059    0.514
       175  -8.9750    249.3140    185.3802   4.1774594342e+01   3.1993592446e+00    0.2224718    0.1405188 -38.63 0.0008728886    1.586    0.370
       176  -8.9094    210.0527    184.0248   4.7321373011e+01   7.7179356653e+00    0.2137767    0.1362922 -32.64 0.0004667457    1.360    0.265
       177  -8.8311    202.8876    184.4276   4.8570892431e+01   8.5331765701e+00    0.1990314    0.1520042 -44.70 0.0008276244    1.547    0.353
       178  -8.5170    182.9772    184.5433   5.2107489706e+01   1.1065101225e+01    0.2101704    0.1625791 -49.70 0.0006753479    1.580    0.367
       179  -9.2638     66.2752    183.7363   7.9908106671e+01   2.7638550739e+01    0.5127507    0.2480552  64.12  0.001568452    2.840    0.648
       180  -8.5841    224.0622    183.4379   4.5034005261e+01   6.1590066043e+00     0.194662    0.1327488 -40.66 0.0005972549    1.549    0.354
       181  -9.0146    174.2948    183.3414   5.3550017044e+01   1.2429723191e+01    0.2511116    0.2025713 -55.45  0.000800283    1.609    0.378
       182  -8.5410    242.7164    183.3403   4.2336437339e+01   4.1324477976e+00   0.09478131   0.07505323 -41.65 0.0003426409    1.632    0.387
       183  -8.9996     44.5011    182.5926   8.6109139420e+01   3.0497497173e+01    0.3534967    0.1748712  47.54  0.001066503    1.787    0.440
       184  -7.9034      1.7671    183.6093   9.8629450340e+01   3.4141137007e+01    0.1940746   0.09488248  35.12 0.0009412812    1.655    0.396
       185  -9.2791    147.6339    180.6221   5.8598402446e+01   1.6697239712e+01    0.3048623    0.2537183 -85.84  0.001009268    1.780    0.438
       186  -7.9261    235.3710    181.1855   4.3008074826e+01   5.1974508527e+00    0.1540644   0.08375161 -41.10 0.0008712194    1.801    0.445
       187  -9.6250     25.7568    178.9955   9.1406414534e+01   3.3299295721e+01    0.7053006    0.2246461  65.87  0.002234719    4.027    0.752
       188  -8.5199    137.9375    179.4026   6.0576145166e+01   1.8365348182e+01    0.2413682    0.1965117 -82.12  0.001332864    1.739    0.425
       189  -9.2786    191.5170    178.2029   4.9474228818e+01   1.0940539613e+01    0.2234028    0.2135462  57.09  0.000684428    1.504    0.335
       190  -8.7129    250.5233    172.5311   3.9526893512e+01   4.6789882353e+00    0.1998674   0.08044219 -34.67 0.0001311728    1.918    0.479
       191  -9.0625    249.0065    177.1787   4.0488880678e+01   4.2527082932e+00    0.2694843    0.1699496 -35.41  0.001297291    1.389    0.280
       192  -8.1916    247.4535    173.5443   4.0094344063e+01   4.8775821005e+00    0.2159237    0.1213983  -4.79 7.831108e-05    2.175    0.540
       193  -8.7474    205.0561    177.4797   4.7028811484e+01   9.2946456954e+00    0.2097574    0.1486539 -44.99 0.0006283772    1.579    0.367
       194  -8.1282    169.4454    178.3007   5.3638358063e+01   1.3959935947e+01     0.160657    0.1192319 -49.74 0.0004940445    1.533    0.348
       195  -8.4564    129.0797    177.1673   6.2286826802e+01   2.0142373600e+01    0.2407243    0.1816207  86.23 0.0006993806    2.044    0.511
       196  -8.9925     35.9595    176.6040   8.8171548623e+01   3.2892434557e+01    0.5057452    0.1911425  65.98   0.00171692    3.415    0.707
       197  -8.6319    231.1457    176.7038   4.2866412024e+01   6.2654919264e+00    0.1913436    0.1212455 -36.85 0.0006906297    1.422    0.297
       198  -8.4445    217.3526    176.9082   4.4962021656e+01   7.8559321934e+00    0.1915384    0.1499297 -43.06 0.0007247268    1.500    0.333
       199  -8.6813     89.0728    176.6633   7.2590727191e+01   2.6214551050e+01    0.2929364    0.2013306  67.69 0.0008925606    1.782    0.439
       200  -9.5358     58.3840    174.9871   8.1259477737e+01   3.0742680001e+01    0.6636478     0.271734  60.06  0.002221432    3.405    0.706
       201  -8.8978     55.5201    170.0423   8.1588043903e+01   3.2329940551e+01    0.3574812    0.2143283  62.19  0.001032149    1.773    0.436
       202  -8.6481     12.8485    176.2874   9.5130756666e+01   3.5102501676e+01    0.3101232    0.1450519  61.14  0.001244177    1.941    0.485
       203  -8.1408     97.0705    177.4479   7.0510522745e+01   2.4878378871e+01    0.1982998    0.1215814   2.27 0.0008069307    2.448    0.592
       204  -8.9716    183.1067    176.0566   5.0626048880e+01   1.2424010640e+01     0.194686    0.1790876  25.42 0.0006735417    1.272    0.214
       205  -9.1733    158.8047    174.8126   5.5201703719e+01   1.6121432556e+01     0.304763    0.2464401  77.29  0.001092315    1.978    0.494
       206  -9.4567    104.1556    174.3806   6.8149028986e+01   2.4515105092e+01    0.5482178    0.2823335  56.44  0.001935633    2.764    0.638
       207  -9.5869     81.8426    154.7151   7.1420174746e+01   3.2569035873e+01    0.5246467     0.364545  72.64  0.001653778    1.740    0.425
       208 -10.5641     75.9218    170.7726   7.5542861444e+01   2.9468592835e+01     1.068953    0.4801275 -86.20  0.003247001    4.562    0.781
       209  -9.6035     75.2571    158.8783   7.4077750997e+01   3.2503208647e+01    0.4703762     0.309021  -0.78  0.001983909    2.207    0.547
       210  -8.3555    224.4528    174.0272   4.3392305349e+01   7.4107550630e+00    0.1710946   0.09132721 -34.85 0.0005626059    1.557    0.358
       211  -9.4655    175.5599    172.1433   5.1360006967e+01   1.4142848436e+01    0.2981084    0.2082769 -43.14 0.0009580737    1.438    0.304
       212  -8.1347    142.9679    172.8807   5.8317556714e+01   1.8875163641e+01    0.1999544    0.1656812  70.08  0.000736002    1.646    0.392
       213  -8.3822    135.0301    171.8134   5.9966905729e+01   2.0311983897e+01    0.2077065    0.1794191  54.04 0.0008671881    1.322    0.243
       214  -9.4602    121.3254    170.3508   6.3050931468e+01   2.2753697833e+01    0.3453758    0.2598555 -87.76 0.0009800101    1.898    0.473
       215  -9.1565     44.9851    170.9211   8.4923357407e+01   3.3351137723e+01    0.4426026    0.2196912  65.59  0.001786746    2.305    0.566
       216  -8.3947    205.9397    170.2946   4.5630246215e+01   1.0260977203e+01    0.1944105     0.152427 -49.03 0.0006224853    1.568    0.362
       217  -8.3424    237.2017    169.5018   4.0794594195e+01   6.5412189213e+00    0.1679599    0.1253971 -35.44 0.0006232657    1.307    0.235
       218  -8.9200    230.7718    169.8566   4.1757038021e+01   7.2396565742e+00    0.1763039    0.1225722 -16.15  0.001088027    1.230    0.187
       219  -8.5757    198.2966    169.9600   4.6846692996e+01   1.1326880580e+01    0.1841089    0.1735047  74.09   0.00073791    1.587    0.370
       220  -8.4773    149.8922    169.4166   5.6159169171e+01   1.8477011472e+01    0.2332111    0.1904434 -69.44 0.0007457379    1.615    0.381
       221  -8.0784    244.6020    169.2984   3.9760997767e+01   5.7349837612e+00    0.1472846    0.1136562 -46.23 0.0006478804    1.671    0.402
       222  -9.1465    166.9446    168.3534   5.2374848259e+01   1.6071910876e+01    0.2833029     0.237316  75.88  0.001157805    1.818    0.450
       223  -8.3635    218.8172    168.1563   4.3222780417e+01   8.9298246036e+00    0.1655752    0.1369483 -31.66 0.0005726864    1.225    0.184
       224  -7.9903    211.5457    167.8199   4.4290654778e+01   9.9036167433e+00     0.160135   0.09872391 -44.86 0.0007812108    1.694    0.410
       225  -8.6476    111.7081    167.3666   6.5020756805e+01   2.4912544371e+01    0.3023266    0.2193672  66.96  0.000911705    1.783    0.439
       226  -8.3327     88.6622    168.3918   7.1513960348e+01   2.8210183119e+01    0.2334314    0.1571726  58.62  0.001087602    1.656    0.396
       227  -8.8045    191.8368    166.5463   4.7351352499e+01   1.2757880765e+01    0.2238009    0.1575221 -40.56 0.0005196204    1.368    0.269
       228  -8.4027    185.2512    166.4115   4.8507246487e+01   1.3714995022e+01     0.201144     0.146074 -55.45 0.0007399175    1.762    0.432
       229  -9.1883     20.6063    166.0586   9.2200674394e+01   3.7058943972e+01    0.4041321    0.1580175  49.58  0.001236023    2.224    0.550
       230  -8.3444     13.2864    167.6276   9.4595339193e+01   3.7267144504e+01    0.1565186   0.08069312  56.38 0.0007018923    1.713    0.416
       231  -9.6797    137.4035    164.5683   5.8124222673e+01   2.1403644932e+01    0.6771561    0.2808652  50.99   0.00223087    3.772    0.735
       232 -10.0820     95.0178    162.7561   6.8828628425e+01   2.8582818256e+01    0.8824903    0.4390116  65.34  0.002668217    4.401    0.773
       233  -8.0984    233.8729    164.8453   4.0454816815e+01   7.5589749914e+00    0.1464046    0.1099524 -36.07 0.0004880084    1.287    0.223
       234  -9.5509     33.5226    163.3136   8.7865194184e+01   3.6549113013e+01     0.690216    0.1674005  41.88  0.002250045    3.139    0.681
       235  -7.8313    240.3867    164.2186   3.9457452806e+01   6.8808185504e+00    0.1519341   0.08309112 -40.84 0.0003290215    1.674    0.402
       236  -8.6533    212.9157    163.4281   4.3291547750e+01   1.0378975076e+01    0.2139731    0.1413257 -45.08 0.0006750058    1.593    0.372
       237  -8.6341    159.5209    164.0600   5.3113075985e+01   1.7991307888e+01    0.2301253    0.1831198  52.20 0.0006935198    1.525    0.344
       238  -8.9297    246.1857    162.6049   3.8417418394e+01   6.4311403939e+00    0.1992027    0.1178794 -32.70 0.0005864659    1.307    0.235
       239  -8.7040    204.9596    162.5185   4.4395055119e+01   1.1579811441e+01    0.2212972    0.1473568 -45.98  0.000614667    1.590    0.371
       240  -9.3465     59.5657    161.3488   7.9312568928e+01   3.4032292532e+01    0.5879353    0.4208429 -13.07  0.002732755    1.895    0.472
       241  -9.4878      3.0571    161.9709   9.7588716301e+01   3.9485671664e+01    0.4774784    0.1731713  48.23  0.001944815    2.240    0.554
       242  -9.0566    177.3765    160.3065   4.8841896819e+01   1.5915884101e+01    0.2659445    0.2026481 -53.82 0.0008472913    1.541    0.351
       243  -8.8678    151.5336    160.5407   5.4168031632e+01   1.9926623910e+01     0.269532     0.216751 -76.25  0.001084111    1.734    0.423
       244  -8.7632    227.2840    158.7902   4.0316364592e+01   9.2072670134e+00    0.2455754    0.1496496 -48.88  0.001058191    1.952    0.488
       245  -9.6809    250.1928    157.5724   3.7044690887e+01   6.6335246345e+00    0.2803376    0.1263652 -37.54 0.0007880281    1.750    0.429
       246  -8.4600    246.6418    155.2128   3.7082472201e+01   7.3512067786e+00    0.1558012    0.1094435 -32.55 0.0005280048    1.158    0.137
       247  -7.4399    242.2657    159.6948   3.8426365606e+01   7.2664333411e+00   0.09925912   0.07469641 -44.53 0.0002093431    1.528    0.346
       248  -8.4432    128.1677    159.0166   5.9335430629e+01   2.4068138307e+01    0.2644578    0.1767691  60.18 0.0008770003    1.995    0.499
       249  -9.6136    105.8733    157.8031   6.4951937993e+01   2.8016156698e+01    0.4746667    0.2997169  65.73  0.001169044    2.259    0.557
       250  -8.6740    196.7240    157.7010   4.4874629912e+01   1.3491129197e+01    0.2315019    0.1512219 -45.72 0.0007112352    1.558    0.358
       251  -8.5836    188.0994    157.6175   4.6359494523e+01   1.4764645519e+01    0.2112505    0.1572586 -42.91  0.000492293    1.328    0.247
       252  -9.1934    167.5517    157.2394   5.0177286135e+01   1.7985286093e+01    0.2771768    0.2368151 -73.78  0.001247759    1.584    0.369
       253  -8.5585    217.9431    156.4363   4.1255830457e+01   1.0754011271e+01    0.2172465     0.139652 -45.78 0.0007921581    1.625    0.385
       254  -8.9943    157.7152    155.9204   5.1952584860e+01   1.9811997420e+01      0.23995    0.1848801 -62.06 0.0008759226    1.602    0.376
       255  -9.1111    119.6435    154.8176   6.0718295843e+01   2.6407763298e+01     0.415581    0.2905808 -88.95  0.001519267    2.222    0.550
       256  -9.4373     49.9551    155.2293   8.1678666927e+01   3.6840747562e+01    0.5367431    0.2097093  47.89  0.001928043    2.488    0.598
       257  -8.9311    243.0037    154.7042   3.7458494526e+01   7.8473704691e+00    0.1485958    0.1178188 -21.42 0.0004109677    1.066    0.062
       258  -8.1515    204.8298    155.1477   4.3055446963e+01   1.2742434287e+01    0.1771931    0.1493459 -38.83 0.0005338455    1.229    0.186
       259  -9.1284    144.4930    154.6047   5.4608740637e+01   2.2257983411e+01    0.2523525    0.2260232 -79.90 0.0007490265    1.363    0.266
       260  -9.3931     68.2272    153.7459   7.5532022059e+01   3.4818351347e+01    0.5164288    0.2561498  60.35  0.001457174    2.636    0.621
       261  -8.2035    232.9620    153.9555   3.8658485723e+01   9.1752323709e+00    0.1639687    0.1250197 -51.76 0.0007211533    1.678    0.404
       262  -9.7129    132.8059    152.7847   5.7013686788e+01   2.4613430840e+01     0.453329     0.331757  75.45  0.001208197    2.047    0.512
       263  -9.2586    133.4950    148.0253   5.5908229936e+01   2.5505783396e+01    0.2898615    0.2158841 -30.49 0.0008657132    1.457    0.314
       264  -8.6835    151.7956    152.5616   5.2574307844e+01   2.1440081093e+01    0.2245564    0.1629945 -49.59   0.00067959    1.414    0.293
       265  -8.6464    238.1857    149.8786   3.7227708572e+01   9.0887709964e+00    0.2181464    0.1469671  20.67  0.001453878    1.768    0.434
       266  -9.7386     29.5175    150.7369   8.8120086649e+01   4.0299357648e+01    0.5563012    0.1976625  55.24   0.00187873    2.991    0.666
       267  -8.6200     20.1953    152.2294   9.1433030899e+01   4.0753825245e+01      0.21305    0.1423732  58.10 0.0006585995    1.358    0.264
       268  -8.8999    189.5913    150.1259   4.4659018998e+01   1.5794167975e+01    0.2579198    0.1908057 -57.10 0.0008332056    1.687    0.407
       269  -8.0735    182.4981    151.0428   4.6108457520e+01   1.6733861804e+01    0.1925028    0.1166249 -42.81 0.0008034119    1.545    0.353
       270  -7.2975    176.3158    151.6864   4.7387721850e+01   1.7594055856e+01    0.1227328    0.1052269 -80.15 0.0004746598    1.643    0.391
       271  -8.3815    162.6454    150.5445   4.9867979949e+01   2.0019651924e+01    0.2207499    0.1595745 -61.51  0.001136565    1.747    0.428
       272  -8.6633     98.4333    150.7871   6.5806126436e+01   3.0894585073e+01    0.2862328    0.2210904  64.14 0.0007827593    1.448    0.309
       273  -9.0373      2.8814    150.2639   9.7218568058e+01   4.2580213214e+01    0.2604652    0.1660856  74.25  0.000801675    1.415    0.293
       274  -9.4458    248.9355    149.1001   3.5725275939e+01   7.8896389772e+00    0.2626154    0.1235193 -34.85 0.0007595089    1.617    0.382
       275  -8.6973    243.4619    149.5501   3.6488434240e+01   8.4855522317e+00    0.2307664   0.08550479 -36.73  0.001018086    2.093    0.522
       276  -8.2942    212.9923    149.5363   4.0723049080e+01   1.2462744507e+01     0.186222    0.1341601 -32.80 0.0004290743    1.161    0.138
       277  -8.5245    198.6851    148.5627   4.2807006717e+01   1.4679555256e+01    0.2224324    0.1673354 -56.09  0.000612346    1.648    0.393
       278  -9.9393     89.3012    146.0773   6.7675267483e+01   3.3550047181e+01    0.7254974    0.4099119  84.46  0.002419403    3.446    0.710
       279  -9.5966     39.9565    147.7081   8.4209603890e+01   4.0027193088e+01    0.6620842    0.2436522  54.20  0.002112146    3.058    0.673
       280  -8.8960    233.4106    147.5168   3.7432682111e+01   1.0020546735e+01    0.2135031    0.1390049 -35.19 0.0007727632    1.240    0.194
       281 -10.5090     54.9196    144.5563   7.8638541888e+01   3.9062528475e+01    0.9026545    0.3997685  63.79  0.002811922    3.382    0.704
       282 -10.2022     56.7077    135.1625   7.6628456706e+01   4.1366893244e+01     0.709567    0.3696665  -2.55  0.002073047    4.466    0.776
       283  -8.4292    223.1920    146.7073   3.8693026545e+01   1.1483474022e+01    0.1964414    0.1302169 -38.59 0.0003073844    1.301    0.232
       284 -10.3255    148.8062    144.9897   5.1715540270e+01   2.3455269480e+01    0.5302236    0.3807726 -88.46  0.001745702    2.406    0.584
       285  -9.9598    139.0342    144.5728   5.3877725825e+01   2.5260161732e+01    0.5583316    0.3074996 -62.10  0.001629568    2.488    0.598
       286  -8.7887    140.0042    136.7957   5.2016832909e+01   2.6714499993e+01    0.2906348    0.2096587 -20.73  0.001382689    1.715    0.417
       287 -10.2291    106.7533    144.4057   6.2225511249e+01   3.1006384078e+01    0.7622098    0.4324189  67.71  0.002559486    3.239    0.691
       288  -7.7523    105.3368    138.3368   6.1422026479e+01   3.2699672605e+01    0.1556254    0.1515546  51.20 0.0008396231    1.005    0.005
       289  -8.9478     78.0232    146.8201   7.1322401057e+01   3.5154367815e+01    0.2718416    0.1950094  86.09 0.0008123631    1.650    0.394
       290  -9.1539     13.3541    146.0579   9.3396441270e+01   4.2981316327e+01    0.3885682    0.1931169  55.37  0.001134621    1.849    0.459
       291  -7.8567    206.4195    146.2600   4.1115238358e+01   1.3907273677e+01    0.1662539    0.1021331 -44.01 0.0004159537    1.537    0.349
       292  -8.0860    175.4950    145.9821   4.6411674433e+01   1.8742345062e+01    0.1953026    0.1209369 -43.13 0.0005254349    1.514    0.340
       293  -9.6257    241.2546    144.2026   3.5808300113e+01   9.4842366002e+00    0.3444686     0.198936  -8.82  0.001740794    2.378    0.580
       294  -9.8721    124.9524    142.4669   5.6921458082e+01   2.8227359007e+01    0.5074392     0.341662 -83.42  0.001351038    2.422    0.587
       295  -8.6259    247.1251    143.6891   3.4985855865e+01   8.8268980432e+00       0.2097    0.1214943 -31.12 0.0005404913    1.319    0.242
       296  -8.8224    165.4720    143.8404   4.7939313844e+01   2.0804459997e+01    0.2312878    0.2080225  86.54 0.0006170825    1.417    0.294
       297 -11.1493     69.5650    139.3768   7.2846160924e+01   3.8383013563e+01     1.105838    0.5712497 -68.82   0.00306077    2.077    0.519
       298  -7.3868    194.3203    143.6898   4.2582346021e+01   1.6139770878e+01    0.1192811   0.09856025 -68.09 0.0003383667    1.645    0.392
       299  -9.2962      2.9614    141.7338   9.6844025806e+01   4.4873672371e+01    0.4349186    0.1496561  60.80  0.001571096    2.758    0.637
       300  -8.4152    181.9941    141.4809   4.4294229412e+01   1.8476885468e+01    0.2396372    0.1688478 -53.14 0.0007310057    1.568    0.362
       301  -8.0762    250.5666    140.7500   3.4045648040e+01   8.7988097465e+00    0.1523809   0.08082566 -40.09 0.0005622751    1.547    0.354
       302  -8.3922    134.0000    139.9197   5.4122509327e+01   2.7148567248e+01    0.2416035   0.08162338 -48.83 0.0008028601    2.945    0.660
       303  -9.9657     23.4309    137.8797   8.9154549066e+01   4.4397386453e+01    0.6218288    0.2538653  57.32  0.002016844    2.553    0.608
       304  -7.8280    218.5318    138.4724   3.7795434943e+01   1.3354638914e+01    0.1204803   0.09834149 -32.17 0.0008083366    1.065    0.061
       305  -8.2694    207.4243    137.6891   3.9286991076e+01   1.5106767621e+01    0.2384732    0.1006653 -43.44    0.0011032    2.133    0.531
       306  -8.6597    197.5367    137.3077   4.0773378067e+01   1.6690698574e+01    0.2470934    0.1755193 -59.57 0.0008385452    1.815    0.449
       307  -8.6099    172.1602    137.7011   4.5350302714e+01   2.0799738202e+01    0.2602746    0.1953371 -64.84 0.0006815576    1.712    0.416
       308  -8.7457    150.3666    136.0100   4.9482972756e+01   2.4981373683e+01     0.434714     0.267264   6.69  0.001624627    3.258    0.693
       309 -10.4445     83.4506    133.2640   6.7125134991e+01   3.7767707639e+01    0.6497121    0.4221694 -71.86  0.001617383    1.723    0.420
       310  -8.5050    247.1116    129.8579   3.2470612775e+01   1.0689991370e+01    0.1963611    0.1172081 -40.27 0.0005625881    1.366    0.268
       311  -9.0173    248.5883    134.7228   3.3190596828e+01   9.8467599488e+00     0.263339    0.1335633 -33.88 0.0008070056    1.493    0.330
       312  -9.0253    250.7189    130.5432   3.2181067712e+01   1.0136664242e+01    0.3366455   0.08112799 -33.82  0.001333012    3.498    0.714
       313  -8.2491    162.6563    136.1683   4.6908220952e+01   2.2743053674e+01     0.212378    0.1660146 -58.41 0.0006271529    1.424    0.298
       314  -9.2302    113.6699    134.0340   5.8166984683e+01   3.2202283828e+01    0.4931717    0.3185595  87.28   0.00185803    2.759    0.638
       315  -9.2230     38.9873    135.9413   8.3191258758e+01   4.3366876578e+01    0.3590495    0.1898175  48.43 0.0008269695    1.810    0.448
       316  -8.2045    187.6385    135.2535   4.2016559308e+01   1.8629028164e+01    0.1851533    0.1097319 -32.74 0.0004650645    1.582    0.368
       317  -8.3263     95.8540    135.1044   6.3578857164e+01   3.5167343806e+01    0.2431977    0.2016435  70.86 0.0006838263    1.310    0.237
       318  -8.0807    237.6117    133.7233   3.4336437193e+01   1.1405863714e+01    0.1671274   0.08461224 -42.05 0.0009438482    1.677    0.404
       319  -8.0005    231.4245    133.8017   3.5140767703e+01   1.2232293421e+01    0.1638394    0.0910495 -28.15 0.0004128573    1.578    0.366
       320  -8.5837    179.4369    133.7728   4.3163619355e+01   2.0262859025e+01    0.2442359    0.1960284 -65.10 0.0008547943    1.534    0.348
       321  -9.3783    143.1978    131.4978   5.0117365930e+01   2.7226682809e+01    0.3507035    0.2512958 -64.18 0.0007920513    1.660    0.398
       322  -9.9589    132.1013    131.1632   5.2699308287e+01   2.9390635672e+01    0.4434577    0.3043644 -77.14  0.001067098    2.150    0.535
       323  -9.8499     73.1909    128.8767   6.9723708567e+01   4.0601457241e+01    0.5313129    0.3343793  86.38  0.001545128    2.141    0.533
       324 -10.0082     12.6186    128.5087   9.2495071072e+01   4.7886037937e+01    0.6567213    0.2917699  75.31  0.002212922    2.363    0.577
       325  -8.1299    204.5188    130.0672   3.8202138130e+01   1.6764941617e+01    0.1929794    0.1065029 -39.74 0.0008612612    1.544    0.352
       326  -9.4876    168.4435    129.3615   4.4287084121e+01   2.2992773303e+01    0.3118442    0.2368131 -68.24 0.0007218951    1.685    0.407
       327  -9.5535    152.9174    128.4700   4.7273506997e+01   2.6018768009e+01    0.4927027    0.2262331 -50.08  0.001484386    2.234    0.552
       328 -10.1760     99.4283    127.7643   6.0950011704e+01   3.6334494050e+01    0.6568556    0.4176538  79.41  0.001805107    2.565    0.610
       329  -7.6125    220.5178    129.5653   3.5780337649e+01   1.4404405986e+01    0.1206415   0.09824787 -31.29 0.0001145898    1.016    0.016
       330  -8.2417    211.5483    128.7901   3.6894728267e+01   1.5871959429e+01    0.1754621   0.09904458 -45.88 0.0005821903    1.657    0.396
       331 -10.8057     45.3600    124.0236   7.9130334754e+01   4.5933443224e+01     1.283937    0.5498354  64.65  0.003842646    3.723    0.731
       332 -10.4635     60.3405    125.0081   7.3605497005e+01   4.3621936692e+01    0.8652112    0.4415371  69.13  0.002677949    3.091    0.677
       333  -9.8689    118.0334    125.2026   5.5012826073e+01   3.3419331791e+01    0.5587878    0.3679518  75.05  0.001358722    2.381    0.580
       334  -8.9433    179.1315    124.5527   4.1239971496e+01   2.1955780211e+01    0.2633361    0.2144602 -85.71  0.000839962    1.660    0.398
       335  -9.9273    133.7142    109.1617   4.7089019723e+01   3.3806705653e+01    0.6817986    0.3393306 -47.87  0.002206783    1.961    0.490
       336 -10.3506    131.1147    118.6057   5.0051508954e+01   3.2310965476e+01    0.6755579    0.4473325  89.32  0.002094379    2.677    0.626
       337 -10.6233     28.3811    121.4842   8.5540337172e+01   4.8539210714e+01     1.093707    0.4550538  73.58  0.003492579    3.352    0.702
       338  -7.5488    228.3024    124.6682   3.3783199939e+01   1.3991665350e+01    0.1161803   0.08102454 -54.76 0.0003169097    1.654    0.395
       339  -7.9191    188.5911    123.7699   3.9432020697e+01   2.0435330588e+01    0.1837324    0.1111766 -47.34 0.0004980054    1.571    0.363
       340  -9.7250    158.7406    121.4083   4.4447840571e+01   2.6304228726e+01    0.4196258    0.2560454 -65.86   0.00123336    2.442    0.590
       341  -8.7323     84.6463    122.4329   6.4508827590e+01   4.0350474062e+01    0.4740714    0.2771945  13.94  0.001667667    2.808    0.644
       342  -7.7728    195.3422    122.1135   3.7975599594e+01   1.9561105895e+01    0.1885215     0.102354 -47.05 0.0004765052    1.745    0.427
       343  -8.6344    171.8589    121.3317   4.1857745612e+01   2.3854689637e+01      0.22972    0.1727964 -50.61 0.0004852606    1.302    0.232
       344  -8.1407    192.5424    130.0163   4.0097972690e+01   1.8708471183e+01    0.1979184    0.1128657 -40.25 0.0005083318    1.536    0.349
       345  -9.5393     71.1453    119.9130   6.8669681757e+01   4.3318133799e+01    0.4132923    0.2670668  76.06  0.001192199    2.031    0.508
       346  -8.9669    245.9797    119.8811   3.0735183311e+01   1.2192686157e+01    0.2504091    0.1236424  43.83   0.00121502    2.630    0.620
       347  -9.9123    141.5974    118.1368   4.7420695780e+01   3.0312500103e+01    0.5197024     0.302074 -61.02  0.001149035    2.159    0.537
       348  -9.6482      2.7572    116.1433   9.5650433917e+01   5.1970383905e+01    0.7915061    0.2999489  78.97  0.002857991    2.701    0.630
       349  -7.8830    231.4844    117.4645   3.1967767066e+01   1.4569755942e+01    0.1194669   0.09324133 -38.40 0.0002187952    1.077    0.072
       350  -8.0365    185.7927    115.7872   3.8152889368e+01   2.2298629640e+01    0.1802725    0.1434972 -58.82 0.0003971506    1.346    0.257
       351  -9.8434    109.3727    114.0296   5.4801352993e+01   3.7726431530e+01    0.5606056     0.367881 -81.72   0.00152682    2.305    0.566
       352  -9.3281    109.7502    107.1065   5.2945906621e+01   3.9268520901e+01    0.4121035    0.2802209  10.23  0.001574518    2.583    0.613
       353  -8.9480    250.1939    115.0471   2.9359807700e+01   1.2276799517e+01    0.1705601    0.1247722 -21.80 0.0008212857    1.271    0.213
       354  -8.1596    193.0498    115.0458   3.6810707460e+01   2.1133883952e+01    0.1973937    0.1439796 -60.86 0.0004705045    1.583    0.368
       355 -10.2179     92.6475    112.1149   5.9492964645e+01   4.1487882876e+01    0.6370444    0.3919943 -73.68  0.001362996    2.126    0.530
       356  -9.9155     79.0639    112.4182   6.4194189378e+01   4.3936565230e+01    0.6269947    0.3877537  73.34  0.001786394    2.375    0.579
       357  -8.8273     59.6559    114.6198   7.1896661112e+01   4.6563981636e+01    0.3872277    0.2076022   9.92  0.001283895    3.124    0.680
       358  -8.3903    167.5031    114.0652   4.1016371715e+01   2.6016164321e+01      0.21239    0.1280863 -42.45 0.0004499241    1.520    0.342
       359  -9.4844    121.9388    112.5068   5.0925174809e+01   3.5518845102e+01    0.3381343    0.2741213  71.15 0.0007206519    1.384    0.277
       360 -10.7695    248.9910    103.4679   2.7275688078e+01   1.3992041980e+01    0.4072615    0.1886989 -38.22  0.002332784    1.591    0.371
       361  -9.0530    159.2224    111.6736   4.2067945584e+01   2.8086976481e+01    0.2877994    0.2004179 -62.77 0.0007868148    1.671    0.402
       362 -10.1790     66.5366    109.6667   6.8194642428e+01   4.6819200921e+01     0.638585    0.3845767 -68.20  0.002345857    1.749    0.428
       363  -9.6179     14.1482    110.8577   9.0380572594e+01   5.2761010030e+01    0.4776774    0.1913311  64.54  0.001373912    2.894    0.654
       364  -7.8046    182.7410    109.3658   3.7212254466e+01   2.3967530899e+01    0.1378926   0.09613941 -60.81  0.000343198    1.638    0.389
       365  -8.4881    189.3943    107.7403   3.5760452183e+01   2.3014806327e+01    0.2553908    0.1097437 -42.86 0.0006591645    2.027    0.507
       366  -9.0236     44.1399    108.7355   7.7067968131e+01   5.0369980097e+01    0.3453318    0.1407635  22.54  0.001024308    2.710    0.631
       367  -9.7851    118.9923    105.9880   5.0056138858e+01   3.7590696215e+01    0.3245516    0.2250992  32.59  0.001324083    1.673    0.402
       368  -9.3862    116.7885    102.5954   4.9765304361e+01   3.8817592149e+01    0.3060043    0.2292927  45.72  0.001441219    1.352    0.260
       369 -10.2401    108.8536     98.6371   5.0950462607e+01   4.1410807437e+01    0.6378019    0.3942892  71.26  0.001226312    2.397    0.583
       370 -10.4765     45.9514    102.3071   7.5059710091e+01   5.1926467275e+01    0.9533523    0.4310681  61.22   0.00295505    3.431    0.709
       371  -9.6065    150.6347    102.8341   4.1654179770e+01   3.1551472243e+01    0.4580326    0.2611721 -61.33   0.00119654    2.263    0.558
       372  -8.8039     78.5222    104.8363   6.2572234049e+01   4.5999420830e+01    0.3114041    0.2208186  13.16 0.0009631244    1.929    0.482
       373 -10.6480     22.6773    102.4105   8.5571269802e+01   5.4486358337e+01    0.7880381    0.3695589  63.44  0.002398077    2.541    0.606
       374  -8.6091    166.7824    103.9497   3.8742535500e+01   2.8025102855e+01    0.2602822    0.1762119 -57.38 0.0007085675    1.563    0.360
       375  -9.9926    128.6736    101.2389   4.6280194188e+01   3.6560934878e+01    0.5724426    0.3321007 -41.02   0.00194218    1.757    0.431
       376  -8.6432      6.8143    102.5659   9.2922180708e+01   5.5579064955e+01      0.36035     0.158748  72.46  0.001188389    2.437    0.590
       377  -7.9494    175.7914    101.9577   3.6654350121e+01   2.6593485364e+01    0.2248598     0.140117 -60.29 0.0005754902    1.892    0.471
       378  -8.5503    159.7504    100.8313   3.9307317553e+01   3.0036384718e+01     0.269945    0.1774425 -57.62 0.0006811989    1.623    0.384
       379  -9.2911     82.2075     99.8804   5.9971843142e+01   4.6570649099e+01    0.4152837     0.283082 -80.78 0.0009843977    1.867    0.464
       380  -9.2040    190.0496     98.0073   3.3424364958e+01   2.4516359828e+01    0.2064454     0.181257 -48.16 0.0007438168    1.034    0.033
       381 -10.0678     64.1404     95.8631   6.5865912610e+01   5.0900614118e+01    0.6741982    0.4027663  76.18  0.001863889    2.641    0.621
       382  -8.2885     64.2615     87.8793   6.3692108897e+01   5.2966517855e+01    0.3552465    0.2372774 -18.99  0.001369954    2.416    0.586
       383  -9.2853    139.9517    104.3828   4.4397658569e+01   3.3492352208e+01    0.3514774    0.2539926 -81.33 0.0008837034    1.862    0.463
       384  -8.1394    164.6972     93.9066   3.6630129043e+01   3.0281737741e+01    0.2065284    0.1623241 -48.07 0.0004377213    1.161    0.138
       385  -8.7687    174.7760    111.5482   3.9091627574e+01   2.5083626414e+01    0.3239736    0.1666218 -50.04 0.0009335061    1.953    0.488
       386  -9.4973     95.0580     96.9050   5.4751306714e+01   4.4729951654e+01       0.3481    0.2494868 -69.84 0.0007320383    1.574    0.365
       387  -8.1604    176.5038     93.0022   3.4361473760e+01   2.8011385080e+01    0.2118536    0.1224492 -41.99  0.000542142    1.532    0.347
       388  -9.3899    138.9314     91.9774   4.1338428384e+01   3.6221010392e+01    0.4303541    0.2690368 -58.83  0.001293971    1.755    0.430
       389  -8.8145    120.6063     93.1922   4.6153473572e+01   4.0050047593e+01    0.2710268    0.2357923  31.65  0.001367908    1.311    0.237
       390  -9.8402    124.5916     90.7526   4.4428785738e+01   3.9677342391e+01    0.4371236    0.3088699 -68.49 0.0008840906    1.646    0.392
       391  -9.1354    108.0960     92.1983   4.9362876003e+01   4.3035218771e+01    0.5001113    0.2951704  30.71   0.00190396    2.320    0.569
       392  -9.1260     46.7323     91.9977   7.2483691222e+01   5.4661686419e+01     0.491596    0.2218471  24.95   0.00176706    2.419    0.587
       393  -9.4897     34.8713     89.6291   7.7590093132e+01   5.6845125800e+01    0.5324072    0.2899821  83.29  0.001642126    2.478    0.596
       394  -9.0700     22.7133     90.2410   8.3743175154e+01   5.7925578712e+01    0.4214159    0.2941639 -13.66  0.001848783    1.720    0.419
       395  -9.5993      4.8423     91.4080   9.2896152446e+01   5.8829188207e+01    0.3820322     0.195375  58.00  0.001133029    2.023    0.506
       396  -7.9021    157.7816     91.5672   3.7316861954e+01   3.2175030689e+01    0.1867429    0.1382249  74.11 0.0003848602    1.568    0.362
       397  -8.4223    151.0053     88.9855   3.7958773658e+01   3.4128638533e+01    0.2305312    0.1679826 -72.38 0.0004402784    1.601    0.375
       398 -10.2635     86.3955     86.4854   5.4697322040e+01   4.9026118322e+01    0.7013931    0.4528754 -65.14  0.001559369    1.754    0.430
       399  -8.7411     89.4882     77.9699   5.0953495102e+01   5.0349348315e+01    0.3747723    0.2342172 -45.06  0.001277084    1.653    0.395
       400  -8.0039    164.4462     87.0270   3.4906423920e+01   3.1565742701e+01    0.2152115     0.129209 -41.15 0.0003935627    1.523    0.344
       401  -9.7722     48.6942     83.8416   6.9555298397e+01   5.6578101997e+01     0.736608    0.4521657  82.13  0.002367666    2.348    0.574
       402  -7.8461    179.2326     85.2682   3.2009775701e+01   2.8765400429e+01     0.224394   0.08775341 -46.91  0.000482148    2.370    0.578
       403  -9.6470    104.6851     83.0324   4.7650396558e+01   4.5831994687e+01    0.5162807    0.3451324 -74.69 0.0008740646    1.995    0.499
       404  -8.8376    105.2217     76.9221   4.5568976199e+01   4.7029380562e+01    0.2950543    0.2064473  24.67 0.0009766622    2.091    0.522
       405  -8.6038    157.9985     83.5436   3.5149094516e+01   3.3586885300e+01    0.2795278    0.1770189 -53.64 0.0005817712    1.547    0.354
       406  -7.4407    170.6703     83.3112   3.2879870686e+01   3.0883935680e+01    0.1465017    0.1007542 -68.49  0.000704232    1.669    0.401
       407  -9.2621    140.8714     82.2052   3.8179742920e+01   3.7685480493e+01    0.4141776    0.1941896 -45.52   0.00108141    2.024    0.506
       408  -7.8457     64.2627     82.6395   6.2189530056e+01   5.4308384498e+01    0.1610695    0.1201604  81.12 0.0004396177    1.634    0.388
       409  -9.6468     24.6096     80.1695   8.0945682267e+01   6.0558275757e+01    0.5857338    0.3002202  84.74  0.001639772    2.553    0.608
       410  -8.9860      9.9925     80.7612   8.9017644763e+01   6.1530142751e+01    0.4240285    0.1719009  50.25  0.001558065    2.719    0.632
       411  -8.6079    150.3456     80.1909   3.5678540114e+01   3.5902019283e+01    0.3531716    0.1513194 -46.10  0.001002996    2.196    0.545
       412  -8.9124     74.8494     80.3254   5.7126764905e+01   5.2866926935e+01    0.3479317     0.222421 -70.71  0.001074579    1.928    0.481
       413  -8.7573    249.5194     80.5079   2.2728196028e+01   1.6942353802e+01    0.1152438   0.08526886 -40.16 -2.495535e-05    1.015    0.014
       414  -8.9093    119.1306     79.7917   4.2602516436e+01   4.3198369866e+01    0.2743796    0.2018232 -61.11 0.0006309634    1.409    0.290
       415  -8.1373    166.9741     79.3203   3.2448912980e+01   3.2359748672e+01    0.1914259    0.1731836 -60.48 0.0005874018    1.021    0.020
       416  -8.2990    184.2818     77.5809   2.9341006635e+01   2.8980469757e+01    0.2490281    0.1075375 -37.17  0.001054992    2.046    0.511
       417  -7.8005    174.7812     78.0284   3.0859672503e+01   3.0896624549e+01     0.188476    0.1023407 -39.39 0.0005855261    1.645    0.392
       418  -8.2523    157.3379     76.2060   3.3267924292e+01   3.5030971670e+01    0.2166799    0.1165019 -47.91 0.0004988773    1.734    0.423
       419  -9.4021    127.9087     74.8786   3.8919963601e+01   4.2109780156e+01    0.4206518    0.2668678 -62.05 0.0007867394    1.785    0.440
       420  -8.2653    140.4992     75.0437   3.6183157238e+01   3.9111923129e+01    0.2265137    0.1396301 -43.75 0.0005055252    1.541    0.351
       421  -9.9085     63.2806     73.5477   5.9793368677e+01   5.6756602759e+01    0.5066851    0.3263515 -72.86  0.001099397    1.934    0.483
       422  -8.7740     64.0723     63.8708   5.6093143191e+01   5.8908751006e+01    0.5661243    0.2633693 -36.23  0.001866594    3.142    0.682
       423  -8.4325    163.4811     73.0676   3.1348590522e+01   3.4188742979e+01    0.3107077    0.1156166 -43.23  0.001165172    2.379    0.580
       424  -9.6915     82.4105     72.3426   5.1616753761e+01   5.3166088029e+01    0.4863974    0.3280603 -78.06  0.001048156    2.046    0.511
       425  -8.6595    115.8429     72.6162   4.1212145860e+01   4.5420668447e+01    0.2955804    0.2131552 -53.60 0.0006673904    1.377    0.274
       426  -8.3758     42.6729     72.6758   6.9465038994e+01   6.0408163316e+01    0.2937458     0.179257  89.91 0.0007663135    2.339    0.573
       427  -9.0610    105.9184     71.4894   4.3589940864e+01   4.8001848913e+01    0.2998705    0.2065407 -63.03 0.0008707582    1.606    0.377
       428  -9.2638     95.1354     70.8862   4.6701135778e+01   5.0641822456e+01    0.4380432    0.2480229 -58.35 0.0009931221    2.026    0.506
       429  -9.3325     51.6888     69.8583   6.4016650733e+01   5.9724152928e+01    0.4644414    0.2834853 -80.86  0.001325464    2.351    0.575
       430  -8.7773     16.7298     70.0558   8.3417656964e+01   6.4017118157e+01    0.3080607    0.1958034  66.64 0.0008277464    1.801    0.445
       431  -8.7466    147.1052     68.0048   3.2799480337e+01   3.8816562718e+01    0.2962568    0.1894539 -50.14 0.0006770349    1.473    0.321
       432  -8.8722    138.5973     65.9976   3.3852686084e+01   4.1192916025e+01    0.3055474    0.2089561 -61.13 0.0005547132    1.508    0.337
       433  -8.7257    121.7508     65.8923   3.7539152093e+01   4.5294620171e+01    0.2878377    0.1919076 -59.92 0.0006983138    1.595    0.373
       434  -8.0193    151.3967     73.2137   3.3509433399e+01   3.6908362704e+01    0.2169195    0.1222431 -49.53 0.0005160757    1.687    0.407
       435  -8.7275     37.4335     64.1506   6.9745919779e+01   6.3345245871e+01    0.3352794    0.2304886  79.55  0.001103303    1.913    0.477
       436  -8.7874    110.2586     63.5437   3.9681374292e+01   4.8538661285e+01     0.316835    0.2271381 -75.43 0.0006328918    1.651    0.394
       437  -8.2054    158.2398     61.9610   2.9095177431e+01   3.7215269776e+01    0.2039856    0.1691482 -52.77 0.0004825473    1.089    0.082
       438  -9.2237     97.6836     60.3591   4.2173857528e+01   5.2200486860e+01    0.3123014    0.2281332  64.71 0.0008087272    1.379    0.275
       439  -8.6862     88.8409     59.7971   4.4825215719e+01   5.4409730318e+01    0.3222086     0.214228 -32.76  0.001395136    1.788    0.441
       440  -9.7383     73.4129     59.4189   5.0422481599e+01   5.7970430771e+01     0.436271     0.288129 -60.73  0.001239284    1.706    0.414
       441  -8.2424    146.9848     58.9673   3.0113290679e+01   4.0367791929e+01    0.1798378    0.1553971 -56.19 0.0003915782    1.071    0.066
       442  -8.5437    130.5838     57.2699   3.2726676718e+01   4.4661861205e+01    0.2733897    0.1331135 -42.81 0.0006097545    1.957    0.489
       443  -9.8301     23.4474     56.2609   7.5867590487e+01   6.7061344101e+01    0.5165054    0.2934928  72.16  0.002041793    2.648    0.622
       444  -9.4175      7.4318     57.1933   8.6871363870e+01   6.8090066896e+01    0.3381577     0.227649  69.98 0.0009786207    1.664    0.399
       445  -8.5801    140.0182     56.4557   3.0602217842e+01   4.2472300516e+01    0.2919359    0.1782939 -52.22 0.0006615131    1.584    0.369
       446  -9.3418    119.2061     55.0950   3.4500750479e+01   4.7870402843e+01    0.4738853    0.2398316 -49.42  0.001315072    2.007    0.502
       447  -8.7322     44.2387     55.3489   6.2854657163e+01   6.4493213866e+01    0.3591377     0.254047 -85.01  0.001157014    1.900    0.474
       448  -9.1772     62.8211     54.3950   5.3003747185e+01   6.1283238602e+01    0.3452174    0.2348097 -59.14 0.0008200567    1.612    0.380
       449  -8.7607     54.1364     53.7727   5.6945991765e+01   6.3121239080e+01     0.333596    0.2140948 -70.39  0.001068017    2.064    0.515
       450  -8.5051    105.8365     53.0974   3.7140066329e+01   5.1565496488e+01    0.2420309    0.1940351 -76.06 0.0005343427    1.308    0.235
       451  -9.2715     92.6022     50.5344   4.0010915221e+01   5.5299904278e+01    0.3978709    0.2408067 -53.09  0.001066454    1.774    0.436
       452  -8.4735     75.4801     51.0104   4.6222714941e+01   5.9254380757e+01    0.3397658     0.183214  33.84  0.001257647    2.490    0.598
       453  -8.1737    144.9925     48.9533   2.7353637564e+01   4.2439647215e+01    0.2326217    0.1513687 -64.11  0.000491926    1.574    0.365
       454  -8.5450    129.5678     49.0142   3.0176829451e+01   4.6278281457e+01    0.2213338    0.1414327 -37.54 0.0004978112    1.575    0.365
       455  -8.2018    120.5631     47.0696   3.1366006514e+01   4.8871803879e+01    0.2201999    0.1435023 -38.47  0.001012492    1.554    0.357
       456  -8.5081    112.3464     46.6568   3.3086555288e+01   5.1030988960e+01    0.2974546    0.1979352 -70.06 0.0007769574    1.744    0.427
       457  -8.9160     82.2005     46.2752   4.1724318909e+01   5.8595835914e+01     0.308351    0.2270596 -55.65 0.0006428735    1.442    0.306
       458  -8.5211     45.0463     44.5352   5.7930514274e+01   6.6819526919e+01    0.2615052    0.2052626 -74.95 0.0006374932    1.545    0.353
       459  -8.6388     16.9950     44.9597   7.6900908302e+01   7.0543490837e+01    0.2079003     0.199425  58.19  0.000598933    1.121    0.108
       460  -8.5239    132.8618     43.1349   2.7553650651e+01   4.6355410683e+01    0.2320879    0.1802587 -66.77 0.0005250903    1.227    0.185
       461  -8.1801     92.7041     42.6209   3.6756494923e+01   5.6672296308e+01    0.2289036    0.1762609  26.93 0.0007823961    1.693    0.409
       462  -9.3234     69.6153     41.3198   4.4329897034e+01   6.2447528495e+01    0.3798524    0.2521099 -65.90  0.001084818    1.976    0.494
       463  -8.7906     58.1092     42.3509   4.9976976659e+01   6.4758433819e+01    0.3222138    0.2332651 -72.96  0.001058559    1.832    0.454
       464  -9.6282      5.2941     42.0300   8.5220944810e+01   7.2125494397e+01    0.3567564    0.2298243  76.29  0.001391939    1.855    0.461
       465  -8.7611    106.0181     41.2749   3.2569489794e+01   5.3518377725e+01    0.2770382    0.1889892 -63.16 0.0006666389    1.596    0.373
       466  -8.4714     36.8679     40.7285   6.1196993697e+01   6.9027289002e+01    0.2602557    0.1886894  87.84 0.0007476413    2.038    0.509
       467  -7.9828    160.5568     39.5324   2.2180311832e+01   4.0014071919e+01    0.2601014   0.09604489 -43.62  0.001020863    2.309    0.567
       468  -8.8428     95.6271     37.9975   3.3968560835e+01   5.6693057192e+01      0.30886    0.2025989 -57.75 0.0007160529    1.672    0.402
       469  -8.3716     80.7243     36.5748   3.7948341194e+01   6.0649437196e+01    0.2567918    0.1698446 -59.76 0.0005853452    1.771    0.435
       470  -9.3374     26.2439     35.2007   6.6052942022e+01   7.1811728811e+01    0.3366963    0.2442023 -80.14  0.001041226    1.808    0.447
       471  -8.0227    126.0246     35.3454   2.6065671075e+01   4.9239414081e+01     0.204807    0.1751941  84.90 0.0004668403    1.078    0.072
       472  -8.4080    111.9431     34.3217   2.8463642945e+01   5.3039744645e+01     0.269523    0.1830904 -62.13 0.0005597777    1.537    0.349
       473  -7.6465    104.6467     34.2879   3.0100991950e+01   5.4940577618e+01    0.1567901    0.1067177 -75.49 0.0005734324    1.671    0.401
       474  -7.9686     88.5544     34.4809   3.4486284551e+01   5.9038144116e+01     0.148912    0.1367344  83.30 0.0001204642    1.023    0.022
       475  -8.7681     48.6350     33.1515   5.0325739074e+01   6.8469941439e+01    0.2856936    0.2284293 -81.16 0.0007427912    1.635    0.388
       476  -8.4300    119.2221     33.1433   2.6526676914e+01   5.1311868302e+01    0.2098558    0.1533733 -64.78 0.0004724097    1.355    0.262
       477  -8.6323     60.8246     32.6140   4.3887958582e+01   6.5992693279e+01    0.2585323    0.2085489 -52.73 0.0006298799    1.338    0.252
       478  -8.9211     72.2387     30.7556   3.8201152151e+01   6.3653971183e+01    0.2987574    0.2111295 -66.16 0.0008200404    1.742    0.426
       479  -8.9643     12.9906     30.2046   7.4755932059e+01   7.4447043179e+01    0.3018092    0.1935948 -81.50 0.0009680192    1.974    0.493
       480  -8.2546    101.6285     29.3321   2.8752464877e+01   5.6433640679e+01    0.2274442    0.1547801 -69.72  0.000589057    1.628    0.386
       481  -8.8733     81.6056     27.2031   3.3226586546e+01   6.1884220321e+01    0.3226216    0.2172362 -64.21  0.000813311    1.769    0.435
       482  -8.8854      3.9898     27.6352   8.2241587163e+01   7.5720070788e+01    0.2816007    0.1798628  63.60  0.001407589    2.032    0.508
       483  -8.8389     91.9182     26.2255   2.9802154936e+01   5.9385434311e+01    0.3121073    0.1819217 -50.72 0.0007882813    1.841    0.457
       484  -8.3366    104.5781     22.7935   2.5319338617e+01   5.6523102539e+01    0.2019144    0.1236054 -46.31 0.0004730575    1.640    0.390
       485  -8.9782     63.5804     20.9681   3.6357184360e+01   6.7207582994e+01    0.3275647    0.2220417 -62.67 0.0009613195    1.880    0.468
       486  -8.6896     48.4410     21.2662   4.3626600524e+01   7.0592569865e+01    0.2521003    0.2012533 -75.14 0.0009254086    1.630    0.386
       487  -7.9597     34.4727     22.5474   5.3084290258e+01   7.3117544917e+01     0.135139    0.1278041  43.32 0.0008062191    1.099    0.090
       488  -8.0291     19.5162     21.0340   6.4192288222e+01   7.5733212977e+01    0.1812726    0.1213664 -86.99 0.0008101443    2.657    0.624
       489  -7.5885    120.5433     20.5559   2.1494106306e+01   5.2585882483e+01    0.1470902    0.1222162 -76.12  0.000172202    1.086    0.079
       490  -8.8548     74.0959     19.2644   3.1586581022e+01   6.4865719572e+01    0.3381689    0.1961654 -51.51 0.0008644655    1.982    0.495
       491  -8.2650     38.7884     17.9843   4.7216565769e+01   7.3104394755e+01    0.2096727    0.1554789 -68.41   0.00075037    1.913    0.477
       492  -7.8679    112.9886     16.9123   2.1292651443e+01   5.4998926559e+01    0.1692487    0.1523619 -72.74 0.0004973771    1.066    0.062
       493  -8.3058     87.8667     17.1877   2.6576148444e+01   6.1594870724e+01    0.2163588    0.1814392 -73.31 0.0005146792    1.198    0.165
       494  -7.8347     30.1983     16.1331   5.1995926696e+01   7.5019007485e+01    0.1754741    0.1599474  76.47   0.00080214    1.346    0.257
       495  -7.9413    113.3214    248.5242   7.5093040423e+01   9.2185117234e+00    0.1782343    0.1087447 -83.17 0.0009356933    3.250    0.692
       496  -8.4651      7.9730     15.4962   7.2655765109e+01   7.8174255231e+01    0.1813387   0.09048155  43.56 0.0004595739    2.420    0.587
       497  -8.2472     17.0323     13.9865   6.2050462431e+01   7.7463201291e+01    0.1930648    0.1578187  63.77 0.0005228249    1.625    0.385
       498  -8.2202     94.1098    249.3061   7.9320321080e+01   1.1191488764e+01    0.2628699   0.08638617  43.49   0.00112758    2.944    0.660
       499  -7.7265     48.3889     10.4637   3.6560887189e+01   7.2171240841e+01     0.132294    0.1247461  55.50 3.333834e-05    1.054    0.051
       500  -9.3592    243.2228    246.1853   5.1492358312e+01  -3.1851911997e+00     0.323653    0.1194998 -28.32  0.001868569    2.272    0.560
       501  -8.9752    218.6552    247.0775   5.5287373523e+01  -1.2428519525e+00     0.269977    0.1002276 -38.66   0.00158944    2.692    0.629
       502  -8.7842    201.5725    248.6298   5.8248070710e+01   1.0740029693e-01     0.197938   0.07385026  15.04 0.0009539887    3.152    0.683
       503  -9.0637    175.6697    247.7102   6.2639977079e+01   2.7107270127e+00    0.2421737    0.1537559  39.10  0.001158647    1.978    0.494
       504  -8.9435    156.3141    247.8936   6.6284035691e+01   4.6709028819e+00    0.1851989    0.1529058  38.12  0.001165636    1.546    0.353
       505  -9.1002    103.6901    246.4039   7.6964569170e+01   1.0618804590e+01        0.355    0.2146816  89.33  0.001850536    3.205    0.688
       506 -10.1596    223.8894    243.7852   5.4041252188e+01  -1.3290487274e+00    0.3390196    0.1790216 -41.70  0.002277346    2.361    0.576
       507  -7.4142     40.6604    247.6728   9.1217176303e+01   1.7010297290e+01    0.1109455   0.08486252 -11.89  0.000705158    1.733    0.423
