#   1 NUMBER                 Running object number                                     
#   2 MAG_AUTO               Kron-like elliptical aperture magnitude                    [mag]
#   3 X_IMAGE                Object position along x                                    [pixel]
#   4 Y_IMAGE                Object position along y                                    [pixel]
#   5 X_WORLD                Barycenter position along world x axis                     [deg]
#   6 Y_WORLD                Barycenter position along world y axis                     [deg]
#   7 A_WORLD                Profile RMS along major axis (world units)                 [deg]
#   8 B_WORLD                Profile RMS along minor axis (world units)                 [deg]
#   9 THETA_WORLD            Position angle (CCW/world-x)                               [deg]
#  10 FWHM_WORLD             FWHM assuming a gaussian core                              [deg]
#  11 ELONGATION             A_IMAGE/B_IMAGE                                           
#  12 ELLIPTICITY            1 - B_IMAGE/A_IMAGE                                       
         1 -13.0588    199.9937     59.6750   6.3217769043e+01   2.6994141989e+01      1.66225     1.486808 -81.67  0.008894913    1.222    0.182
         2 -13.9622    167.1665     66.8128   7.1341953845e+01   3.4219254124e+01      1.19567    0.5854456 -24.97  0.002314797    2.370    0.578
         3 -17.8959    226.8555     20.3056   4.8563304735e+01   2.5180451436e+01     9.082126     2.606552  61.60   0.03242488    3.131    0.681
         4 -16.8223    242.4908     99.6440   6.7243618157e+01   1.1353302650e+01     7.709861     3.217001 -21.74   0.02913764    2.705    0.630
         5 -15.7333    184.3212     87.0983   7.3842601710e+01   2.6608367183e+01     7.492587      2.78405 -43.74   0.02483674    2.910    0.656
         6 -10.6824    196.0681     10.9998   4.9183923289e+01   3.4034520269e+01      0.27996    0.1840047 -32.15 0.0005980394    1.504    0.335
         7 -11.1122    141.3588      8.7874   5.6269041258e+01   4.8764545126e+01    0.5291074    0.3197173  17.66  0.002316836    2.037    0.509
         8 -11.8656    138.2932      2.6802   5.4441509590e+01   5.0135078944e+01    0.4310299    0.3333098 -57.10  0.001998414    1.498    0.332
         9 -11.4312    199.8130      7.0169   4.7573991852e+01   3.3443128298e+01    0.2537918    0.1933434 -25.69  0.001177557    1.347    0.258
        10 -10.5123    107.0999      7.3201   6.2880672396e+01   5.7380000682e+01    0.1934769    0.1722187  41.70 0.0005615509    1.090    0.082
        11 -11.9623    208.6957      1.8980   4.5197761943e+01   3.1620602132e+01    0.2252626     0.188848  85.60 0.0005628105    1.140    0.122
        12 -10.1334    105.3992      1.8104   6.0796862894e+01   5.8330126865e+01    0.1931545    0.1241007  -0.76 0.0009471079    1.668    0.400
        13 -13.6822    226.4996     63.7378   6.0385187938e+01   1.9908254233e+01     0.829318    0.6392679 -87.60  0.002773032    1.588    0.370
        14 -13.3169    153.1602     82.6366   7.9143146099e+01   3.4891028263e+01      1.22754    0.6197239  60.80  0.003893441    2.408    0.585
        15 -10.1897    202.0890    248.2769   1.0190499673e+02  -1.8772258760e-01    0.1514543    0.1038707  35.89 0.0003227238    1.074    0.069
        16 -10.4093    108.1774    233.3811   1.1600019041e+02   1.5660368692e+01    0.1615341   0.07557608  49.50   0.00022141    1.639    0.390
        17  -9.1532    205.2733    223.6630   9.8039432662e+01   1.9544335031e+00     0.100448   0.08533864  59.45 0.0006992827    1.604    0.377
        18 -11.5423    135.1852    121.2160   9.3472427070e+01   3.1327690571e+01    0.7477625    0.2075693 -50.02  0.001824801    4.068    0.754
        19 -12.7119    160.1391    128.4519   8.9428056790e+01   2.4731615791e+01    0.4789226    0.4098101  57.49  0.002438567    1.190    0.160
        20 -13.6251    167.3267    114.6485   8.4599829163e+01   2.5721270891e+01    0.7734228    0.5457731 -15.40  0.001360736    1.804    0.446
        21 -13.4104    186.2502     69.5454   6.8465920540e+01   2.8979091342e+01    0.9032299    0.4050377  34.52  0.002825232    3.500    0.714
        22  -9.9692     98.4907    223.4771   1.1677726512e+02   1.8542337421e+01    0.1144544   0.08456556  57.90 0.0001533859    1.055    0.052
        23 -10.9449    151.5524    121.1191   8.9645005680e+01   2.7944152957e+01    0.3079033    0.1923476  30.51  0.001327561    1.918    0.479
        24 -11.4882    150.1662    104.8488   8.5954128774e+01   3.1387088223e+01    0.3572116    0.2704523  79.32  0.001163567    1.741    0.426
        25 -11.4885    145.9284     99.7219   8.5601941692e+01   3.3320735568e+01    0.3635408    0.3197176 -56.44  0.000761349    1.193    0.162
        26 -10.8064    140.6533    104.2187   8.8037092298e+01   3.3593265535e+01    0.2717898    0.2544354  30.75  0.000717109    1.091    0.083
        27 -12.5389    154.5844     92.8039   8.1711906972e+01   3.2676417203e+01    0.5978221    0.5085688   3.87  0.002030456    1.343    0.255
        28 -11.8675    159.8969     98.4622   8.2059019040e+01   3.0395487034e+01    0.3511426    0.2861876  -7.30 0.0003486313    1.432    0.301
        29 -10.0817    111.9463    103.7564   9.5190502984e+01   3.9537414485e+01    0.1871456    0.1221129  42.64 0.0008069701    1.567    0.362
        30 -11.8318    122.7114    101.8306   9.1893949510e+01   3.7833691959e+01    0.5210073    0.3023971  22.17  0.001891735    3.075    0.675
        31 -11.1381    132.6566     96.4345   8.7953606278e+01   3.6867944799e+01    0.3423534    0.2692088 -53.88 0.0008383931    1.318    0.241
        32  -9.6782    113.4805     95.0643   9.2575999696e+01   4.1082675430e+01    0.2132483    0.1408596 -47.24 0.0003178463    1.480    0.324
        33 -11.7896    139.1647     89.1748   8.4340011610e+01   3.6879948138e+01    0.3430885    0.3101911 -71.11 0.0009134532    1.206    0.171
        34 -11.1905    133.9144    146.7147   9.9085325574e+01   2.6497183410e+01      0.71977    0.2034543 -54.66  0.002114267    4.887    0.795
        35 -11.2433    214.1188     88.2800   6.8808915419e+01   1.9304097472e+01    0.4186166    0.2720257 -45.00  0.001138599    1.624    0.384
        36  -9.8554    117.7474     89.5597   8.9945586678e+01   4.1379085266e+01    0.2739665    0.1431864  40.22  0.001112924    2.036    0.509
        37 -12.3554      6.0312    170.4821   1.3016092265e+02   3.8800998120e+01    0.2626201    0.1510449  36.73   0.00137439    1.839    0.456
        38 -10.3054    128.4953     83.9625   8.5528904566e+01   4.0252163484e+01    0.2759108    0.2320057 -79.84  0.001117057    1.422    0.297
        39 -10.5819    125.0391     85.9771   8.7007022511e+01   4.0593202280e+01    0.2899255    0.2542155 -51.09 0.0006461609    1.142    0.125
        40 -10.5566     87.8469     77.4168   9.5132345761e+01   4.9529637990e+01    0.4522792    0.2163601 -65.20   0.00151136    3.652    0.726
        41 -12.5566    155.6671    100.5811   8.3574982632e+01   3.0966711242e+01    0.5670413    0.4183213 -61.35  0.002637611    1.630    0.387
        42  -9.8034    123.6520     72.9509   8.3485022766e+01   4.3454000361e+01    0.2288171    0.1303424 -51.50 0.0009304297    1.946    0.486
        43 -10.4135    150.6605     70.2798   7.5985604776e+01   3.7706211447e+01    0.1540717    0.1221531 -79.48 0.0001767232    1.622    0.384
        44 -11.7283    246.2251    163.7288   8.0833909712e+01   2.1968733201e+00    0.4867642    0.2494107  11.52  0.002047596    3.002    0.667
        45 -10.8002    130.6371     66.1247   7.9495187985e+01   4.3173941694e+01    0.2948128    0.2715378 -38.92 0.0008613117    1.080    0.074
        46 -10.8610    147.2525     57.6826   7.2716639820e+01   4.0688275125e+01    0.2762304    0.2563658 -67.99 0.0005285643    1.175    0.149
        47 -12.0540    102.5024     58.0034   8.4554484156e+01   5.0739451098e+01    0.2293553    0.2004535  40.19  0.001113751    1.189    0.159
        48 -14.6735     36.2922    182.1859   1.2495736885e+02   3.3683675263e+01     1.614436     1.277673  80.85   0.01227137    1.088    0.081
        49 -12.6506    114.3589     55.5757   8.0288215648e+01   4.8715962192e+01    0.4594519    0.2582878  41.13  0.001823659    1.865    0.464
        50 -12.2777    189.2609     49.9512   6.2076737523e+01   3.1124999671e+01    0.4165569    0.2403565 -45.19 0.0006008425    1.809    0.447
        51 -10.0533    207.7315     47.3822   5.8483005223e+01   2.6731898569e+01    0.2057677    0.1289698  50.89 0.0005774823    1.619    0.382
        52 -11.4136    191.7056    152.0523   8.8063003709e+01   1.4113633422e+01    0.3370569    0.1746053 -53.60  0.001245026    2.994    0.666
        53 -10.4867    172.4286    150.1989   9.1505078855e+01   1.8294311702e+01    0.1888801    0.1339007 -53.74 0.0009494597    1.688    0.407
        54 -10.4919    190.3056     41.1268   5.9209502751e+01   3.2053381949e+01    0.2290301    0.1984488  41.40 0.0008865291    1.184    0.155
        55 -13.3809    213.4687     49.5741   5.8300812254e+01   2.4996040827e+01    0.5742984    0.3489036  41.42  0.002309183    1.835    0.455
        56 -12.8406    209.2317     37.4701   5.5412900606e+01   2.7622027523e+01    0.3943704    0.3670872 -46.49  0.001603698    1.045    0.043
        57 -11.7154    201.9079     35.4518   5.5804096816e+01   2.9756540820e+01    0.3272023    0.2243925 -50.02 0.0007286067    1.507    0.336
        58  -9.9530    189.9543     35.9623   5.7669862663e+01   3.2813027263e+01    0.2180293    0.1941952 -46.75 0.0007637815    1.126    0.112
        59 -10.3008    143.7834    145.8000   9.6709232003e+01   2.4783157135e+01    0.3216076    0.1748944 -71.55  0.001067229    4.201    0.762
        60 -11.6227    153.0316     21.3608   5.8852183897e+01   4.4360762400e+01    0.2492422    0.2107713 -20.68 0.0002444683    1.218    0.179
        61 -10.9453     38.9745     19.0093   9.2753219222e+01   6.8087573140e+01    0.2036373     0.129071 -17.31  0.001131767    1.718    0.418
        62 -10.7593    166.0052    134.5018   8.9518644935e+01   2.2383730776e+01    0.2093304    0.1961112 -29.53 0.0003732448    1.120    0.107
        63  -9.5974     98.4308    135.5674   1.0536807411e+02   3.5082394446e+01    0.1331839    0.1232873  81.64 0.0001279288    1.018    0.018
        64 -11.9838    134.6763    108.1951   9.0493639545e+01   3.4067124070e+01     1.082045    0.2620254 -45.65  0.003052364    4.187    0.761
        65 -10.1824    146.4052     13.6963   5.7226373729e+01   4.6947928292e+01     0.259903    0.1976768  53.66  0.001327957    1.232    0.188
        66 -15.2689     20.9402    193.2952   1.2858062015e+02   3.3140860870e+01    0.9391893    0.7309502  85.65   0.00384189    1.184    0.155
        67 -13.4342     70.6348    148.1139   1.1405432466e+02   3.6536987214e+01      1.76102    0.9081313 -76.97  0.005612192    2.112    0.526
        68 -13.7302     49.9222    172.4016   1.2138939107e+02   3.4094461510e+01    0.4197227    0.4089344  26.77   0.00142378    1.462    0.316
        69 -14.3167     56.4175    167.3327   1.1952290667e+02   3.4345809486e+01    0.8382042    0.5806255  62.23  0.002681272    1.254    0.203
        70 -13.9351     61.5047    162.2232   1.1787097863e+02   3.4763383005e+01    0.7123412    0.4603926  69.20  0.001594337    1.459    0.315
        71 -13.8702      3.8128    204.5620   1.3212171515e+02   3.2689160763e+01     1.312713    0.3902237 -86.02  0.006948767    3.035    0.671
        72 -11.3223    135.7650    129.5780   9.5188623788e+01   2.9530065935e+01    0.7173216    0.1755784 -50.78  0.001979923    4.877    0.795
        73 -11.5883    192.6358    194.6305   9.5750443870e+01   7.6521158020e+00    0.8206139    0.4578186 -64.87  0.002642848    7.264    0.862
