#   1 NUMBER                 Running object number                                     
#   2 MAG_AUTO               Kron-like elliptical aperture magnitude                    [mag]
#   3 X_IMAGE                Object position along x                                    [pixel]
#   4 Y_IMAGE                Object position along y                                    [pixel]
#   5 X_WORLD                Barycenter position along world x axis                     [deg]
#   6 Y_WORLD                Barycenter position along world y axis                     [deg]
#   7 A_WORLD                Profile RMS along major axis (world units)                 [deg]
#   8 B_WORLD                Profile RMS along minor axis (world units)                 [deg]
#   9 THETA_WORLD            Position angle (CCW/world-x)                               [deg]
#  10 FWHM_WORLD             FWHM assuming a gaussian core                              [deg]
#  11 ELONGATION             A_IMAGE/B_IMAGE                                           
#  12 ELLIPTICITY            1 - B_IMAGE/A_IMAGE                                       
         1 -18.6869    230.3637     92.3808   4.6694928725e+01   1.6474086887e+01     6.118882     4.897952 -44.20   0.02756624    1.102    0.092
         2 -12.2379    134.0436     39.9713   4.9048013116e+01   4.6405301253e+01      1.08779    0.4970169 -28.65  0.004567384    2.478    0.596
         3  -8.4824    188.1019     21.6135   3.5599655688e+01   3.5775879172e+01     0.209921    0.1524582 -55.13  0.000557783    1.312    0.238
         4  -8.8328    165.0947      7.7061   3.4702579451e+01   4.2539558276e+01    0.1931933    0.1828108 -14.85 0.0003137075    1.322    0.244
         5  -8.4425    217.7213      3.0680   2.8780773417e+01   3.1223592637e+01    0.1554202    0.1245469 -85.06  0.001051902    1.086    0.079
         6 -11.4162    119.3569     10.2401   4.2248977638e+01   5.3081886865e+01    0.6794011    0.4529913  57.65  0.003049329    1.258    0.205
         7  -8.6771    180.9813    221.8970   8.2808055218e+01   1.2854513942e+00    0.1986211    0.1748917   5.00 0.0004597965    1.038    0.036
         8 -10.0307    246.5101    249.5135   7.4876837901e+01  -1.1647855627e+01    0.2077888    0.1506189  -1.43  0.001264769    1.027    0.026
         9  -9.7956    230.9954    249.2432   7.7590104479e+01  -9.8201378315e+00    0.2030878    0.1446095 -18.65 0.0007687936    1.227    0.185
        10  -9.9753    147.7772    215.4692   8.8992349054e+01   7.7920943575e+00    0.2348742    0.2225564  -1.29 0.0003130511    1.070    0.065
        11  -9.1655    181.4351    211.6025   8.0910695682e+01   3.0734044466e+00    0.3771356    0.2289253  50.92  0.001740613    2.205    0.547
        12  -8.3166     99.8559    210.5053   9.9462001580e+01   1.6532744572e+01     0.194512    0.1799023 -74.25 0.0003995374    1.132    0.116
        13 -10.1794    192.4701    194.3712   7.5380155429e+01   4.4928315132e+00     1.002094    0.5064684 -62.50  0.002799424    6.369    0.843
        14  -8.6118    170.6537    201.0974   8.1338499310e+01   6.8436670457e+00    0.1922014    0.1655986 -27.06 0.0003183979    1.142    0.125
        15  -9.2603     31.9303    197.2965   1.1423783801e+02   2.8555385014e+01    0.2147418    0.1630026 -72.47 0.0003353615    1.239    0.193
        16  -9.7169    190.7802    236.7849   8.3274155727e+01  -2.6879111658e+00    0.2972697    0.2491356 -77.40  0.001738908    2.114    0.527
        17 -10.5390    133.3541    143.3631   7.8411838001e+01   2.6508190893e+01    0.6580272    0.2821857 -55.83  0.002046885    2.745    0.636
        18 -12.3850     67.6393    143.7730   9.7415395640e+01   3.7796326830e+01     1.744448     1.161204  61.07  0.007905259    1.831    0.454
        19 -13.5648     68.0992    124.5823   9.3420604969e+01   4.2656033329e+01     2.116722     1.518317  24.21  0.009986104    1.534    0.348
        20  -8.7099    121.0760    145.1123   8.2106243354e+01   2.8490601257e+01    0.2246337    0.2179024 -32.11 0.0002817067    1.018    0.017
        21 -13.2592     30.4651    131.6709   1.0692194581e+02   4.5206752427e+01     1.304027    0.9389079 -71.28  0.004509848    1.235    0.190
        22 -11.1972    104.8142    128.9984   8.2984705519e+01   3.5491256308e+01    0.7007554    0.4844866  69.47  0.002882967    2.086    0.521
        23  -8.5483    110.9339    168.3784   8.9709227500e+01   2.4662096569e+01    0.3202622      0.18444  54.32  0.001267541    2.092    0.522
        24 -10.8467    114.0006    124.5032   7.9202842209e+01   3.4823290774e+01    0.4677357    0.3124504  26.28  0.001986653    1.729    0.421
        25 -12.0614     55.8315    126.0902   9.7744325682e+01   4.3911116828e+01    0.6263955    0.5733152 -27.06 0.0007802513    1.137    0.120
        26 -10.2178    112.2877    119.7033   7.8485587931e+01   3.6295782766e+01    0.4528873    0.1811089 -46.32  0.001533084    2.432    0.589
        27 -11.0415      5.6937    113.3018   1.1229501563e+02   5.1658167504e+01    0.4280002    0.2222919 -45.63  0.002180025    1.748    0.428
        28  -8.2328     98.4651    118.4666   8.2308934841e+01   3.9216337174e+01    0.1561903     0.148136 -27.51 9.780504e-05    1.033    0.032
        29 -12.6502     12.4306    133.9699   1.1281968304e+02   4.6062738227e+01     1.030972    0.7385092 -88.95  0.005910747    1.322    0.244
        30 -10.2944     83.7950    136.0722   9.0937359110e+01   3.7361173506e+01    0.2835004    0.2308188  18.59 0.0004497495    1.365    0.267
        31 -12.7098     35.1458    128.9176   1.0499269040e+02   4.5474231231e+01      0.93318    0.6646418  71.67  0.004078024    1.661    0.398
        32 -10.1503     88.2113     95.5911   7.9436931746e+01   4.6403712441e+01    0.2564965     0.234751 -28.89  0.000264783    1.042    0.040
        33  -8.6490    154.9382    178.6226   8.0612289602e+01   1.4289483956e+01     0.259494    0.2125769 -82.51 0.0008560928    1.641    0.391
        34  -9.3025    179.2552    176.1014   7.4558272279e+01   1.0374442027e+01    0.2720982    0.2079982 -61.10  0.001335381    1.628    0.386
        35 -12.4504    138.2350     73.6854   5.8492237933e+01   4.0251523455e+01     1.218132    0.6409328 -41.29  0.005069996    1.929    0.482
        36 -11.0838    130.6938     66.6886   5.8185666396e+01   4.3207281685e+01    0.9612447    0.3413661  47.63  0.003337986    2.696    0.629
        37 -10.3582    210.9813    231.0734   7.8320825602e+01  -4.6179381110e+00     0.225043    0.1889066  -7.91            0    1.104    0.094
        38 -11.9645    136.5244     53.3961   5.2715487914e+01   4.3949878195e+01     1.080968    0.5040295 -26.18  0.003195018    2.709    0.631
        39 -10.8920    140.4642     41.5461   4.8239762425e+01   4.4671127351e+01    0.6648158    0.3306454 -19.28  0.002280462    2.893    0.654
        40  -9.1995    132.6427     28.7189   4.5763214271e+01   4.8106059582e+01    0.2645442    0.1899592  30.86  0.001057739    1.590    0.371
        41  -8.3684    107.8236     69.2024   6.5115832793e+01   4.7879186023e+01    0.2036372    0.1682972  10.57 0.0004078133    1.319    0.242
        42  -8.5758    122.5991     58.7353   5.7688045872e+01   4.6374782709e+01    0.2695619    0.1432027 -30.26  0.001129708    2.096    0.523
        43  -9.7927    120.9385     39.3378   5.1715890630e+01   4.9564349192e+01    0.2436611    0.2070235 -26.69 0.0003291015    1.281    0.220
        44 -10.3460    178.1763     33.5871   3.9815783779e+01   3.6679121002e+01    0.4279423    0.3291514  27.91  0.002349248    1.782    0.439
        45  -8.7972    161.2113    176.2103   7.8652848944e+01   1.3657660223e+01    0.4526981    0.2995057  86.36  0.001569651    3.665    0.727
        46  -9.6740    143.9147     33.1313   4.5026793269e+01   4.4902911020e+01    0.3133921    0.1935527  -7.28  0.001360531    2.427    0.588
        47  -9.0446    204.6494    160.4127   6.5993540816e+01   8.9036769658e+00    0.2522822    0.1714522  35.90 0.0007888295    1.581    0.368
        48  -8.7421    151.1537    159.9017   7.7615745745e+01   1.9171007820e+01     0.221447     0.208709  89.34 0.0002533529    1.201    0.168
        49  -9.2938    178.7274    230.9678   8.4799924921e+01   4.7144801166e-02    0.2768544     0.204105  32.85 0.0004684454    1.278    0.218
        50  -9.7610    248.1551    175.9226   6.1388376597e+01  -9.0532860513e-01     0.392005     0.201399 -35.29  0.001992237    1.623    0.384
        51  -8.7905     34.1546    181.9403   1.1221101514e+02   3.2049033069e+01    0.1930476    0.1696393 -82.89 0.0004012962    1.066    0.062
        52  -9.4893    136.0465     20.9061   4.2678421907e+01   4.8143745081e+01    0.3299331    0.1557399  66.19   0.00109944    1.919    0.479
        53 -10.2563    131.4741    135.4866   7.7053984414e+01   2.8737545228e+01    0.4714739    0.2835003 -57.14  0.001386388    1.835    0.455
        54  -8.9684    180.0509    226.4521   8.3774718109e+01   6.2779649044e-01    0.2256983    0.1738372 -23.20 0.0001060132    1.289    0.224
        55 -10.4898    133.7666    147.7650   7.9310800717e+01   2.5388592323e+01    0.7986999    0.3668151 -60.16  0.002540343    3.028    0.670
        56  -8.2554     69.8400    226.3910   1.0836287179e+02   1.7330285312e+01    0.1714307     0.120184  23.76 0.0003488782    1.627    0.386
