#   1 NUMBER                 Running object number                                     
#   2 MAG_AUTO               Kron-like elliptical aperture magnitude                    [mag]
#   3 X_IMAGE                Object position along x                                    [pixel]
#   4 Y_IMAGE                Object position along y                                    [pixel]
#   5 X_WORLD                Barycenter position along world x axis                     [deg]
#   6 Y_WORLD                Barycenter position along world y axis                     [deg]
#   7 A_WORLD                Profile RMS along major axis (world units)                 [deg]
#   8 B_WORLD                Profile RMS along minor axis (world units)                 [deg]
#   9 THETA_WORLD            Position angle (CCW/world-x)                               [deg]
#  10 FWHM_WORLD             FWHM assuming a gaussian core                              [deg]
#  11 ELONGATION             A_IMAGE/B_IMAGE                                           
#  12 ELLIPTICITY            1 - B_IMAGE/A_IMAGE                                       
         1 -12.9858      8.8081     25.8145   4.8488682864e+01   7.4531143466e+01    0.6598731    0.2650696 -53.59  0.002911019    2.264    0.558
         2 -12.3250    249.3549     21.1561   3.4675550730e+02   2.5175164083e+01     0.371066    0.1461192 -43.14  0.002201078    1.693    0.409
         3 -12.7887      5.3648     14.9675   4.6219602465e+01   7.7032747925e+01    0.8181784     0.281626 -40.03  0.003347522    2.947    0.661
         4 -11.4470      3.5056     10.0346   4.5237902436e+01   7.8147023576e+01    0.3025028    0.2209984 -31.16  0.001476359    1.257    0.205
         5 -11.4455      1.9664      3.6155   4.2698871201e+01   7.9463989934e+01    0.4048944    0.2266614 -48.85  0.002135104    1.794    0.443
         6 -13.0520      7.0058      1.9854   3.5965039254e+01   7.9181502218e+01    0.7140602    0.5426952  45.26  0.004192722    1.635    0.388
         7 -11.8865     15.8027     18.8816   3.9047625714e+01   7.5156935626e+01    0.3778931    0.2186879 -44.98  0.001955025    1.712    0.416
         8 -12.2962     11.6238     14.4294   4.0039481505e+01   7.6480368589e+01    0.3854306    0.2134075 -37.33  0.002011918    1.797    0.443
         9 -13.6430    246.8537      6.4976   3.4404618348e+02   2.7136772832e+01     0.776298    0.4058184 -48.35  0.005336219    1.299    0.230
        10 -12.0930     16.6056      7.4266   3.0974901129e+01   7.7021001307e+01    0.4450309    0.2397951 -19.34  0.002022963    2.711    0.631
        11 -10.1532     32.3146      7.6632   1.9640792884e+01   7.4352688616e+01    0.1194582    0.1019174 -86.32 0.0007047104    1.694    0.410
        12 -11.2427     27.2400      3.9519   2.0244698987e+01   7.5770988096e+01    0.3043374    0.1947716 -11.43  0.001630555    1.931    0.482
        13 -11.0727    234.2189    243.9271   2.8229939886e+01  -3.0837925133e+00    0.2440245    0.1311168 -19.73  0.001361826    1.488    0.328
        14 -11.5858    249.0866    249.1587   2.6743891334e+01  -4.8606364968e+00      0.31361    0.1661002 -18.00  0.001871535    1.435    0.303
        15 -11.9378    100.2949    246.8151   5.4085511144e+01   9.9847865273e+00    0.5341631    0.3054081  81.99  0.002402312    3.818    0.738
        16 -10.1057     52.0104    249.9978   6.5239704435e+01   1.4482460500e+01    0.2051093    0.1082077  47.84  0.001132152    1.664    0.399
        17 -10.0103     27.2362    250.3892   7.0834630311e+01   1.6746812953e+01    0.2666473    0.1013014  32.41  0.001339856    1.895    0.472
        18 -11.1018     21.8870    248.8569   7.1964274132e+01   1.7515864213e+01    0.4004986    0.1616329  42.29  0.002094731    1.810    0.447
        19 -12.0978    109.1487    241.6071   5.1582304608e+01   9.9209067954e+00    0.3444333    0.2196243  72.56  0.001745331    2.826    0.646
        20 -10.9192    248.8516    232.8597   2.4515165993e+01  -2.9593340024e+00    0.2234404    0.1084833 -31.27  0.001230747    1.591    0.372
        21 -11.7595    247.1740    226.5217   2.3844678885e+01  -2.0571509370e+00    0.4192346    0.1420276 -31.82  0.002320794    2.369    0.578
        22 -11.0523    128.2832    248.5569   4.8203860657e+01   6.6233955302e+00    0.2955094   0.09978098  24.90  0.001296294    2.551    0.608
        23 -11.1079     72.6674    240.8288   5.9828517598e+01   1.4097048470e+01    0.3076047    0.1920222  71.33  0.001678417    2.084    0.520
        24 -10.7561     62.4755    241.5008   6.2253405473e+01   1.5045496508e+01     0.324844    0.1568319  47.32  0.001646725    1.906    0.475
        25 -11.2192     54.2422    240.5450   6.4106814943e+01   1.6079789319e+01    0.4045542    0.2044608  64.05  0.001992363    2.374    0.579
        26 -10.5032     38.6641    241.3795   6.7791153705e+01   1.7450156635e+01    0.2841583    0.1412584  51.14  0.001503569    1.781    0.438
        27 -10.4026     30.2904    241.9424   6.9757423743e+01   1.8121382397e+01    0.3045664    0.1090633  38.36  0.001456926    2.004    0.501
        28 -11.3148     19.1692    239.7219   7.2219356270e+01   1.9559326783e+01     0.410778    0.2281585  41.44  0.002299246    1.385    0.278
        29 -11.2478     84.0099    239.3583   5.7068082645e+01   1.3141842058e+01    0.3473546    0.1491144  44.41  0.001616035    2.239    0.553
        30 -11.4009     83.8235    247.0904   5.7804723527e+01   1.1727114765e+01      0.27874    0.1696113  33.52  0.001499886    1.332    0.249
        31 -10.5487     45.7440    237.6252   6.5911674307e+01   1.7513849077e+01    0.3431913    0.1842758  69.93  0.001766733    2.168    0.539
        32 -11.2762     65.2171    249.0957   6.2183928748e+01   1.3318511755e+01    0.3850752    0.1596808  35.04  0.001926937    1.828    0.453
        33 -10.1615      7.1101    235.3982   7.4839095900e+01   2.1450119246e+01    0.2442276    0.1168775  64.92  0.001268541    1.910    0.476
        34 -11.6155    116.6828    244.3894   5.0225998929e+01   8.5945037111e+00    0.2480174    0.1757362  65.97  0.001435829    2.172    0.540
        35 -10.8685     32.8678    232.2037   6.8655227713e+01   1.9867355750e+01    0.3705636    0.1917639  75.15  0.001885042    2.169    0.539
        36  -9.9561      1.4359    233.9800   7.6100051957e+01   2.2190627222e+01    0.1683128    0.1054467  83.98  0.001022569    1.591    0.372
        37 -10.5926     63.5094    230.5255   6.1151984601e+01   1.7120471623e+01    0.3838155    0.1652489  67.88  0.001397425    4.218    0.763
        38 -10.0413     11.3365    231.8428   7.3742765026e+01   2.1843655213e+01    0.2728684    0.1182578  37.00  0.001406566    1.726    0.421
        39 -10.9166      6.4854    228.1100   7.4759057272e+01   2.3024607925e+01    0.4226789    0.1612699  76.87  0.001908046    2.752    0.637
        40 -10.4731     48.1281    229.7221   6.4821330511e+01   1.8894859277e+01    0.2733453    0.1611664  72.20  0.001442118    1.937    0.484
        41 -11.4639    249.3734    239.7557   2.5411462671e+01  -3.8105767228e+00    0.3448019    0.1493067 -34.53  0.002174474    1.870    0.465
        42 -10.5234     21.6190    228.2652   7.1158519777e+01   2.1721159409e+01    0.3482838   0.09798969  42.11  0.001470232    2.494    0.599
        43 -10.6076    236.6061    228.1959   2.5641061198e+01  -1.3579839875e+00    0.1545774   0.07141063 -27.86 0.0009565637    1.751    0.429
        44 -10.2779     40.1539    229.2421   6.6727301866e+01   1.9789599251e+01    0.2517225    0.1271213  60.32  0.001241608    2.037    0.509
        45 -10.7104     12.0766    226.2950   7.3367897563e+01   2.2957933914e+01    0.3380961    0.1374355  55.02  0.001422678    2.101    0.524
        46 -11.5986    242.2516    237.2612   2.6097156191e+01  -2.9462163141e+00    0.3305458    0.1563271 -12.94  0.001696614    2.150    0.535
        47 -10.2257     55.6130    222.8019   6.2469144142e+01   1.9578643217e+01    0.1760886    0.1170006  82.39 0.0009554759    1.746    0.427
        48 -10.8497     19.7223    221.6039   7.1316929293e+01   2.3325370141e+01    0.4409101   0.09663913  39.62  0.001711769    2.867    0.651
        49 -10.9374      2.2296    220.5643   7.5544678639e+01   2.4984338521e+01    0.3377645    0.1802725  75.81  0.001567217    1.775    0.437
        50 -10.5462     44.0940    221.1809   6.5227368905e+01   2.1122602484e+01    0.2442773    0.1738824  62.36  0.001420302    1.369    0.270
        51 -10.6593    239.5899    219.7916   2.3960025288e+01  -5.5749530575e-01    0.1412235   0.08263368 -39.61 0.0009550035    1.713    0.416
        52 -11.2061     12.1687    216.6794   7.2975271740e+01   2.5054817698e+01    0.3474682    0.2137203  55.30  0.001977761    1.379    0.275
        53 -11.8945    248.2761    213.7952   2.1804940737e+01  -5.6987696274e-01    0.3940499    0.1442612 -32.58  0.002224196    2.140    0.533
        54  -9.9966     45.8033    212.5821   6.4168986143e+01   2.2852237318e+01    0.2049884   0.09680814  36.95 0.0009550542    1.739    0.425
        55 -10.8254     25.7900    209.9968   6.9191660794e+01   2.5389795754e+01    0.3326844    0.1878447  58.76  0.001711184    1.643    0.391
        56 -12.0564     13.7906    204.8722   7.2056715746e+01   2.7621134358e+01    0.6945401    0.2141749  48.21  0.002795931    2.614    0.617
        57 -10.1710     39.2118    206.3909   6.5437165124e+01   2.4940184785e+01    0.2054981   0.09955584  35.91 0.0009582344    1.714    0.416
        58 -11.0534      3.3346    211.9501   7.5007733491e+01   2.6818639505e+01    0.3957233    0.1727546  43.18  0.001963746    1.782    0.439
        59 -10.7695     30.2039    201.6418   6.7516849460e+01   2.6932148464e+01    0.3655104    0.2149584  67.76   0.00183573    1.708    0.415
        60  -9.7310     37.0162    200.4994   6.5595707444e+01   2.6543915744e+01    0.2090877   0.07244735  44.59    0.0008094    2.461    0.594
        61 -10.4053     21.7013    199.4818   6.9678010037e+01   2.8222724688e+01     0.325726    0.1464537  50.52  0.001475115    1.958    0.489
        62 -10.3048    244.0000    198.9744   2.0126614617e+01   1.7559609951e+00    0.1776015   0.04760233 -39.07 0.0008065191    2.971    0.663
        63 -11.9597      5.5760    195.9401   7.3852670363e+01   3.0390746479e+01    0.5453239    0.3230703  59.04  0.002719253    1.470    0.320
        64 -11.7284      3.7422    188.1493   7.4042722835e+01   3.2424719998e+01    0.3894421    0.2278193  84.63   0.00201295    1.613    0.380
        65 -10.6974      2.3787    206.3174   7.5065350882e+01   2.8180442172e+01    0.3107356    0.1921501  78.83    0.0013147    1.512    0.338
        66 -11.2185     17.9568    192.9430   7.0334124348e+01   3.0129044401e+01    0.4620776    0.2325851  67.05  0.002136148    1.967    0.492
        67  -9.8767     40.4833    193.9603   6.4134697952e+01   2.7767207469e+01    0.2031136   0.09684397  69.15 0.0008097955    2.547    0.607
        68 -10.1701     33.4601    194.0287   6.6097489385e+01   2.8452226740e+01    0.2039766    0.1298284 -82.09  0.001037613    1.618    0.382
        69 -10.5949    246.4070    190.7916   1.8484717598e+01   2.6203057663e+00    0.1604153   0.07560364 -29.29 0.0009499021    1.697    0.411
        70 -11.3395     10.8579    188.7552   7.2089649947e+01   3.1739178436e+01    0.4298501    0.2246658  65.35  0.002057591    1.800    0.444
        71 -10.6237     27.5994    186.8019   6.7231583659e+01   3.0794806602e+01    0.4854113    0.1195567  32.93  0.001722213    2.942    0.660
        72 -10.1001     39.5386    183.6334   6.3529088181e+01   3.0422976186e+01    0.4224921    0.1686266  63.71  0.001443106    3.380    0.704
        73 -10.9469     16.3876    182.2624   7.0168179660e+01   3.2920574210e+01    0.4432176    0.2267001  67.35  0.002015639    1.934    0.483
        74 -13.3523      6.8982    174.8706   7.2546659784e+01   3.5543698954e+01     1.105263    0.3726945 -88.07  0.004086168    2.992    0.666
        75 -11.1004     31.1772    173.3445   6.5131433713e+01   3.3896352731e+01    0.5189217    0.1887952 -89.14  0.001714901    3.553    0.719
        76 -11.5709     19.5572    172.5343   6.8608022277e+01   3.5157466718e+01    0.5913843    0.3085681  79.16  0.002620096    1.982    0.495
        77 -11.5137     16.9066    164.7785   6.8889852310e+01   3.7419010142e+01    0.4136757    0.1802331 -83.29  0.001681571    2.258    0.557
        78 -10.1527     41.1664    172.3319   6.1986932624e+01   3.3150635964e+01    0.3243938    0.1413349  75.60  0.001085223    3.401    0.706
        79 -10.7771      1.6689    165.3200   7.3666657240e+01   3.8384535927e+01    0.3617668    0.1664378  87.17   0.00156763    2.068    0.516
        80 -10.9848     28.1178    158.9550   6.4824629338e+01   3.8005682568e+01    0.4425354    0.1514938 -77.51  0.001532521    2.937    0.659
        81 -11.8960     15.0211    155.5125   6.8832829724e+01   4.0054531394e+01    0.5055813    0.2584227  69.85  0.002161154    2.016    0.504
        82 -10.5237     25.4948    149.4176   6.4800033723e+01   4.0843229194e+01     0.271179    0.1284434  85.98   0.00103469    2.381    0.580
        83 -12.6548      7.3710    146.6308   7.0777848944e+01   4.3023414410e+01    0.4958759    0.2933269  82.92  0.002346893    1.610    0.379
        84 -10.4860     34.4149    146.0081   6.1364121207e+01   4.0930098155e+01     0.431952    0.1843641  57.20  0.001513945    2.803    0.643
        85 -11.5165     20.5802    142.2660   6.5824727410e+01   4.3241656531e+01    0.5593271     0.263907 -88.35  0.002217693    2.209    0.547
        86 -11.8115      9.9205    136.6735   6.9158807448e+01   4.5596286396e+01    0.6526991    0.3399036 -82.29  0.002870069    1.793    0.442
        87 -11.9537      5.3677    125.3116   6.9958598101e+01   4.9043983995e+01    0.7079786    0.3905393  73.11  0.003153275    1.838    0.456
        88 -11.0866     22.2148    123.9793   6.3263285678e+01   4.8215506993e+01    0.7135895    0.1717199 -74.16  0.002058907    3.884    0.743
        89 -11.5250     10.1738    112.9992   6.6899949523e+01   5.2191614340e+01    0.8186683    0.3306329  83.04  0.002837909    3.003    0.667
        90 -11.0506     13.9773    100.1979   6.3703710022e+01   5.5507972532e+01    0.4948119    0.1670733 -67.01  0.001788478    2.489    0.598
        91 -11.3322      2.7294     95.4796   6.8320277711e+01   5.7473900051e+01    0.6603459     0.281343  86.00  0.002503963    2.596    0.615
        92 -10.8260     14.9743     87.3297   6.1289619350e+01   5.8972807922e+01    0.4968522    0.2483768  62.99  0.001924046    2.633    0.620
        93 -11.6536      4.4493     75.9124   6.4935199211e+01   6.2691560057e+01    0.7297321    0.2935396 -86.13  0.002706057    2.828    0.646
        94 -10.9152     17.8836     76.6179   5.7794836268e+01   6.1619471016e+01    0.4110489    0.1903166  66.92  0.001355265    3.796    0.737
        95 -10.8512     13.1507     68.4775   5.8701814695e+01   6.4111282640e+01    0.5073044     0.103753 -57.32  0.001630583    3.364    0.703
        96  -9.5549    235.3504     66.7106   3.5677845680e+02   2.1917803176e+01    0.1211826   0.06970214 -59.90 0.0003584692    1.667    0.400
        97 -11.7419      3.0253     62.8972   6.3577541427e+01   6.6163266616e+01    0.6146271    0.2858675 -81.58  0.002596974    2.281    0.562
        98 -11.0766     16.6646     53.1728   5.2682798405e+01   6.7659308367e+01    0.6393301    0.2553052 -77.59  0.002073214    4.141    0.759
        99 -11.7413      3.2250     50.9403   6.0990495689e+01   6.9158954583e+01    0.6420287    0.2060126 -57.09  0.002556903    2.445    0.591
       100 -11.9457     12.3852     39.8458   5.1278080659e+01   7.1155529304e+01    0.5882097    0.2509579 -59.24  0.002570718    2.187    0.543
       101 -11.7845      1.4946     38.5411   5.9069044054e+01   7.2222938381e+01    0.5424402    0.1207288 -69.55  0.001728324    4.352    0.770
       102 -12.0615     19.7447     27.5318   4.0550599348e+01   7.3007412952e+01    0.5368186    0.2059085 -51.97  0.002241096    2.595    0.615
       103 -10.4368    201.3805    248.9337   3.4225218362e+01  -8.5178352477e-01    0.2285002    0.1144712   5.60  0.001337016    2.036    0.509
       104 -10.1330    184.9518    250.0000   3.7257471441e+01   5.4883165406e-01    0.1746706   0.05206173  26.44 0.0008034662    2.950    0.661
       105 -11.5706     24.1177     20.3256   3.3401331301e+01   7.3766232770e+01    0.3773973     0.160647 -35.74  0.001571301    2.730    0.634
       106 -11.1882     90.5421    247.8907   5.6364156085e+01   1.0857212572e+01    0.2843226    0.1980911  64.91  0.001704857    1.849    0.459
       107 -11.1494     76.9527    248.1272   5.9447394531e+01   1.2271305568e+01    0.3188296    0.1966082  52.39   0.00184264    1.692    0.409
       108 -10.7894     35.1206    248.2497   6.8964725957e+01   1.6438122095e+01    0.3239042     0.150027  42.54  0.001744706    1.666    0.400
       109 -11.2473    144.1154    248.2451   4.4887773599e+01   4.9662187587e+00    0.2674627    0.1112152  34.21  0.001354153    2.160    0.537
       110 -11.1895    243.2666    245.1244   2.7040811449e+01  -3.9527452416e+00    0.2925577    0.1146462 -26.33  0.001758749    2.165    0.538
       111 -10.8390    169.4911    247.4952   3.9798466042e+01   2.4297631728e+00    0.2122028   0.09156956  15.05  0.001043097    2.434    0.589
       112 -10.9114    218.8912    245.3968   3.0834412851e+01  -1.9655771196e+00    0.2159332    0.1006271 -24.12  0.001317173    1.921    0.479
       113 -10.5678     45.6897    244.7430   6.6360781599e+01   1.6110028351e+01    0.2756225    0.1264709  35.31  0.001436935    1.654    0.395
       114 -11.5192      3.9891    242.5903   7.5748422984e+01   2.0242631516e+01    0.4887775    0.2033317  61.68  0.002536199    2.114    0.527
