#   1 NUMBER                 Running object number                                     
#   2 MAG_AUTO               Kron-like elliptical aperture magnitude                    [mag]
#   3 X_IMAGE                Object position along x                                    [pixel]
#   4 Y_IMAGE                Object position along y                                    [pixel]
#   5 X_WORLD                Barycenter position along world x axis                     [deg]
#   6 Y_WORLD                Barycenter position along world y axis                     [deg]
#   7 A_WORLD                Profile RMS along major axis (world units)                 [deg]
#   8 B_WORLD                Profile RMS along minor axis (world units)                 [deg]
#   9 THETA_WORLD            Position angle (CCW/world-x)                               [deg]
#  10 FWHM_WORLD             FWHM assuming a gaussian core                              [deg]
#  11 ELONGATION             A_IMAGE/B_IMAGE                                           
#  12 ELLIPTICITY            1 - B_IMAGE/A_IMAGE                                       
         1 -11.0425    248.3847     60.8515   4.5895601457e+01   1.6549176796e+01     1.208946    0.5057174 -36.15  0.005795586    1.886    0.470
         2 -11.7601    220.0553     78.1417   5.3194718484e+01   1.9932551042e+01     3.440506    0.7794533 -46.71  0.007550482    8.604    0.884
         3 -13.3092    242.4308    117.1347   5.9157010914e+01   1.0348858799e+01     4.275803    0.9170285 -30.43   0.01361582    4.453    0.775
         4 -11.9431    223.2279     62.4843   4.8929737840e+01   2.1394722200e+01     1.055221     0.790646 -38.52  0.003899997    1.168    0.144
         5 -12.6118    234.7134     54.9039   4.5837294360e+01   1.9977517012e+01     1.684765    0.7364631 -36.83  0.004051355    1.863    0.463
         6 -12.2476    218.3212     33.7993   4.2166245179e+01   2.6049206519e+01     1.737464    0.5958133 -47.24  0.006791869    2.703    0.630
         7 -13.1351    161.4015     52.3951   5.4934164133e+01   3.7405450945e+01     4.346156     2.199454  86.90   0.01362991    3.892    0.743
         8 -12.8231    242.2405     31.1788   3.9527561549e+01   2.1233783296e+01      3.04899    0.5442399  59.61    0.0104852    5.112    0.804
         9 -10.5866    135.0707     18.8977   4.7932504312e+01   4.8787101757e+01    0.3946409    0.3756301 -66.84  0.002265842    1.056    0.053
        10  -8.4770    223.6537     18.6270   3.7861127984e+01   2.6546443583e+01    0.3616486    0.1401795 -21.47  0.001439038    2.796    0.642
        11  -9.0352    201.1535     16.3159   3.9041387503e+01   3.1988074127e+01     0.547696    0.1974534 -59.28  0.001912142    3.478    0.713
        12 -10.2314    125.1644     12.8467   4.7283562638e+01   5.2091904960e+01    0.4879762    0.2535715 -26.99  0.001298764    1.982    0.496
        13 -11.0658    119.7462      9.6887   4.6956028430e+01   5.3857262924e+01    0.7639058     0.456354  48.60  0.003105677    1.631    0.387
        14  -7.9682    251.0000     12.4734   3.4661285312e+01   2.1445642266e+01    0.2357193   0.05760063 -26.31 0.0006357722    3.518    0.716
        15  -8.2297    215.5311      8.5817   3.5878932689e+01   2.9401345584e+01    0.3572989     0.162775 -39.17  0.001721893    1.808    0.447
        16  -9.3055    143.4799      7.6821   4.2458612440e+01   4.7699614127e+01     0.482069    0.1985651 -14.13  0.001760276    3.082    0.676
        17  -9.7943    234.0180      5.2443   3.3922407018e+01   2.5642855066e+01    0.3760869    0.1845593 -38.87  0.001648007    1.621    0.383
        18  -8.7955      1.5061      4.5001   9.9658399211e+01   7.7726981649e+01    0.1765076    0.1093872 -69.28   0.00099947    1.844    0.458
        19  -8.4903    249.5811      1.7765   3.2338247824e+01   2.2764792183e+01    0.1939812    0.1514512 -80.66  0.001003932    1.277    0.217
        20  -9.0234    209.0555      1.4185   3.4436402440e+01   3.1582710839e+01    0.1759104    0.1167668  84.19 0.0003160773    1.474    0.322
        21 -12.2139     29.4095    166.7190   1.1634639763e+02   3.6908813302e+01    0.7058706    0.5868533  51.16  0.001575927    1.119    0.106
        22 -11.9028     41.5623    160.0048   1.1256624870e+02   3.7159148028e+01    0.8528438    0.7553933  76.08  0.003028145    1.074    0.069
        23  -8.8323    241.8295    246.4725   8.1995478097e+01  -4.4971259004e+00    0.1594517    0.1318687   7.93 0.0005945288    1.469    0.319
        24 -10.9359    242.2184     46.5666   4.3147695539e+01   1.9472759140e+01    0.8927712    0.7621552  54.99  0.004560816    1.392    0.281
        25  -8.2677    101.6132    241.7848   1.0630234563e+02   1.3800289975e+01    0.1298421    0.1013332  78.07 0.0003806005    1.570    0.363
        26  -8.3889    212.9189    236.0040   8.5119377279e+01  -1.0321509345e-01    0.1604914    0.1166198  15.91 0.0003964398    1.026    0.025
        27  -8.7715    211.4579    218.5411   8.2839975869e+01   2.0224857074e+00    0.1926835    0.1768242  40.32 0.0007671178    1.671    0.402
        28  -9.1143    199.7963    213.1077   8.4030547772e+01   4.2516930259e+00    0.2462928    0.1596774  42.42   0.00153572    1.684    0.406
        29 -10.3356    231.2666    211.8985   7.8564534889e+01   2.0292488163e-01    0.1956208    0.1515285   2.05  0.000288233    1.096    0.088
        30  -7.7039    158.3755    157.2062   8.2528895978e+01   1.9366958366e+01    0.1798903     0.131326 -53.65 0.0007190013    1.626    0.385
        31 -11.7571    236.2299     81.5217   5.1981921503e+01   1.6238840365e+01     1.299375    0.7331316 -60.06  0.006038115    2.501    0.600
        32  -9.0815     70.2696    145.5731   1.0282107615e+02   3.6904114216e+01    0.3801682    0.2533916  46.03  0.001470141    1.388    0.280
        33  -9.5697     66.3850    144.1980   1.0373889149e+02   3.7774749988e+01    0.4644192    0.3128487 -77.49  0.002118506    1.533    0.348
        34  -9.8799    194.8421    129.5819   6.9401613607e+01   1.7200211063e+01    0.2782242    0.2269549  25.30 0.0003591236    1.223    0.182
        35  -8.4240    199.9652    126.0663   6.7698216969e+01   1.6775007387e+01    0.2539138    0.1684077  -4.24 0.0006820202    1.928    0.481
        36  -9.0400    138.0729    130.0206   8.1536003465e+01   2.8479838075e+01    0.2511325    0.2053827  33.94 0.0003374828    1.209    0.173
        37  -8.0666    161.3090    129.6594   7.6103110621e+01   2.3849863947e+01    0.1432148    0.1167964 -85.09 0.0005552665    1.689    0.408
        38  -7.5900    101.0051    123.3114   8.9899457754e+01   3.7119249399e+01     0.163588    0.1322326  42.20 0.0003225909    1.203    0.168
        39  -8.4911    162.9957    120.8372   7.3689309892e+01   2.5138634616e+01    0.2354741    0.2042722 -37.48            0    1.161    0.138
        40  -9.8357    230.6665    114.5884   6.0239199090e+01   1.2750058714e+01    0.2808663    0.1827252 -40.38  0.001081003    1.487    0.328
        41 -10.4116    206.5641    107.8338   6.2370890725e+01   1.8323661555e+01    0.6105465     0.450404 -45.34  0.003243447    1.394    0.283
        42 -11.5798    187.6333    100.6106   6.3837517293e+01   2.3421366343e+01     2.012633    0.3754133 -39.24  0.005433164    4.732    0.789
        43  -8.8584    200.8415    208.2113   8.3092577724e+01   4.7191625062e+00    0.1856581    0.1469698  13.84 0.0003470176    1.020    0.019
        44 -11.6422    180.6750     70.9115   5.7128039511e+01   2.9805160692e+01     0.780911     0.497062 -27.28  0.003604703    1.610    0.379
        45  -8.1255     84.8950    102.8318   9.0174413825e+01   4.4834466459e+01     0.202614    0.1936576 -40.84 0.0002698673    1.110    0.099
        46  -8.5585    150.9472    100.6192   7.1269917048e+01   3.1573524147e+01    0.2738361    0.2498728  -2.57   0.00069113    1.179    0.152
        47 -11.7138    240.3262     73.6162   4.9671558377e+01   1.6486813362e+01     1.329494     0.607801 -55.03  0.005508398    3.016    0.668
        48  -9.7712    163.5888     95.1293   6.7049437179e+01   2.9724040327e+01     0.655066    0.4854249  68.68  0.003124713    1.587    0.370
        49  -8.7249    136.0022     96.6128   7.3744839278e+01   3.5727694002e+01    0.4261424    0.2615364 -61.94  0.001142643    2.182    0.542
        50  -9.0339    144.8508     90.3295   6.9851205004e+01   3.4937182236e+01    0.2719168    0.2607381 -26.29 0.0004042173    1.061    0.058
        51  -7.7746    118.7751     89.3551   7.6232995574e+01   4.1072748753e+01    0.3001603     0.208198 -14.30 0.0005894053    2.176    0.540
        52 -10.4731    161.2409     84.4007   6.4573846728e+01   3.2183233978e+01    0.3538227    0.2776086 -23.71  0.000761794    1.363    0.266
        53  -8.8984    197.8325     82.3075   5.7430187471e+01   2.4097094681e+01     0.355894    0.1967858 -29.15 0.0007919689    1.765    0.433
        54 -10.2842    101.8315     83.0507   7.9359120212e+01   4.6087226795e+01    0.2437151    0.2371163  45.85 0.0002328632    1.038    0.037
        55  -7.4175    113.4753     81.6004   7.5427147454e+01   4.3872539221e+01    0.1521358     0.148268  40.05 -9.143294e-05    1.042    0.040
        56  -8.1402    138.4229     75.6297   6.7023221232e+01   3.9234893260e+01    0.3086291    0.1216792 -50.41 0.0008033152    3.210    0.688
        57  -9.9094    199.0378     74.3741   5.5168122406e+01   2.5022835902e+01    0.3613336    0.2363462  43.42 0.0009817202    1.707    0.414
        58 -10.2408    205.3805     71.1323   5.3403737176e+01   2.4077996033e+01    0.3877968    0.3122748  28.77  0.001514251    1.455    0.313
        59  -8.4705    173.2544     71.9870   5.8720163782e+01   3.1410140626e+01     0.206227    0.1826577 -41.43 0.0003277291    1.090    0.082
        60  -8.3223    142.3354    104.1489   7.4219278129e+01   3.2807221273e+01    0.2581308    0.1980717  39.41 0.0005235437    1.322    0.243
        61  -8.5720    206.3313     64.9826   5.1666176032e+01   2.4738408067e+01    0.2000127    0.1674484 -33.74 0.0006743675    1.103    0.094
        62  -9.2559    118.7835     64.2479   6.8319032433e+01   4.6091014593e+01    0.3741908     0.226412 -49.70 0.0008323505    1.761    0.432
        63 -10.8564    139.0309     61.9744   6.2528334683e+01   4.1531146704e+01    0.4581948    0.3983745   7.74  0.002324844    1.341    0.254
        64 -11.0792    148.9540     58.0183   5.9101670280e+01   3.9692663178e+01      0.70094      0.47925  21.34  0.002427618    2.081    0.520
        65  -7.8590    196.4346     54.6908   5.0218721082e+01   2.8445813763e+01    0.2878077    0.1158266 -36.22  0.001133594    2.182    0.542
        66 -10.3901    188.4755     46.5292   4.8985013342e+01   3.1464468315e+01    0.8567203    0.3428214 -41.72  0.003339327    2.282    0.562
        67  -9.2094    198.6449     45.4219   4.7373418811e+01   2.9163137673e+01    0.7069215    0.2511587 -51.04  0.002379045    3.391    0.705
        68  -9.5586    193.3232     45.3446   4.8014468976e+01   3.0446001011e+01    0.7067145    0.2324005 -37.25   0.00259884    2.579    0.612
        69  -7.2363    211.2609    204.2984   8.0662647939e+01   3.7485974585e+00    0.1144423   0.07414915   4.26 0.0006908601    1.508    0.337
        70  -9.8365    135.0919     51.1396   5.9747931975e+01   4.4332761665e+01     0.397958    0.2621408  47.87   0.00118798    1.533    0.348
        71  -8.2720     71.9618     48.0055   7.7728736950e+01   5.9546891033e+01     0.223375     0.178334 -78.65 0.0005562134    1.658    0.397
        72  -8.8212    164.3888     40.2498   5.0570783106e+01   3.8372113914e+01    0.2654391    0.2259288 -59.87  0.000419492    1.154    0.134
        73 -10.8080    180.8776     84.4326   6.0824981021e+01   2.7592813872e+01    0.7316116    0.5117615  31.34   0.00155306    1.710    0.415
        74  -9.7573    188.3197     80.2355   5.8414705027e+01   2.6559783243e+01    0.3410468    0.2681769 -58.01 0.0003938711    1.368    0.269
        75  -7.2441    187.7033     33.3096   4.5247768335e+01   3.3349308867e+01    0.1489645   0.09569693 -59.31 0.0004639601    1.594    0.373
        76  -8.2172    161.1373     29.1934   4.7467865915e+01   4.0647399152e+01    0.2053889    0.1876448  53.08 0.0003112541    1.152    0.132
        77  -8.4267    201.3529    203.8386   8.2313327642e+01   5.2033499400e+00    0.1813761    0.1373029  28.82 0.0004516729    1.202    0.168
        78 -10.0006    129.1267     24.5506   5.1191807370e+01   4.9698789811e+01    0.3168218    0.2691476 -73.67 0.0003196648    1.231    0.188
        79  -9.9518    130.4014     19.7876   4.9098833004e+01   4.9930665849e+01     0.369686    0.2328611  -0.86  0.001601127    2.144    0.534
        80  -7.5013    229.4444     20.5032   3.7905122170e+01   2.5080352748e+01    0.1254772    0.1090965 -48.07 0.0001756581    1.056    0.053
        81  -7.4111    228.2881    199.7333   7.7086796993e+01   1.9680972255e+00   0.09343307   0.08579627  19.87  0.000690315    1.499    0.333
        82  -8.0543    219.4931     20.0166   3.8527550072e+01   2.7327535685e+01    0.1901917     0.116457 -29.14 0.0006905928    1.513    0.339
        83  -7.3442    179.5278     20.5121   4.2368380825e+01   3.6896166382e+01     0.139699    0.1281369 -69.30 2.460048e-05    1.011    0.011
        84 -10.0697    168.8103    198.4501   8.7540574602e+01   1.0806213236e+01    0.2100283    0.1871281  22.00 0.0002918097    1.119    0.106
        85  -9.4013    235.6476    196.8929   7.5442992981e+01   1.3163681385e+00    0.2665759    0.1875489  46.49  0.001113479    2.023    0.506
        86  -8.0998    120.9922    196.6941   9.7294863890e+01   1.8528656464e+01     0.175897    0.1367717  38.46 0.0003634508    1.082    0.076
        87  -7.8629    244.9811     13.9607   3.5339212985e+01   2.2501885286e+01    0.1706861    0.1409389  20.48  0.001106917    1.655    0.396
        88  -7.6898    234.5800     14.1946   3.6026866782e+01   2.4636874466e+01    0.1506186    0.1119113 -17.27 0.0003135133    1.479    0.324
        89  -8.9325     53.3536    188.8237   1.1212276772e+02   2.9478665246e+01    0.1990663    0.1644774  45.01  0.000390841    1.123    0.109
        90  -8.6515    190.4341    183.2921   8.0877581330e+01   9.6560206541e+00    0.1985564    0.1621231  24.65  0.000271801    1.096    0.088
        91  -7.9008    176.0540    180.6888   8.3185914077e+01   1.2367325396e+01    0.1813847    0.1498912  22.80 0.0008382633    1.049    0.046
        92 -10.3369     11.0026    172.1762   1.2133904866e+02   3.7384454934e+01    0.3662111   0.09350225  48.17  0.001554839    2.834    0.647
        93 -10.2801      9.1866    167.4028   1.2156454269e+02   3.8584457331e+01     0.343472    0.1342215 -82.47  0.001650152    2.346    0.574
        94  -8.7115     54.8585    173.0948   1.1032215402e+02   3.2657395914e+01    0.1839999    0.1562649  59.85 0.0002894464    1.012    0.012
