#   1 NUMBER                 Running object number                                     
#   2 MAG_AUTO               Kron-like elliptical aperture magnitude                    [mag]
#   3 X_IMAGE                Object position along x                                    [pixel]
#   4 Y_IMAGE                Object position along y                                    [pixel]
#   5 X_WORLD                Barycenter position along world x axis                     [deg]
#   6 Y_WORLD                Barycenter position along world y axis                     [deg]
#   7 A_WORLD                Profile RMS along major axis (world units)                 [deg]
#   8 B_WORLD                Profile RMS along minor axis (world units)                 [deg]
#   9 THETA_WORLD            Position angle (CCW/world-x)                               [deg]
#  10 FWHM_WORLD             FWHM assuming a gaussian core                              [deg]
#  11 ELONGATION             A_IMAGE/B_IMAGE                                           
#  12 ELLIPTICITY            1 - B_IMAGE/A_IMAGE                                       
         1 -12.2347    145.4203     60.8470   8.8274911397e+01   4.0787419240e+01    0.5843027    0.3822681  32.50  0.002559827    1.685    0.407
         2 -10.8200    170.8810     27.0278   7.1314288161e+01   3.9264215493e+01    0.3674029     0.213284 -61.19  0.001409653    2.515    0.602
         3 -10.2664    156.9940     16.0024   6.9701184941e+01   4.4153119139e+01    0.2627693    0.1638686  29.77  0.001145885    1.735    0.424
         4 -10.9060    246.1603    249.9639   1.0905199925e+02  -4.2215279777e+00    0.5624656    0.1463844  42.30  0.002714123    3.181    0.686
         5 -11.3421    244.7266    244.6397   1.0854178008e+02  -3.6202707960e+00     0.377403    0.1722476  25.09  0.002364772    1.797    0.443
         6 -10.8620    181.9453    245.6963   1.1838842354e+02   4.9653902857e+00    0.4167639    0.3664685 -24.18  0.002932931    1.514    0.340
         7  -9.3287    178.7294    237.7404   1.1796875219e+02   6.2709054834e+00    0.2047596    0.1788263 -65.05  0.001407846    1.759    0.432
         8 -12.1439    135.6736    238.3091   1.2510478395e+02   1.2310161542e+01     1.371952     0.391011  52.63   0.00476759    5.893    0.830
         9 -10.2657    141.1183    234.9365   1.2385963761e+02   1.1977987595e+01    0.4846465    0.1999755  54.07  0.002454036    2.777    0.640
        10  -9.8574    155.1535    233.0563   1.2131419631e+02   1.0215074368e+01    0.2903408    0.1980318  64.55  0.001553618    1.889    0.471
        11  -9.1923    173.1342    233.0810   1.1832687443e+02   7.6036854367e+00    0.1815192    0.1718623  37.28 0.0008647322    1.312    0.238
        12 -10.0593    172.9216    240.2238   1.1920536003e+02   6.8318861228e+00     0.299286    0.2468931 -39.78  0.001594022    1.649    0.393
        13 -12.8528    124.9993    240.5296   1.2707076648e+02   1.3480647886e+01     1.163798    0.6881765  61.79  0.007871961    1.829    0.453
        14  -9.8217     64.1037    231.8599   1.3634431239e+02   2.2263860333e+01    0.5446149    0.2088795  69.47  0.002681475    3.783    0.736
        15 -11.2442     82.1047    244.7327   1.3430617760e+02   1.8352297011e+01     0.663258    0.1935449  37.08  0.003372067    3.054    0.673
        16 -10.2065     71.9070    239.4404   1.3557224633e+02   2.0278306869e+01    0.4916975    0.1619003  42.54  0.002882949    2.179    0.541
        17  -9.9907     81.3490    236.3859   1.3385362573e+02   1.9606150060e+01    0.5195116     0.117167  45.47  0.002536448    2.962    0.662
        18 -10.5134     89.7351    249.3250   1.3342308765e+02   1.6825132003e+01    0.3694098    0.1836037  44.14  0.002613972    1.461    0.315
        19 -11.3604     93.1594    244.6640   1.3255291413e+02   1.7030919833e+01    0.6513937    0.1671089  49.20  0.003207606    3.014    0.668
        20 -10.2687     66.2664    248.9804   1.3702474948e+02   1.9587628760e+01    0.3405504    0.1362269  48.54  0.001624764    1.732    0.423
        21 -10.0290     51.9013    250.0552   1.3925107285e+02   2.0992748118e+01    0.2915654   0.09772424  41.35   0.00156338    2.157    0.536
        22  -9.6761     33.9990    248.7485   1.4183928139e+02   2.2987519881e+01    0.2071289    0.1176952  68.18  0.001218443    1.353    0.261
        23 -11.8720     14.5008    205.0517   1.4308434239e+02   3.1489829988e+01     1.413486    0.3282045  52.41  0.007563815    2.907    0.656
        24 -11.3273     13.2235    216.8584   1.4375641068e+02   2.9681763437e+01    0.5616978    0.3087342  60.98  0.004468937    1.298    0.230
        25 -13.6780      4.6987    185.9871   1.4397512398e+02   3.5579423947e+01     2.548307     1.269151 -86.11   0.01794878    1.670    0.401
        26 -12.4684     21.4277    241.7994   1.4341669401e+02   2.5166395835e+01     0.939064    0.6392032  78.88  0.008676978    1.251    0.201
        27 -10.7959     15.1079    240.7679   1.4430536617e+02   2.5889095114e+01      0.33843    0.1769787  70.04  0.001995681    1.434    0.303
        28  -8.6667     58.0932    247.7725   1.3820229514e+02   2.0648576389e+01    0.1503477   0.08582819  57.28 0.0007253891    1.265    0.210
        29  -8.7610    201.4347    246.0900   1.1535737318e+02   2.1855816999e+00    0.1558821   0.09804273 -22.82  0.001121881    2.033    0.508
        30  -8.5865    189.5230    246.4823   1.1727878828e+02   3.8187060605e+00    0.1281843    0.1027671 -52.85 0.0008276031    1.986    0.497
        31  -8.3193    214.5558    246.4788   1.1336545906e+02   3.2283811252e-01    0.1055067   0.07387529  28.98 7.650592e-05    1.023    0.022
        32  -9.7930     45.6465    245.0182   1.3994659513e+02   2.2344909107e+01    0.2362069    0.1259986  54.24  0.001106839    1.307    0.235
        33 -11.0681    114.5570    243.4877   1.2903036875e+02   1.4480351095e+01    0.4440801    0.1164945  47.68  0.002114352    2.992    0.666
        34  -8.7348    196.1077    243.3389   1.1585774119e+02   3.2028817288e+00     0.160654    0.1214151  16.57 0.0007775986    1.254    0.202
        35 -10.1538     54.1513    239.8156   1.3838281562e+02   2.2194539871e+01    0.3933597    0.1633548  63.07  0.002088312    2.187    0.543
        36  -8.5744     39.2700    235.4281   1.4046706862e+02   2.4377996750e+01    0.1629102   0.05309946  47.40 0.0005564869    2.063    0.515
        37  -8.8463    229.7682    241.7132   1.1040070941e+02  -1.3576373209e+00    0.1262641   0.08054455 -37.61 0.0008843215    2.356    0.576
        38 -10.3581    105.1307    242.1438   1.3044127896e+02   1.5871791704e+01    0.1504734    0.1156693  41.96 0.0008146583    1.200    0.167
        39  -9.9919     45.2732    237.2426   1.3962636590e+02   2.3500397312e+01    0.3269312    0.1273468  59.29  0.001731615    2.078    0.519
        40  -9.1826     37.9133    240.9764   1.4092796568e+02   2.3704313957e+01    0.2128747   0.09326741  58.32  0.001087674    1.684    0.406
        41 -10.0269    187.6792    237.8032   1.1652425125e+02   4.9731004940e+00    0.2636475    0.2191145 -64.46  0.001478435    2.013    0.503
        42 -11.0526    248.9100    232.4101   1.0618183893e+02  -3.1978508316e+00    0.3477482    0.1696711  -6.33  0.002053308    2.493    0.599
        43  -7.9697     37.6851    245.7374   1.4117049936e+02   2.3047601964e+01   0.07344522   0.06492351  45.86 0.0003210032    1.542    0.351
        44 -11.0427     93.9023    236.3572   1.3180822653e+02   1.8077555860e+01    0.3729888    0.1673724  50.62  0.002117671    1.723    0.420
        45  -8.4138    210.8251    236.2584   1.1261834607e+02   1.7981670700e+00     0.142234    0.1068826  66.61 0.0005768376    2.593    0.614
        46  -7.9641     34.5690    236.5159   1.4123865981e+02   2.4684646799e+01    0.1131391   0.07517008 -79.07 0.0002242058    1.619    0.382
        47  -8.1213     35.2622    233.6106   1.4100246020e+02   2.5046338939e+01     0.134351   0.06018663  52.33 0.0005968645    1.573    0.364
        48  -8.1792    192.4524    235.4827   1.1546139006e+02   4.5262308159e+00    0.1093397   0.07994205  32.14 0.0002277659    1.010    0.010
        49 -11.0657    151.2473    238.3528   1.2254222811e+02   1.0130496601e+01    0.5488151    0.2724927  50.05  0.003375324    1.780    0.438
        50  -8.9726    102.1389    234.3872   1.3029470912e+02   1.7309902694e+01    0.2543145   0.05634046  45.54   0.00113559    3.213    0.689
        51  -9.1864    179.2070    232.4846   1.1725063186e+02   6.7831419197e+00    0.1807549    0.1301581  40.55 0.0009113533    1.133    0.117
        52  -9.9330     48.6682    229.9492   1.3871407987e+02   2.4228993577e+01    0.4173461    0.1429836  57.35  0.002416548    2.443    0.591
        53  -9.2821     55.1578    230.7089   1.3771709815e+02   2.3422247064e+01    0.2967095    0.1691668  35.56  0.002139141    1.773    0.436
        54 -11.1520    165.1915    235.4315   1.1991741325e+02   8.4852527846e+00    0.4902866    0.3191051  46.73  0.002385787    1.299    0.230
        55  -8.4876    198.5733    230.7380   1.1385192612e+02   4.1284674245e+00    0.1157828    0.1060944 -35.23 0.0009352727    1.570    0.363
        56 -10.2166    148.1569    230.4872   1.2220220504e+02   1.1540067298e+01    0.2612626    0.1616776  42.63  0.001026314    1.225    0.184
        57  -8.7130    199.1855    237.1134   1.1458514592e+02   3.3854184852e+00    0.1620083    0.1130246  23.87 0.0006861667    1.189    0.159
        58  -8.2785    190.3776    230.1631   1.1511650485e+02   5.3961442712e+00    0.1198168    0.1050544 -48.11 0.0009374004    1.675    0.403
        59  -8.5745    182.8821    229.2696   1.1623882112e+02   6.6024395264e+00    0.1618251    0.1298265 -64.08 0.0007303353    2.036    0.509
        60  -9.6182    160.1589    229.4668   1.2006291641e+02   9.9269072439e+00    0.1984084    0.1464774  58.04 0.0009190221    1.496    0.332
        61  -9.4113     40.4060    229.3017   1.3999387260e+02   2.5179536733e+01    0.2368896    0.1083446  56.59  0.001106794    1.628    0.386
        62  -9.3506     31.7917    229.4702   1.4135527642e+02   2.6007833745e+01    0.2010512    0.1023097  63.63 0.0009412699    1.501    0.334
        63  -9.1094     27.2255    225.1446   1.4188065113e+02   2.7107325684e+01    0.2223872   0.07708019  60.75  0.001158357    2.340    0.573
        64 -10.4268    171.6909    249.4848   1.2044321684e+02   6.0045233688e+00    0.4994118    0.2727126  38.28  0.003448708    1.316    0.240
        65  -9.5640    102.5251    229.4606   1.2981307242e+02   1.7952820414e+01    0.3550418    0.1035267  38.77  0.001707369    2.818    0.645
        66  -9.5610     95.1087    228.1496   1.3095141754e+02   1.9093851051e+01    0.3039315    0.1311245  55.44  0.001749714    2.135    0.532
        67  -8.7665     81.0572    228.8569   1.3335882837e+02   2.0731659677e+01    0.1672452    0.1040512  59.79  0.001227901    1.317    0.241
        68  -9.0931    177.3517    227.3424   1.1691548623e+02   7.6426214722e+00    0.2041584    0.1581527  44.90 0.0008265487    1.226    0.184
        69  -8.9014    154.3435    227.9628   1.2087062335e+02   1.0962130898e+01     0.218163    0.1189771  49.71  0.001342236    1.626    0.385
        70 -10.3859    166.4740    244.7543   1.2075804617e+02   7.2454684713e+00    0.3756087    0.2816454  54.15  0.002336148    1.420    0.296
        71  -8.3456    187.3464    227.1743   1.1522726452e+02   6.1738053281e+00    0.1228019    0.1044254 -46.51 0.0009378882    1.676    0.403
        72  -8.5752    140.0721    227.4884   1.2324497373e+02   1.3085364572e+01    0.1695514   0.08383225  41.66 0.0009770113    1.547    0.353
        73  -9.9470     71.8776    224.7108   1.3459119329e+02   2.2443545579e+01    0.3722923    0.1928982  60.47  0.002489937    1.677    0.404
        74  -8.2903    202.6100    225.7241   1.1251494703e+02   4.0571358491e+00     0.123685    0.1052087 -36.40 0.0008237259    1.642    0.391
        75  -9.2755    135.2780    230.3457   1.2436255519e+02   1.3389989223e+01    0.2481849    0.1352846  49.37 0.0009639478    1.510    0.338
        76  -8.7618     34.0212    224.6266   1.4078096251e+02   2.6531761272e+01    0.2883685     0.110242  62.97  0.001777539    2.247    0.555
        77  -8.4642     29.8649    221.5974   1.4130357415e+02   2.7406802724e+01     0.139535   0.05724206  49.61 0.0009321615    1.749    0.428
        78 -10.0500    165.3676    224.4574   1.1857855256e+02   9.7714512267e+00     0.335949    0.1624143  51.00  0.001623924    2.072    0.517
        79 -11.1318    160.6675    247.6173   1.2199740294e+02   7.7395316459e+00     0.626133    0.4579701 -84.90  0.004476984    2.461    0.594
        80  -9.2505     56.1379    222.8625   1.3708998338e+02   2.4509920203e+01    0.3540064    0.1588852  76.03  0.002075312    2.606    0.616
        81  -9.9739     45.5164    220.7946   1.3872174965e+02   2.5966434095e+01    0.4853652    0.1683826  54.62  0.002841907    2.265    0.558
        82  -8.9546     38.3053    216.2648   1.3966553225e+02   2.7422013818e+01    0.3039142    0.1244915  70.54  0.001787581    2.462    0.594
        83  -9.6194    157.3231    223.2164   1.1980275389e+02   1.1122842198e+01    0.2222622     0.143237  49.20 0.0008809633    1.372    0.271
        84  -9.2698     38.9159    223.0782   1.3991948234e+02   2.6285391039e+01    0.2637826    0.1129344 -77.52  0.001740676    2.355    0.575
        85  -8.8070    134.0672    222.8284   1.2377167147e+02   1.4568914026e+01    0.2059153    0.1185759  39.28 0.0009132972    1.395    0.283
        86  -9.5339    100.4812    222.2927   1.2953294224e+02   1.9258188592e+01     0.224391    0.1178345  57.12 0.0009562913    1.746    0.427
        87  -8.7122     85.1503    223.4028   1.3225329072e+02   2.1043775440e+01    0.1575279   0.06889059  49.02 0.0009451443    1.765    0.433
        88  -8.3696    183.4592    220.9982   1.1506065733e+02   7.4621308559e+00    0.1378833    0.1111587 -31.90 0.0007294447    1.563    0.360
        89  -8.5607    177.3136    220.8712   1.1608700280e+02   8.4096276721e+00    0.1501499    0.1368066  65.68 0.0007435119    1.451    0.311
        90  -9.3974    150.7528    220.6008   1.2062392614e+02   1.2435546350e+01    0.2802012    0.1567523  50.51  0.001457363    1.618    0.382
        91  -8.3085     94.3118    221.6471   1.3053985667e+02   2.0153382025e+01    0.1110105   0.06385417  64.03 0.0007044949    1.727    0.421
        92  -8.8489    168.9636    220.4613   1.1746159275e+02   9.7240637391e+00     0.173101   0.08752494  41.37 0.0007613326    1.534    0.348
        93 -10.7653    139.8518    246.1983   1.2519522004e+02   1.0768314265e+01    0.5910843    0.2009208  39.27  0.003173284    2.236    0.553
        94  -8.4512     60.3219    220.3116   1.3623064574e+02   2.4443824211e+01   0.08229383   0.07871015   3.80 0.0005543342    1.652    0.395
        95  -8.2267    188.9699    219.4881   1.1392429590e+02   6.7984606908e+00    0.1690028   0.08804034  40.19 0.0005140656    1.493    0.330
        96  -9.3278     34.1104    217.0990   1.4039980171e+02   2.7705383385e+01    0.2473302    0.1236727  77.82  0.001569074    1.823    0.451
        97 -11.1221    150.8398    246.9349   1.2350144496e+02   9.1767137482e+00    0.7814736    0.3897534  59.99  0.004241973    3.028    0.670
        98 -10.4241    248.3262    216.5838   1.0387110124e+02  -1.7606756815e+00    0.1966334    0.1224199 -12.11 0.0008345179    1.603    0.376
        99  -9.9595     45.4048    213.4319   1.3831907868e+02   2.7151207686e+01    0.2805591    0.1351791  65.06  0.001671263    1.818    0.450
       100  -8.5566    141.9403    219.2834   1.2200490356e+02   1.3911506886e+01    0.1657882    0.1159734  42.78 0.0007249384    1.117    0.105
       101 -11.6864    145.1640    249.9908   1.2471139591e+02   9.6001596140e+00     1.908441    0.1622016  40.52  0.005050354    9.221    0.892
       102  -7.9794    182.3040    215.6105   1.1452555620e+02   8.2769048828e+00    0.1065777   0.08398338  66.09 0.0007013832    1.805    0.446
       103  -8.6807     85.0392    215.2756   1.3161090970e+02   2.2302974162e+01    0.1572572    0.1123053  52.78  0.001170584    1.092    0.085
       104  -8.6355    173.8648    213.1362   1.1564664984e+02   9.8868947868e+00    0.1710575    0.1370895  49.93  0.001105048    1.294    0.227
       105  -8.4141    145.9355    213.4722   1.2061169173e+02   1.4115223192e+01    0.1818838   0.08975062  43.01  0.001029221    1.605    0.377
       106  -9.0107     54.5262    212.5446   1.3670900727e+02   2.6320476872e+01    0.2763778    0.1050064  56.58  0.001561761    2.279    0.561
       107  -8.4642    156.7862    212.1573   1.1852046166e+02   1.2648617058e+01    0.1570663    0.1168442  26.02 0.0006477043    1.313    0.239
       108  -9.1926     65.9204    212.1487   1.3470934517e+02   2.5102876119e+01    0.2511786    0.1225756  54.04  0.001602304    1.655    0.396
       109  -8.8342    161.3415    216.9856   1.1833687926e+02   1.1318147665e+01    0.1939001    0.1278073  46.56 0.0006630635    1.292    0.226
       110  -9.4879     98.7648    210.7430   1.2876925540e+02   2.1239620602e+01    0.2958668    0.1413326  53.07  0.001710781    1.840    0.456
       111  -8.0976    180.4771    208.9522   1.1390949573e+02   9.3780754130e+00    0.1337018    0.1029939 -79.97 0.0008078135    2.409    0.585
       112  -9.1548     80.1560    208.0677   1.3186944743e+02   2.4058229218e+01    0.2775057    0.1261956  52.46  0.001623588    1.848    0.459
       113  -9.0770     36.1799    208.4787   1.3960312087e+02   2.8900698408e+01    0.2379264   0.09681439  56.36  0.001064383    1.949    0.487
       114  -8.5056    163.2280    207.4340   1.1674918061e+02   1.2285669619e+01    0.1655197   0.09116732  48.09 0.0009388134    1.626    0.385
       115  -8.4274     52.4209    207.1936   1.3672259231e+02   2.7426773532e+01    0.1406882   0.08014546  84.00 0.0007568584    1.711    0.416
       116  -7.8595     41.6453    206.3018   1.3854155773e+02   2.8711050100e+01    0.1103518   0.05380931  61.56 0.0004419651    1.707    0.414
       117  -8.4175     89.5070    204.5082   1.2985806800e+02   2.3451067537e+01    0.2031948   0.07323197  47.72  0.001027732    2.264    0.558
       118  -8.3880     26.5140    203.9425   1.4101199957e+02   3.0589364148e+01    0.1409052   0.08009561 -86.58 0.0009337711    1.578    0.366
       119  -8.4356     58.9905    202.0105   1.3519466926e+02   2.7568386133e+01    0.1756179     0.093462  62.45 0.0007205886    1.664    0.399
       120  -8.0549     45.5016    202.4689   1.3763186297e+02   2.8955917184e+01    0.1048855   0.07567739  65.51 0.0008092609    1.055    0.052
       121  -7.8459     35.6989    202.3403   1.3934364034e+02   2.9975197048e+01     0.108644    0.0545384  64.77 0.0003903904    1.670    0.401
       122  -8.5732     31.2540    202.4480   1.4012087046e+02   3.0390854920e+01    0.1370931   0.06772026  50.71  0.000697871    1.567    0.362
       123  -9.5420     76.4826    250.2671   1.3553661870e+02   1.8258354954e+01    0.3338907     0.119837  41.90  0.002072803    2.013    0.503
       124  -8.6025     72.8051    200.4033   1.3255520162e+02   2.6226737010e+01    0.2090566     0.080022  42.58  0.001130073    2.107    0.525
       125  -9.5418    250.2458    198.9975   1.0069430897e+02  -4.1452005171e-01    0.1408285   0.08629249 -18.02 0.0008943289    1.625    0.385
       126  -8.4937     51.8110    198.6275   1.3624700970e+02   2.8938770011e+01    0.1585129   0.07000351  47.96 0.0009554753    1.801    0.445
       127  -8.5157     39.2605    193.8444   1.3820058050e+02   3.1082828605e+01    0.1867165   0.06946713  63.84 0.0009485324    2.779    0.640
       128  -8.7262     28.9647    192.9744   1.4000351732e+02   3.2240655118e+01    0.1727242   0.08564609  66.48  0.001060514    1.711    0.415
       129  -8.3627     67.9931    190.8280   1.3263343101e+02   2.8455987177e+01    0.1909061   0.08961159  57.20  0.001067468    1.976    0.494
       130 -12.3867      4.4512    225.1460   1.4539232286e+02   2.9139244630e+01      1.24869    0.2944183 -88.24  0.006191724    4.487    0.777
       131  -8.4342     36.9665    186.4774   1.3814838871e+02   3.2620628386e+01    0.2197358   0.07934853  67.47  0.001021811    3.314    0.698
       132  -8.9252     29.7214    178.7167   1.3901329825e+02   3.4735567950e+01    0.2885869    0.0676162  42.89   0.00140561    3.044    0.671
       133 -10.9249      7.2602    206.9859   1.4434908486e+02   3.1787485218e+01    0.6863484    0.2176176  74.78  0.003706471    3.098    0.677
       134  -8.8581     19.9802    164.6324   1.4002458462e+02   3.8266868918e+01    0.1992905    0.1069492  70.98 0.0009423859    1.608    0.378
       135 -10.6843      4.0597    197.9816   1.4454819888e+02   3.3553456544e+01    0.4616825     0.161936  73.43  0.002681828    2.537    0.606
       136  -9.1110    249.3266    157.3402   9.3074631996e+01   4.0960054010e+00    0.1371418   0.08063929  12.65 0.0007051455    1.733    0.423
       137 -10.3928      9.7761    154.9106   1.4150035623e+02   4.0983311870e+01    0.2673144    0.1377258  68.61  0.001393313    1.661    0.398
       138 -10.5536     18.8903    249.2479   1.4403810148e+02   2.4342885463e+01    0.2874309    0.1416698  45.01   0.00145917    1.516    0.340
       139 -12.9973     10.4653    239.8278   1.4495010472e+02   2.6435435385e+01     1.606911    0.6768895 -72.86   0.01189578    2.506    0.601
       140  -8.2430      8.6383    145.2911   1.4116251939e+02   4.2980896319e+01    0.1140419   0.05910607  63.86 0.0007027586    1.698    0.411
       141 -11.8862      3.6549    244.7834   1.4606286824e+02   2.6310270543e+01    0.7176606    0.2251322  87.84  0.004569884    3.061    0.673
       142  -9.8437      4.5689    136.4169   1.4149533692e+02   4.5071423892e+01    0.2644346    0.1126767  84.77  0.001456547    2.093    0.522
       143 -10.0075      2.7630    128.6543   1.4140561320e+02   4.6793923009e+01    0.4042667    0.1393908  73.09  0.001813779    3.334    0.700
       144  -9.6939    245.3870    123.7926   8.6445762426e+01   8.8146923440e+00    0.1955938    0.1141663 -13.00 0.0006108742    1.685    0.407
       145  -8.9840    250.5628    113.0117   8.3140862337e+01   9.1614190940e+00    0.2038536    0.1182105 -22.42 0.0003416102    1.550    0.355
       146 -10.5130     97.8196    112.2924   1.1494169401e+02   4.0019729781e+01    0.3936576    0.1851789 -59.15  0.001656044    2.230    0.551
       147  -9.1859     94.3229     97.6602   1.1264950328e+02   4.3742952447e+01    0.1422062    0.1072735  85.12 0.0007050798    1.722    0.419
       148  -8.8887    167.3235     95.3438   9.3712771737e+01   2.9718082345e+01    0.1603922    0.1148854  10.08 0.0007050482    1.734    0.423
       149  -9.0374    142.3367     94.3304   9.9174793714e+01   3.5376248109e+01    0.1564429    0.1163625   5.31 0.0007052066    1.733    0.423
       150 -11.6376    103.2300     82.3358   1.0618706746e+02   4.5505340709e+01    0.6150795    0.2223605 -41.40  0.002147425    2.813    0.645
       151  -8.8783    143.6579     82.3112   9.5445198684e+01   3.7359249668e+01    0.1518136    0.1223941 -79.61 0.0007045761    1.698    0.411
       152  -9.9450    170.9754     78.0090   8.7979987274e+01   3.1836940404e+01    0.2490034    0.2294104   6.94  0.001318674    1.038    0.037
       153 -10.6901    159.0512     76.9584   9.0250695068e+01   3.4821649288e+01    0.4389046     0.254071  17.37  0.001527689    2.954    0.661
       154 -10.3141    149.9911     74.2857   9.1509631591e+01   3.7389973732e+01    0.2203927    0.2068269  28.21  0.000929325    1.066    0.062
       155  -8.5741    131.6498     78.6759   9.7364122446e+01   4.0649715199e+01    0.1583717    0.1168386   5.87 0.0007048643    1.752    0.429
       156 -10.0498    117.0088     72.0027   9.9232645250e+01   4.4982801760e+01    0.2424531    0.1820042  -1.65   0.00113977    1.687    0.407
       157  -9.4216    161.5072     82.9570   9.1487469172e+01   3.3209111313e+01    0.2405592    0.1477687 -33.21 0.0008538338    1.602    0.376
       158  -9.2568    127.3313     67.3217   9.4946184589e+01   4.3724079135e+01     0.157453    0.1163737   6.10  0.000704947    1.698    0.411
       159 -10.4206    110.8973     64.2592   9.8481666905e+01   4.7719411390e+01    0.3898932    0.1816867 -54.39  0.001348001    3.008    0.668
       160  -7.9516    193.5246    249.5105   1.1700764805e+02   2.9607639276e+00    0.1055332   0.07437265  33.27 0.0002767574    1.017    0.016
       161  -9.4020    129.3251     56.6665   9.0846650548e+01   4.5214196428e+01    0.1529276    0.1205727 -68.91 0.0007051103    1.711    0.416
       162  -8.9183    172.3439     55.3225   8.0629178829e+01   3.5088971727e+01     0.166977    0.1134636  21.54 0.0007050276    1.731    0.422
       163 -11.5795    144.3393     52.9124   8.5828837474e+01   4.2359373755e+01    0.4433381    0.2552194  43.74  0.001862139    1.754    0.430
       164 -10.4766    122.9976     44.9537   8.8288820634e+01   4.8632618800e+01    0.2888481    0.1956723 -30.54  0.001208166    1.410    0.291
       165  -9.2073    167.3244     59.3234   8.2934740729e+01   3.5731110771e+01    0.1646052    0.1151454  18.62  0.000704777    1.685    0.407
       166  -9.7395    171.5031     43.9832   7.7036135258e+01   3.6928707652e+01    0.2439085    0.1482868 -24.72  0.001040464    1.613    0.380
       167 -10.3326    141.0172     43.0162   8.3075716505e+01   4.4715006164e+01    0.2515694    0.1895014 -62.40  0.001152058    1.750    0.429
       168  -9.2470    161.3313     39.9938   7.7622191063e+01   4.0080398629e+01    0.2559819    0.1240506  -0.18  0.000705071    4.332    0.769
       169  -9.8770    158.7413     35.7547   7.6631085357e+01   4.1318377163e+01    0.2370315    0.1343321  74.73 0.0008940832    2.422    0.587
       170  -9.2103    174.6261     34.3147   7.3192110279e+01   3.7396815779e+01    0.1610614    0.1142963 -62.33 0.0001048891    1.791    0.442
       171 -10.4721    140.0900     33.3563   7.9676538261e+01   4.6348733910e+01     0.266721    0.2049813  -6.90 0.0006336999    1.326    0.246
       172  -8.6844    125.6674     29.3289   8.1507336251e+01   5.0407552144e+01    0.1509094    0.1161002 -61.13 0.0007051844    1.719    0.418
       173  -9.8904    115.5838    248.3404   1.2927360524e+02   1.3726280121e+01    0.2032297   0.09454944  40.61  0.001051996    1.614    0.380
       174 -10.7834    160.1587     23.5951   7.1955799131e+01   4.2475426187e+01    0.4520374    0.1501107 -41.71  0.001396007    3.460    0.711
       175  -9.5045      9.2853     34.1567   1.2678741249e+02   6.7183252577e+01    0.2072194    0.1076227 -50.98  0.001204079    1.442    0.307
