#   1 NUMBER                 Running object number                                     
#   2 MAG_AUTO               Kron-like elliptical aperture magnitude                    [mag]
#   3 X_IMAGE                Object position along x                                    [pixel]
#   4 Y_IMAGE                Object position along y                                    [pixel]
#   5 X_WORLD                Barycenter position along world x axis                     [deg]
#   6 Y_WORLD                Barycenter position along world y axis                     [deg]
#   7 A_WORLD                Profile RMS along major axis (world units)                 [deg]
#   8 B_WORLD                Profile RMS along minor axis (world units)                 [deg]
#   9 THETA_WORLD            Position angle (CCW/world-x)                               [deg]
#  10 FWHM_WORLD             FWHM assuming a gaussian core                              [deg]
#  11 ELONGATION             A_IMAGE/B_IMAGE                                           
#  12 ELLIPTICITY            1 - B_IMAGE/A_IMAGE                                       
         1 -10.1298    135.6640     42.8489   5.9485562327e+01   4.5868751982e+01    0.3197096    0.2610632 -52.12  0.001312802    1.358    0.264
         2 -11.7682    211.5337     32.2346   4.3912108858e+01   2.8475021575e+01    0.9856969    0.7416051 -53.54  0.005433419    1.235    0.190
         3 -11.0765      2.0681     23.8101   1.0133768579e+02   7.0521492646e+01    0.9227369    0.1077749 -55.57  0.002779317    6.340    0.842
         4 -11.3964      2.1336      7.4830   9.4474397679e+01   7.3293233002e+01     1.268521    0.2110597 -50.65  0.004023386    6.492    0.846
         5 -11.7394    229.4935     13.0599   3.7447667711e+01   2.6571156687e+01    0.7115556    0.5525628 -59.74    0.0028535    1.114    0.103
         6  -9.9570     83.8957    224.5502   1.1334149192e+02   1.7047124261e+01       0.3656    0.2567952  34.61  0.002213511    1.526    0.345
         7 -10.1366    100.6188    249.4822   1.1266466624e+02   1.0130938093e+01    0.3479216    0.2047322  32.35  0.002003934    1.803    0.445
         8 -10.5337     75.1371    248.7883   1.1722237695e+02   1.3791985863e+01    0.4843663    0.2895468  32.82   0.00291203    1.869    0.465
         9  -9.9102     34.2117    240.4433   1.2381138537e+02   2.0352582530e+01    0.3481127    0.1734484 -54.27  0.001676638    2.935    0.659
        10 -10.4434     29.1000    247.7268   1.2509311567e+02   1.9601056331e+01    0.3773148    0.2675591 -77.09  0.002857485    1.487    0.327
        11 -10.2208     32.9982    247.0577   1.2440706994e+02   1.9287670743e+01    0.4061113    0.1809588  87.27  0.002314583    2.248    0.555
        12 -12.1531      2.0507     86.8947   1.1668364620e+02   5.7286903195e+01     3.374384   0.09449237 -69.66  0.005480856   17.555    0.943
        13 -13.7197     40.0961    197.9247   1.1961846737e+02   2.8193429875e+01     5.264018     1.950399  73.97   0.01739098    5.116    0.805
        14  -9.9338     47.5928    223.3700   1.2023295000e+02   2.2052055479e+01    0.4233607    0.1876909  83.33  0.001997049    2.737    0.635
        15  -9.8747    113.9377    230.1864   1.0804037308e+02   1.1517092669e+01    0.2397597    0.1719469  24.44  0.001386534    1.681    0.405
        16 -10.1988     29.2713    218.9065   1.2332183767e+02   2.5033760880e+01    0.3915428    0.1251276 -73.52  0.001859208    2.803    0.643
        17 -13.5583      5.4470    240.5993   1.2860465908e+02   2.3332802389e+01     3.414291     1.025687 -79.77   0.01784236    2.915    0.657
        18 -12.7654      9.0292    207.3870   1.2633913552e+02   2.9403356971e+01      1.07377    0.7487505  36.59  0.007600292    1.676    0.403
        19  -9.9141     39.4593    233.1168   1.2242551651e+02   2.1123679518e+01    0.2337594    0.1616582  81.36 0.0006366543    1.195    0.163
        20 -10.5983     20.7751    193.4885   1.2318371767e+02   3.1198009177e+01    0.4445592    0.1654335 -71.20   0.00220847    2.252    0.556
        21  -8.9576     63.1266    238.3010   1.1853705273e+02   1.7256134793e+01    0.2062228    0.1393712  88.54  0.000567163    1.405    0.288
        22 -10.0839     59.3532    181.7658   1.1383582117e+02   2.9458391303e+01    0.3215823    0.2533416 -42.64  0.001390681    1.647    0.393
        23 -10.0766     65.0474    175.8002   1.1180173556e+02   3.0085303324e+01    0.2997129    0.2442896 -43.45 0.0007745459    1.522    0.343
        24  -8.4904     41.7013    236.7031   1.2226805867e+02   2.0187412300e+01    0.1635122    0.1292612  71.02 0.0004745488    1.091    0.084
        25  -9.8477     75.0353    165.6828   1.0802265822e+02   3.1078860381e+01     0.278221    0.2563788 -50.21 0.0005927646    1.249    0.199
        26 -11.5306     62.0528    162.1497   1.1070450316e+02   3.3689835438e+01     0.496819    0.2890579 -45.29  0.001378806    2.055    0.513
        27 -11.0575     81.7652    158.8054   1.0528220143e+02   3.1731123349e+01    0.6414134    0.5236993  27.74  0.002325006    1.440    0.305
        28 -11.3226     68.0569    143.9194   1.0637436696e+02   3.7301998016e+01    0.7026066    0.4552784  73.58  0.002384013    1.880    0.468
        29  -9.4688    134.2256    145.7531   8.9508741612e+01   2.5592825698e+01    0.5592836    0.1240607 -50.93  0.001397376    4.861    0.794
        30  -8.5569     96.5330    144.5074   9.8902834262e+01   3.2827445441e+01    0.1473458    0.1368605 -79.49 0.0008096776    1.014    0.014
        31 -10.4493     85.0138    142.8572   1.0164692329e+02   3.5086717797e+01    0.3008519    0.2815861 -41.54 0.0004666277    1.176    0.149
        32 -10.8087    135.1614    232.2539   1.0411722381e+02   7.8108706747e+00    0.4500918    0.2082511 -53.98  0.002188627    2.548    0.608
        33  -8.2021     99.8146    141.0163   9.7335240861e+01   3.3111001146e+01     0.249611      0.16318 -31.70  0.001073585    2.022    0.505
        34 -10.2351     58.6050    133.4139   1.0716567227e+02   4.1118096699e+01    0.7401484    0.2985974 -79.16  0.002076775    5.204    0.808
        35  -8.7813    107.8920    132.2630   9.3299501364e+01   3.3776434655e+01    0.3898711     0.206375  36.23  0.001572577    2.053    0.513
        36 -10.1510     89.2018    229.0281   1.1276459972e+02   1.5432208819e+01    0.2451828    0.2062223  70.36 0.0004664706    1.064    0.060
        37  -8.7290     95.7032    128.6825   9.5839582892e+01   3.6786961626e+01    0.2852356    0.2267271 -22.52 0.0008318012    1.555    0.357
        38 -10.1450    135.2336    124.0418   8.4156667172e+01   3.0309408356e+01    0.7328156    0.1762924 -48.78  0.001882016    4.327    0.769
        39  -7.8235    106.3813    120.4477   9.0963781320e+01   3.6858287797e+01    0.1517484    0.1405882 -53.41 5.707308e-05    1.024    0.024
        40  -7.9358    168.2996    113.6347   7.3555478456e+01   2.5262180362e+01    0.1634305    0.1240361 -73.32 0.0007033614    1.728    0.421
        41  -7.6584    205.6774    110.3383   6.5135773118e+01   1.7410410892e+01    0.1560915    0.1160262 -68.04 0.0007050754    1.717    0.418
        42 -10.1485    134.5173    104.0246   7.9059315145e+01   3.4894739358e+01    0.6242982    0.2317363 -40.97  0.002020925    2.686    0.628
        43  -8.7062    127.6598    102.1866   8.0346123085e+01   3.6775397409e+01    0.2365142    0.1404694 -35.76 0.0009509213    1.759    0.432
        44  -7.5856     24.6702     82.7124   1.0809707438e+02   5.6796200162e+01    0.1323353   0.07932501 -37.85 0.0002937115    1.618    0.382
        45  -8.9485    134.6048     67.1940   6.7904307145e+01   4.2208816759e+01    0.2226331    0.1449502 -23.77 0.0009556637    1.724    0.420
        46 -10.0260     12.9082     59.6531   1.0722392040e+02   6.2759611458e+01    0.2268423    0.1469848 -78.64 0.0006749094    1.868    0.465
        47  -8.0685     41.9305     59.4645   9.5442574646e+01   6.0292725281e+01    0.1774056    0.1263469  26.50  0.001020345    1.587    0.370
        48  -9.0607    127.8174     55.9426   6.5850564820e+01   4.5718720815e+01    0.4017987    0.1225322 -27.61  0.001015428    5.233    0.809
        49 -12.3749     20.9216    221.6129   1.2500946416e+02   2.5379799409e+01     1.038907    0.5019521  76.32   0.00485915    1.842    0.457
        50 -11.4428     31.4092    209.7191   1.2228001306e+02   2.6667925943e+01    0.4640344    0.3614753 -42.96  0.001013591    1.965    0.491
        51  -9.0453    134.4945    248.5262   1.0626724791e+02   5.2363239796e+00    0.2168045    0.1201658 -53.78  0.001221921    2.205    0.547
        52 -11.6951    127.1687    231.1899   1.0555395182e+02   9.2668557039e+00    0.9300576    0.3896954 -55.79  0.004316334    2.794    0.642
        53 -10.8539    217.5858     25.2050   4.1475959589e+01   2.7909486272e+01    0.4671097    0.3537517  36.86  0.001561122    1.726    0.421
        54 -11.3865    202.3704     37.7538   4.6476980519e+01   2.9974097066e+01    0.5163094    0.4640281 -63.81  0.001974399    1.036    0.034
        55 -10.6081    114.6843    245.2448   1.0961313849e+02   8.7772770402e+00     0.361221    0.2629078  55.05  0.002354049    1.178    0.151
        56 -13.6974      2.1780    128.7235   1.2190066675e+02   4.7499599078e+01      6.63288    0.7869605 -75.29    0.0156099    8.454    0.882
