#   1 NUMBER                 Running object number                                     
#   2 MAG_AUTO               Kron-like elliptical aperture magnitude                    [mag]
#   3 X_IMAGE                Object position along x                                    [pixel]
#   4 Y_IMAGE                Object position along y                                    [pixel]
#   5 X_WORLD                Barycenter position along world x axis                     [deg]
#   6 Y_WORLD                Barycenter position along world y axis                     [deg]
#   7 A_WORLD                Profile RMS along major axis (world units)                 [deg]
#   8 B_WORLD                Profile RMS along minor axis (world units)                 [deg]
#   9 THETA_WORLD            Position angle (CCW/world-x)                               [deg]
#  10 FWHM_WORLD             FWHM assuming a gaussian core                              [deg]
#  11 ELONGATION             A_IMAGE/B_IMAGE                                           
#  12 ELLIPTICITY            1 - B_IMAGE/A_IMAGE                                       
         1 -13.9113    215.7781      8.9069   3.8248577749e+01   3.0190487615e+01     1.927028     1.233836  41.72  0.009986408    2.037    0.509
         2 -13.0883    175.5402     53.9335   5.5856378104e+01   3.4423159004e+01     1.700123     1.114173  24.93  0.004969228    2.137    0.532
         3 -13.5551    190.6294     40.1296   4.9411444625e+01   3.2604982609e+01     1.155422     1.025875 -13.78  0.004082548    1.273    0.215
         4 -12.8270    195.4951     34.3971   4.7134673983e+01   3.2145690827e+01    0.6440057    0.6251212  -3.23  0.001203593    1.173    0.148
         5 -10.4196    189.7398     14.8409   4.2486783018e+01   3.5858142666e+01    0.2299803    0.2129382  86.99  0.000693885    1.045    0.043
         6 -10.2006     47.5149     10.5050   7.4528269821e+01   6.7852701954e+01    0.1244081   0.09749305   0.36 6.720175e-06    1.012    0.012
         7  99.0000     43.3701    207.1132   1.2045576066e+02   2.5970129506e+01    0.4722975    0.2092008 -72.96 0.0009331606    2.092    0.522
         8 -13.0338    247.0593    240.5750   8.5117278636e+01  -1.0198168527e+01     1.595837    0.5765668 -28.01  0.007706488    2.942    0.660
         9  -9.3638    160.4937    205.4981   9.5655097840e+01   8.5333963861e+00    0.1357974    0.1206539  28.94 0.0002619434    1.029    0.028
        10 -10.2041     66.6710    204.4194   1.1546322886e+02   2.3652851104e+01    0.3080311    0.1846596 -45.50 0.0009089287    2.339    0.573
        11  -8.3185     70.6255    200.4319   1.1421013479e+02   2.3966419486e+01    0.1736637    0.1404359  50.97 0.0005912455    1.180    0.152
        12 -10.9935    193.4697    195.7259   8.7162109257e+01   4.4049151300e+00    0.8729099    0.4891444 -64.58  0.002856078    5.294    0.811
        13 -10.3563     56.7028    201.3304   1.1723116316e+02   2.5584406506e+01     0.305565    0.2088051 -39.05  0.001693848    2.279    0.561
        14 -11.8412     58.9840    195.2682   1.1614675174e+02   2.6597362914e+01     0.401949    0.2543241 -51.14   0.00137445    1.904    0.475
        15  -9.3790    203.6661    201.3062   8.6183007989e+01   1.7182442548e+00    0.1224599    0.1071726  70.10 0.0006776634    1.667    0.400
        16 -10.2582     55.1872    222.7958   1.1943896400e+02   2.1392748582e+01     0.163923    0.1176647  64.03 0.0004559376    1.126    0.112
        17  -9.8314     75.1145    250.0164   1.1797495195e+02   1.3815851639e+01    0.2493387    0.1004291 -57.90  0.001295364    2.944    0.660
        18  -9.5338     61.4207    219.8893   1.1799063471e+02   2.1181542110e+01    0.1407767    0.1001434 -57.91 0.0006007421    1.673    0.402
        19  -9.8226     82.0354    194.9496   1.1110894473e+02   2.3547581794e+01    0.2107726    0.1710817  55.24 0.0004706279    1.125    0.111
        20 -11.6843    149.5012    188.2651   9.5062920731e+01   1.3752191933e+01    0.4872315    0.3709293 -79.18  0.001697846    1.770    0.435
        21 -10.8503     95.4274    188.6977   1.0729973636e+02   2.2900599933e+01    0.4678722    0.3147786  82.66  0.001427981    1.748    0.428
        22 -11.6411     99.0353    181.4194   1.0541781585e+02   2.3933940367e+01    0.6321062    0.4223242 -75.47  0.002374597    1.635    0.388
        23 -11.6914    143.8846    178.0280   9.4470177010e+01   1.6859448054e+01    0.4572173    0.3133013 -52.04  0.001606906    1.550    0.355
        24 -10.4395    149.7586    177.5777   9.3056407439e+01   1.5853946907e+01    0.2836457    0.2537008 -71.40 0.0006078645    1.253    0.202
        25 -10.4695    188.0718    175.5579   8.4340821278e+01   8.9480894031e+00    0.7216123    0.3857315 -56.13  0.002839318    2.796    0.642
        26 -10.7081    126.6915    176.4458   9.8145950674e+01   2.0336824871e+01     0.279359     0.130019  43.83    0.0011329    2.044    0.511
        27  -9.0037    194.3117    171.9548   8.2316854836e+01   8.4180683399e+00    0.2032052     0.177397 -19.17 0.0008549897    1.114    0.102
        28 -11.0088    139.6107    171.5778   9.4245932350e+01   1.9012389578e+01    0.4112259    0.2586232  49.70  0.001558513    1.604    0.377
        29  99.0000     49.0807    218.3573   1.2024909953e+02   2.3012698367e+01    0.2845924    0.1544634  78.47  0.001589102    1.835    0.455
        30 -10.3774     56.2922    217.8670   1.1881425705e+02   2.2230179033e+01    0.3087608    0.1457808  76.47  0.001457884    2.588    0.614
        31  -9.6458    184.5083    212.9741   9.2016386732e+01   3.1103248456e+00    0.1878213    0.1294963 -40.17  0.001039252    1.614    0.380
        32  -9.4853    231.6564    170.3289   7.4791312991e+01   1.8371395181e+00    0.1267361    0.1106075 -71.99 0.0007050896    1.747    0.428
        33 -10.0544    240.4705    169.4526   7.3047328456e+01   4.5755534536e-01    0.1343723    0.1150659  -8.76 5.006445e-05    1.027    0.026
        34  -9.2538    187.8032    163.1232   8.1803396961e+01   1.1321425526e+01    0.3076659    0.1952186 -51.33  0.001100531    1.823    0.452
        35 -10.9408     90.3410    157.7673   1.0375434832e+02   3.0741136965e+01    0.2798825    0.2544414 -53.34  0.000554809    1.161    0.139
        36 -11.6476     96.2778    151.1877   1.0106851130e+02   3.1349574044e+01    0.6021723     0.499394 -18.55  0.003099285    1.554    0.357
        37 -10.1270    187.3188    151.8986   7.9442953275e+01   1.3571026225e+01    0.2756465    0.2606052  61.46 0.0009539992    1.202    0.168
        38 -10.8307    133.8143    145.1752   9.0261674600e+01   2.5935990107e+01     1.270997    0.3163828 -54.37   0.00293734    5.995    0.833
        39  -9.5436    113.2021    151.0769   9.6696380938e+01   2.8469292707e+01    0.2834651    0.1866318  67.63  0.001018872    1.995    0.499
        40  -8.5410    139.2939    150.6695   9.0103489149e+01   2.3625908241e+01    0.1525489    0.1203982  86.30 0.0003205377    1.632    0.387
        41  -9.4631    174.7396    149.1645   8.1536451338e+01   1.6707021536e+01    0.2625573    0.2085745  54.52 0.0008104813    1.375    0.273
        42  -9.7300    144.0865    146.1927   8.7962756844e+01   2.3656287096e+01    0.4159754     0.250632 -76.64  0.001385443    3.449    0.710
        43  -9.7005    108.7833    146.8304   9.6985956544e+01   3.0249630057e+01    0.2926209    0.1949688  77.90 0.0003785393    2.181    0.541
        44 -10.9765    107.9375    137.6844   9.5317090097e+01   3.2558505139e+01    0.5124336    0.4149154 -45.82  0.002620692    1.234    0.189
        45 -10.8739    105.5925    130.9884   9.4494591586e+01   3.4565172589e+01    0.4750071    0.4110419 -12.50  0.002462567    1.372    0.271
        46 -11.6531     95.9569    137.1176   9.8426271169e+01   3.4765569623e+01    0.3081526    0.2670745 -69.42 0.0003858327    1.116    0.104
        47  -9.9805    135.9923    129.1833   8.6034474166e+01   2.9101746288e+01    0.3693725     0.147753 -49.59  0.001246096    2.540    0.606
        48 -10.3682    114.8475    128.8611   9.1501222686e+01   3.3364625939e+01    0.3548359    0.2923501 -15.44 0.0008275649    1.472    0.321
        49  -9.2319    160.3345    127.8164   7.9751071964e+01   2.4211362480e+01    0.2237014    0.2108356  69.19  0.001159434    1.145    0.127
        50 -10.4585    102.4754    124.5265   9.3898137706e+01   3.6654569423e+01    0.2874566    0.2415208 -22.55 0.0001918791    1.368    0.269
        51 -10.2254    119.8651    123.2894   8.8827633504e+01   3.3694026051e+01    0.3702653    0.2507693 -18.87  0.001508163    2.167    0.539
        52  -9.3321    110.0660    118.0579   9.0236905704e+01   3.6790162142e+01    0.2216052    0.2133854 -55.78 0.0003384924    1.012    0.012
        53 -10.0843    231.2439    113.7506   6.2172870649e+01   1.1437411110e+01    0.2822294    0.2572709 -30.46 0.0007743974    1.021    0.021
        54  -9.3378    167.5456    112.3495   7.4130260026e+01   2.5813770121e+01    0.3459913    0.2481046 -72.61  0.001235133    1.990    0.498
        55 -10.0707    135.0000    111.9718   8.1932855151e+01   3.3143496658e+01    0.5457529   0.08805152 -44.81  0.001168571    6.057    0.835
        56 -11.2113    118.4536    110.6468   8.6020416331e+01   3.6867627497e+01    0.6396049    0.4166381  64.71  0.002606619    2.144    0.534
        57  -9.7391    205.4762    110.1815   6.5784399564e+01   1.7601735123e+01    0.3169751    0.2168725  40.83  0.001048706    1.574    0.365
        58 -10.6692     37.5278    211.9577   1.2197642524e+02   2.5637771346e+01    0.1579843    0.1151251  72.91 2.867323e-05    1.088    0.081
        59  -9.1007     56.7176    211.0001   1.1812851275e+02   2.3566113880e+01    0.2255543   0.08821912 -63.72 0.0008029678    2.481    0.597
        60  -8.5791    154.4977     82.4574   6.8735034346e+01   3.4770098271e+01    0.1543155    0.1516853  -4.64 7.125893e-05    1.011    0.011
        61  -8.5177    184.3667     77.3028   6.0984299732e+01   2.8446440737e+01    0.1589722    0.1179479  21.40 0.0007034831    1.740    0.425
        62  -8.9202     68.9785     71.7789   9.0374141920e+01   5.4174912954e+01    0.1816925    0.1701189  -4.28  0.001085724    1.105    0.095
        63 -10.2472     71.8560    245.0673   1.1815957719e+02   1.5108454316e+01    0.1930692    0.1424665 -63.21 0.0009781024    1.625    0.385
        64 -19.5319     21.5473    146.0470   1.1962745786e+02   4.1878412770e+01     19.27221     4.850192 -75.20   0.06692294    3.779    0.735
        65  -9.1036     41.4940    232.3894   1.2268672844e+02   2.1184007612e+01    0.1083033   0.08750362  68.27 9.948822e-05    1.117    0.105
        66  -9.8476     58.6486    229.1004   1.1929663537e+02   1.9742789940e+01    0.1485283    0.1147424  84.76 0.0003942143    1.166    0.143
        67 -11.4651     50.4397    224.7199   1.2049048485e+02   2.1597199777e+01    0.2126174    0.1352431  73.19 0.0006451833    1.369    0.270
