#   1 NUMBER                 Running object number                                     
#   2 MAG_AUTO               Kron-like elliptical aperture magnitude                    [mag]
#   3 X_IMAGE                Object position along x                                    [pixel]
#   4 Y_IMAGE                Object position along y                                    [pixel]
#   5 X_WORLD                Barycenter position along world x axis                     [deg]
#   6 Y_WORLD                Barycenter position along world y axis                     [deg]
#   7 A_WORLD                Profile RMS along major axis (world units)                 [deg]
#   8 B_WORLD                Profile RMS along minor axis (world units)                 [deg]
#   9 THETA_WORLD            Position angle (CCW/world-x)                               [deg]
#  10 FWHM_WORLD             FWHM assuming a gaussian core                              [deg]
#  11 ELONGATION             A_IMAGE/B_IMAGE                                           
#  12 ELLIPTICITY            1 - B_IMAGE/A_IMAGE                                       
         1 -14.8440    165.0131     48.2564   7.1839779488e+01   3.7703494740e+01      1.35184     1.082736  -4.99  0.003772421    1.300    0.231
         2 -15.1208    179.8981     18.3704   5.9256355432e+01   3.7388371705e+01     1.689429     1.219936  59.32  0.006546377    1.322    0.244
         3 -13.4031    189.3876     14.9095   5.6798159864e+01   3.5193612178e+01    0.4942676    0.3355381  65.70  0.001626087    1.431    0.301
         4  -9.9557     29.9279    246.0463   1.3313644146e+02   2.5485518362e+01    0.1244913   0.08632239  87.54  0.001160295    1.375    0.273
         5 -20.1338     71.9494    173.2628   1.2102735480e+02   3.2356847469e+01     13.02927     5.367496 -68.19   0.06768022    2.531    0.605
         6 -10.6319    125.5474    232.5269   1.1753748990e+02   1.5714694903e+01    0.1219838    0.1024136 -73.04  0.000175648    1.500    0.333
         7 -11.1644    141.5671    188.3420   1.0952339186e+02   1.9462289394e+01     0.188416    0.1187153 -56.17 0.0006813492    1.949    0.487
         8 -11.7324    127.6773    227.9446   1.1673070103e+02   1.6007426752e+01    0.3133987    0.1940899  34.23  0.002093677    1.638    0.390
         9 -11.7366    146.2447    224.3333   1.1327006871e+02   1.3710301643e+01    0.3229692    0.1717226  50.40  0.002001656    1.525    0.344
        10 -12.5831    162.5343    181.1608   1.0455040585e+02   1.6935233377e+01    0.2548575    0.2092624 -78.88  0.001611108    1.651    0.394
        11 -11.9622    186.9161    166.0461   9.7435928206e+01   1.4626951903e+01    0.4017578     0.280996 -46.86  0.001768729    1.787    0.440
        12 -13.5424    188.0547    175.5704   9.8939033428e+01   1.3109262741e+01    0.5911131    0.4000829 -51.11  0.001620429    2.018    0.505
        13 -12.0280     26.1866    172.7796   1.2979749265e+02   3.7495669663e+01    0.2685589    0.1861354  61.05   0.00154544    1.197    0.164
        14 -11.9078    194.4791    172.0966   9.7166090659e+01   1.2385019594e+01    0.2642901    0.2454851 -33.79  0.000910758    1.319    0.242
        15 -12.4108    176.8987    169.2714   9.9875788248e+01   1.6050483259e+01    0.2631685    0.1847051 -57.08   0.00145334    1.974    0.494
        16 -10.9341    229.6806    166.3263   9.0004928568e+01   6.5667270958e+00    0.1111856     0.103133  89.15 0.0003363294    1.680    0.405
        17 -10.7017    140.0464    241.4271   1.1610183820e+02   1.2519943604e+01    0.1712161    0.1392246 -46.92   0.00141026    1.715    0.417
        18 -10.7435     25.2274    165.1835   1.2944432860e+02   3.8968901928e+01     0.168108     0.140565  24.59  0.000913777    1.698    0.411
        19 -10.2062     14.4178    162.5204   1.3134310706e+02   4.0415322173e+01     0.100753    0.0758872  81.97 0.0001741697    1.033    0.032
        20 -12.0417    188.3148    154.0603   9.4888840944e+01   1.6058429582e+01    0.6477454    0.3015681  40.16  0.002904454    1.945    0.486
        21 -12.6003    163.7239    152.0179   9.9233034654e+01   2.1168255703e+01    0.3024443    0.2624893  39.07 0.0009046956    1.026    0.026
        22 -10.7497      7.3224    149.7162   1.3190613342e+02   4.3378842993e+01    0.2116092     0.123556 -45.29  0.001363487    2.592    0.614
        23 -11.6399    174.4158    148.7172   9.6483393679e+01   1.9598695297e+01    0.2896835    0.2539439  86.97  0.001180372    1.467    0.318
        24 -10.9746      9.7559    137.1601   1.3051836621e+02   4.5606991020e+01    0.1589745    0.1496419 -13.59  0.001358502    1.579    0.367
        25 -12.7903    160.3895    127.7346   9.4914244588e+01   2.5842687192e+01    0.3830499    0.3390408 -77.12  0.001360113    1.367    0.268
        26 -12.1354    134.9576    238.6427   1.1663074780e+02   1.3591123466e+01    0.2285886     0.206934  77.26  0.001304862    1.321    0.243
        27 -10.8939    151.6970    234.8560   1.1355688422e+02   1.1591698431e+01    0.2905403    0.1680639  68.05  0.001664494    2.667    0.625
        28  -9.9308    125.5555    236.2304   1.1789576437e+02   1.5236870687e+01    0.1106414   0.05830262  57.57            0    1.755    0.430
        29 -11.0625    231.2838    113.7080   7.8365727339e+01   1.2701917027e+01    0.2595256    0.2116828  19.61 0.0007266119    1.116    0.104
        30 -11.2446    168.0822    112.9849   8.9875444308e+01   2.6702692528e+01    0.3822671    0.2679576 -81.75  0.001477472    2.558    0.609
        31 -10.6033    217.6488    217.8415   1.0073228998e+02   3.1222738542e+00    0.1287503    0.1033648 -33.68 0.0006597325    1.694    0.410
        32 -10.1708     24.0364    216.4622   1.3267817731e+02   3.0387474914e+01    0.1063967   0.07361532  51.26 0.0009075344    1.291    0.225
        33 -11.7886    158.9462    212.4620   1.0968411752e+02   1.3243883332e+01     0.196042    0.1591441 -83.75  0.001381158    1.712    0.416
        34 -10.9962    205.4302    110.1839   8.1927374722e+01   1.8833572619e+01    0.3255296    0.1900768  41.59 0.0009418856    1.623    0.384
        35 -13.0287     11.9503    206.0124   1.3409895377e+02   3.3147393671e+01    0.3495082     0.182519  34.30  0.002563612    2.157    0.536
        36 -11.3289     97.9829    250.4304   1.2339457464e+02   1.7145568688e+01    0.1293109   0.08367085  48.24 0.0003851791    1.154    0.133
        37 -10.9098    163.1447    244.8925   1.1283980279e+02   8.7463469553e+00    0.2383675     0.111207  39.67  0.001154518    1.619    0.382
        38 -11.7321     13.6698    100.7951   1.2616471915e+02   5.2689314475e+01    0.3693468    0.1637298  21.76  0.002031764    3.025    0.669
        39 -10.2910    145.5314     82.4925   8.6753711456e+01   3.6961358108e+01    0.1474307    0.1417426   9.45 0.0001359724    1.005    0.005
        40 -10.3302     97.4673     80.4956   9.8480464928e+01   4.6988272182e+01    0.1361236    0.1286508 -46.39  6.73476e-05    1.011    0.011
        41 -10.9998    134.1418    197.0110   1.1205566736e+02   1.9367598114e+01    0.2041911    0.1627779 -66.98 0.0006859936    1.513    0.339
        42 -10.1656    130.9057    231.2087   1.1653559459e+02   1.5112928095e+01    0.1415625     0.103287  47.04 0.0004354792    1.054    0.051
        43 -14.2648    153.0867     62.5204   7.8967327729e+01   3.8542023765e+01     1.255094    0.8531192  23.96  0.003261948    1.740    0.425
        44 -11.4440    219.4834    195.0490   9.6855780609e+01   5.1682953056e+00    0.1578589     0.113824 -22.47 0.0006388807    1.577    0.366
        45 -13.2923    169.6448     39.8584   6.8167510087e+01   3.7633826398e+01    0.4867345    0.4290176  24.04 0.0008975494    1.108    0.098
        46 -11.2029     13.5891     59.9206   1.2006010020e+02   6.1305408811e+01    0.1730015    0.1597849  75.25 0.0004481998    1.275    0.216
        47 -11.1055    139.6038    193.5530   1.1060427962e+02   1.9003243887e+01    0.2551798    0.1146762 -57.32  0.001245033    3.024    0.669
        48 -11.2563    127.8428    246.7554   1.1851942411e+02   1.3609400135e+01    0.1270074     0.112537  51.30 0.0004897247    1.264    0.209
