#   1 NUMBER                 Running object number                                     
#   2 MAG_AUTO               Kron-like elliptical aperture magnitude                    [mag]
#   3 X_IMAGE                Object position along x                                    [pixel]
#   4 Y_IMAGE                Object position along y                                    [pixel]
#   5 X_WORLD                Barycenter position along world x axis                     [deg]
#   6 Y_WORLD                Barycenter position along world y axis                     [deg]
#   7 A_WORLD                Profile RMS along major axis (world units)                 [deg]
#   8 B_WORLD                Profile RMS along minor axis (world units)                 [deg]
#   9 THETA_WORLD            Position angle (CCW/world-x)                               [deg]
#  10 FWHM_WORLD             FWHM assuming a gaussian core                              [deg]
#  11 ELONGATION             A_IMAGE/B_IMAGE                                           
#  12 ELLIPTICITY            1 - B_IMAGE/A_IMAGE                                       
         1 -18.1260    130.0082    104.9141   3.6199172252e+01   3.5790049528e+01     5.514548     5.281006 -89.50   0.02901398    1.032    0.031
         2 -16.1537    204.5238    112.7642   2.4623224720e+01   2.1052597707e+01       2.5247     2.317887 -60.13   0.01843503    1.139    0.122
         3 -15.1688    239.0076     73.7627   1.3610222792e+01   2.1537944965e+01     1.270254     0.910193 -58.00  0.008726548    1.131    0.116
         4 -15.6351    244.8513     50.2313   9.0280925476e+00   2.3648967367e+01     1.723429     1.048312 -42.44   0.01195066    1.320    0.243
         5 -10.9461     28.9487     24.4806   4.5487904044e+01   7.0874558497e+01    0.2082537    0.1136066  38.42  0.001037436    1.606    0.377
         6 -11.3512    212.1404    249.3367   4.5919273552e+01  -1.2455125300e+00    0.1918652     0.109594 -26.49  0.001323987    1.366    0.268
         7 -11.1987     73.9712    250.4850   7.4835391367e+01   1.1719631430e+01    0.2085541    0.1061561  22.44  0.001043385    1.622    0.384
         8 -11.2106    183.5194    238.0178   4.9359362620e+01   2.8403083446e+00    0.1695894   0.09631797 -38.78  0.001035299    1.603    0.376
         9 -12.2791    191.1364    232.6156   4.7213132839e+01   2.9567403701e+00     0.300406    0.1744989 -34.42  0.001895773    1.470    0.320
        10 -11.9626    206.0295    232.9751   4.4676644776e+01   1.5565094751e+00    0.1803655    0.1321143 -15.50  0.001329262    1.011    0.011
        11 -10.7915    228.6791    175.3078   3.2332981481e+01   7.9998087755e+00   0.09957837    0.0806278 -57.85 0.0003517527    1.641    0.391
        12 -11.7100    222.2687    169.8028   3.2345626692e+01   9.5486878293e+00    0.2074165     0.149189  10.04   0.00141591    1.648    0.393
        13 -10.9407    207.0632    163.5097   3.3558104076e+01   1.2358628655e+01    0.1547504    0.1162376  31.12 0.0007344433    1.569    0.363
        14 -11.2706    198.9378    158.6736   3.3998676854e+01   1.4207194563e+01    0.1607242    0.1467808 -12.87 0.0007111814    1.147    0.128
        15 -12.5788    192.2253    246.8873   4.8996226641e+01   7.3829008754e-01    0.3292641    0.2475566 -15.07  0.001874262    1.066    0.062
        16 -12.5852     88.4233     79.5500   4.0725148317e+01   4.9433142618e+01    0.2951037    0.2609266   4.09  0.000921787    1.354    0.261
        17 -13.0349     86.2155    130.5231   5.4371927668e+01   3.8191142004e+01    0.3500418    0.2827146 -74.90  0.001284537    1.390    0.281
        18 -11.8057     63.6896    248.6869   7.7189245200e+01   1.3089710287e+01    0.2827256   0.09682553  38.98  0.001179286    2.481    0.597
        19 -14.0572    244.9802     65.8180   1.1734075363e+01   2.1699949064e+01      0.64405    0.5324305 -77.39   0.00437543    1.283    0.220
        20 -10.4180    211.4646     76.4750   1.6708265373e+01   2.5450026762e+01    0.1162284   0.09130138 -55.23 0.0001734899    1.003    0.003
        21 -12.5001    195.6234    144.4405   3.1947102263e+01   1.7094328317e+01    0.1955098    0.1742836 -80.53  0.000751342    1.420    0.296
        22 -13.1377     89.3417    122.5394   5.1622220575e+01   3.9603661693e+01    0.3736265    0.3024608 -75.62 0.0009915032    1.400    0.286
        23 -11.2460    160.2950     73.8416   2.2735604080e+01   3.5263258646e+01    0.2168921    0.1680271 -89.27 0.0008024285    1.326    0.246
        24 -12.8617    150.4154    144.6557   4.0387359684e+01   2.4008253459e+01    0.3071463    0.2322263  13.40  0.001125547    1.602    0.376
        25 -12.1460    191.9232    149.2174   3.3432985272e+01   1.6791637162e+01    0.1807683    0.1595696 -55.90 0.0007340919    1.238    0.192
        26 -15.1658     30.4359     70.2121   6.2209533046e+01   6.1567496278e+01    0.6959667    0.5043801  29.23  0.003587043    1.316    0.240
        27 -12.6736     91.7692    144.0030   5.5400451521e+01   3.3949661133e+01    0.3464709    0.2747268 -81.03  0.001248957    1.500    0.333
        28 -12.0672    153.0116     70.6344   2.3132629958e+01   3.7264064023e+01    0.2865415    0.2076141 -84.52  0.000935185    1.494    0.331
        29 -12.4135    209.8001    145.9657   3.0055318820e+01   1.4889829156e+01    0.1821135    0.1687246   1.29 0.0006385488    1.237    0.191
        30 -10.7384    239.4975    148.5027   2.6505370548e+01   1.0824289090e+01    0.1104545   0.08240706 -36.45 -0.0001431349    1.008    0.008
        31 -14.2209     14.4023     65.4083   6.9874991447e+01   6.4450118451e+01    0.5232481    0.3858878 -74.00  0.002769238    1.548    0.354
        32 -12.9386    182.5094    142.7351   3.3808354314e+01   1.9312397089e+01    0.2724066    0.2140268 -89.86  0.001123129    1.883    0.469
        33 -11.4208    159.9979     67.5366   2.1266133395e+01   3.6311145288e+01    0.2467397     0.158157 -58.35 0.0007980645    1.495    0.331
        34 -13.6899     81.4839    107.5868   5.0666125949e+01   4.4583358935e+01    0.4387046     0.325258 -59.07  0.001270722    1.409    0.291
        35 -13.1407    149.1166     63.5691   2.2001784007e+01   3.9187695891e+01    0.3069703    0.2559283 -86.27 0.0008908356    1.123    0.109
        36 -12.3653     26.5476    103.5080   7.1864052614e+01   5.3638335987e+01    0.4170367    0.1542028  14.65  0.001369325    3.114    0.679
        37 -11.5415    217.8681    150.6491   2.9721325660e+01   1.3091476927e+01    0.1988151    0.1310317 -33.64 0.0006362258    1.270    0.213
        38 -11.6228    155.1344     64.0594   2.1163351686e+01   3.7847846537e+01    0.2224851     0.181059  77.71 0.0007205449    1.198    0.165
        39 -10.9285    226.2904    147.5807   2.8037368242e+01   1.2528119871e+01     0.130244     0.104945  12.69 0.0006634539    1.535    0.349
        40 -14.2309     34.2520     60.2553   5.7101032851e+01   6.3289789561e+01    0.5407273    0.3287899 -42.56  0.002580833    1.717    0.417
        41 -11.5923    112.2863     60.9569   2.8522996883e+01   4.7681015398e+01    0.2710447     0.192708  50.81 0.0009275452    1.390    0.281
        42 -12.1792    221.1313     59.1751   1.2444917050e+01   2.6218750515e+01     0.243107    0.1181693 -45.08 0.0008852757    1.578    0.366
        43 -12.7333    161.4352     59.1035   1.9011830017e+01   3.7281078615e+01    0.2539711    0.1996951 -88.24  0.001106779    1.210    0.174
        44 -13.6995     81.7059     97.4139   4.7980660633e+01   4.6907088348e+01    0.4139395    0.3056521 -50.90  0.001253336    1.389    0.280
        45 -11.0668    221.0029    139.0033   2.7248964859e+01   1.4532027135e+01    0.1799923    0.1398578 -37.24 0.0005858484    1.037    0.035
        46 -10.3173    215.2876     80.2998   1.7050905547e+01   2.4281766699e+01    0.1004529   0.08533403 -19.52 0.0003583843    1.557    0.358
        47 -13.0600    210.7275    138.8012   2.8630995340e+01   1.5933104875e+01    0.2150474    0.2115022 -21.91 0.0008663734    1.229    0.186
        48 -13.3364    173.9381    138.8098   3.4567603984e+01   2.1348889860e+01    0.3760377    0.2319469  58.17  0.001881026    2.233    0.552
        49 -10.4829    189.3765     91.2414   2.2358647995e+01   2.6994985290e+01    0.1097803   0.09524383  15.37 0.0003621813    1.628    0.386
        50 -12.6818    133.2178     52.9287   2.1894560031e+01   4.4250697173e+01     0.238083    0.1788896  68.52 0.0007592276    1.257    0.205
        51 -11.1836    120.8743     51.7649   2.3909244095e+01   4.7194295473e+01    0.2059182    0.1773413  50.42  0.001210703    1.267    0.210
        52 -13.2328     88.9627     87.4556   4.2840813595e+01   4.7684861597e+01     0.357643    0.2946647  15.49  0.001068096    1.465    0.317
        53 -12.5601    221.6020     49.2595   1.0521970737e+01   2.7406496294e+01    0.2686243   0.09058293 -36.10  0.001302146    2.698    0.629
        54 -12.6111    201.9732    146.4550   3.1320360839e+01   1.5865594364e+01    0.2178142    0.1893329 -76.71 0.0008483243    1.487    0.328
        55 -13.3582    179.9032    133.1394   3.2392228238e+01   2.1441941030e+01    0.2856315    0.2469883 -59.82 0.0009244538    1.196    0.164
        56 -13.5306     42.2612     85.5752   6.0581245140e+01   5.6324535328e+01    0.3554101    0.2821736 -31.40  0.001696679    1.329    0.248
        57 -12.4980     21.1931     45.3920   5.9483759508e+01   6.8175064781e+01    0.2662654    0.1930411  50.05  0.001418391    1.659    0.397
        58 -13.4442     32.4662     42.9847   5.1756669856e+01   6.7071236349e+01    0.3014835    0.2745963  38.90  0.001843155    1.155    0.134
        59 -14.8170    231.7620     50.5580   9.9968582169e+00   2.5607831095e+01    0.8246997    0.5757285 -21.16  0.005546138    2.141    0.533
        60 -11.0205     88.9703    249.0000   7.1084593793e+01   1.0490873244e+01    0.2183252   0.06154676  23.22 0.0008040325    2.954    0.661
        61 -11.9586    176.3465    245.8683   5.1773228690e+01   2.3023856544e+00    0.2574987     0.171307 -30.02  0.001608834    1.324    0.245
        62 -11.3766    161.9431     79.9585   2.3922730878e+01   3.3946220274e+01    0.2316658     0.179992 -84.42 0.0009622285    1.347    0.258
