#   1 NUMBER                 Running object number                                     
#   2 MAG_AUTO               Kron-like elliptical aperture magnitude                    [mag]
#   3 X_IMAGE                Object position along x                                    [pixel]
#   4 Y_IMAGE                Object position along y                                    [pixel]
#   5 X_WORLD                Barycenter position along world x axis                     [deg]
#   6 Y_WORLD                Barycenter position along world y axis                     [deg]
#   7 A_WORLD                Profile RMS along major axis (world units)                 [deg]
#   8 B_WORLD                Profile RMS along minor axis (world units)                 [deg]
#   9 THETA_WORLD            Position angle (CCW/world-x)                               [deg]
#  10 FWHM_WORLD             FWHM assuming a gaussian core                              [deg]
#  11 ELONGATION             A_IMAGE/B_IMAGE                                           
#  12 ELLIPTICITY            1 - B_IMAGE/A_IMAGE                                       
         1  -8.6553     55.6166      9.8405   5.7090479892e+01   6.6160933589e+01    0.1896522     0.175703 -57.20  0.000613311    1.581    0.367
         2  -7.9141     47.6239      9.8573   6.0183867025e+01   6.7554812640e+01    0.1505808    0.1045411 -34.35  0.000934224    1.736    0.424
         3  -8.0203     28.2695      9.6593   6.8835230404e+01   7.0553641567e+01   0.09542815   0.09174806 -16.52 0.0005043391    1.605    0.377
         4  -7.8212    101.4714      7.9914   4.3377160649e+01   5.6961466245e+01    0.1557471   0.09509157 -54.77 0.0004172022    2.240    0.553
         5  -8.0851     90.6378      8.2460   4.5923720226e+01   5.9314041486e+01    0.1578889    0.1146906  -0.45 0.0009511402    1.614    0.381
         6  -8.4614     33.2672      4.7857   6.3951097951e+01   7.0376984330e+01    0.2334087    0.1391742 -41.18  0.001220753    2.364    0.577
         7  -8.3857     79.0353      3.6021   4.7039222253e+01   6.2151496084e+01    0.2147418    0.1568734 -42.24  0.001336712    1.749    0.428
         8  -7.7628     44.5012      2.9901   5.8148049948e+01   6.8757623545e+01    0.1371446   0.09616245 -48.36 0.0008025628    2.356    0.576
         9  -7.8243     15.7042      3.2805   7.2255050513e+01   7.2924736325e+01    0.0929703   0.08320945  18.63 0.0002772406    1.536    0.349
        10  -8.0603     62.2951      1.3548   5.0956402883e+01   6.5678327879e+01    0.1561923   0.09985829  59.05 0.0003981985    1.587    0.370
        11  -7.6393     39.3116      1.6410   5.9641318476e+01   6.9743620814e+01    0.0979842   0.09336509 -72.02 0.0007042585    1.742    0.426
        12  -9.9956    223.8911    244.0076   7.5319025810e+01  -8.4155283501e+00    0.4384627    0.2166026 -46.30  0.002252162    2.521    0.603
        13  -8.9848    232.9103    247.7532   7.4294403995e+01  -1.0007486431e+01      0.31525    0.1742816 -44.73  0.001552245    2.226    0.551
        14  -7.4251    125.2831    250.6525   9.6379175753e+01   4.0997429871e+00    0.1275675   0.09317455  61.84 0.0004073563    1.647    0.393
        15  -8.3343     93.9719    249.4695   1.0302410702e+02   8.8347297147e+00    0.2377008    0.1446694  59.70  0.001057683    1.788    0.441
        16  -9.3106    210.8118    246.3793   7.8141749342e+01  -7.1491361423e+00     0.242085    0.1574779 -52.06  0.001130421    2.283    0.562
        17  -9.0169    147.1118    245.8485   9.1024905941e+01   1.7655737879e+00    0.2872068    0.2077555  74.39  0.001449484    2.309    0.567
        18  -9.1570    120.0728    245.3513   9.6834432135e+01   5.8571597301e+00    0.3424302    0.2403814  69.18  0.001602413    1.890    0.471
        19  -9.2017     78.1300    243.3786   1.0582786655e+02   1.2258158423e+01    0.4172424    0.1891262  61.39  0.001686093    2.991    0.666
        20  -8.4379     67.4330    244.7188   1.0828043448e+02   1.3417218293e+01    0.2249998    0.1218777 -76.10  0.001138952    2.076    0.518
        21  -8.1088     50.1702    244.3300   1.1192471357e+02   1.5694045342e+01    0.2769777    0.1210869  79.53  0.001095502    3.473    0.712
        22  -8.9202      9.2941    243.6503   1.2016604563e+02   2.0372186779e+01    0.3197539    0.1036306  80.60  0.001209109    4.099    0.756
        23  -8.6505    201.8356    243.0714   7.9336593686e+01  -5.4887883153e+00    0.2470782    0.1736592 -44.39 0.0008061783    1.681    0.405
        24 -10.4645    203.7356    237.4182   7.8048370727e+01  -4.8553481628e+00    0.3393223    0.2221899 -44.56 0.0004026986    1.742    0.426
        25  -8.0378     34.4776    243.9709   1.1515949538e+02   1.7625717695e+01    0.1770935   0.08060566  73.26 0.0008096049    2.494    0.599
        26  -9.1756    194.3049    240.1678   8.0350963294e+01  -4.0203045122e+00    0.3291808    0.2177119 -60.89  0.001443569    2.647    0.622
        27  -9.4284    183.1920    240.2813   8.2607534373e+01  -2.4976405540e+00    0.4046662    0.2879598  62.87  0.002050036    2.629    0.620
        28  -9.6919    160.0152    240.1264   8.7422356861e+01   8.7989990313e-01    0.3439497     0.265876 -84.11  0.001469613    2.175    0.540
        29  -8.2584    153.1205    241.6787   8.9130361948e+01   1.6239355536e+00    0.2026841    0.1836375 -65.75 0.0008069511    1.405    0.288
        30  -8.1558     88.3534    242.2208   1.0345784269e+02   1.1075681219e+01    0.1717844    0.1193943 -84.27 0.0006496806    1.693    0.409
        31  -8.6448    146.7701    239.9647   9.0250917776e+01   2.8823158282e+00    0.3342735    0.2200619  74.37  0.001230387    3.122    0.680
        32  -8.1628    240.5732    240.2717   7.1724913808e+01  -9.8367665827e+00    0.2316578    0.0875262 -32.23  0.001113994    2.422    0.587
        33  -8.9810    242.6625    236.6401   7.0761703861e+01  -9.5621973181e+00    0.3188595    0.1492464 -16.69  0.001500225    2.694    0.629
        34  -9.4212    135.7325    238.8661   9.2510395240e+01   4.7501548258e+00    0.2848098    0.1878305  56.26  0.001150043    1.860    0.462
        35  -8.7577    129.1492    238.7194   9.3946651590e+01   5.7731136907e+00    0.2170596    0.1478436  48.31  0.000671902    1.477    0.323
        36  -8.6103    168.9714    243.1607   8.5993222108e+01  -9.5494891360e-01    0.1840304    0.1637574  40.83  0.000523669    1.305    0.234
        37  -9.1855    230.8760    236.9567   7.2891910960e+01  -8.2296647693e+00    0.2459484    0.2006718 -56.59  0.001237589    2.073    0.517
        38  -8.4782    208.8194    237.9901   7.7160545639e+01  -5.6169980835e+00    0.1708401    0.1464571 -64.01 0.0006761681    1.931    0.482
        39  -9.2410    170.6117    236.9130   8.4681104978e+01  -1.1509478721e-01    0.2996261    0.2331774 -59.02 0.0009884528    1.716    0.417
        40 -10.0164    175.5495    232.9408   8.3011388185e+01  -1.4563378889e-01    0.5410886    0.2894144 -59.15  0.002340111    3.055    0.673
        41  -7.9431     57.9789    237.2029   1.0963654341e+02   1.6220145427e+01    0.1734279   0.09055103  35.27 0.0005693548    1.743    0.426
        42  -8.5076     25.6290    236.8170   1.1649212718e+02   2.0118746842e+01    0.2744895     0.111179  73.02  0.001160125    2.963    0.663
        43  -8.3693     13.9753    238.0000   1.1893506158e+02   2.1084745650e+01    0.1809001   0.06065163  30.30 0.0008014078    2.935    0.659
        44  -9.2284    216.7037    235.3711   7.5230745745e+01  -6.2334688277e+00    0.2352284    0.2117153  60.47  0.001137631    1.869    0.465
        45  -9.3724    213.6785    231.6849   7.5183639849e+01  -5.2681946187e+00    0.2535492    0.2361101 -71.75  0.001038237    1.755    0.430
        46  -9.1819    108.5921    234.3516   9.7977722944e+01   9.7409816369e+00    0.3310821    0.2290334  64.40 0.0009853588    1.702    0.413
        47  -8.8989     78.7201    234.2901   1.0473961618e+02   1.4079098803e+01    0.2880787    0.1680867  89.47  0.001358921    2.246    0.555
        48  -8.3179    122.8888    233.8372   9.4672078609e+01   7.6818344809e+00    0.2447181    0.1719682  79.12 0.0008250431    2.096    0.523
        49  -8.1471     99.7702    234.1884   9.9960115876e+01   1.1085074224e+01    0.2348972    0.1253868  64.67 0.0009537453    2.806    0.644
        50  -8.9778     68.5628    232.5642   1.0684369871e+02   1.5835220828e+01    0.4825913    0.2001879  61.85  0.001737454    3.605    0.723
        51  -8.7503    194.1677    232.6437   7.9148512888e+01  -2.7721517273e+00    0.1936523    0.1665671 -33.69  0.000493807    1.297    0.229
        52  -8.0270    144.9977    233.0735   8.9617601810e+01   4.4399351232e+00    0.2103162    0.1542564  58.60 0.0008609959    1.721    0.419
        53  -8.5980    132.6503    232.6742   9.2309658518e+01   6.4157051139e+00    0.2341617    0.1645982 -88.19  0.001136047    2.267    0.559
        54  -8.6126     92.9718    232.1165   1.0125576596e+02   1.2515094107e+01    0.3475529    0.2074117  69.14  0.001563536    2.219    0.549
        55  -9.5057    186.2547    230.4570   8.0387977110e+01  -1.2766036747e+00    0.3352079    0.2749071 -84.50  0.001467533    2.169    0.539
        56  -8.8888    235.9477    230.6500   7.0930464165e+01  -7.9104230244e+00    0.2428518    0.1457876 -36.96 0.0006237858    1.571    0.364
        57  -8.7735      1.7910    230.6840   1.2097135124e+02   2.3819399670e+01    0.2398684    0.1050133  69.44  0.001111914    2.091    0.522
        58  -8.9780    151.3227    228.9803   8.7592762511e+01   4.2447570950e+00    0.3189254    0.2174559  85.14  0.001204905    3.107    0.678
        59  -9.5738    148.7799    224.4929   8.7450742919e+01   5.5074039860e+00    0.4870233    0.3404773  83.37  0.001835313    2.696    0.629
        60  -8.5609    140.0845    230.1858   9.0275893861e+01   5.7542129937e+00    0.2512616     0.169433  48.42  0.001045867    1.566    0.361
        61  -7.6821    229.5335    228.5381   7.1716362920e+01  -6.8101221018e+00    0.1237499   0.09662806  -8.50 0.0001822311    1.018    0.018
        62  -8.8297    162.0859    227.6182   8.5020949694e+01   2.8412547003e+00    0.2454595    0.2091505  76.85  0.001108373    1.681    0.405
        63  -8.8115    127.8554    227.1128   9.2585773270e+01   8.2702945480e+00    0.3323577    0.2437244  71.87  0.001147655    1.851    0.460
        64  -8.4542    120.0590    227.7934   9.4470211294e+01   9.3427149963e+00    0.2304984      0.13863  56.99  0.001054219    2.026    0.506
        65  -8.5183      8.3304    228.6612   1.1954326842e+02   2.3642883957e+01    0.1332812   0.06662481  62.51 0.0007051858    1.739    0.425
        66  -7.8086    223.3540    227.1503   7.2605065353e+01  -5.8156176345e+00    0.1621902    0.1059491 -44.28 0.0003299896    1.730    0.422
        67  -8.6980    206.1947    225.9618   7.5647751573e+01  -3.3398305656e+00    0.2389797    0.1671742 -48.76 0.0008991656    1.751    0.429
        68  -7.8730    200.1781    226.2131   7.6870288546e+01  -2.5436094950e+00    0.1564704     0.151882 -11.07 0.0004884597    1.347    0.258
        69  -8.0230     49.0392    226.2668   1.1062221158e+02   1.9730467885e+01    0.1956167    0.1201482  73.55 0.0007818755    1.662    0.398
        70  -8.9118    180.3476    224.0024   8.0530050661e+01   7.2563132440e-01    0.2483277    0.2298039 -50.88 0.0003882312    1.355    0.262
        71  -9.0080    104.9802    223.7833   9.7412337024e+01   1.2506736835e+01     0.381376    0.2396433  80.69  0.001684336    2.441    0.590
        72  -8.8361     93.9772    224.1089   1.0003170031e+02   1.4090517565e+01     0.348172    0.2035667  66.15  0.001234083    2.249    0.555
        73  -8.8838    216.3539    223.2966   7.3244568350e+01  -4.2868234130e+00    0.2534855    0.2017126 -47.41 0.0009108803    1.592    0.372
        74  -8.5187    173.1631    223.1525   8.1903406460e+01   1.9686517133e+00    0.2445961     0.216773 -79.30 0.0007752867    1.601    0.376
        75  -8.0318    113.9842    223.9938   9.5338716687e+01   1.1077339981e+01    0.2201504      0.15567  63.03 0.0006913118    1.662    0.398
        76  -8.1104     59.9828    223.8089   1.0790341868e+02   1.8900761032e+01    0.2305788    0.1164901  55.12 0.0008862485    1.961    0.490
        77  -7.8743     38.2683    224.6281   1.1288159277e+02   2.1379413515e+01     0.137023   0.07955172  67.43 0.0004189177    1.670    0.401
        78  -9.2129    160.2245    221.2219   8.4382476594e+01   4.3397504037e+00    0.5614858     0.265839  52.85  0.002019299    3.568    0.720
        79  -9.0534    239.0378    221.4010   6.8805005172e+01  -6.8986297530e+00    0.2477216    0.1729999 -45.56   0.00095503    1.729    0.422
        80  -9.1969    225.4936    221.5581   7.1247502470e+01  -5.2151830852e+00    0.2221995    0.2012791 -21.65  0.001108447    1.312    0.238
        81  -9.1794    192.3834    221.1955   7.7570086817e+01  -5.6485012734e-01    0.3044889    0.2471307 -64.41  0.001151294    1.824    0.452
        82  -8.3228    140.0288    222.0480   8.9038996353e+01   7.3774257385e+00    0.2105848    0.1659786  68.87 0.0006315467    1.657    0.396
        83  -9.2137    120.4864    219.2157   9.3126242851e+01   1.1073433678e+01    0.4621896    0.2607834  60.55  0.001892437    2.575    0.612
        84  -8.9419     82.8123    220.5019   1.0220939171e+02   1.6519960320e+01    0.2656493    0.1723868  83.81  0.001283828    1.903    0.475
        85  -8.0898     73.4519    220.9425   1.0446663775e+02   1.7741134590e+01    0.2997371    0.1230232  58.52  0.001040651    3.469    0.712
        86  -8.1818     27.6001    220.7164   1.1492860540e+02   2.3451202565e+01    0.2395555    0.1031967 -69.46  0.001135869    2.163    0.538
        87  -8.1196    202.8216    220.1143   7.5296303456e+01  -1.8885988173e+00    0.1809302    0.1709396  -7.38 0.0006344062    1.259    0.206
        88  -8.8094    249.1232    218.3746   6.6559193623e+01  -7.6546010338e+00    0.2205699    0.2011692 -73.63  0.001503724    2.014    0.504
        89  -8.3703    209.9956    219.0435   7.3713196388e+01  -2.7195020253e+00    0.2121095    0.1628825 -37.97 0.0005915992    1.347    0.258
        90  -8.0793    179.5661    217.7591   7.9626677195e+01   1.9782920022e+00    0.1741073    0.1299398 -53.69 0.0008061028    1.624    0.384
        91  -8.9441    142.9563    216.5485   8.7492401258e+01   8.0250582999e+00    0.2808036    0.2071911 -74.45 0.0009609784    1.878    0.467
        92  -9.2993    133.1054    216.0675   8.9690983692e+01   9.7183266465e+00    0.5523332    0.3387729  72.32  0.002119657    3.256    0.693
        93  -8.6225     62.2248    217.5307   1.0672892226e+02   2.0035907641e+01    0.3146519     0.181482  64.94  0.001493963    1.891    0.471
        94  -9.0993     51.3882    217.3885   1.0924957399e+02   2.1455926249e+01    0.2981466    0.1930803  76.64 0.0007136011    1.579    0.367
        95  -8.7600    169.3423    216.1845   8.1540891385e+01   3.8665697567e+00    0.3045807    0.2288624 -71.09  0.001009574    2.016    0.504
        96  -8.1878    111.8259    217.0299   9.4850288205e+01   1.2911842403e+01    0.2303836    0.1572716  77.34  0.001067058    2.050    0.512
        97  -8.7992    232.3280    214.4202   6.8762890180e+01  -4.9710343803e+00    0.3164034    0.1955548 -47.13  0.001368753    1.882    0.469
        98  -7.9478     18.5717    215.7851   1.1655471343e+02   2.5512050391e+01    0.1811217    0.1011416  85.67    0.0009542    1.670    0.401
        99  -8.0568    154.6358    215.3388   8.4642770124e+01   6.3812472473e+00    0.2041193    0.1646923  68.60 0.0008367173    1.684    0.406
       100  -9.3433     93.2279    214.3080   9.8926839081e+01   1.6385411491e+01    0.4052355    0.2585928  61.42  0.001798936    1.775    0.437
       101  -7.7950     41.3595    215.6790   1.1140957079e+02   2.3061256299e+01    0.1456453   0.08108325  61.86 0.0007043716    1.769    0.435
       102  -8.1803    185.3331    214.0769   7.7774965793e+01   1.7684329293e+00    0.1854621    0.1652085 -26.42 0.0007125068    1.147    0.128
       103  -9.4504     73.1725    211.7765   1.0345770385e+02   1.9884254665e+01    0.7326114    0.2874224  57.41  0.002400613    3.829    0.739
       104  -9.4761    213.8438    212.0326   7.1733733610e+01  -2.0801826550e+00    0.3117976    0.2908432  75.75  0.001402197    1.660    0.397
       105  -8.6594    161.8582    212.4157   8.2532514685e+01   5.7940466508e+00    0.2400112      0.20022 -72.13 0.0009967033    1.597    0.374
       106  -7.7793    106.4801    212.9501   9.5537493927e+01   1.4652844335e+01    0.1918155    0.1221153  85.26 0.0008077434    2.414    0.586
       107  -7.9640    224.7816    212.5603   6.9791582948e+01  -3.6754904490e+00    0.1539881     0.116258  38.12 0.0005605465    1.593    0.372
       108  -8.9778    204.2189    210.7787   7.3366253647e+01  -4.7954381097e-01    0.2644143    0.1985097 -46.57 0.0006537662    1.497    0.332
       109  -9.4471    175.5840    210.0630   7.9123641421e+01   4.0460627005e+00    0.4219004    0.2881326  66.72   0.00178088    2.738    0.635
       110  -8.7404    148.0567    210.5269   8.5322990550e+01   8.4297830277e+00    0.2764887    0.2193997  84.16  0.001012073    1.816    0.449
       111  -8.8917    116.3039    210.5079   9.2803748069e+01   1.3634655901e+01    0.3079221    0.2137588  66.59  0.000954129    1.831    0.454
       112  -9.0106      6.4907    209.1775   1.1876435394e+02   2.8177631291e+01    0.4382406    0.1422302  75.45  0.001455762    4.581    0.782
       113  -9.1052    236.7332    208.4123   6.6918077771e+01  -4.5853317072e+00    0.3086327    0.2287976 -63.37  0.001519292    2.438    0.590
       114  -8.1055    192.3575    210.2381   7.5643014210e+01   1.3934641680e+00    0.1819407    0.1224246 -50.16   0.00058819    1.704    0.413
       115  -8.5837     85.4554    209.3335   1.0015230450e+02   1.8688800841e+01    0.3350148    0.2030187  77.43   0.00134181    2.274    0.560
       116  -8.4560     46.6565    209.6117   1.0959469305e+02   2.3851686676e+01    0.2906227    0.1412573  80.62  0.001175576    2.720    0.632
       117  -8.0556     32.0079    209.9666   1.1306645795e+02   2.5453399539e+01    0.2400735    0.1111513  76.78 0.0009976896    2.611    0.617
       118  -9.5440    246.4069    207.0897   6.5030854404e+01  -5.6062319391e+00    0.2968062    0.1767627 -34.90 0.0007812019    1.416    0.294
       119  -9.3336    250.1131    201.9489   6.3498522356e+01  -5.2656969181e+00    0.3461232    0.1487952 -38.42  0.001230678    1.949    0.487
       120  -7.9848    156.5078    208.0252   8.2967886232e+01   7.5484530125e+00     0.184059    0.1295793 -79.93 0.0008088778    2.431    0.589
       121  -8.2870    139.0274    207.9975   8.6989992336e+01   1.0453569785e+01    0.2223351    0.1733821  72.59 0.0006625067    1.711    0.416
       122 -10.0770    124.2269    206.1963   9.0212851457e+01   1.3297959549e+01    0.3045132    0.2232692  65.72 -0.000430966    1.695    0.410
       123  -9.3358     99.3671    206.1301   9.6279108331e+01   1.7318075503e+01    0.3964828    0.2608036  80.65  0.001295753    2.101    0.524
       124  -8.3858     11.4164    206.7889   1.1751536325e+02   2.8280868733e+01    0.1737902   0.09887342 -68.00 0.0009444778    1.640    0.390
       125  -8.2964     56.3825    205.3499   1.0680060453e+02   2.3656298760e+01    0.2690565     0.151789  67.66  0.001019985    2.026    0.506
       126  -9.3809    194.8313    203.5663   7.3924823719e+01   2.2342148583e+00    0.3433113     0.279743 -47.78  0.001272441    1.382    0.277
       127  -9.3127    192.5708    197.5413   7.3263539889e+01   3.7149798743e+00    0.4175508    0.2848074 -57.46  0.001329595    1.900    0.474
       128  -8.9454    183.7375    203.9016   7.6277980787e+01   3.9207172623e+00    0.3037479    0.2469623  66.28  0.001345457    1.805    0.446
       129  -8.6748    131.3445    204.1974   8.8172626528e+01   1.2555775940e+01    0.3147702    0.1933226  62.45  0.001186564    2.400    0.583
       130  -8.1221    109.0402    205.0495   9.3731977678e+01   1.6033341247e+01    0.2309494    0.1684386  72.13 0.0009640274    1.692    0.409
       131  -9.6033    163.8540    202.9912   8.0423300869e+01   7.3516585093e+00    0.4538132    0.2751977  53.29  0.001074524    2.173    0.540
       132  -7.8850     41.7772    203.1802   1.1012662260e+02   2.5964545197e+01    0.2505797     0.108223  62.42 0.0009614573    2.879    0.653
       133  -9.2046    243.1152    201.0073   6.4490991710e+01  -4.2279427557e+00    0.3040829    0.1798887 -45.87  0.001012333    1.786    0.440
       134  -8.4643    211.0116    201.9828   7.0443138179e+01   6.4782820280e-02    0.1874587    0.1659312 -74.02 0.0006768762    1.699    0.411
       135  -8.8917    140.2524    200.7622   8.5461212682e+01   1.1803280721e+01    0.3274558    0.2384914  85.01  0.001068739    2.143    0.533
       136  -8.5837     79.7423    201.0310   1.0045813474e+02   2.1491305055e+01    0.3115445    0.1843929  88.28  0.001311192    2.300    0.565
       137  -8.4191     48.3823    202.1368   1.0841060227e+02   2.5429520790e+01    0.2000522    0.1164679 -89.38 0.0009390534    1.842    0.457
       138  -7.7045     10.3164    202.3280   1.1745373673e+02   2.9427008671e+01    0.1213385   0.08728138 -49.83 0.0007045415    1.677    0.404
       139  -7.7891    221.7952    201.0429   6.8248218921e+01  -1.3370096577e+00    0.1740407   0.09203764 -39.77 0.0008585871    1.714    0.417
       140  -9.4683     24.4837    200.1981   1.1399722759e+02   2.8569599822e+01    0.2337038    0.1956431  74.81 0.0003099849    1.030    0.029
       141  -9.4751    149.4655    198.4785   8.2890202274e+01   1.0723203581e+01     0.433344    0.3061351 -83.04  0.001344797    2.338    0.572
       142  -8.7786    124.0127    199.2765   8.9121330548e+01   1.4882409550e+01    0.3164741    0.2276904  89.86  0.001029582    1.979    0.495
       143  -9.2432    112.9012    198.4899   9.1737423409e+01   1.6914514636e+01      0.47907    0.2931374  64.25  0.001830223    2.285    0.562
       144  -8.9968    237.1176    198.3913   6.5035534139e+01  -3.0128662676e+00    0.2682629    0.1550247 -42.06 0.0008688102    1.616    0.381
       145  -8.3834    176.9684    198.9599   7.6806162723e+01   5.9797052155e+00    0.2040607    0.1767441  80.73 0.0005340881    1.635    0.388
       146  -8.1795     99.6193    199.6969   9.5255499406e+01   1.8781054303e+01    0.1489251    0.1133111 -13.27 0.0007023936    1.777    0.437
       147  -9.1192     88.6839    198.3459   9.7818927438e+01   2.0802548286e+01    0.3918437    0.2531771  86.74  0.001491544    2.042    0.510
       148  -8.4710    202.2912    197.7280   7.1345041981e+01   2.1499607253e+00    0.2337895    0.2030938 -63.69  0.001001473    1.549    0.355
       149  -9.0062     61.2246    196.9101   1.0460897816e+02   2.5071509667e+01    0.4667865    0.2333905  70.83  0.001747462    2.966    0.663
       150  -7.9692     36.4649    196.9583   1.1080668742e+02   2.8077868992e+01    0.1937304   0.09704086  76.84 0.0007319176    2.406    0.584
       151  -8.1879     29.2614    197.2632   1.1259384969e+02   2.8783722974e+01    0.2157492    0.0985842 -89.50 0.0008986342    2.430    0.589
       152  -8.0782     12.4219    197.2200   1.1659856480e+02   3.0447284820e+01    0.1899687     0.101168  85.70 0.0009485591    1.765    0.433
       153  -9.5879    245.9052    193.6349   6.2683097465e+01  -3.4045005347e+00    0.3164694    0.2307817 -65.82  0.001638268    2.518    0.603
       154  -8.8407    224.5471    193.8304   6.6405788529e+01  -4.9214758164e-01    0.3263292    0.1358498 -47.61    0.0013646    2.600    0.615
       155  -7.4125    209.2803    195.6465   6.9591887942e+01   1.4542188430e+00    0.1236042    0.1069729 -69.08 0.0007013447    1.654    0.395
       156  -8.8441    185.1777    194.8944   7.4295811572e+01   5.4220238132e+00    0.2333444    0.2152808 -56.35 0.0006884318    1.295    0.228
       157  -8.8961    160.8310    194.0970   7.9469305685e+01   9.6966818340e+00    0.2821438    0.2114902 -71.67 0.0008520478    1.852    0.460
       158  -8.2017    231.0202    194.2855   6.5337802239e+01  -1.4914126649e+00     0.177042    0.1503108 -15.36  0.000485315    1.049    0.046
       159  -8.9574     76.9234    193.7477   1.0017456791e+02   2.3669639696e+01    0.2628419     0.202742 -83.51 0.0005531615    1.339    0.253
       160  -9.0301     43.6559    193.1626   1.0862242253e+02   2.8188585271e+01    0.4485911    0.2397292  71.57   0.00195485    2.224    0.550
       161  -8.5994    215.7727    195.3326   6.8301246294e+01   5.3232667601e-01    0.2807572    0.1636208 -53.44 0.0008957661    2.211    0.548
       162  -8.3319    199.0127    191.7585   7.0863820258e+01   3.7744737892e+00    0.2318897    0.1713944 -54.19 0.0005997029    1.605    0.377
       163  -8.2338    179.1143    191.8113   7.4995632946e+01   7.0408288024e+00    0.2011381    0.1979371  84.16 0.0005462994    1.233    0.189
       164  -8.4242    172.3036    191.7375   7.6460105158e+01   8.2131931470e+00    0.2550003    0.2175865 -78.02   0.00098632    1.572    0.364
       165  -9.1546    139.6380    190.6356   8.3793515041e+01   1.4140449886e+01     0.401622     0.292242  83.51  0.001501194    2.118    0.528
       166 -10.4184     92.3086    188.7860   9.5438096574e+01   2.2559190537e+01     1.025674    0.2942231  45.31   0.00306209    3.756    0.734
       167  -8.8723      6.5018    190.0365   1.1745979873e+02   3.2691782848e+01    0.1981359    0.1065061 -78.74 0.0007080096    1.588    0.370
       168  -8.4564    237.3963    188.6084   6.3176252427e+01  -1.4249185203e+00    0.2292783    0.1063805 -43.40   0.00064377    1.967    0.492
       169  -8.9030    216.5828    187.8741   6.6734377760e+01   1.7398562323e+00    0.2967108    0.2185908 -57.44  0.000902122    1.766    0.434
       170  -9.1586    156.0145    187.5639   7.9338782263e+01   1.1926806811e+01    0.3650492    0.2365621 -61.48 0.0008292732    1.915    0.478
       171  -8.3915    148.4635    189.0178   8.1383307068e+01   1.2945358502e+01    0.2176203    0.1457015 -52.18  0.001008929    1.559    0.359
       172  -8.9091    129.1867    188.5296   8.5966946166e+01   1.6448323004e+01    0.3060695    0.2347773  78.28 0.0008654008    1.732    0.422
       173  -9.6900    120.7625    186.3711   8.7689972553e+01   1.8416771157e+01    0.5386373    0.3173012 -76.53  0.002022979    2.730    0.634
       174  -8.8420     34.3849    188.0773   1.1043114349e+02   3.0495527229e+01    0.3309704    0.1731522  68.91  0.001364889    2.185    0.542
       175  -8.1619    133.0450    195.9955   8.6353528416e+01   1.4085577897e+01    0.2269122    0.1777874  74.47 0.0006095886    1.654    0.395
       176  -8.7824    191.3494    187.0585   7.1507459373e+01   5.9254538166e+00    0.3256967    0.2339512 -69.91  0.001257426    2.216    0.549
       177  -8.8552    165.0148    186.9234   7.7157000272e+01   1.0475413561e+01    0.2956165    0.2365258 -61.43 0.0007784428    1.468    0.319
       178  -9.1262     54.5842    186.6792   1.0505302984e+02   2.8472507522e+01    0.4517298    0.2408639  71.25  0.001557472    2.486    0.598
       179  -8.1736    230.6074    186.8942   6.4022604715e+01  -1.7054928577e-01    0.1890134    0.1091355 -47.88 0.0009486038    1.815    0.449
       180  -9.2461    109.6162    186.1108   9.0496097332e+01   2.0384813076e+01     0.409766    0.2755976  69.43  0.001280464    2.001    0.500
       181  -9.2077    249.1962    185.3394   6.0620057487e+01  -2.4904405117e+00    0.2747989    0.1647335 -45.86 0.0008723015    1.651    0.394
       182  -8.6743    210.1423    184.2958   6.7253194280e+01   3.3927675726e+00    0.2478012    0.1766921 -43.28 0.0005381086    1.354    0.262
       183  -8.5760    202.7727    184.5021   6.8716004683e+01   4.5361191942e+00      0.25629    0.1732371 -56.45 0.0008651495    1.843    0.458
       184  -8.5184    183.0123    184.8228   7.2809112077e+01   7.7769831795e+00    0.2479772    0.1963315 -44.20 0.0007257841    1.261    0.207
       185  -8.9981     66.6244    184.3327   1.0155999487e+02   2.7470772747e+01    0.4123912    0.2268915  65.75  0.001015337    2.378    0.580
       186  -8.2499     26.8476    184.8324   1.1201955567e+02   3.2091161026e+01    0.1890591    0.1510529 -83.38   0.00034558    1.100    0.091
       187  -9.4574     25.7476    179.0754   1.1173085371e+02   3.3641702091e+01    0.7368627    0.2930496  80.71  0.002367762    4.250    0.765
       188  -8.8159    224.0517    183.4660   6.4527063294e+01   1.3947608503e+00    0.2383899    0.1664221 -48.11 0.0005596643    1.510    0.338
       189  -7.9652    197.3784    184.1665   6.9719256797e+01   5.4840548070e+00     0.201484     0.124639 -52.32 0.0005813048    1.822    0.451
       190  -8.8135    174.3384    183.6653   7.4448914944e+01   9.5171795258e+00    0.2779414    0.2338043 -88.89 0.0008250169    1.664    0.399
       191  -8.9956     44.4739    182.4004   1.0719011753e+02   3.0784412325e+01    0.3873225     0.225947  66.07     0.001055    1.913    0.477
       192  -8.0535      1.7106    183.5845   1.1813624069e+02   3.4641277509e+01    0.1662384    0.1023347  45.55 0.0009374809    1.598    0.374
       193  -9.1755    147.5353    180.5216   7.9975097146e+01   1.4994092232e+01    0.3577959     0.276903 -87.38 0.0009792894    1.826    0.452
       194  -7.7852    235.4499    181.5169   6.2168879759e+01   5.5730976963e-02     0.130297    0.1074798 -25.54 0.0001075615    1.017    0.016
       195  -8.2671     90.7517    181.4277   9.4666432144e+01   2.4621987095e+01     0.204559    0.1458511  19.68  0.000945992    1.641    0.391
       196  -8.6140    137.5525    179.2987   8.2165073174e+01   1.7082781045e+01    0.3113923    0.2343402  83.73 0.0009613913    1.901    0.474
       197  -7.5840    240.3084    179.6626   6.1003482660e+01  -3.2271370729e-01    0.1197581   0.09707323 -61.20  0.000704296    1.680    0.405
       198  -9.4083    191.5879    178.3616   6.9741126822e+01   7.5923033542e+00    0.3000714    0.2649429  81.06 0.0006068596    1.538    0.350
       199  -8.0224    169.5351    178.7296   7.4528885710e+01   1.1400516764e+01    0.1947406    0.1406465 -57.33 0.0009261213    1.572    0.364
       200  -8.6063    250.5073    172.8266   5.8075961444e+01  -6.0428449563e-01    0.2297407    0.1510725 -39.94 0.0009347536    1.283    0.221
       201  -9.3226    248.9944    177.4820   5.9188068403e+01  -1.1693193991e+00    0.2981711    0.2661439 -54.25  0.001371248    1.423    0.297
       202  -8.7607    247.3240    173.7037   5.8740475854e+01  -3.0700467115e-01    0.1973154    0.1488221 -39.91  0.000269506    1.194    0.162
       203  -8.5226    217.7656    177.2670   6.4458521616e+01   3.4789911032e+00    0.2415754    0.1706944 -58.81  0.001108916    1.843    0.457
       204  -8.7042    205.0410    177.5293   6.6900065409e+01   5.4860195132e+00    0.2586686    0.1830448 -53.46 0.0008008115    1.595    0.373
       205  -8.8629    129.4594    177.4676   8.3833717216e+01   1.8972453884e+01    0.3272782    0.2249884  79.10 0.0007761125    2.312    0.567
       206  -9.1690     35.7310    176.4079   1.0881342181e+02   3.3288038407e+01    0.4991009    0.2204549  79.62  0.001686494    3.696    0.729
       207  -8.4335    231.0684    176.9026   6.2032026206e+01   1.4998422645e+00    0.2340808    0.1608847 -39.50 0.0007835032    1.279    0.218
       208  -8.9561    183.1625    176.0697   7.1032349286e+01   9.5210464430e+00    0.3295889    0.2200044 -51.19 0.0005698258    1.574    0.365
       209  -8.2371     97.7576    177.3959   9.2108056912e+01   2.4494028469e+01    0.2059284    0.1458854  20.83 0.0007308996    1.633    0.388
       210  -8.7443     89.0347    176.8979   9.4377911398e+01   2.6027019604e+01    0.3084154    0.1960879  68.97 0.0008112712    2.090    0.522
       211  -9.9858     57.4491    173.2874   1.0249900213e+02   3.1512598547e+01    0.9102647    0.4289729  78.91  0.002664341    4.725    0.788
       212  -8.6471     12.9451    176.4363   1.1477971223e+02   3.5480682653e+01    0.3436701    0.1537942  69.03  0.001431467    2.637    0.621
       213  -7.5920    211.7066    176.3257   6.5393195894e+01   4.6218234563e+00    0.1284507    0.1079881 -69.96 0.0004940901    1.621    0.383
       214  -9.3015    158.7783    175.0490   7.6233608830e+01   1.4150015550e+01    0.3748819    0.2761085  81.94  0.001071602    2.178    0.541
       215  -9.4838    104.0968    174.4610   8.9885334688e+01   2.4161508920e+01    0.5615683    0.3365349  70.80  0.001520176    2.759    0.637
       216  -9.3722     81.8453    154.8016   9.2483027741e+01   3.2802326915e+01    0.5312011    0.3351264  74.18  0.001475027    2.343    0.573
       217 -10.7053     76.0660    170.5770   9.6903280497e+01   2.9622509790e+01     1.284786    0.5286359 -75.15  0.003770279    4.138    0.758
       218  -8.6329     79.5308    158.4774   9.3835226464e+01   3.2214248413e+01     0.310285    0.2068629  30.54  0.001198691    1.585    0.369
       219  -8.2348    224.4118    174.2448   6.2673073918e+01   2.9864079011e+00    0.1831951    0.1143298 -47.29 0.0006082847    1.582    0.368
       220  -9.4003    175.9896    172.2113   7.1784435611e+01   1.1604302392e+01    0.3770355    0.2575635 -49.76 0.0008240592    1.486    0.327
       221  -8.5351    143.0046    172.5257   7.9485367123e+01   1.7636631802e+01    0.2834395    0.2167905 -72.05 0.0008788826    1.620    0.383
       222  -7.9306    194.3063    172.3107   6.7967726343e+01   8.3201132884e+00    0.1453729    0.1061444  -9.42  0.000615112    1.616    0.381
       223  -8.7001    134.6455    171.6529   8.1385099414e+01   1.9388354261e+01    0.2911492     0.214992  78.94 0.0009432227    1.936    0.483
       224  -9.4798    121.3512    170.4228   8.4549803832e+01   2.2115955658e+01    0.4094831    0.2878554 -83.31  0.000919411    1.994    0.499
       225  -9.1068     45.0802    171.0124   1.0561212004e+02   3.3621479317e+01    0.3887028    0.2224985  84.29  0.001251052    2.107    0.525
       226  -8.7216    237.1146    169.2744   5.9538712023e+01   1.9297470758e+00    0.2414677     0.160571 -43.13 0.0004182574    1.348    0.258
       227  -8.9087    230.4353    169.1355   6.0628340460e+01   2.9683668659e+00    0.4002282    0.1965528 -51.18   0.00176433    2.311    0.567
       228  -8.3698    205.6479    170.0027   6.5272612618e+01   6.8217913491e+00     0.267776    0.1655013 -54.02 0.0009043912    1.853    0.460
       229  -8.3267    198.4749    170.2862   6.6723797189e+01   7.9952233324e+00    0.2187793     0.178627  70.92  0.000845999    1.724    0.420
       230  -8.4567    149.9432    169.4525   7.7175931365e+01   1.7038924664e+01    0.2799903     0.214972 -69.25 0.0008144827    1.589    0.371
       231  -8.5139    244.4050    169.2811   5.8361429059e+01   8.5657722450e-01    0.1813373    0.1601314 -82.54 0.0006764844    1.652    0.395
       232  -9.2881    167.0976    168.5547   7.2996962822e+01   1.4019645680e+01     0.371073     0.255942  65.60  0.001256273    2.130    0.531
       233  -8.1027     88.5586    168.7587   9.3109284541e+01   2.8160593624e+01     0.207728    0.1444237 -76.84 0.0008010882    1.623    0.384
       234  -8.4486    218.8552    168.1888   6.2461810098e+01   4.9722623338e+00    0.1993632    0.1739011 -47.35 0.0005279276    1.216    0.178
       235  -7.9070    211.4348    167.9345   6.3764081977e+01   6.2419228419e+00    0.1913047    0.1143526 -60.75 0.0007611724    2.496    0.599
       236  -8.8675    111.5663    167.1561   8.6505108469e+01   2.4668062375e+01    0.4102479     0.273903  83.89  0.001617429    2.355    0.575
       237  -8.9705    191.9082    166.5385   6.7266818831e+01   9.8943399797e+00    0.3033095    0.1923544 -45.98 0.0007561312    1.509    0.337
       238  -8.5734    184.9008    166.1528   6.8628829776e+01   1.1237506446e+01    0.2169263     0.195811 -63.41 0.0005482391    1.260    0.207
       239  -9.8004    136.9876    164.4462   7.9325682924e+01   2.0637543253e+01      0.70509    0.3354734  56.19  0.002182635    3.338    0.700
       240  -9.9758     94.8639    162.6280   9.0227330392e+01   2.8685703277e+01    0.8974245    0.5188376  79.72  0.002908712    3.583    0.721
       241  -9.0724     20.5106    166.0548   1.1177993321e+02   3.7433264074e+01    0.3482017    0.1566869  50.61  0.001466403    2.375    0.579
       242  -8.5819    234.0000    164.9829   5.9215432374e+01   3.1555444684e+00    0.2361918     0.155845 -44.80 0.0005709367    1.383    0.277
       243  -8.6445    230.9328    163.0708   5.9349083461e+01   3.9725321398e+00    0.1926642    0.1631112 -30.86  0.001183667    1.010    0.010
       244  -9.5446     33.6627    163.4278   1.0783443200e+02   3.6835735861e+01    0.6340283    0.2313453  52.37  0.002194276    3.519    0.716
       245  -8.8170    246.1203    163.2602   5.6936405096e+01   1.6340129319e+00    0.2454507    0.1544287 -42.10 0.0004967032    1.351    0.260
       246  -8.3944    240.0938    163.8877   5.8008615731e+01   2.4202663581e+00    0.1920956    0.1598368 -50.59 0.0004114929    1.300    0.230
       247  -8.4241    212.9773    163.4632   6.2572215187e+01   6.8273291805e+00     0.255396    0.1718176 -50.81 0.0006794079    1.531    0.347
       248  -8.5922    159.6691    164.1504   7.3771474504e+01   1.6382378937e+01    0.2493722     0.211207  58.44 0.0007661188    1.340    0.254
       249  -8.9285     60.6301    160.1362   9.9618417153e+01   3.4501230735e+01    0.3870296    0.2351556  73.36  0.001602586    2.204    0.546
       250  -8.5397    205.0642    162.7198   6.3894573595e+01   8.3255725425e+00    0.2372015    0.1768555 -49.81 0.0004118021    1.352    0.260
       251  -9.3814      3.2905    162.3077   1.1605321868e+02   3.9772735148e+01    0.4328161    0.1981231  57.23  0.001678651    2.381    0.580
       252  -9.1228    177.3759    160.6948   6.9073830546e+01   1.3767148218e+01    0.3217293    0.2553794 -62.49 0.0008290734    1.453    0.312
       253  -8.8035    151.7307    160.9194   7.4956319536e+01   1.8627626807e+01    0.2729578    0.2100479 -67.59 0.0006752004    1.546    0.353
       254  -8.7169    227.2825    158.8503   5.9121587818e+01   5.3149674900e+00    0.2962444    0.1832501 -55.78 0.0009420196    1.913    0.477
       255 -10.4078    242.8588    154.8217   5.5803935615e+01   3.5755523224e+00    0.7370061    0.4763803 -84.31  0.002817759    4.724    0.788
       256  -9.7359    250.1765    157.7412   5.5256103718e+01   1.9789512274e+00    0.3318811    0.1907474 -38.79 0.0008388995    1.413    0.292
       257  -9.2618    246.5759    155.5113   5.5368968668e+01   2.8930216016e+00    0.2859391    0.1729681 -29.85 0.0005771214    1.537    0.349
       258  -8.6188    237.1329    158.7258   5.7473292819e+01   3.7755161574e+00    0.2358104    0.1543001 -46.84 0.0007922624    1.418    0.295
       259  -8.2366    128.1287    158.7070   8.0393534508e+01   2.3677551102e+01    0.2681669    0.2128233 -68.96 0.0007306839    1.412    0.292
       260  -9.6834    105.8049    157.6400   8.6193418095e+01   2.8054590484e+01    0.5347648    0.3839604  89.81  0.001230578    1.889    0.471
       261  -8.4887    196.1765    157.7165   6.4567461704e+01   1.0890778561e+01    0.2504235    0.1856403 -51.95 0.0007255607    1.381    0.276
       262  -8.3683    188.1381    157.8175   6.6201169860e+01   1.2348854218e+01    0.2157002    0.1959317 -70.69 0.0005778027    1.270    0.213
       263  -9.1605    167.5898    157.2647   7.0487514538e+01   1.6369419827e+01     0.344255    0.2711757 -84.99     0.001271    1.761    0.432
       264  -8.3512    218.0068    156.5154   6.0248719471e+01   7.2819761460e+00      0.26525    0.1696854 -52.99 0.0007458513    1.666    0.400
       265  -8.8585    157.4541    155.9206   7.2519628669e+01   1.8637979307e+01     0.334362    0.2332816 -59.38 0.0009641514    1.604    0.377
       266  -9.5601     49.8949    155.4035   1.0202913718e+02   3.7102233072e+01    0.4769924    0.2518625  59.02  0.001710015    2.427    0.588
       267  -9.4307    119.4826    154.9787   8.1895786031e+01   2.6211256058e+01    0.4574516    0.3016849 -77.91  0.001460514    2.203    0.546
       268  -7.9376    204.5675    155.0697   6.2395477595e+01   9.8987311940e+00    0.2151234    0.1270539 -43.86 0.0006536031    1.542    0.351
       269  -8.4358    144.6604    154.7662   7.5344880460e+01   2.1409028660e+01    0.3482344    0.2387052  66.19  0.001087076    2.020    0.505
       270  -9.6971     68.0684    153.6873   9.6346353610e+01   3.5155819215e+01    0.4571135    0.2859219  71.01  0.001436843    2.184    0.542
       271  -8.2470    232.9758    153.9504   5.7196545076e+01   5.2793800614e+00     0.199833    0.1536381 -65.90 0.0006469555    1.676    0.403
       272  -9.7154    132.6808    152.8167   7.7944811542e+01   2.4207043540e+01    0.4634953    0.3658528  84.15  0.001084199    1.652    0.395
       273  -9.3268    133.4782    148.4840   7.6780942615e+01   2.5076368290e+01    0.4153146    0.2580062 -39.99  0.001551854    1.670    0.401
       274  -7.9961    151.6080    152.7418   7.3207988833e+01   2.0502834326e+01    0.2162419    0.1451748 -57.44 0.0005052846    1.616    0.381
       275  -9.2916     20.1624    152.6544   1.1038487589e+02   4.0895213129e+01    0.2393273    0.1626722 -88.21  0.000763814    1.394    0.283
       276  -9.6641     29.2954    150.4349   1.0743107611e+02   4.0635479408e+01     0.532451    0.2622011  71.65   0.00202723    2.988    0.665
       277  -9.6641    248.8670    149.3326   5.3826214465e+01   3.6058033750e+00    0.3491393    0.1712699 -42.63 0.0008074725    1.674    0.402
       278  -9.0842    247.0238    143.8199   5.3020762999e+01   4.8343732140e+00    0.2434604    0.1554814 -37.61 0.0005162049    1.295    0.228
       279  -8.4332    250.2154    140.6044   5.1931165434e+01   4.8894542311e+00    0.2269357     0.147063 -46.75  0.000829609    1.329    0.247
       280  -8.9087    189.4934    150.1548   6.4277473093e+01   1.3657879098e+01    0.3159324    0.2116864 -61.63 0.0008508184    1.847    0.459
       281  -8.0871    182.2263    151.1799   6.5990186629e+01   1.4835965264e+01    0.1992061    0.1725369 -73.37 0.0004722707    1.357    0.263
       282  -8.2947    162.6499    150.3835   7.0095740093e+01   1.8839905474e+01    0.2725843    0.1833176 -56.46 0.0007056718    1.606    0.377
       283  -8.9297     98.1937    150.6674   8.6920755083e+01   3.1147318711e+01    0.3191141    0.2364873  87.22 0.0009914035    1.749    0.428
       284  -9.0697    243.1162    149.7153   5.4762234617e+01   4.4228657816e+00    0.2618374    0.1525367 -49.60  0.001282629    1.642    0.391
       285 -10.3406    241.0310    144.2185   5.3991350173e+01   5.7106038114e+00    0.3859036    0.2685519 -18.26  0.001307578    1.679    0.405
       286 -10.0495    242.5890    138.7672   5.2673896859e+01   6.4119684961e+00    0.5185717    0.2376412 -54.72  0.002153221    2.727    0.633
       287  -8.1569    212.8357    149.7677   5.9768007775e+01   9.4491042344e+00     0.180265    0.1571135 -64.31 0.0003981147    1.302    0.232
       288 -10.3372    107.1680    144.5763   8.3058715595e+01   3.1065448926e+01    0.9272509    0.5869656  77.53  0.003308183    2.859    0.650
       289  -9.8235     39.6309    147.4902   1.0390921340e+02   4.0345227852e+01     0.594039    0.2960162  66.08  0.001925615    3.100    0.677
       290  -8.8914      2.6137    149.7882   1.1509132687e+02   4.2964698119e+01    0.1915668    0.1052936 -87.90 0.0009494082    1.681    0.405
       291  -8.5006    198.8588    149.0509   6.2200363649e+01   1.2121220635e+01    0.2208146    0.1845618 -65.05 0.0007190232    1.367    0.269
       292 -10.0882     89.2185    146.1361   8.8605841667e+01   3.3830481566e+01     0.755645    0.4393081 -87.58  0.002504142    3.339    0.701
       293  -9.3662    233.5158    147.3983   5.5794148069e+01   6.3639199519e+00    0.2857911    0.1846346 -37.62 0.0008159726    1.320    0.242
       294  -8.2960    223.1858    146.8199   5.7363896496e+01   8.1996238688e+00    0.1973681    0.1700695 -53.20 0.0003596025    1.189    0.159
       295 -10.2804    148.9407    144.7725   7.2062854611e+01   2.2843921031e+01    0.5917577    0.4129683 -82.22  0.001563406    2.257    0.557
       296  -8.8133    150.7987    136.2071   6.9628831973e+01   2.4394314164e+01    0.5218772    0.3376428   0.88  0.001823675    3.109    0.678
       297 -10.0557    138.8974    144.3417   7.4457284075e+01   2.4968828109e+01    0.6814051    0.3404246 -60.95  0.001667406    2.714    0.631
       298  -9.3512    140.0635    136.9389   7.2445183247e+01   2.6443734498e+01    0.3336802    0.2353767  -8.19   0.00120352    2.165    0.538
       299  -8.9123     77.9476    146.6981   9.2088152088e+01   3.5501267221e+01    0.3074666    0.2015907 -82.25 0.0008008702    1.944    0.486
       300  -9.3257     13.4405    146.3175   1.1160891298e+02   4.3068861595e+01    0.3374134    0.2178067  65.82  0.001231056    1.681    0.405
       301  -7.9287    206.8206    146.5692   6.0179184658e+01   1.1142313875e+01    0.1774493    0.1379833  61.85 0.0006712676    1.602    0.376
       302  -8.4296    175.3548    146.0108   6.6302833737e+01   1.7262883499e+01    0.2585134    0.2108007  83.92 0.0007532019    1.602    0.376
       303  -9.7338    124.9542    142.4743   7.7669306490e+01   2.8185093495e+01    0.5570508    0.3539024 -77.86  0.001410083    2.601    0.616
       304  -7.9034    194.4115    144.1387   6.1993739524e+01   1.3937350577e+01    0.2070804    0.1280514 -53.31 0.0004601433    1.689    0.408
       305  -8.8710    165.5137    143.8732   6.7983143923e+01   1.9689620019e+01    0.2747596     0.233584 -89.36 0.0007340448    1.438    0.305
       306 -11.0619     69.7398    139.4405   9.3179469304e+01   3.8612915653e+01     0.998348    0.3984257 -58.33   0.00307296    2.334    0.572
       307 -11.0580     54.9580    143.6085   9.8562763482e+01   3.9553923660e+01     1.112485    0.6205131 -74.29  0.003256142    1.954    0.488
       308  -8.3361    182.1310    141.6635   6.3903794552e+01   1.6831335958e+01    0.2602703    0.1894068 -55.40 0.0005166236    1.428    0.300
       309  -9.3139      2.5896    141.4721   1.1426757432e+02   4.5062910060e+01    0.3676828    0.1874314  71.31   0.00149695    2.317    0.568
       310  -9.7023     23.4480    138.0472   1.0753071096e+02   4.4373872110e+01    0.5181686    0.2575085  64.25  0.002073417    2.850    0.649
       311  -8.6976    172.4205    138.1803   6.5162583820e+01   1.9511864827e+01    0.3394684    0.2314051 -68.26 0.0008823806    1.965    0.491
       312  -7.9288    218.5280    138.5074   5.6414230284e+01   1.0557437805e+01    0.1394344    0.1212027 -45.00 0.0004253815    1.052    0.049
       313  -8.3343    207.7314    137.9505   5.8166592293e+01   1.2636784929e+01    0.2277295    0.1497402 -63.15  0.001014063    1.922    0.480
       314  -8.5535    197.6562    137.4438   5.9902941568e+01   1.4647333756e+01    0.2752159    0.1938598 -62.20 0.0007275941    1.659    0.397
       315 -10.4969     83.2866    133.0341   8.7619436389e+01   3.8145244374e+01    0.6996186     0.409089 -60.23  0.001910804    1.728    0.421
       316  -9.3222     39.0009    135.8370   1.0227584885e+02   4.3443767967e+01    0.3481818    0.2157809  87.73 0.0008749163    1.991    0.498
       317  -8.7606    250.8004    129.9130   4.9758229297e+01   6.6151868854e+00    0.3837526   0.09403197 -38.64  0.001289106    3.670    0.728
       318  -9.1455    248.3873    135.1908   5.1129626242e+01   6.1006361345e+00    0.2781651    0.1750179 -44.24 0.0007708893    1.308    0.236
       319  -8.3124    246.9663    130.0802   5.0320325079e+01   7.2035578483e+00     0.230106    0.1518307 -41.77 0.0006022463    1.237    0.191
       320  -7.7438    192.5206    136.5087   6.0675394769e+01   1.5832421282e+01    0.1468761    0.1345041 -49.16 0.0001471612    1.049    0.047
       321  -8.0149    187.8693    135.5680   6.1374131319e+01   1.6941035783e+01    0.2465795    0.1586966 -47.77 0.0005227598    1.469    0.319
       322  -8.4190    162.6703    136.2030   6.6860041428e+01   2.1936419170e+01    0.2397588    0.1877504 -64.00 0.0007247611    1.421    0.296
       323  -8.5627    179.3421    133.8170   6.2699877573e+01   1.9016789453e+01    0.2907605    0.2144457 -65.29   0.00112123    1.593    0.372
       324  -9.1126    112.9068    133.3065   7.8864057116e+01   3.2745616152e+01    0.3758441    0.2752911  78.49 0.0008842886    1.915    0.478
       325  -7.9116    237.4395    133.2622   5.2331794626e+01   8.2243980373e+00    0.1907187    0.1058415 -50.01 0.0009333214    1.673    0.402
       326 -10.4799    131.0929    118.7113   7.0293228347e+01   3.2464288803e+01    0.8530315    0.5075165 -77.97  0.002618442    3.911    0.744
       327 -10.6279    133.5567    108.9211   6.7117532527e+01   3.4090432649e+01     0.780242    0.3764616 -42.41  0.002784345    2.079    0.519
       328 -10.4200     98.0704    130.1276   8.2443139944e+01   3.6309590443e+01    0.7599846    0.3457254 -54.58  0.001689011    2.200    0.545
       329  -9.6316    143.0590    131.0640   7.0294613504e+01   2.7161574010e+01    0.4719831    0.2381621 -54.11 0.0009321705    2.158    0.537
       330  -9.9247     13.0878    129.2427   1.0960428006e+02   4.7450291306e+01    0.5299656    0.2804725  67.31  0.001958843    2.518    0.603
       331  -8.0382    220.6110    129.8198   5.4233891282e+01   1.1790637239e+01    0.1927368    0.1139755 -49.22 0.0003909591    1.557    0.358
       332  -7.6885    204.6633    130.3184   5.7050515054e+01   1.4685803105e+01    0.1445819    0.1086874 -74.43 0.0006254153    1.703    0.413
       333  -7.9256    192.9658    130.0372   5.9138543106e+01   1.7034539993e+01    0.2225442    0.1704245 -72.68 0.0004587332    1.605    0.377
       334  -9.1369    168.3094    129.3682   6.4003523235e+01   2.2227374608e+01    0.3030186    0.2384487 -83.77 0.0004501955    1.630    0.387
       335  -9.3647    152.9215    128.7817   6.7353777346e+01   2.5595550636e+01    0.4399946    0.2731005 -61.21 0.0009332502    1.958    0.489
       336  -9.8764     73.4168    129.3284   8.9922999434e+01   4.0652962647e+01    0.3824646    0.2857216  82.75  0.001030939    1.729    0.422
       337  -8.2381     25.5020    129.7447   1.0566695499e+02   4.6328584411e+01     0.270902    0.1675261  -6.99  0.001280491    2.192    0.544
       338  -7.8701      1.4931    129.9913   1.1335260661e+02   4.8018890703e+01    0.1827543   0.09314721  77.45 0.0007203395    2.378    0.580
       339 -10.1204    132.1887    130.8071   7.3006178295e+01   2.9476992700e+01    0.6974335    0.4138768 -63.67   0.00193934    2.186    0.542
       340  -8.2803    211.4326    129.1862   5.5624168408e+01   1.3610663909e+01     0.204117    0.1187311 -51.62 0.0006859666    1.683    0.406
       341 -10.7146     44.9224    123.4660   9.8124190859e+01   4.5974458690e+01     1.144295    0.6103677  75.21  0.003803684    3.985    0.749
       342 -10.4215     59.8775    124.8515   9.3386458906e+01   4.3748759568e+01    0.7540601    0.4646336  79.87  0.002400768    2.731    0.634
       343  -8.8599     58.6852    115.6266   9.1790990802e+01   4.6231869763e+01    0.3675564    0.2092269 -24.64   0.00107587    2.552    0.608
       344 -10.0181    117.8902    125.2040   7.5504229353e+01   3.3696022357e+01    0.5505831    0.3819312  78.40  0.001563234    2.248    0.555
       345  -8.8432    179.2660    124.6292   6.0584122317e+01   2.0919256949e+01    0.2963301    0.2296424 -78.82  0.000869812    1.619    0.382
       346 -10.1154     28.5832    122.2731   1.0344306721e+02   4.7960425622e+01    0.8029292    0.4123659  75.46  0.002906828    3.542    0.718
       347  -8.7829     27.0270    113.5275   1.0245356806e+02   5.0306815180e+01    0.4383833     0.100982  27.54   0.00146077    4.101    0.756
       348  -7.9215    188.5288    124.0247   5.8615575329e+01   1.9125254240e+01    0.2219597    0.1358884 -44.36 0.0004077239    1.512    0.339
       349  -8.5085     84.0363    122.9948   8.5098152520e+01   4.0532208802e+01    0.2941698    0.2033166  -2.68   0.00101191    2.102    0.524
       350  -8.1119    194.8042    121.8186   5.6931025442e+01   1.8279749599e+01    0.2034211    0.1590331 -62.59 0.0004371136    1.348    0.258
       351  -8.7518    171.9451    121.5353   6.1362768404e+01   2.3094828024e+01    0.2781239    0.1984822 -58.12 0.0003570861    1.484    0.326
       352  -9.0608    158.5804    121.4149   6.4252406149e+01   2.5980529857e+01    0.3534801    0.2709346 -74.70  0.001121857    1.611    0.379
       353  -9.4991     71.0680    119.9079   8.8584917896e+01   4.3380958537e+01    0.3568201    0.2646597  83.45 0.0009391164    1.824    0.452
       354  -8.7855    100.2089    119.7595   7.9292580623e+01   3.8432792292e+01    0.3154142    0.1965739  12.64  0.001164998    2.573    0.611
       355  -9.3967      2.5542    116.7461   1.1139281505e+02   5.1263375977e+01    0.4623609    0.2254189  78.01  0.001938828    2.884    0.653
       356  -7.7242    231.5008    117.5209   4.9975301807e+01   1.2031105224e+01    0.1354516     0.113151 -51.24  8.95847e-06    1.052    0.050
       357  -9.9637    109.5027    114.2338   7.5121568641e+01   3.7931452299e+01    0.5584859    0.3646489 -74.68  0.001189475    2.363    0.577
       358  -9.6056    111.0406    106.6600   7.2669548803e+01   3.9340863479e+01    0.5098492    0.2822688  26.09  0.001856859    2.538    0.606
       359  -7.5673    219.4576    116.5169   5.1575756670e+01   1.4433262329e+01    0.1379285     0.120168 -46.26 2.179912e-05    1.024    0.024
       360  -7.5373    212.0000    115.9889   5.2648038220e+01   1.5961666476e+01    0.2274726   0.07187101 -41.36 0.0005965686    2.812    0.644
       361  -8.1825    185.6065    115.7699   5.7254432636e+01   2.1361844399e+01    0.2094298    0.1292155 -51.67 0.0004819028    1.595    0.373
       362  -9.0749    250.1551    114.8451   4.6879610549e+01   9.2574503280e+00    0.1873263    0.1651838 -28.48 0.0009819772    1.237    0.192
       363 -10.5541    248.7768    107.7198   4.5646162821e+01   1.0674750908e+01    0.3528031    0.2602696 -51.82  0.002096713    1.136    0.120
       364 -10.1402    141.4849    118.4864   6.7582371357e+01   3.0296799480e+01    0.5129241    0.3175031 -58.70  0.001155356    1.859    0.462
       365 -10.2326     92.7193    112.4583   7.9749808142e+01   4.1556410106e+01    0.5680652    0.3620126 -66.29  0.001320571    1.964    0.491
       366  -8.9987     93.7770    104.3998   7.7289441884e+01   4.3231399729e+01    0.4755512    0.2657164  16.29  0.001603762    3.221    0.690
       367  -7.9940    167.4054    114.2554   6.0557148094e+01   2.5562770872e+01    0.2115979    0.1377882 -52.62 0.0005500809    1.550    0.355
       368  -9.9215     78.8488    112.3146   8.4187673720e+01   4.4006440482e+01    0.5005004    0.3629583  81.07  0.001609068    2.047    0.511
       369 -10.4087    121.9298    112.3460   7.1108588386e+01   3.5819508700e+01    0.8855844    0.4667704 -66.12  0.002797719    3.456    0.711
       370  -9.9453    116.0141    102.6834   7.0164754608e+01   3.9188328237e+01    0.4442837    0.3143676  70.52  0.001906516    1.928    0.481
       371 -10.3799    108.7254     98.6300   7.1138543657e+01   4.1576007101e+01    0.6551549     0.527336 -73.74  0.001316879    1.525    0.344
       372  -8.7873    107.4046     92.7682   6.9862721128e+01   4.3092973132e+01    0.4371625    0.2561326  27.29  0.001726342    2.206    0.547
       373  -8.6847    174.8050    111.7423   5.8411630699e+01   2.4463570147e+01    0.2835349    0.1807911 -65.02 0.0007390094    1.996    0.499
       374  -8.7721    159.1346    111.7131   6.1721472132e+01   2.7891558119e+01    0.2643637    0.2000134 -56.35 0.0005983724    1.353    0.261
       375 -10.3065     66.4007    109.2855   8.7645508317e+01   4.6693271514e+01    0.7359651    0.3696396 -53.82  0.002465647    1.871    0.466
       376  -9.9533     14.0520    111.1002   1.0661849065e+02   5.1940394619e+01    0.4062507    0.2449522  70.02  0.001515907    2.246    0.555
       377  -7.9893    182.4871    109.2358   5.6299767839e+01   2.3299084478e+01    0.2129677    0.1306442 -53.47 0.0005642189    1.652    0.395
       378  -8.5319     42.8434    109.4155   9.5998894120e+01   4.9740946976e+01    0.3138426     0.143165  11.59  0.001134102    3.297    0.697
       379  -8.2118    189.2915    107.9846   5.4734243293e+01   2.2087161434e+01    0.2127414    0.1689477 -49.11 0.0005062709    1.167    0.143
       380  -9.8206    139.9773    104.1220   6.4234601775e+01   3.3699425581e+01    0.5551342    0.3131865 -49.84  0.001811077    1.817    0.449
       381  -8.8036     77.7195    105.4823   8.2821253398e+01   4.5820148931e+01    0.4497661    0.2541879  11.98  0.001611596    2.970    0.663
       382 -10.5762     22.9062    102.5632   1.0189912024e+02   5.3366810543e+01    0.7089813    0.4155665  72.10  0.002714247    2.770    0.639
       383  -8.4726    166.7945    104.2275   5.8195364834e+01   2.7707674828e+01    0.2603022    0.1895706 -55.96 0.0005747804    1.398    0.284
       384  -9.4889    150.4680    102.9441   6.1432468368e+01   3.1606362613e+01    0.4551987    0.2830199 -61.88  0.001157279    2.006    0.502
       385 -10.4221     45.4658    101.9845   9.3383936001e+01   5.1252082177e+01    0.7521511    0.4615328  77.57   0.00293467    3.146    0.682
       386  -9.1062     45.9864     92.5280   9.0888081856e+01   5.3426235050e+01    0.4549022    0.2068567   9.52  0.001528327    3.921    0.745
       387  -8.3050    192.9642    115.1303   5.5732862522e+01   1.9950778359e+01    0.2237463    0.1833817 -65.03  0.000475203    1.258    0.205
       388  -8.8138      6.8025    102.9377   1.0790424904e+02   5.4411092053e+01    0.2413961    0.1667997  87.52 0.0009582616    1.636    0.389
       389  -8.0905    175.5065    101.9717   5.5881332309e+01   2.6218653464e+01    0.2228603    0.1390499 -44.81 0.0004594934    1.525    0.344
       390  -8.4283    159.7714    100.8506   5.8821781908e+01   2.9940102487e+01    0.2813097    0.1948787 -61.38 0.0005869908    1.622    0.383
       391  -9.3750     82.0310     99.7520   7.9843121091e+01   4.6413261642e+01    0.4005541     0.274596 -69.20  0.001121257    1.911    0.477
       392  -9.0310    122.2986     98.1729   6.7181259440e+01   3.8813772908e+01    0.2489791    0.1942716 -23.64   0.00113381    1.474    0.322
       393 -10.1393     63.7085     95.6006   8.5092672764e+01   5.0325359000e+01    0.5526117    0.3748808 -87.72  0.001573485    2.575    0.612
       394  -9.1189     65.2933     87.3608   8.2228861266e+01   5.1937402022e+01    0.4933371    0.2794103   5.31  0.001812471    3.114    0.679
       395  -8.4960    151.2945     95.2808   5.9227308533e+01   3.2944486386e+01    0.2911175    0.1936671 -22.62   0.00123486    2.014    0.503
       396  -9.8617    128.3765    102.0081   6.6613356460e+01   3.6690373905e+01    0.3785884    0.2762969 -54.66 0.0008077163    1.440    0.306
       397  -8.2905    164.8790     94.1512   5.6030607071e+01   3.0082616858e+01    0.2272915    0.1924715 -74.42 0.0004633595    1.240    0.194
       398  -9.3595    139.3009     92.3969   6.1232365818e+01   3.6224420534e+01    0.4665207    0.3197355 -84.50 0.0009015212    2.271    0.560
       399  -9.5791     95.0484     97.3491   7.4941820170e+01   4.4569680102e+01    0.3911108    0.2375737 -54.56 0.0009828558    1.779    0.438
       400  -8.0561    188.6593     93.2256   5.1337351786e+01   2.4957863335e+01    0.2028508    0.1289473 -34.78 0.0009442769    1.642    0.391
       401  -8.3240    176.4913     93.0684   5.3487970167e+01   2.7673234260e+01    0.2231697    0.1363652 -45.12 0.0007089863    1.561    0.359
       402  -8.9383    120.5194     92.9735   6.6205377241e+01   4.0274052720e+01    0.2824343    0.2200509  18.54  0.001185016    1.557    0.358
       403  -9.8500    124.6150     90.8535   6.4505341075e+01   3.9808537420e+01    0.3966696    0.3598275 -71.66  0.001019534    1.186    0.157
       404  -9.5420     34.8179     89.5779   9.4496130452e+01   5.5360215205e+01    0.4681969    0.2785288 -80.97  0.001566018    2.616    0.618
       405  -9.3302      4.7754     91.6130   1.0676206122e+02   5.7237967348e+01    0.3109138    0.2182477  80.63  0.001403796    1.782    0.439
       406  -8.1326    157.8017     91.3917   5.6782575637e+01   3.2211404377e+01    0.2049514    0.1784373 -56.37 0.0005118125    1.129    0.114
       407  -8.0998    150.9656     89.0068   5.7623528927e+01   3.4223407805e+01    0.2378808    0.1771928 -74.09 0.0005249972    1.637    0.389
       408  -9.9858     86.4510     86.4635   7.4569600610e+01   4.8529210255e+01    0.4850636    0.3532715  82.92  0.001299688    2.313    0.568
       409  -9.2913     87.9549     80.5166   7.2270746583e+01   4.9469407470e+01    0.7807522    0.3231342  26.27  0.002063128    5.390    0.814
       410  -7.5813    188.2657     87.3113   4.9983088323e+01   2.6095968695e+01    0.1310458    0.1134171   0.62 0.0002037762    1.540    0.351
       411  -7.9767    164.1978     87.1742   5.4365152642e+01   3.1534293160e+01    0.2055499    0.1648187 -71.96 0.0003825381    1.342    0.255
       412  -9.7786     48.6148     84.0321   8.7613880902e+01   5.5027625028e+01    0.5557642    0.4107522  85.58  0.002350498    2.185    0.542
       413  -7.9513    179.0000     85.0097   5.1024524100e+01   2.8562867502e+01    0.2372516   0.07867558 -39.50 0.0005263095    2.925    0.658
       414  -9.7625    104.6598     82.9544   6.7786039438e+01   4.5658848571e+01    0.4386709    0.3083298 -63.18 0.0009298502    1.827    0.453
       415  -8.8813    105.4775     77.0027   6.5731849552e+01   4.6639361264e+01    0.4545106    0.2242068  26.20  0.001422874    3.844    0.740
       416  -8.4373    157.9920     83.8060   5.4735690837e+01   3.3570789080e+01    0.2560528    0.2008365 -47.07 0.0003670122    1.260    0.206
       417  -9.2608    140.8816     82.2838   5.8051715823e+01   3.7790454692e+01    0.4030393    0.2052642 -45.18  0.001082661    1.995    0.499
       418  -8.2513     63.9289     82.5965   8.1344153938e+01   5.3180834989e+01    0.2265509    0.1682617 -53.81  0.000651064    1.413    0.292
       419  -9.2330     22.5986     90.2642   9.9492181337e+01   5.6332978504e+01    0.3846481    0.2064222 -35.77  0.001370929    1.825    0.452
       420  -9.5755     24.5322     80.4378   9.6429684812e+01   5.8426569281e+01    0.3981154    0.2626378 -87.77  0.001315413    2.332    0.571
       421  -9.2867      9.7963     80.8583   1.0266545160e+02   5.9437568902e+01    0.3311742    0.1853489  51.84  0.001540145    2.693    0.629
       422  -8.3276    150.4790     80.9068   5.5531968683e+01   3.5828558413e+01    0.2214476      0.14245 -43.84  0.001013416    1.556    0.357
       423  -8.8558    119.4679     80.2203   6.2786762992e+01   4.3011056853e+01     0.336477    0.2319218 -65.98   0.00106302    1.943    0.485
       424  -8.7773     74.4738     80.1725   7.6776942221e+01   5.1975351362e+01    0.3451411    0.2409863 -73.28  0.001130667    2.276    0.561
       425  -8.1371    166.9322     79.5432   5.1849293703e+01   3.2268157659e+01    0.2159395    0.1832416 -51.12 0.0003712385    1.150    0.130
       426  -8.1266    184.1497     78.3433   4.8491023851e+01   2.8555758388e+01    0.1937474    0.1683215 -41.53  0.000669471    1.188    0.158
       427  -7.6244    174.7707     77.9784   5.0010521394e+01   3.0741013340e+01    0.1858814     0.114963 -40.39 0.0004373558    1.596    0.374
       428  -7.9011    157.1672     76.2212   5.2872021129e+01   3.5103745032e+01    0.2034939    0.1621453 -70.61 0.0005496484    1.350    0.259
       429  -9.2232    128.1570     74.8837   5.8967868276e+01   4.2043641156e+01    0.4507725     0.240706 -44.66  0.001683559    1.941    0.485
       430  -8.3433    140.3363     75.1144   5.6151005848e+01   3.9206714606e+01      0.20728    0.1814251 -55.70 0.0007656432    1.168    0.144
       431  -9.6888     82.4872     72.7181   7.1645323194e+01   5.2030248808e+01    0.4043938     0.289984 -67.63  0.001106685    2.042    0.510
       432  -8.3314    163.5004     73.5094   5.0916060382e+01   3.4094991560e+01    0.2772578    0.1367188 -40.90 0.0009798198    2.007    0.502
       433  -8.2504    151.4810     73.0373   5.3160425193e+01   3.6974431559e+01    0.2175931    0.1416598 -40.85 0.0006990372    1.559    0.359
       434  -8.3904    115.7832     73.0669   6.1621491761e+01   4.5142448814e+01    0.2191296    0.1970183 -80.71  0.000580735    1.262    0.208
       435  -7.8518    175.5087     72.5303   4.8500138512e+01   3.1486575075e+01    0.1410065    0.1303004 -80.24 0.0001718611    1.013    0.013
       436  -9.2994     95.1725     71.0041   6.6960910188e+01   4.9888201798e+01    0.3631341    0.2350024 -53.96 0.0009371497    1.851    0.460
       437  -8.2236     42.3798     71.9433   8.6644761458e+01   5.8412027035e+01    0.2587524    0.1284092 -60.60  0.001086249    2.491    0.599
       438  -8.9705    106.0414     71.6550   6.3904482206e+01   4.7510428737e+01    0.2602437    0.2018773 -59.16 0.0005786216    1.524    0.344
       439  -9.4677     51.5439     69.7651   8.2216500548e+01   5.7666019414e+01    0.3951668     0.264041 -68.00  0.001534444    2.239    0.553
       440  -8.7775     28.5227     70.9686   9.2249163830e+01   6.0135829451e+01     0.282428    0.1277361 -21.74  0.001041724    3.451    0.710
       441  -8.7275     16.6474     69.9919   9.7187611179e+01   6.1376624543e+01    0.2428603     0.183924 -80.64 0.0009072906    1.715    0.417
       442  -8.7933    147.1898     68.1025   5.2676075182e+01   3.8805865393e+01    0.2872171    0.2162237 -59.31 0.0007135208    1.426    0.299
       443  -8.6023    138.4624     65.7133   5.3864614528e+01   4.1238951551e+01    0.2992425    0.2045681 -65.83 0.0007223423    1.836    0.455
       444  -8.6958    121.6441     65.8164   5.7867311474e+01   4.5093646035e+01    0.2732575     0.207592 -70.21 0.0007004162    1.669    0.401
       445  -8.6225     37.4607     64.4206   8.6425088770e+01   6.0542045005e+01    0.2560226    0.1942688  69.59  0.001010637    2.262    0.558
       446  -8.8410    110.2391     63.6434   6.0185753018e+01   4.8001843759e+01    0.2810477    0.2260122 -81.14  0.000712764    1.631    0.387
       447  -9.9293     63.2405     73.4290   7.8798317073e+01   5.5195669288e+01     0.467386    0.2964601 -58.43  0.001130284    1.944    0.486
       448  -8.6738     65.1154     62.6198   7.4536177375e+01   5.6986053007e+01     0.441755    0.2500117   9.54  0.001726954    2.946    0.661
       449  -8.1905    158.2999     61.9521   4.8791328817e+01   3.7186105154e+01    0.1962691     0.172299 -56.79 0.0004549993    1.136    0.120
       450  -7.9786     51.3350     62.3026   7.9871320110e+01   5.9164515543e+01    0.1412901   0.09608063 -10.18  0.000703687    1.661    0.398
       451  -9.0610     97.6773     60.5445   6.2776123138e+01   5.1212983122e+01    0.3275405    0.2453136  63.86  0.001172326    1.574    0.365
       452  -9.6451     73.3612     59.4789   7.0410130135e+01   5.6133176716e+01    0.3754447    0.2454029 -49.62 0.0009867069    1.773    0.436
       453  -7.9426    146.8013     59.0165   5.0185863863e+01   4.0347247995e+01    0.1832269    0.1113194 -37.51 0.0003963302    1.724    0.420
       454  -8.0684     88.9696     59.3002   6.5053466121e+01   5.3201952824e+01     0.191652    0.1772938  31.77 0.0005409034    1.055    0.052
       455  -8.2929    130.6930     57.6057   5.3197941098e+01   4.4338760829e+01    0.2318054    0.1634725 -59.59 0.0005469712    1.672    0.402
       456  -9.7212     23.4771     56.3664   9.0188974434e+01   6.3619319686e+01    0.3894876    0.2842748  87.86  0.002017693    2.615    0.618
       457  -9.4221      7.5403     57.2501   9.8003348549e+01   6.4700430695e+01    0.2678577    0.2214379  81.25 0.0009782455    1.769    0.435
       458  -8.4467    140.0314     56.0389   5.0706427557e+01   4.2394112734e+01    0.2206924    0.1621825 -73.32 0.0004492683    1.638    0.389
       459  -9.4302    118.8910     55.6129   5.5375634149e+01   4.7359842099e+01    0.3345193    0.2859208 -47.08  0.001210868    1.259    0.206
       460  -8.7164     44.0338     55.5184   8.0625940831e+01   6.1445994707e+01    0.2282342    0.1804021 -55.37 0.0007476334    1.551    0.355
       461  -8.9356     62.8639     54.5727   7.2583002493e+01   5.8799069523e+01    0.2701172     0.190709 -47.23 0.0005212148    1.596    0.374
       462  -8.8824     54.1672     53.8378   7.5770549944e+01   6.0307698483e+01    0.3282787    0.2084425 -57.49   0.00122539    2.233    0.552
       463  -8.5178    105.8032     52.9269   5.7910176121e+01   5.0692943789e+01     0.244977     0.190639 -60.15 0.0006931329    1.588    0.370
       464  -9.4617     92.5052     50.6064   6.0953503544e+01   5.3881917261e+01    0.3566706    0.2345628 -49.86  0.001071198    1.850    0.459
       465  -8.4870     75.5509     50.8486   6.6572310850e+01   5.7185203208e+01    0.3299137    0.1419861  31.29  0.001232288    2.898    0.655
       466  -7.9472    144.6506     48.8222   4.7688897482e+01   4.2357059272e+01    0.1904644    0.1206696 -47.21 0.0005074445    1.666    0.400
       467  -8.1535    129.5606     48.9479   5.0813739850e+01   4.5886615637e+01      0.19569    0.1375253 -35.77 0.0004518642    1.533    0.348
       468  -8.2900    163.5355     47.4903   4.3991386746e+01   3.8084186445e+01    0.1361619    0.1224343  87.44  2.62598e-05    1.004    0.004
       469  -8.4452    120.8460     47.1946   5.2233941580e+01   4.8153048534e+01     0.200336    0.1827139  88.63 0.0005500786    1.168    0.144
       470  -8.4292    112.1952     46.7708   5.4193771155e+01   5.0180556137e+01    0.2263604    0.1814133 -48.59 0.0006482092    1.397    0.284
       471  -8.8517     82.1006     46.3148   6.2706860575e+01   5.6634338414e+01    0.2328263     0.194965 -44.22 0.0006693033    1.378    0.274
       472  -8.5540    222.0634     44.7378   3.5829821221e+01   2.5436894826e+01    0.1685232    0.1390305 -77.65 0.0003885184    1.058    0.055
       473  -8.4715     45.1099     44.6527   7.6196179258e+01   6.3213972703e+01    0.2039091    0.1700227 -40.96 0.0006493874    1.363    0.266
       474  -8.8999     16.6333     44.7333   8.9692213974e+01   6.6465750968e+01    0.1973923    0.1807106 -85.82 0.0007857895    1.647    0.393
       475  -9.1298     58.1133     42.1675   6.9813207676e+01   6.1620182804e+01    0.3871843    0.2040905 -49.85  0.001499117    2.598    0.615
       476  -8.0599    132.9769     43.2151   4.8342199871e+01   4.5878817937e+01    0.1950486     0.139849 -58.03 0.0004795456    1.592    0.372
       477  -8.3219     92.8760     42.6802   5.8047845999e+01   5.4967242886e+01    0.2258035    0.1536293  32.31  0.001168336    1.474    0.321
       478  -9.6564      5.1239     41.9312   9.4678555525e+01   6.7872419529e+01    0.3164908    0.2043929 -72.24  0.001770376    2.301    0.565
       479  -8.7454    105.9551     41.4166   5.3994754737e+01   5.2314130049e+01    0.2407957    0.1849604 -54.37 0.0006353129    1.565    0.361
       480  -9.2355     69.3859     41.1474   6.5148077029e+01   5.9814385907e+01    0.3115255    0.2335783 -51.60  0.001119887    1.758    0.431
       481  -7.0989    140.2890     41.2944   4.6328458624e+01   4.4411085444e+01    0.1328348    0.1003621  33.85 0.0003210471    1.549    0.355
       482  -8.4851     36.9444     40.5591   7.8289584356e+01   6.5000058356e+01    0.2112215    0.1709648 -50.42  0.000587013    1.581    0.368
       483  -8.5082     95.5195     38.0178   5.5624515002e+01   5.5040465024e+01    0.2328808    0.1824188  68.80 0.0006027865    1.462    0.316
       484  -8.2049     80.5472     36.5079   5.9569547497e+01   5.8335419553e+01    0.2202566    0.1172416 -44.55 0.0007699215    2.318    0.569
       485  -9.3130     26.1451     35.3031   8.1415634322e+01   6.7172757698e+01    0.2402421    0.2150853 -52.83 0.0008429979    1.570    0.363
       486  -8.0267    125.9090     35.3280   4.7363374830e+01   4.8546394524e+01    0.1869058    0.1575353  56.59 0.0004650938    1.067    0.063
       487  -8.4695    112.0888     34.6961   5.0209862317e+01   5.1804694034e+01    0.2189006    0.1779967 -49.90 0.0005567161    1.405    0.288
       488  -7.5926     88.4865     34.4716   5.6360507326e+01   5.6985212598e+01    0.1333997    0.1170828  34.13 0.0008098494    1.002    0.002
       489  -8.7573     48.4800     33.2246   7.0191981495e+01   6.4502708746e+01    0.2127962    0.1880371  30.03 0.0006851015    1.273    0.215
       490  -8.8310     60.7284     32.4933   6.4942121450e+01   6.2586925707e+01    0.2179916    0.1672885 -25.84 0.0006651061    1.344    0.256
       491  -8.6630     72.0075     31.1547   6.0324502502e+01   6.0701965273e+01     0.182257    0.1720961  59.74 0.0006185164    1.310    0.237
       492  -9.0825     12.9437     30.1033   8.6241866624e+01   6.9367929389e+01    0.2492945    0.1592551 -55.36 0.0009239321    1.987    0.497
       493  -8.7146    119.3078     32.9095   4.7991004215e+01   5.0370764007e+01    0.2475691    0.1086408 -38.79 0.0005484931    2.470    0.595
       494  -8.2660    101.4887     29.1632   5.0887980745e+01   5.4839561325e+01    0.2046189    0.1730155  79.70 0.0006306084    1.345    0.256
       495  -8.9446     81.6282     27.2654   5.5691667729e+01   5.9282822946e+01    0.2619581    0.2049622 -60.54 0.0009083662    1.814    0.449
       496  -8.7019      3.6583     27.5691   9.0437805296e+01   7.0546898951e+01    0.1991118    0.1283308 -48.43 0.0006396484    1.538    0.350
       497  -7.6873    110.3046     27.6413   4.8247718218e+01   5.3042053094e+01    0.1316206   0.09898374 -72.85 0.0007039461    1.723    0.420
       498  -8.8474     91.8442     26.2975   5.2378974466e+01   5.7263210906e+01    0.2492263     0.173005 -46.10 0.0006486157    1.773    0.436
       499  -8.1595     34.9335     23.1569   7.1957511699e+01   6.7910112260e+01    0.1744934    0.1366801  54.52 0.0007243204    2.059    0.514
       500  -9.0086     63.5520     20.9345   5.9085348483e+01   6.3530625763e+01    0.2533292    0.2034368 -57.32 0.0008179346    1.885    0.470
       501  -8.7266     48.4978     21.7235   6.5252142944e+01   6.6054437267e+01    0.1961232    0.1856898  46.62 0.0006406289    1.461    0.316
       502  -8.0959    120.7158     21.3443   4.3963042853e+01   5.1337429376e+01    0.1284511   0.09460517 -71.07 0.0003693281    1.642    0.391
       503  -7.9964     19.5378     21.4886   7.9023574457e+01   7.0063485181e+01     0.117973   0.09292458  -5.25 5.377255e-05    1.031    0.030
       504  -8.7526     74.0801     19.4605   5.4936113895e+01   6.1677468833e+01    0.2107915     0.169954 -45.72 0.0007037047    1.597    0.374
       505  -8.2635     12.2940     20.6559   8.2658147114e+01   7.0935270627e+01   0.09561066   0.09279758  30.42 0.0005335523    1.663    0.399
       506  -8.0400     87.8400     17.7433   5.0246315435e+01   5.9030828704e+01    0.1566248    0.1449709 -83.53 0.0004260885    1.332    0.249
       507  -8.2102     38.8572     18.1581   6.7850193686e+01   6.8002421599e+01    0.1687911    0.1527065   4.27 0.0007691951    1.275    0.216
       508  -8.0069    112.6658     16.7907   4.4077545513e+01   5.3642515630e+01    0.1612589     0.113809 -39.54 0.0003357471    1.625    0.385
       509  -8.2712     30.2574     16.1508   7.1000226699e+01   6.9481451895e+01     0.186351    0.1505028  51.64 0.0008651522    1.956    0.489
       510  -7.9689     97.3457     15.2074   4.6899351661e+01   5.7226460269e+01    0.1620799    0.1132776 -37.34  0.000396632    1.671    0.402
       511  -8.2478      7.5278     15.5146   8.3115136408e+01   7.2152190699e+01    0.1144361   0.08682042 -10.13 3.212368e-05    1.021    0.021
       512  -8.2520     17.2299     14.1727   7.6899753559e+01   7.1358770386e+01    0.1404286     0.122764   3.11 0.0004440227    1.325    0.245
       513  -9.3821    246.6093    228.6026   6.8736100042e+01  -8.8633055264e+00    0.4608392    0.1608359 -35.91  0.001831267    2.478    0.596
       514  -9.1315    247.8333    234.3452   6.9493629530e+01  -9.8216665047e+00    0.2756147    0.1905216 -47.07  0.001723813    1.999    0.500
       515  -9.9773    248.5560    242.0263   7.0639902593e+01  -1.0965625849e+01    0.4391496    0.1804774 -41.40  0.002266344    2.480    0.597
       516  -9.1464    175.5958    247.4933   8.5281260806e+01  -2.6206904558e+00    0.2892976    0.2374804  75.92  0.001167199    2.093    0.522
       517  -8.6047    156.2879    248.0844   8.9391131536e+01   3.2973805752e-02    0.2260284    0.1807403  64.31 0.0009237514    1.752    0.429
       518  -8.9166    132.4737    248.1430   9.4497418051e+01   3.5065594044e+00    0.3116008    0.2133156  67.63 0.0008479994    2.142    0.533
       519  -8.3858    113.2342    248.6335   9.8740316062e+01   6.2342375569e+00    0.2245204    0.1542128 -76.41  0.001218936    1.915    0.478
       520  -9.3382    103.9757    247.1319   1.0058153843e+02   7.8650657290e+00     0.422874    0.2381438 -84.87  0.001508941    3.017    0.669
       521  -9.1156    242.9687    246.5092   7.2326701127e+01  -1.0965194410e+01    0.3515829    0.1353572 -32.17  0.001736845    2.341    0.573
       522  -8.7880    218.6034    246.7650   7.6740420521e+01  -8.1733555160e+00    0.3798321     0.121517 -36.76  0.001649329    3.028    0.670
