#   1 NUMBER                 Running object number                                     
#   2 MAG_AUTO               Kron-like elliptical aperture magnitude                    [mag]
#   3 X_IMAGE                Object position along x                                    [pixel]
#   4 Y_IMAGE                Object position along y                                    [pixel]
#   5 X_WORLD                Barycenter position along world x axis                     [deg]
#   6 Y_WORLD                Barycenter position along world y axis                     [deg]
#   7 A_WORLD                Profile RMS along major axis (world units)                 [deg]
#   8 B_WORLD                Profile RMS along minor axis (world units)                 [deg]
#   9 THETA_WORLD            Position angle (CCW/world-x)                               [deg]
#  10 FWHM_WORLD             FWHM assuming a gaussian core                              [deg]
#  11 ELONGATION             A_IMAGE/B_IMAGE                                           
#  12 ELLIPTICITY            1 - B_IMAGE/A_IMAGE                                       
         1 -10.4971    247.7742     16.1718   3.5623333744e+02   2.1842994125e+01    0.6901821    0.3688448  39.33  0.003366538    3.466    0.711
         2 -12.7276    221.1482     25.9821   1.8046878923e-01   2.6200558352e+01     3.254783     1.359003 -14.80   0.01194025    4.030    0.752
         3 -13.9571    239.4014     85.7671   1.2438468388e+01   1.5077609979e+01     2.613907     1.418985 -27.38  0.009157327    1.647    0.393
         4 -13.0962    225.8408     53.3244   6.3849166435e+00   2.1947642643e+01     3.073351     1.227837 -19.26  0.009350521    3.839    0.740
         5 -12.2834    248.1986     48.6319   3.3279166529e+00   1.8163977516e+01     1.176332    0.3857504 -28.96  0.001292757    2.645    0.622
         6 -14.4321    221.1678    102.6854   1.8569295030e+01   1.6056746597e+01     4.485271     3.171663  19.60   0.02437227    1.784    0.439
         7 -10.9153    199.7807     49.9362   8.3294117080e+00   2.8041037580e+01      1.69099    0.8596667  -2.78  0.004843548    6.130    0.837
         8 -11.9491    242.1544     44.1200   2.8020470660e+00   1.9837161355e+01     1.304319    0.5390519 -18.94  0.004392174    3.412    0.707
         9 -13.9008    205.2705    105.9874   2.1706272587e+01   1.8609351850e+01     3.608388     2.361824 -73.33   0.01583018    2.770    0.639
        10  -9.0497    203.8416     18.6601   3.5966456169e+02   3.0858627747e+01    0.3360815    0.2190257 -44.63  0.001047738    1.320    0.242
        11  -9.7096    199.5673     14.8476   3.5899243408e+02   3.2255413648e+01    0.2818875    0.2288947 -24.26   0.00070271    1.340    0.254
        12  -8.8138     92.4104     13.6703   1.3880010549e+01   6.0312542195e+01    0.2418179    0.2266747  55.74 0.0002006931    1.022    0.022
        13  -9.4707    120.3692      9.2975   6.0874575040e+00   5.3320749587e+01    0.3400043    0.2769056 -32.07  0.001019663    1.318    0.241
        14 -13.1871    240.8225     35.0650   8.5880677035e-01   2.1143630474e+01     2.846796     1.294747 -21.98   0.01339961    2.417    0.586
        15  -9.4088    208.4631      4.4057   3.5568300011e+02   3.1243356730e+01    0.6529166      0.30515  34.79  0.002360472    4.964    0.799
        16  -8.9998    225.0156      6.3958   3.5523595531e+02   2.7418947043e+01    0.2153286    0.1633736 -48.18 0.0006462787    1.083    0.076
        17  -8.9189     99.2874      4.4771   7.8572057961e+00   5.9423699654e+01    0.2530181    0.2317187  53.25 0.0005636343    1.055    0.052
        18  -8.5703    233.2267      4.0658   3.5428097382e+02   2.5932880917e+01    0.1866444    0.1545755  51.29 0.0007594511    1.596    0.373
        19 -10.3822    220.7321    185.3164   3.5470089553e+01   4.3298597792e+00    0.4818757    0.3973804  86.40  0.002717916    3.081    0.675
        20  -7.8293    194.6835    250.3183   4.9990868807e+01  -3.1389313083e-01   0.09635743   0.07535788  36.62 0.0007039646    1.655    0.396
        21  -8.2257    236.4188    185.7615   3.3012734180e+01   2.1717310080e+00    0.2104919   0.09541269 -35.29  0.001131561    2.113    0.527
        22  -7.3585    216.6757    200.3166   3.8730413969e+01   2.9381889144e+00   0.09786762   0.09397026  29.89 0.0005749842    1.669    0.401
        23 -10.8453    243.6405    179.5987   3.0820652114e+01   1.9941120300e+00    0.3796535    0.3284358  83.39 0.0006112364    2.715    0.632
        24  -8.7318    249.0083    177.7195   2.9691981440e+01   1.5363319121e+00    0.2171842    0.1338178 -16.63 0.0007629933    1.350    0.260
        25  -8.9290    228.6608    181.2510   3.3445791951e+01   3.7712415190e+00    0.1941117    0.1498751 -18.24 0.0003129955    1.173    0.147
        26  -8.9379    222.9703    178.3081   3.3844118982e+01   4.9449688720e+00    0.1784346    0.1578396  -4.93  0.001262473    1.247    0.198
        27  -8.6608    219.9677    173.7095   3.3501076744e+01   5.9942913269e+00    0.3116346    0.1392894 -47.05  0.001317686    3.510    0.715
        28 -10.9315    202.3381    167.3615   3.5367118397e+01   9.5772405615e+00     0.766391    0.4388421 -35.90  0.003120296    1.708    0.415
        29 -11.1513    193.7180    167.8424   3.7047235374e+01   1.0885988827e+01    0.5198964    0.3661641 -43.82  0.001909369    1.635    0.388
        30  -9.9025    187.2233    165.4427   3.7825086022e+01   1.2332882074e+01    0.7687112    0.3315979 -23.35  0.002693323    3.873    0.742
        31 -10.8816    229.9126    169.7563   3.1151600554e+01   5.0997233447e+00    0.6066141     0.293163 -21.71   0.00209091    2.106    0.525
        32  -8.2259    180.9725    174.6839   4.0800526735e+01   1.1879136784e+01    0.1897727     0.156758  22.36 0.0006430548    1.101    0.092
        33  -8.5633    208.1976    171.6766   3.5139304911e+01   8.0320276215e+00    0.1838433     0.153126  36.83  0.001008312    1.393    0.282
        34  -7.5684    130.9932    244.7649   6.1357738323e+01   8.3637695527e+00    0.1606279   0.07584515  31.98  0.000871145    1.594    0.372
        35  -8.9015    237.3123    227.7524   3.9689566307e+01  -2.7376204425e+00    0.2507843    0.1886272  45.14  0.001730409    2.478    0.596
        36  -8.9245      3.1962    226.2994   8.7106918584e+01   2.6244178764e+01     0.174433    0.1593079   4.76  0.001038818    1.542    0.352
        37 -13.4979    242.1054    120.6626   1.9636498656e+01   9.8912575086e+00      1.71107    0.6653227 -41.56  0.002231508    2.453    0.592
        38 -13.5377    242.8708    108.6690   1.7011451451e+01   1.1390325333e+01     2.039793    0.8078236  40.50  0.009003341    3.259    0.693
        39  -8.5748    112.0019    170.5451   5.5797136246e+01   2.4304050156e+01    0.2639842    0.1906188 -32.20 0.0009748593    1.683    0.406
        40  -8.8019      5.0446    170.0365   8.4885268054e+01   3.7861030992e+01    0.1867681    0.1510784  60.70 0.0003135224    1.026    0.026
        41  -8.8823      9.9564    224.5187   8.5638037142e+01   2.5988183130e+01    0.1636528   0.09181048  30.84 0.0006730026    1.551    0.355
        42 -13.4233    246.3846    147.8695   2.4525704733e+01   5.6247141405e+00     2.464963     2.048673 -38.76   0.01602548    1.431    0.301
        43  -7.9731    142.4815    165.0665   4.7335895187e+01   2.0160254333e+01    0.1959849    0.1410938 -46.61 0.0008498359    1.518    0.341
        44  -8.9830    222.6950    163.6956   3.1170258123e+01   6.9703703284e+00    0.2361617    0.2237788  48.00 0.0008051334    1.531    0.347
        45  -8.3360    184.9882    157.9532   3.6786444949e+01   1.3930681797e+01    0.1964604    0.1781437  -6.15 0.0004770891    1.075    0.070
        46 -10.3817    191.8232    152.4928   3.4367985742e+01   1.3637979896e+01    0.6629717    0.3648651 -51.12  0.002929955    2.486    0.598
        47  -9.4738    192.0173    144.1246   3.2589994923e+01   1.4966650198e+01    0.2724966    0.1903936  39.86 0.0005538943    1.458    0.314
        48  -7.2319     40.2951    220.2879   7.8816152981e+01   2.3808111024e+01     0.101578   0.09046723  -8.63 0.0001931247    1.549    0.354
        49  -9.6478    201.4461    148.7068   3.1823230534e+01   1.2580629739e+01    0.6317132    0.3007163 -52.84  0.002323163    3.895    0.743
        50  -8.1724     97.3949    152.4014   5.6653023972e+01   3.0749430373e+01    0.2533545    0.1792571 -65.08 0.0008003261    1.562    0.360
        51  -8.6845    181.9865    150.6632   3.5892823064e+01   1.5677898653e+01    0.2864692    0.1925726 -37.43 0.0008370021    1.482    0.325
        52 -10.8760    144.9329    136.4251   4.0910437213e+01   2.5373000317e+01    0.4872527    0.3787114  20.97  0.002433665    1.384    0.278
        53 -10.3185    133.4310    143.7605   4.5325271587e+01   2.6114171212e+01     1.159781    0.3509308 -53.87  0.003203438    4.690    0.787
        54 -11.2787    138.4158    140.2598   4.3337506897e+01   2.5875806102e+01    0.8613278    0.5609367 -45.45   0.00335694    1.603    0.376
        55  -7.9246    212.2940    149.3404   3.0068609343e+01   1.0664170866e+01    0.1337906   0.09004825  -1.29 0.0003995862    1.655    0.396
        56  -9.3958    144.9502    146.6406   4.3110755895e+01   2.3322688995e+01    0.4254087    0.3255635 -81.57  0.001465315    1.972    0.493
        57  -9.7731    165.1985    143.7482   3.7903453138e+01   2.0007674787e+01    0.4825448    0.3211943 -47.66  0.002330327    1.640    0.390
        58 -10.5687    151.1757    144.1658   4.1126741971e+01   2.2616857245e+01    0.5252739    0.3924854 -52.60  0.002518133    1.509    0.337
        59 -10.3081    158.8098    143.2020   3.9186397651e+01   2.1332520460e+01    0.5477397    0.3395869  26.24  0.002054301    1.820    0.451
        60 -10.1010     67.9627    143.8668   6.3949010753e+01   3.7429261132e+01    0.6977407     0.417786  61.95  0.003057023    1.910    0.476
        61  -7.6183     33.9958    146.2135   7.4877966355e+01   4.1050555556e+01    0.1711563    0.1058391  28.45 0.0008459831    1.614    0.381
        62 -10.0088    212.4221    141.7741   2.8489979357e+01   1.1776138048e+01    0.4164133    0.2700486  57.10  0.002154379    2.171    0.539
        63  -8.1727     81.4249    141.6389   5.9443640391e+01   3.5927776507e+01    0.2701865     0.148128 -69.53  0.001106198    2.107    0.525
        64  -8.3571    218.4673    140.0454   2.7141536332e+01   1.1019843578e+01    0.1851635    0.1121614 -33.80 0.0004431119    1.489    0.328
        65 -10.7246     22.4452    132.4318   7.7266927408e+01   4.5656836280e+01    0.3557015    0.2896191 -57.19  0.002068463    1.305    0.234
        66  -9.4947    200.2764    133.3470   2.8770288708e+01   1.5217893677e+01    0.2838356    0.2510472  78.04 0.0008886147    1.556    0.357
        67 -11.5757    160.3113    129.1431   3.5710183109e+01   2.3704488394e+01    0.6887622    0.5498928 -32.70  0.003004531    1.254    0.202
        68 -10.2778    136.0000    128.9963   4.1423056002e+01   2.8700276067e+01    0.3777328    0.2079892 -45.43  0.001567903    1.873    0.466
        69 -10.6935     10.4140    128.3352   8.0954207357e+01   4.7652823636e+01    0.4450612    0.1838646 -88.30  0.001863129    2.330    0.571
        70 -10.6852      2.0579    126.8861   8.3655799406e+01   4.8561682329e+01    0.5928408    0.2195785 -80.76  0.002497167    2.368    0.578
        71 -11.1993    172.2916    126.3822   3.2516909372e+01   2.1789656254e+01    0.5596923    0.4913614 -79.69  0.003047653    1.458    0.314
        72  -8.7515    171.0768    121.0461   3.1508642847e+01   2.3005225565e+01    0.2362028     0.203296  37.90            0    1.172    0.146
        73 -11.3229     45.7234    123.8153   6.8218600082e+01   4.5499649990e+01    0.9432501    0.4841309 -64.06  0.003261912    1.846    0.458
        74 -11.6582     37.8300    122.3662   7.0799141266e+01   4.6776983338e+01    0.8932905    0.7025521 -65.96  0.003063841    1.233    0.189
        75 -11.2115     29.9673    123.1869   7.3694587975e+01   4.7365621642e+01    0.5250588    0.3673972  17.42  0.001506618    1.609    0.378
        76  -8.8587     66.5206    125.9857   6.1421169429e+01   4.2142420665e+01    0.2180669    0.1103312 -41.39 0.0008099982    2.531    0.605
        77  -9.8932    142.6209    123.9336   3.8588277790e+01   2.8383054843e+01    0.3823364    0.2820394  84.24  0.001666153    2.084    0.520
        78 -10.1588      9.3453    120.6699   8.0734659676e+01   4.9696333910e+01    0.2684201    0.1569498  61.92   0.00134751    1.646    0.392
        79  -9.5928    143.3858    118.1355   3.6992004964e+01   2.9404929256e+01    0.3515286     0.273054 -48.96 0.0008524292    1.338    0.253
        80  -9.3096    149.9935    131.7266   3.8650939105e+01   2.5296808008e+01     0.211603    0.1918259  34.12 0.0004448467    1.073    0.068
        81 -10.6854    134.7244    111.2657   3.7415358572e+01   3.2692695581e+01     1.307272     0.202613 -45.12  0.002805612    6.634    0.849
        82  -9.6990    135.3977    104.0865   3.5353275834e+01   3.4037184684e+01    0.4221443     0.308472  74.35   0.00101554    1.812    0.448
        83  -9.6068     59.4642    114.2895   6.1687210986e+01   4.6178999115e+01    0.3718208    0.1493286 -66.72  0.001306508    2.641    0.621
        84 -10.2577    169.2200    111.4504   2.9547868042e+01   2.5142476950e+01    0.4254223    0.2478665 -38.77 0.0008019028    1.671    0.401
        85 -10.4962    168.8201    106.8491   2.8470261009e+01   2.6065058270e+01    0.4571643    0.3541093  -6.98   0.00206501    1.544    0.352
        86 -10.2329    159.1622    113.2573   3.2130764006e+01   2.6971400033e+01    0.3606962    0.2695388  48.53  0.001063302    1.360    0.265
        87  -8.9351    151.0495    110.1635   3.3167424576e+01   2.9336930352e+01    0.2370543     0.202743  14.21 0.0005655193    1.295    0.228
        88 -10.8784    125.1006    106.1866   3.8620919616e+01   3.5874472024e+01    0.7614969    0.4917936 -74.09  0.002725134    2.544    0.607
        89 -10.2112    160.7044    108.8350   3.0675823704e+01   2.7472257058e+01    0.5630886    0.3049309  52.48  0.002159073    1.950    0.487
        90 -11.0613    159.9154    101.3622   2.8902046829e+01   2.9046456225e+01    0.6768219    0.4411105 -51.85  0.001248174    1.675    0.403
        91  -8.5555    106.7598    104.7658   4.3519190213e+01   4.0116362784e+01    0.4370394    0.1892276 -57.94  0.001403667    2.999    0.667
        92  -7.8666     98.7511    108.5996   4.6994885106e+01   4.0848399015e+01    0.2131295    0.1436481  49.90 0.0004421257    1.504    0.335
        93  -9.2360    143.6852    102.0987   3.2772990472e+01   3.2573950320e+01    0.5001591    0.2939849  48.41  0.001809872    1.697    0.411
        94 -11.2002    179.4430     98.0154   2.4150136834e+01   2.5297350615e+01    0.4585829    0.3969126 -21.40 0.0008166975    1.157    0.135
        95 -10.8855    179.8236    107.2519   2.6416063822e+01   2.3623907886e+01    0.6419567    0.3681123  54.29  0.002861623    1.904    0.475
        96  -8.3199     75.5664     98.6736   5.2336333236e+01   4.7603399164e+01    0.3182695    0.1509399 -57.42  0.001189515    2.144    0.534
        97  -8.9188    140.2018     94.9182   3.1634239920e+01   3.4799294049e+01    0.3738005    0.2323028 -48.88   0.00128653    1.677    0.404
        98  -8.0739    154.1348     94.6712   2.8347380858e+01   3.1616690876e+01    0.2013954    0.1940408  20.65  0.000524646    1.067    0.062
        99  -8.4608     72.7743     91.0664   5.1375349143e+01   4.9975170446e+01    0.2139813    0.1977765  86.43 0.0002859758    1.125    0.111
       100  -8.7695    158.3129     89.8717   2.6121626377e+01   3.1531675318e+01    0.2503687    0.2321084 -60.33 0.0006227716    1.101    0.092
       101  -7.9623     21.3225    219.3024   8.2993363687e+01   2.5933939855e+01   0.09950101   0.08841496 -22.07   0.00023109    1.633    0.388
       102  -7.7240    127.3092     89.3497   3.3302014758e+01   3.8921497118e+01    0.1615067    0.1262706   4.43 0.0001079045    1.712    0.416
       103  -9.6178    205.0047     79.6850   1.5341041739e+01   2.2682492311e+01    0.5561728    0.2756205 -62.51  0.001590765    3.694    0.729
       104  -9.9496    191.9547     74.7190   1.5959161819e+01   2.6284012055e+01    0.7905375    0.4103478 -26.21  0.003357887    2.061    0.515
       105 -10.5498    205.3674     72.7320   1.3540557638e+01   2.3623940863e+01    0.7923893    0.2656938 -33.12  0.001551314    2.642    0.622
       106  -9.7195    201.5266     57.3461   1.0072553434e+01   2.6643980075e+01    0.3299235    0.2821656  -1.68 0.0007882962    1.394    0.282
       107  -8.9540    193.9521     62.7689   1.2493442896e+01   2.7601936864e+01    0.2655811    0.1903994 -34.79 0.0004237948    1.295    0.228
       108  -8.3570    221.4992    216.8116   4.0575297501e+01   3.1366214855e-01    0.1733295    0.1462889  54.86 0.0008756614    2.369    0.578
       109 -11.0713    199.5826     67.3466   1.2936155554e+01   2.5669901383e+01    0.8721142    0.3473211 -26.59  0.002725396    2.768    0.639
       110  -8.2880    136.0517     79.3425   2.8063444905e+01   3.8815482316e+01    0.2146628     0.195784  59.76 0.0004483829    1.090    0.083
       111  -8.1753    124.4243     76.9939   3.0282034514e+01   4.2085862088e+01    0.2338926    0.1976922  52.95 0.0001597459    1.166    0.142
       112  -8.2852    213.0859     70.4937   1.1984629385e+01   2.2301852835e+01     0.185179    0.1334937  63.42 0.0007841656    1.550    0.355
       113  -9.4025     93.7394    213.5964   6.6003261487e+01   1.8499322723e+01    0.2034504    0.1878893  15.62  0.000420158    1.209    0.173
       114  -7.9446    123.5090     69.4619   2.8076037839e+01   4.3759397027e+01    0.1555004    0.1517032  68.27 6.421113e-05    1.006    0.006
       115  -7.9515    173.4218     65.1996   1.6260170355e+01   3.2085067007e+01    0.2115151    0.1243385 -45.82 0.0005098215    1.652    0.395
       116  -9.4220    163.6352     61.8415   1.6944446765e+01   3.5013266307e+01    0.2953251    0.2315992  74.51 0.0003779446    1.332    0.249
       117  -9.5007    135.3635     60.0929   2.2046494170e+01   4.2461793640e+01    0.4906032    0.1916482 -31.73  0.001629889    2.830    0.647
       118  -9.2358    144.5180     59.3911   1.9831952435e+01   4.0239028158e+01     0.304996    0.2467343 -45.44  0.000845249    1.229    0.186
       119  -7.5388     58.9978     60.2605   4.7480872158e+01   5.9699640864e+01    0.1851165    0.1273825  35.57 0.0003493042    1.471    0.320
       120  -7.7555     72.6142     58.2498   4.0830960476e+01   5.7616820837e+01    0.2129236    0.1396354 -35.21 0.0005455186    1.636    0.389
       121  -8.6239    188.9459     56.4822   1.1470594592e+01   2.9662135585e+01    0.2448726    0.1874745 -14.91 0.0003538588    1.503    0.335
       122  -8.8807    170.4331     56.3028   1.4149599458e+01   3.4168984843e+01     0.275209    0.1446835 -26.65 0.0007959542    2.058    0.514
       123  -8.6362    184.0754     55.1659   1.1777623838e+01   3.1005742835e+01    0.2777287    0.1978947 -23.47 0.0007898391    1.497    0.332
       124  -8.6371     83.5515     50.2378   3.3391470399e+01   5.6919877923e+01    0.3649673    0.2316208  -4.54  0.001323307    2.952    0.661
       125 -10.0991    187.5785     46.9265   8.9983401034e+00   3.1303051276e+01    0.6441958    0.3122628 -26.78  0.002723327    2.131    0.531
       126  -8.3592    166.4437     49.4957   1.2736340659e+01   3.6161414047e+01    0.1438145    0.1386219 -69.57 0.0001863801    1.046    0.044
       127  -8.8912    160.4472     50.0000   1.3863338493e+01   3.7612677085e+01    0.3223537   0.08280149  62.96 0.0009288893    3.888    0.743
       128  -7.8001    134.3095     48.3164   1.8244245931e+01   4.4648409121e+01    0.1550529    0.1173173  26.81 0.0002838471    1.635    0.388
       129  -7.7497    250.3717    211.8578   3.5229147484e+01  -2.5000884773e+00    0.1435709    0.0768147 -16.41 0.0003915237    1.606    0.377
       130  -8.9253    209.5769     46.4913   6.3449115158e+00   2.6282575570e+01      0.23866    0.2043059 -12.11 7.086375e-05    1.342    0.255
       131 -10.0726    213.7275     44.1489   5.3281726906e+00   2.5665530411e+01    0.2949602    0.2295706 -31.41  0.000673644    1.223    0.183
       132  -9.6011    157.0793     43.6631   1.2414295596e+01   3.9385415115e+01    0.3738807    0.2186902 -21.26  0.001593366    2.007    0.502
       133  -8.8315    193.2023     38.4315   5.9747433712e+00   3.1061076862e+01    0.2703716    0.1789886  43.49  0.001348688    1.864    0.464
       134  -9.9765    196.3762     42.1788   6.6419368292e+00   2.9839298484e+01    0.5036239    0.2727698 -15.38  0.001604912    2.461    0.594
       135  -9.8630    198.1414     76.6871   1.5558180317e+01   2.4611332153e+01    0.4685471    0.3472299 -13.75  0.001514125    1.547    0.354
       136  -8.1743    204.7971     35.0302   3.8627996756e+00   2.8777947338e+01    0.1835336    0.1712274  20.97 0.0005630275    1.325    0.245
       137  -7.9015     17.5867     34.5401   6.1102820214e+01   7.1016046941e+01    0.1306971    0.1163256 -37.96 9.209971e-05    1.027    0.026
       138  -9.8319    197.1036     32.2621   3.8824928569e+00   3.0892460111e+01    0.2772155    0.2331385 -10.10 0.0005724438    1.415    0.293
       139  -9.8388    200.0041     26.6383   2.0957594896e+00   3.0868117704e+01    0.2602267     0.233453 -19.26 0.0003673981    1.274    0.215
       140  -9.0039    182.1066     29.1863   4.5965829015e+00   3.4881086402e+01    0.4322758    0.1991563 -49.88  0.001712816    2.093    0.522
       141  -7.5102     87.5800     25.5620   2.1016371707e+01   6.0053944582e+01    0.1448975     0.136158  44.36 0.0001018634    1.005    0.005
       142  -9.1537    179.8771     23.5087   3.1842473831e+00   3.6092024319e+01     0.441009    0.2435993  78.37  0.002062964    1.811    0.448
       143  -7.8903    246.3535    209.1637   3.5404164460e+01  -1.7572749606e+00    0.1407586   0.08505088 -32.48 0.0009384415    1.755    0.430
       144 -11.0356    194.7461    194.2812   4.1621866254e+01   6.7932060039e+00    0.6717046    0.5304853 -70.14  0.002763792    2.638    0.621
       145  -7.6648    128.4990     17.5040   7.9843427788e+00   5.0282250353e+01    0.1460415    0.1340188  75.08 -4.758665e-05    1.025    0.024
       146  -7.8950    184.2909    199.4191   4.4460402776e+01   7.5769888108e+00    0.1596759    0.1048276  37.25 0.0004903175    1.480    0.324
       147  -8.1961    108.8562     13.1689   9.8482553143e+00   5.6037557769e+01    0.2086413    0.1838251 -80.36 0.0004071779    1.163    0.140
       148  -9.6415    178.4773    194.3923   4.4762685802e+01   9.1875471217e+00     0.226254    0.2014759  26.66 0.0002404632    1.243    0.195
       149  -8.7302     37.7325    192.6711   7.7685873788e+01   2.9736331429e+01    0.1835713    0.1738541  51.98 0.0006491859    1.204    0.170
       150 -10.8394    211.2524    187.0034   3.7386667714e+01   5.4328210995e+00    0.8314471    0.4622532  12.43  0.004304297    2.083    0.520
       151  -8.7624    216.9524    188.9521   3.6746118876e+01   4.3730795564e+00    0.3017616    0.2271012  -7.25  0.001248038    1.112    0.101
       152  -9.3527    224.8646    189.2821   3.5479301357e+01   3.2536141323e+00     0.244721    0.2113481 -46.34  0.001114892    1.820    0.451
