#   1 NUMBER                 Running object number                                     
#   2 MAG_AUTO               Kron-like elliptical aperture magnitude                    [mag]
#   3 X_IMAGE                Object position along x                                    [pixel]
#   4 Y_IMAGE                Object position along y                                    [pixel]
#   5 X_WORLD                Barycenter position along world x axis                     [deg]
#   6 Y_WORLD                Barycenter position along world y axis                     [deg]
#   7 A_WORLD                Profile RMS along major axis (world units)                 [deg]
#   8 B_WORLD                Profile RMS along minor axis (world units)                 [deg]
#   9 THETA_WORLD            Position angle (CCW/world-x)                               [deg]
#  10 FWHM_WORLD             FWHM assuming a gaussian core                              [deg]
#  11 ELONGATION             A_IMAGE/B_IMAGE                                           
#  12 ELLIPTICITY            1 - B_IMAGE/A_IMAGE                                       
         1 -15.2756      9.9115    152.3380   1.3801153326e+02   4.1328696694e+01     4.242391      1.38647 -88.73   0.01895249    3.026    0.670
         2 -13.1774    195.6796     32.9154   6.2155508163e+01   3.1987405937e+01     1.250754     1.059139  47.29  0.006476267    1.182    0.154
         3 -13.9809    209.0488     16.8893   5.5786425601e+01   3.0344217172e+01      1.74527     1.158739  24.54  0.008476549    1.888    0.470
         4 -10.6202      1.9569      4.9903   1.1785225410e+02   7.4346206377e+01    0.4930033    0.1115746 -56.57  0.002082156    2.980    0.664
         5 -11.4877      2.2651     14.2123   1.2110901006e+02   7.2501929042e+01    0.5108395    0.1498523 -61.82   0.00227205    2.672    0.626
         6 -10.7293     54.5978    238.5160   1.3426736914e+02   2.1043634435e+01    0.2043709    0.1784706  42.73 0.0006469345    1.351    0.260
         7  -9.8193    249.0023    250.2498   1.0147675306e+02  -6.4394533548e+00    0.1427562   0.06569286  32.53 0.0008926798    1.602    0.376
         8 -10.8435    182.9644    250.1221   1.1250208527e+02   2.4942605629e+00    0.2729877   0.09340625  34.10  0.001341769    2.266    0.559
         9 -12.2799    139.8764    248.8076   1.1996126086e+02   8.7230618932e+00    0.4895192    0.2531094  43.05  0.003051457    1.458    0.314
        10 -11.0577    125.6287    249.9134   1.2260324410e+02   1.0534844142e+01    0.1977531    0.1444754  39.74  0.001474719    1.036    0.035
        11 -12.8194     92.7855    249.4266   1.2834649538e+02   1.4895915291e+01    0.7680448    0.4318135  30.05 0.0008176408    1.800    0.445
        12 -10.8170     89.1633    244.4095   1.2860061344e+02   1.6078854099e+01    0.2233569    0.1175322  59.60  0.001399139    1.841    0.457
        13 -12.0767     31.0574    248.3141   1.3867848960e+02   2.1971403664e+01    0.7070219    0.2887787  40.21  0.004733355    1.817    0.450
        14 -12.0685     39.2262    245.7102   1.3723637201e+02   2.1552684371e+01    0.7126374    0.3060387  61.17  0.004636799    1.925    0.480
        15 -12.4127     17.4822    241.5825   1.4060800164e+02   2.4287731232e+01    0.5246032     0.242529  53.57  0.001758282    1.496    0.331
        16 -11.9369     12.4656    240.2538   1.4136639253e+02   2.4945623173e+01    0.4589888    0.1358913  63.14  0.002582785    2.777    0.640
        17 -10.5332     16.8318    249.9544   1.4098925231e+02   2.3067822142e+01    0.4624915    0.1183079  35.60  0.002585788    2.955    0.662
        18 -11.3508      3.8837    250.2446   1.4298430864e+02   2.4166452249e+01    0.4367574    0.1287108  34.97  0.001133998    2.726    0.633
        19 -11.6597      2.5179    246.0010   1.4308433036e+02   2.4921175486e+01     0.731611     0.164094 -84.95  0.003714935    4.478    0.777
        20 -11.4939     21.1357    236.0893   1.3981586679e+02   2.4816044057e+01    0.3260235    0.1734706  50.72  0.002281304    1.340    0.254
        21 -11.2608     98.2848    236.2502   1.2629561727e+02   1.6135174552e+01    0.2801392    0.1778725  54.68  0.001083767    1.347    0.258
        22 -10.0719     51.7951    234.2278   1.3450950504e+02   2.2029876856e+01    0.1464386    0.1181259 -57.51 0.0008187966    1.728    0.421
        23 -14.2373      9.7652    206.6331   1.4064912333e+02   3.0782126455e+01     2.039551    0.7916219 -87.05  0.007323149    2.360    0.576
        24 -10.8821    162.7460    248.9360   1.1591167139e+02   5.4922254327e+00    0.2472826    0.1506069  25.26  0.001597896    1.483    0.326
        25 -11.6851    153.3108    228.8887   1.1524557170e+02   9.4439065518e+00    0.4845506    0.1875392  34.04  0.002317247    2.196    0.545
        26 -10.1136     53.0984    228.6459   1.3394955171e+02   2.2793179207e+01    0.2085411    0.1163469  76.45 0.0006012152    1.794    0.443
        27 -10.8594     25.2838    224.9787   1.3866446369e+02   2.6238615247e+01    0.2675069    0.1344085  86.12   0.00180871    1.875    0.467
        28 -12.1506     19.0568    228.8655   1.3988694740e+02   2.6173835483e+01    0.4237534    0.2496761  28.53  0.001564126    1.960    0.490
        29 -12.7314     35.4230    225.4471   1.3691547029e+02   2.5175557148e+01    0.2910867    0.2339946  50.86 0.0007547362    1.210    0.173
        30 -10.6610     24.3116    213.8351   1.3833580661e+02   2.8229882571e+01     0.237952   0.09187663  43.32   0.00100044    1.935    0.483
        31 -10.9272    227.5101    203.6355   9.7761464966e+01   1.2070432525e+00    0.2716433    0.2232142 -40.53 0.0007553024    1.856    0.461
        32  -9.8455    192.0016    193.1994   1.0252685066e+02   8.2674409433e+00    0.2683679     0.175988 -62.12  0.001246418    3.309    0.698
        33 -13.8635     42.6064    216.4931   1.3513564314e+02   2.5965519971e+01    0.8711354    0.5426334  56.64  0.003831151    1.244    0.196
        34 -11.6089     62.1520    192.8979   1.2960327557e+02   2.8096474410e+01    0.3012707    0.2358807 -40.45  0.001326135    1.795    0.443
        35  -8.5748    181.5347    192.4461   1.0445144514e+02   1.0141576147e+01    0.1311149    0.1068764  25.48 0.0001692063    1.011    0.011
        36 -11.7387     67.9236    185.7121   1.2771902655e+02   2.8790027774e+01    0.2501352    0.2142951 -52.95 0.0006616936    1.430    0.301
        37 -11.0053     77.7178    173.8849   1.2428398835e+02   2.9904246503e+01    0.2155459    0.1991117 -89.70 0.0004020176    1.126    0.112
        38 -13.2216     64.7780    171.2588   1.2696094451e+02   3.2067402754e+01    0.4446496    0.2556642 -46.10  0.001862879    2.256    0.557
        39 -12.1085     85.3527    165.3574   1.2144715100e+02   3.0622478443e+01    0.8560739    0.4710585  50.94  0.004341845    1.758    0.431
        40 -13.0591     66.4443    143.1845   1.2317986001e+02   3.7889155593e+01      2.09199    0.9832569  83.21  0.003611631    4.688    0.787
        41  -9.0098    101.2480    145.6568   1.1454053171e+02   3.2431774033e+01    0.2520981    0.1674049 -31.28 0.0009178346    2.031    0.508
        42 -12.1052     86.7189    148.6790   1.1874430318e+02   3.3969267695e+01    0.2621619    0.2293428 -42.34 0.0005866472    1.289    0.224
        43 -14.9381     50.1659    206.7027   1.3308392542e+02   2.6892348723e+01     7.957901          nan  44.29   0.02405959    6.700    0.851
        44  -9.4493    109.8445    135.5503   1.1046298462e+02   3.3198035778e+01    0.2908921    0.2078026 -23.80  0.001034067    1.865    0.464
        45 -10.4561     97.0120    132.5180   1.1330175199e+02   3.5968153654e+01    0.2581154    0.2204109 -27.43 0.0007000508    1.347    0.258
        46  -9.2386     42.3779    231.7512   1.3601942932e+02   2.3429248699e+01    0.1198568   0.08572682 -75.05 0.0004854376    1.581    0.368
        47  -9.0148    106.9039    122.7409   1.0864775924e+02   3.6494854110e+01    0.1878644    0.1736296  47.11 0.0003061219    1.075    0.070
        48 -10.4117    167.9529    112.9348   9.0746392134e+01   2.6262065326e+01    0.3488535    0.2949612 -82.87  0.001067644    1.640    0.390
        49  -9.5401    204.5984    110.8489   8.2562279129e+01   1.8550446102e+01    0.3780642    0.1750497  35.00  0.001415018    2.468    0.595
        50  -9.7872     98.2883    149.6805   1.1596617246e+02   3.2032563823e+01    0.2387757    0.2309444  -2.19 0.0007616935    1.160    0.138
        51  -9.0394     27.8505    234.1323   1.3861945319e+02   2.4495298726e+01    0.1178377    0.1013446  60.86 0.0004508565    1.283    0.221
        52 -11.5483    243.3138     93.8482   7.1813249684e+01   1.2842622921e+01    0.4040904    0.1972495 -40.67  0.001765298    2.086    0.521
        53 -11.4629      2.0136     88.6086   1.3518901915e+02   5.5966546029e+01    0.4523695    0.1369833 -76.02  0.001973877    2.590    0.614
        54 -10.0738    249.5005    230.5004   9.8442005573e+01  -4.7427583116e+00    0.1146265   0.07776598  15.03 0.0008105993    1.022    0.021
        55 -11.1676    197.9151    247.2966   1.0955146601e+02   6.9568219089e-01    0.2900511    0.1463804  17.66  0.001578067    2.290    0.563
        56 -11.6851    107.8706    245.1106   1.2532926244e+02   1.3574880809e+01    0.2937907    0.1896676  45.87  0.001215895    1.158    0.136
        57  -9.6935     29.1115    240.8034   1.3868862221e+02   2.3316224231e+01    0.1511684   0.09269246  59.10 0.0004821456    1.171    0.146
        58 -10.6097    189.7001     15.2763   5.7566339940e+01   3.5460516139e+01    0.2438838    0.1738509 -26.26 0.0008262309    1.427    0.299
