#   1 NUMBER                 Running object number                                     
#   2 MAG_AUTO               Kron-like elliptical aperture magnitude                    [mag]
#   3 X_IMAGE                Object position along x                                    [pixel]
#   4 Y_IMAGE                Object position along y                                    [pixel]
#   5 X_WORLD                Barycenter position along world x axis                     [deg]
#   6 Y_WORLD                Barycenter position along world y axis                     [deg]
#   7 A_WORLD                Profile RMS along major axis (world units)                 [deg]
#   8 B_WORLD                Profile RMS along minor axis (world units)                 [deg]
#   9 THETA_WORLD            Position angle (CCW/world-x)                               [deg]
#  10 FWHM_WORLD             FWHM assuming a gaussian core                              [deg]
#  11 ELONGATION             A_IMAGE/B_IMAGE                                           
#  12 ELLIPTICITY            1 - B_IMAGE/A_IMAGE                                       
         1 -11.1544      4.1866     37.0091   7.1538455811e+01   7.1002307618e+01    0.5383092      0.30934 -61.39  0.002375537    1.474    0.321
         2 -11.4000     78.9000     35.7219   3.2533754565e+01   6.0622237751e+01     0.794344    0.5471216 -34.75  0.003961192    1.442    0.306
         3 -12.1595    104.4655     13.5894   1.5024930836e+01   5.7476398016e+01    0.5238419     0.403583 -14.26  0.002846673    1.410    0.291
         4 -12.6856    105.8186     20.5253   1.7765519069e+01   5.6381077645e+01    0.4366537    0.3410162 -69.75 0.0008732475    1.495    0.331
         5 -11.7654      6.6391     11.1843   5.8537543906e+01   7.6157495549e+01    0.5399681    0.4876139   4.06    0.0038981    1.273    0.214
         6 -10.7117     12.8284      8.2149   5.1821212078e+01   7.6080898352e+01    0.3692344    0.2501633 -57.23  0.001263808    2.016    0.504
         7 -12.0370     16.3814     13.7496   5.2633079806e+01   7.4743548566e+01    0.6261328    0.2778231 -32.25  0.002931237    2.258    0.557
         8 -12.1035     22.5542     10.5803   4.6312088830e+01   7.4530995589e+01     0.462977    0.3173119  20.51  0.002010592    1.437    0.304
         9 -11.5284    135.3495     22.0619   1.2568684757e+01   4.8628550093e+01    0.4662257    0.3901709  84.69  0.002563865    1.158    0.137
        10 -12.0397     35.7558     19.3547   4.3484360069e+01   7.1254464017e+01    0.6685658    0.3168464 -29.46  0.002396853    2.224    0.550
        11 -11.0867     67.7862     19.3316   2.8456323045e+01   6.5388107097e+01    0.3666465    0.3268473 -61.91 0.0009960796    1.408    0.290
        12 -11.9548    165.3305     17.7234   6.9003057796e+00   4.1344506752e+01    0.5565303    0.3166286  47.09  0.002552319    2.046    0.511
        13 -11.2769     86.1797     13.5832   1.9513375085e+01   6.1939368406e+01    0.7808857     0.410173   7.87  0.003013515    3.089    0.676
        14 -10.5566     89.3939      8.5881   1.6201455403e+01   6.1677530492e+01    0.2916702    0.2377829 -13.55 0.0008927297    1.296    0.228
        15 -11.3450    227.7443     15.2359   7.8254070423e-01   2.6817401636e+01    0.4466729    0.2013627 -63.73  0.001273197    2.149    0.535
        16 -12.7204    131.8469     15.5193   1.0704093332e+01   5.0257196660e+01     1.086277    0.2460539  60.45  0.003493553    3.391    0.705
        17 -10.0572    218.1256     13.3447   9.6644669117e-01   2.9127582457e+01     0.219016    0.1639482 -27.68  0.001127144    1.424    0.298
        18 -12.0851     48.2751     13.0231   3.3104221522e+01   7.0084526350e+01    0.6012563     0.278057  47.26  0.002639109    2.154    0.536
        19 -11.7616    192.0030      9.6829   1.9470384355e+00   3.5571175094e+01    0.6109403    0.3209475  -6.64  0.002550606    3.156    0.683
        20 -10.2985    223.9439      2.8087   3.5807081216e+02   2.8970333896e+01    0.2458031    0.1662322 -59.91 0.0004110459    1.185    0.156
        21 -11.3103    206.1804      2.2543   3.5897493053e+02   3.2990279135e+01    0.6845245    0.2571492 -78.53  0.002700942    3.126    0.680
        22 -10.5953    218.6743      3.6751   3.5857445878e+02   3.0033531737e+01    0.3271178    0.2162689  66.82 0.0008739233    1.673    0.402
        23 -11.4912    211.8821     10.3765   6.5511103530e-01   3.0851277336e+01    0.4147984    0.3080376 -22.47  0.001389837    1.529    0.346
        24 -10.4958    213.7767      5.4031   3.5929086971e+02   3.0946488882e+01    0.2573692    0.1602067  84.65 0.0009615925    1.556    0.357
        25 -11.5137    169.2918      9.4686   3.9082695793e+00   4.1202480650e+01     0.514782    0.2501841  58.94  0.001513367    2.043    0.511
        26 -11.4808    164.3545      6.1226   3.3586297554e+00   4.2779174349e+01     0.561241    0.3244329  -1.92  0.002528923    2.546    0.607
        27 -12.0695    151.6826      7.9635   5.3059069690e+00   4.5852456764e+01    0.5099302    0.3395129 -81.77  0.001252327    1.492    0.330
        28 -11.6241     20.4161     21.7857   5.4371715806e+01   7.2841681821e+01    0.7483758    0.3744225 -39.39  0.003790021    1.746    0.427
        29 -11.6490    184.7758      6.3952   1.6147080589e+00   3.7657242631e+01    0.3878085    0.2190738 -53.73  0.001965239    1.590    0.371
        30 -11.4068    177.0379      5.9560   2.1373447510e+00   3.9606956999e+01     0.317775    0.2194699 -78.78 0.0004191549    1.337    0.252
        31 -10.8021    122.0285      5.6675   8.4417038596e+00   5.3743467046e+01    0.2662245     0.173328 -20.06  0.001053723    1.683    0.406
        32 -10.1787     63.0539      6.6228   2.3068404297e+01   6.7884789855e+01    0.2980283    0.1859871  41.98   0.00157667    1.459    0.314
        33  -9.8967    242.7949      4.3937   3.5745762572e+02   2.4863953474e+01    0.2517002    0.1188827 -57.60  0.001363731    1.706    0.414
        34 -10.9389    137.6939      4.3247   5.7290464840e+00   4.9804376528e+01    0.3896706    0.2337551  87.14  0.001053428    1.658    0.397
        35 -12.3841    133.3043      2.3949   5.5834538291e+00   5.1105375318e+01     1.083143    0.3512862  78.93  0.003692416    3.331    0.700
        36 -11.2249    113.7204      3.0653   8.7132574084e+00   5.6095812448e+01    0.4644643    0.3217047 -80.31  0.001229035    1.592    0.372
        37 -10.5801     73.3360      3.7558   1.8053433516e+01   6.5890279532e+01    0.5609879    0.1904134  50.71  0.002261792    2.445    0.591
        38 -11.0889     41.4042      3.8774   3.0573631164e+01   7.2480284332e+01    0.3712433    0.2161947  28.04  0.001312581    1.729    0.422
        39 -10.6713    233.5552      2.8149   3.5756535913e+02   2.6925274331e+01    0.3385601     0.144587 -54.43  0.001111976    1.864    0.464
        40  -9.5445     77.9638      7.7069   1.8833888710e+01   6.4459647504e+01    0.1892215    0.1647052  55.10 0.0007711491    1.121    0.108
        41 -10.5718    105.2664      2.1143   9.7727177897e+00   5.8318156448e+01    0.3159232    0.2155704 -74.61  0.001362249    1.719    0.418
        42  -9.4571     64.2617      2.2143   2.0040348356e+01   6.8052565664e+01    0.1592096    0.1466896 -41.82 0.0005006277    1.287    0.223
        43  -9.5331     13.0592      2.3170   4.7552111807e+01   7.7002235416e+01    0.1651804    0.1336673   7.40 0.0004962289    1.159    0.137
        44  -9.0107    245.6909      1.2490   3.5663760601e+02   2.4611392196e+01    0.1218945    0.0640544 -59.07 0.0002058493    1.509    0.337
        45  -9.6772    152.2940      1.4139   3.0529044137e+00   4.6285735456e+01     0.239365    0.1153584  71.09 0.0006180416    1.861    0.463
        46  -9.6485     81.9876      1.1700   1.4297206184e+01   6.4100322465e+01    0.1795905   0.09085201  63.97 0.0004524615    1.832    0.454
        47 -10.4238      2.0933      2.0449   5.6654033164e+01   7.8165167659e+01    0.2458028    0.1453422 -27.38  0.001348819    1.459    0.315
        48  -9.7068     33.3699    126.1820   7.6741552465e+01   4.6037294514e+01    0.2093807    0.1202047 -84.96 0.0009454111    1.692    0.409
        49  -8.9012    249.3605    250.2929   4.6702865257e+01  -9.3102345022e+00    0.1099197   0.05872951   3.33 0.0007029688    1.699    0.412
        50 -11.3475    246.4924    119.9808   2.3199732380e+01   8.3669318073e+00    0.2468407    0.1993795 -36.75  0.001380271    1.100    0.091
        51  -9.4546     44.4698    120.2573   7.2113655551e+01   4.6418067517e+01     0.204421    0.1303201 -83.01 0.0003261457    1.569    0.363
        52  -9.5438     43.4109    116.2433   7.1790986892e+01   4.7621204621e+01    0.2659478    0.1339991 -81.31 0.0009175543    2.228    0.551
        53  -9.3216     37.5078    115.9971   7.3807274947e+01   4.8344431076e+01    0.2222722   0.08694795 -49.25 0.0008106053    2.594    0.615
        54 -10.6779      7.8728    114.8617   8.3947039190e+01   5.1178330565e+01    0.2813273    0.2415829 -61.86 0.0006508781    1.183    0.155
        55 -12.0703      2.6365    111.7262   8.5435274182e+01   5.2322717258e+01    0.4413067    0.3096591 -82.74 0.0009415658    1.161    0.139
        56 -11.3280      4.3687    105.5542   8.4203359104e+01   5.3846935334e+01    0.3982951     0.376783 -76.26  0.001982472    1.173    0.147
        57  -9.5457     79.0066    115.3894   5.9513963113e+01   4.2789311584e+01    0.2121126    0.1984531  53.09 0.0004931874    1.115    0.103
        58  -8.9603     67.6631    115.3058   6.3266741684e+01   4.4624256380e+01    0.1593999    0.1133596  71.98  0.000704061    1.673    0.402
        59 -10.7329     31.5827     97.1902   7.2689212899e+01   5.3988901994e+01    0.4479361    0.2370632  57.81  0.001869249    2.423    0.587
        60 -10.0060     28.9216    100.9049   7.4394105312e+01   5.3253453185e+01    0.2321884    0.1773013 -79.35 0.0004325855    1.186    0.157
        61 -11.6417     26.0336    106.8403   7.6457603311e+01   5.1929172874e+01     1.083113    0.5477196 -28.02   0.00426207    3.059    0.673
        62 -11.7883     22.5091    114.7363   7.8866057999e+01   5.0119640126e+01    0.5219769    0.3224207  10.18  0.001063497    2.111    0.526
        63 -11.4120     28.3125    113.4146   7.6637245752e+01   4.9958273031e+01    0.3833607     0.331825  13.77  0.001361595    1.396    0.284
        64  -9.8295     56.1316    121.9474   6.8478022944e+01   4.4501318925e+01    0.2305879    0.1859299  73.19 0.0005179895    1.275    0.216
        65  -9.9331     49.1605    112.1332   6.9018685387e+01   4.8033978791e+01    0.2981994    0.2006197  37.86 0.0008758393    1.584    0.369
        66 -12.4260     80.1208    107.9742   5.7367132566e+01   4.4519237867e+01    0.3891659     0.332485  27.41 0.0004603748    1.302    0.232
        67 -10.9366     15.6895    109.3551   8.0575402837e+01   5.2098641199e+01    0.3963726    0.3239259  11.18  0.001796775    1.510    0.338
        68  -9.3865     45.5059    105.5736   6.9046657508e+01   5.0237157317e+01    0.2597587    0.1259043 -60.67 0.0005241642    1.787    0.440
        69 -11.0523     51.8796     99.5850   6.5393872819e+01   5.1026112665e+01    0.6000885    0.3068716 -40.63  0.001178535    2.246    0.555
        70  -9.6890     85.8689    103.5944   5.4327675226e+01   4.4615849584e+01    0.2607326    0.2046206 -44.30 0.0004106012    1.263    0.208
        71 -10.1980     34.8554    103.3984   7.2591761182e+01   5.2005556068e+01    0.3482253    0.2132804 -23.57   0.00153342    2.297    0.565
        72 -11.3031     17.4770    100.7688   7.8737935166e+01   5.4251383023e+01    0.2819396    0.2248846 -83.59 0.0004502468    1.111    0.100
        73  -9.5958     64.5080     98.5675   6.0466765909e+01   4.9494963069e+01    0.5732769    0.1468861 -59.04  0.001596327    3.791    0.736
        74 -11.2074     68.5475     95.3588   5.8161402064e+01   4.9687264547e+01    0.4202095    0.2824481  36.10  0.001115767    1.595    0.373
        75 -11.5859      9.1252     96.9689   8.1406990720e+01   5.5827394061e+01    0.4548877    0.3668707  85.74 0.0007520037    1.167    0.143
        76 -11.7795    247.1721     96.3285   1.7892391614e+01   1.1860310435e+01    0.4873735    0.3183068  -5.68  0.002433564    2.233    0.552
        77  -9.2501    210.2617     98.4278   2.3395964655e+01   1.8628717191e+01    0.1658588    0.1408256  80.77  0.000319105    1.409    0.290
        78 -10.3314     79.7959     97.6443   5.4782009098e+01   4.7206739654e+01    0.4930327    0.2574644  56.38  0.001763343    2.650    0.623
        79 -10.4292     79.8825     84.4533   5.0912112997e+01   5.0439708291e+01    0.9265081    0.2706636 -43.97  0.002642892    3.602    0.722
        80 -11.3427     75.3210     79.0350   5.0867598858e+01   5.2563482833e+01    0.5877072     0.525696 -79.79  0.001687995    1.224    0.183
        81 -10.2170     82.7782     93.3528   5.2547409944e+01   4.7739007219e+01    0.3406007    0.2112397  37.30 0.0008142907    1.722    0.419
        82 -10.4144     78.3494     93.1243   5.4027681711e+01   4.8594495954e+01    0.4512619    0.3248875  43.10  0.002104613    1.469    0.319
        83 -12.0003    125.7225     94.8356   3.9797447414e+01   3.8443198503e+01    0.2931159    0.2661764 -46.23 0.0002776973    1.064    0.061
        84 -11.9601     21.9571     93.9562   7.5905265685e+01   5.5708553933e+01    0.6496996     0.380519  60.35  0.001116106    2.046    0.511
        85 -11.0986     26.8492     86.2526   7.2447511466e+01   5.7315906549e+01    0.5486805    0.4750499 -49.31  0.001891628    1.113    0.102
        86 -10.1713     18.3590     86.4644   7.6054220736e+01   5.7960856333e+01    0.3740313    0.2503607   7.97  0.001963456    1.841    0.457
        87 -10.2129     43.3343     94.3115   6.7484359321e+01   5.3483512630e+01    0.2843479    0.2587553  -8.59  0.001009338    1.259    0.206
        88 -11.2543     42.5637     90.7603   6.6979893256e+01   5.4505433338e+01    0.4491271    0.2381007  40.79  0.001143655    2.067    0.516
        89 -10.5132     35.4597     92.3164   7.0176753087e+01   5.4886514467e+01    0.3300403    0.2445043 -83.31  0.001210407    1.363    0.266
        90 -11.5189     98.8717     91.1743   4.6562001459e+01   4.5125002910e+01    0.3828445    0.2561365  51.62  0.000951527    1.611    0.379
        91 -11.5712      7.0685     88.3648   8.1043218087e+01   5.8205348999e+01     0.561042    0.3925887   3.17  0.003126019    1.781    0.438
        92  -9.7721     66.5707     88.5902   5.7037914899e+01   5.1719772427e+01    0.3169409    0.1929932 -29.67  0.001023746    2.185    0.542
        93  -9.7676     90.6865     85.8250   4.7591657043e+01   4.8041627378e+01    0.3803322    0.2961553  87.04  0.001725047    1.673    0.402
        94  -9.5645     51.8960     86.9464   6.2292927073e+01   5.4311849946e+01     0.216523    0.1785339 -42.96            0    1.175    0.149
        95 -11.1499     44.9011     84.7603   6.4566893329e+01   5.5778217984e+01    0.5246848    0.4903662   6.25  0.001781604    1.197    0.164
        96 -10.4507     37.2805     85.8403   6.7990749050e+01   5.6385346215e+01    0.3587752    0.2568473  -4.60  0.001787988    1.786    0.440
        97 -10.4051    143.1721     84.5196   3.2291745264e+01   3.6537053654e+01    0.2756833    0.2101841 -47.16 0.0003252912    1.261    0.207
        98  -9.7286    113.7344     83.8522   3.9761051225e+01   4.3576011110e+01    0.3035694    0.2154371  80.99  0.001236016    2.025    0.506
        99 -10.2083     67.2647     81.7516   5.4767354659e+01   5.3301638468e+01    0.3660884    0.2705908 -24.48  0.001714251    1.612    0.380
       100 -10.7875     88.4909     77.5909   4.5680702115e+01   5.0384319128e+01    0.6180036    0.2669739  47.85   0.00218499    2.526    0.604
       101 -10.3568     94.9460     76.6282   4.3186514382e+01   4.9272241868e+01     0.484074    0.2637689  46.64  0.001623556    1.916    0.478
       102 -11.1497     53.1895     74.4559   5.8204004637e+01   5.7257242010e+01    0.6412729    0.3254524 -60.03   0.00263481    1.951    0.487
       103 -10.2759     58.0049     77.7817   5.7225266075e+01   5.5736462701e+01    0.2725437    0.2330812 -70.55 0.0005859404    1.213    0.176
       104 -11.0048    246.7951     76.7817   1.3522160215e+01   1.4836486839e+01    0.3220934    0.1891072 -76.92  0.001532302    2.600    0.615
       105 -11.0362     14.2402     74.7648   7.5635819507e+01   6.1279471431e+01    0.3644666    0.2618337 -87.39  0.001979752    1.419    0.295
       106  -9.5011    102.8636     74.8750   4.0058792462e+01   4.7947543802e+01    0.2225647     0.190243 -78.94 0.0007940925    1.342    0.255
       107 -10.8659      1.9884     71.4452   8.0665678705e+01   6.2816544964e+01    0.4115326    0.1899974 -68.75  0.001966589    1.701    0.412
       108  -9.4397     24.5382     73.9626   7.0751531156e+01   6.0686601407e+01    0.2226653    0.1195507 -64.35  0.001033446    1.600    0.375
       109 -10.3450     81.1666     72.9014   4.6677372518e+01   5.2890020763e+01    0.3252489    0.2033614 -39.72  0.001409012    1.586    0.369
       110 -10.4953     34.9831     71.7901   6.5421749482e+01   6.0210719601e+01    0.4367743    0.1720036  36.49   0.00172314    2.754    0.637
       111  -9.6693     41.0090     72.7718   6.2984944058e+01   5.9277424876e+01    0.2400701    0.2154657   1.91 0.0008699966    1.227    0.185
       112 -10.9442     40.5366     69.0429   6.2100357276e+01   6.0250911026e+01    0.2685534    0.2596219 -55.08 0.0005098689    1.097    0.089
       113  -8.9490    154.4591     72.4362   2.6090242359e+01   3.6098829919e+01    0.1541182    0.1472976 -57.00 9.927167e-05    1.020    0.020
       114  -9.5393     92.2806     72.0629   4.2506699916e+01   5.0833798607e+01     0.224474     0.201577 -48.59 0.0008305043    1.083    0.077
       115 -10.4215    122.6527     68.7870   3.2296340377e+01   4.4605089120e+01    0.4447553    0.2571038  47.88  0.001264208    1.774    0.436
       116 -10.2730     13.6341     67.4748   7.4390028251e+01   6.3164711069e+01    0.3884709    0.1796997  11.08   0.00173172    2.675    0.626
       117  -9.8771     96.5063     65.5024   3.8769483988e+01   5.1311708768e+01    0.2620096    0.2374086 -35.34 -9.955798e-05    1.080    0.074
       118 -10.8216     92.6808     62.8442   3.9043874677e+01   5.2686519675e+01    0.4045493    0.2784777  58.10 0.0008738267    1.648    0.393
       119 -12.2076      6.4051     62.1525   7.6803391042e+01   6.4926033503e+01    0.7720587    0.4468977 -23.52  0.003986198    1.955    0.489
       120  -9.7472     12.4843     59.4985   7.3102611399e+01   6.5215749893e+01    0.2245645    0.1123556 -66.28 0.0007070749    1.709    0.415
       121  -9.9471      8.0199     55.5007   7.4461795751e+01   6.6464459510e+01    0.2813278    0.1821173  52.50  0.001496655    1.996    0.499
       122 -10.2460    201.7732     64.9142   1.5986244577e+01   2.5991996184e+01    0.2408456    0.1982031 -86.73 0.0002732605    1.293    0.226
       123  -9.8937    158.4941     63.0658   2.2374755679e+01   3.6743125883e+01    0.3007199    0.1948491  45.26 0.0008547672    1.725    0.420
       124  -8.9686    105.2939     63.6849   3.5366018019e+01   4.9700557126e+01    0.1556563    0.1220202 -75.50 0.0002196907    1.599    0.375
       125 -10.0847     51.3270     55.6920   5.2590802148e+01   6.1894221616e+01    0.5537685    0.2021467 -38.90  0.001867004    3.125    0.680
       126 -10.4079     51.2401     61.4015   5.4733573880e+01   6.0626691327e+01    0.3493891     0.250479  48.87  0.001745441    1.654    0.396
       127 -10.7624     40.5110     56.8785   5.8137103642e+01   6.3134206569e+01    0.3666538    0.1974705  36.95  0.001109625    2.044    0.511
       128 -11.1510     43.3355     60.7774   5.8147850144e+01   6.1869475979e+01    0.4251768    0.2184355 -52.28 0.0006340691    1.731    0.422
       129 -10.8572     46.4467     59.5052   5.6250123571e+01   6.1744036945e+01    0.2812361    0.2538261 -47.16 0.0007300886    1.064    0.060
       130  -9.9677     65.4691     61.5279   4.8656421653e+01   5.8309930377e+01    0.3016203    0.2055444 -61.98 0.0006186121    1.715    0.417
       131  -9.2021    113.6004     61.2209   3.2072001150e+01   4.8224781557e+01     0.222836    0.1486998 -27.62 0.0009559191    1.653    0.395
       132 -10.0890    124.5228     56.6785   2.7570227864e+01   4.6384934799e+01    0.2760513    0.2625331  11.30 0.0005267113    1.136    0.120
       133 -10.6351    118.9477     56.4290   2.8890005711e+01   4.7804926529e+01    0.7299752    0.4199264 -76.59  0.002229831    4.051    0.753
       134 -10.4425     31.1273     53.1145   6.1517111541e+01   6.5108396950e+01    0.4523112    0.1943639  23.17  0.001587158    2.685    0.628
       135 -10.5316     25.4875     55.6685   6.5285904863e+01   6.5090290986e+01    0.3967749    0.1978964 -40.53 0.0009029247    1.892    0.472
       136  -9.7144     29.8314     59.6969   6.4338037330e+01   6.3704231813e+01     0.361925    0.2640121 -84.12  0.001880797    1.704    0.413
       137 -10.4472     25.1310     59.6810   6.6691643702e+01   6.4167770835e+01    0.4371973    0.1447703  31.12   0.00152489    3.159    0.683
       138 -12.3096     74.8211     53.0771   4.1621696746e+01   5.8339945163e+01    0.5192145    0.4311979 -52.66  0.001264177    1.273    0.215
       139 -11.9361     72.8209     47.1713   3.9926479183e+01   5.9876701654e+01    0.5851994    0.3074943 -53.11  0.002020526    2.364    0.577
       140 -10.0404    156.9509     55.4740   2.0257637769e+01   3.8387774460e+01    0.4429702    0.2262315 -43.15  0.001520302    1.855    0.461
       141  -9.6667     21.0000     57.0092   6.8023217514e+01   6.5176014145e+01    0.3012463    0.1648739 -59.16  0.001310935    1.549    0.354
       142  -9.2086    100.6676     55.3366   3.3632415896e+01   5.2360357870e+01    0.1580838    0.1205353 -75.89 0.0007052096    1.738    0.425
       143 -11.0984     60.6517     48.4128   4.5478126814e+01   6.1905394596e+01    0.7592472    0.3261112 -39.04  0.002951487    2.306    0.566
       144  -9.6301     55.5042     50.4813   4.8624106747e+01   6.2353653968e+01    0.1779393    0.1373709  18.50 2.136717e-05    1.408    0.290
       145  -9.9744     52.0186     48.3374   4.9336007805e+01   6.3358658378e+01    0.2658075    0.2284777 -40.77 0.0006453341    1.106    0.096
       146  -9.5243    215.1155     51.8553   1.0940245553e+01   2.4930862625e+01    0.2045663    0.1571605 -58.11 0.0002836366    1.163    0.140
       147 -11.4809     10.8261     51.4783   7.1899848420e+01   6.7257161463e+01    0.2705767    0.1798757 -60.91 0.0002901956    1.268    0.211
       148  -9.8784     13.2361     46.7527   6.9164795896e+01   6.8200901493e+01    0.2782005    0.1152516 -43.02  0.001236523    2.094    0.522
       149 -10.0312    240.0045     51.2680   8.3134978061e+00   1.9760141037e+01    0.2069453     0.157289  73.54 0.0008869084    1.517    0.341
       150  -9.6094    122.9000     44.5017   2.3480862502e+01   4.8807922999e+01    0.2909121    0.1381817  54.04  0.001033155    2.033    0.508
       151 -10.1358    112.4095     50.8014   2.8511834523e+01   5.0383651805e+01    0.4505414     0.316999  17.84  0.001343578    1.969    0.492
       152 -11.9003    119.3816     37.7873   2.1727159774e+01   5.0707634482e+01    0.6487459     0.358761 -42.16  0.001807674    1.832    0.454
       153 -11.0146    117.3604     44.3819   2.4767412141e+01   5.0217702666e+01    0.5348119    0.3725254 -50.78   0.00195156    1.529    0.346
       154 -11.2400    111.2894     40.6802   2.4845094958e+01   5.2301203811e+01     1.128312    0.5105291 -51.08  0.003949394    2.900    0.655
       155  -9.6470     87.7515     56.6359   3.8337453448e+01   5.4983745490e+01     0.284834    0.1728254 -32.14 0.0007930759    1.742    0.426
       156  -9.1091    144.7348     50.6523   2.0988378334e+01   4.2273361435e+01    0.1492231    0.1192371  14.93  0.000404268    1.611    0.379
       157 -10.9345     45.2371     48.2251   5.2531524308e+01   6.4405542140e+01    0.4112838     0.269444  44.00  0.002051471    1.779    0.438
       158 -11.3984     44.5412     44.0317   5.1120588193e+01   6.5382536208e+01    0.4307015    0.3255364  44.10  0.000804371    1.542    0.351
       159 -10.3835     39.3507     44.2925   5.3871046570e+01   6.6054346054e+01    0.3119684    0.2166168 -23.93 0.0009252166    1.503    0.335
       160  -9.6930      2.1946     48.9752   7.6069658290e+01   6.8333583585e+01    0.2017913    0.1772794 -22.81 0.0007237306    1.216    0.177
       161  -9.4081     34.3983     45.7969   5.7080978541e+01   6.6366049413e+01    0.1982579    0.1471803 -23.59 0.0004974322    1.345    0.257
       162 -10.4303     30.1124     45.0972   5.9110481412e+01   6.7019842830e+01    0.4066778     0.230047 -20.86  0.001827538    2.281    0.562
       163 -10.7636     20.8330     46.3380   6.4714625507e+01   6.7680989650e+01    0.5099741    0.3392342 -44.46  0.002146201    1.273    0.215
       164 -10.1265     26.4524     43.0592   6.0344092646e+01   6.7863812621e+01    0.2676688    0.1807429  41.55 0.0007699792    1.807    0.447
       165  -9.1833     82.6635     46.6933   3.6057406052e+01   5.7941767556e+01    0.1523568    0.1136665   9.74 0.0007041325    1.674    0.403
       166 -10.0437    200.2644     45.3790   1.0911064781e+01   2.9232577905e+01    0.2413259    0.1712673 -89.33   0.00094916    1.495    0.331
       167  -8.9748    179.7394     45.3017   1.3488854835e+01   3.4198979794e+01    0.1487663   0.09835004 -59.59 0.0002072849    1.514    0.339
       168  -9.8381    138.8748     44.0515   1.9867807111e+01   4.4796043982e+01    0.4128882    0.1954958  36.55  0.001362218    3.339    0.700
       169  -9.4420    233.9873     45.0000   7.3795580468e+00   2.1829549005e+01    0.1905437   0.07330843  69.88 0.0008052924    2.962    0.662
       170 -10.2668    156.0838     42.0578   1.6059008074e+01   4.0651394834e+01    0.2837166    0.2378289 -25.29 0.0007332382    1.279    0.218
       171  -9.8493     57.1248     42.0469   4.4256359205e+01   6.3765777806e+01    0.2492243    0.1964787  34.77  0.001071343    1.312    0.238
       172  -9.2127    150.3260    248.3153   6.3778481051e+01   2.9612536599e+00    0.1171312   0.08009885   5.73 0.0007043662    1.670    0.401
       173 -10.8886     10.2962     30.8162   6.5347719789e+01   7.1962538567e+01    0.4957484    0.3474722 -22.87  0.002319118    1.354    0.262
       174  -9.4387     91.1722     41.2054   3.0838634528e+01   5.7010520384e+01    0.1921733    0.1724086 -77.76  0.000380268    1.299    0.230
       175 -10.0381     50.6690    245.6650   8.3255701017e+01   1.6373404849e+01   0.09978568   0.08831926 -14.40 0.0006071912    1.730    0.422
       176  -9.4424    195.0543     37.6525   9.3883756501e+00   3.1520684752e+01    0.1823253    0.1625002 -80.40 0.0003116117    1.095    0.087
       177 -11.6023    175.2104     33.5479   1.0579280064e+01   3.6936266634e+01    0.5538787    0.3290205 -42.83 -5.763867e-05    1.540    0.351
       178 -10.8251     61.2112     36.0498   3.9656352837e+01   6.4129337605e+01    0.4915929    0.3072737 -16.01  0.001605668    2.038    0.509
       179 -10.5737     23.0109     37.2333   5.9994212725e+01   6.9474783658e+01    0.4803864    0.1855464  36.21   0.00202391    2.962    0.662
       180  -9.5505    231.5521     37.4616   5.7936828615e+00   2.3325387334e+01    0.1313264     0.105661 -51.95 4.500317e-05    1.012    0.012
       181 -10.3003    152.9925     36.0450   1.4574382804e+01   4.2286351723e+01    0.2193685    0.2028505 -78.47            0    1.014    0.013
       182 -10.3693    131.8323    240.8560   6.6514403106e+01   6.6292688415e+00    0.1666507    0.1260146  49.45  0.001078466    1.324    0.245
       183 -10.3385     67.7701    240.9350   7.9524420084e+01   1.5177429038e+01     0.162398    0.1534976  32.41  0.001008427    1.316    0.240
       184 -12.0499    104.1994     32.8930   2.3484290730e+01   5.5192692979e+01    0.7194012    0.3496298  44.94 0.0004737777    2.102    0.524
       185 -12.4003    114.5849     24.9968   1.7685674244e+01   5.3637936421e+01    0.8905628    0.3245802  50.60  0.002442982    2.579    0.612
       186 -10.3684     68.3225     32.4536   3.4963606056e+01   6.3354433339e+01    0.3732298    0.2688384  49.67   0.00132636    1.454    0.312
       187 -12.0941     58.0275     29.9766   3.8054512995e+01   6.5753481615e+01    0.3958878    0.3014869   1.12  0.001449155    1.422    0.297
       188 -11.8568     49.4475     30.1856   4.2161478791e+01   6.7241175934e+01    0.6587901     0.340029  34.77   0.00240303    2.020    0.505
       189 -10.1322     76.0152    240.0177   7.7777349075e+01   1.4305275719e+01    0.1685725    0.1436329  -8.20  0.001135206    1.679    0.404
       190 -10.4019     13.9876     22.9705   5.9349097334e+01   7.3264978473e+01    0.2828079     0.191042  10.75  0.001675445    1.554    0.356
       191 -10.3586    147.4969    239.0804   6.3182048189e+01   4.7259352979e+00    0.1584078    0.1205187 -47.46  0.001035795    1.604    0.377
       192 -10.8371      9.6480     19.5071   6.0720434172e+01   7.4325781286e+01    0.3274021    0.2081349 -16.82  0.001029935    1.571    0.363
       193  -9.0081     15.6738    233.6543   8.9500246645e+01   2.2409684463e+01   0.09746359   0.08439073 -47.63 0.0007050301    1.746    0.427
       194  -9.2545     80.6556    230.3149   7.5974591529e+01   1.5496534932e+01    0.1331033   0.07530466  57.86 0.0007047775    1.713    0.416
       195 -11.4746    183.0217     25.6144   7.3022586970e+00   3.5979959148e+01    0.5051349    0.3426923 -31.78  0.002081072    1.455    0.313
       196  -9.8635    187.5100     22.9586   6.0673666579e+00   3.5191922313e+01    0.2208683    0.1856464  63.65 0.0006273554    1.299    0.230
       197 -10.7305    160.2864     29.3739   1.1274622320e+01   4.1271010264e+01    0.3414791    0.2626369  16.36  0.001010935    1.738    0.425
       198 -11.6869    164.2215     27.7272   1.0207728103e+01   4.0464314652e+01    0.4038931    0.2899748 -52.77 0.0003721654    1.324    0.245
       199  -9.4925     86.3787     30.7229   2.7690998864e+01   5.9726998125e+01    0.2011078    0.1345342 -16.20  0.000943432    1.691    0.409
       200  -9.5987     32.9300     31.2841   5.1491269056e+01   6.9526596612e+01    0.1791475    0.1546436 -11.55  0.000291013    1.060    0.057
       201 -12.0875    125.9908     28.1235   1.6559824278e+01   5.0326712928e+01    0.4966429    0.3816049 -89.25  0.001491422    1.409    0.290
       202 -11.7775     25.9290     28.9116   5.4479890070e+01   7.0853958179e+01    0.5646491    0.3675429 -33.87  0.003140699    1.370    0.270
       203 -10.0482    230.0358     27.0383   3.4270011247e+00   2.4949001898e+01    0.2232679    0.1773046  68.37   0.00109916    1.462    0.316
       204 -10.8002    147.9937     22.1397   1.0619088200e+01   4.5325524559e+01    0.4253206    0.1819667  45.03  0.001571496    2.855    0.650
       205 -11.2939    144.7535     25.7449   1.2365224152e+01   4.5744666360e+01    0.4954843    0.2221793  81.95  0.001731832    2.893    0.654
       206  -9.9855    206.7186     25.9835   5.0704614940e+00   3.0254516781e+01    0.1895088    0.1525451 -50.87 0.0003968522    1.072    0.067
       207  -9.6224     98.2084     26.4021   2.2255350403e+01   5.7533647376e+01    0.1998927     0.136627  71.97 0.0007365705    1.641    0.391
       208 -11.1639    155.2777     23.3115   9.9820932218e+00   4.3298784585e+01    0.4856682    0.3003866 -31.91  0.002338233    1.612    0.380
       209  -9.5124    248.8520    223.9931   4.2722116720e+01  -6.3936931502e+00    0.1894961   0.09772959  -8.91  0.001083335    2.011    0.503
       210 -10.4892     59.7691     22.8113   3.3539017128e+01   6.6535760155e+01    0.2719409    0.2159422 -30.05 0.0007509084    1.253    0.202
       211  -9.2117     45.5732     24.5356   4.1108028673e+01   6.8844941063e+01     0.133026    0.1170034  -8.28  4.56277e-05    1.014    0.014
       212  -9.7745    169.1449     23.4360   8.2359883943e+00   3.9722812459e+01    0.2686384    0.1226403  65.62  0.001131216    2.080    0.519
       213 -10.8230     38.8434     22.1843   4.3369774967e+01   7.0315903202e+01    0.2493122    0.1993336 -17.07 0.0003682878    1.129    0.114
       214  -9.2000    164.5729    211.7806   5.5889381221e+01   6.6083988114e+00    0.1525006    0.1252455 -54.74 0.0005386149    1.542    0.351
       215  -8.9184    223.6929     22.2885   2.7572034730e+00   2.6881850638e+01    0.1366925   0.07642341 -58.65 0.0003006968    1.573    0.364
       216 -10.8180    178.7208     20.7158   6.3276442350e+00   3.7624939482e+01    0.4571071    0.2566683  39.61  0.001990259    2.523    0.604
       217 -11.4873    188.9186     27.4173   7.1881494990e+00   3.4312235106e+01    0.5052759    0.3517566  44.92  0.002605412    1.789    0.441
       218 -10.7984      8.8950    211.1390   8.9955260700e+01   2.7619304272e+01    0.1988408    0.1206397  61.53  0.001196164    1.264    0.209
       219  -9.4535    216.5201     20.0840   2.7527612496e+00   2.8723147418e+01    0.1922244    0.1100661 -36.22 0.0005605288    1.522    0.343
       220  -9.0614     61.5013    206.5746   7.8020770813e+01   2.2802376062e+01    0.1295683     0.107325  58.94 9.835976e-05    1.012    0.012
       221  -9.9262     74.6870     19.4889   2.6063261391e+01   6.3879118554e+01    0.2704167    0.1857869   8.29 0.0009715954    1.723    0.420
       222  -9.6589     46.6305     20.1594   3.8128323537e+01   6.9358978408e+01    0.2141182    0.1780066  43.77 0.0007504837    1.349    0.259
       223  -9.9206     78.7821    204.3301   7.3804640865e+01   2.0980555274e+01     0.266555    0.1797181  68.12 0.0008339369    1.524    0.344
       224 -10.2930      5.3746    200.8013   9.0278680037e+01   3.0164114003e+01    0.1632722   0.09275714 -75.41 0.0005905851    1.691    0.409
       225 -10.3743    238.5804     16.6852   4.3553974694e-01   2.4378239127e+01    0.2338578     0.162844 -60.39 0.0005093724    1.168    0.144
       226 -11.9343      4.5228    184.2126   8.9736515604e+01   3.3977070081e+01    0.5981058    0.3395941  80.51   0.00341119    1.455    0.313
       227  -9.5965     28.3677    175.8187   8.3389597780e+01   3.3754268571e+01    0.1850083     0.104871 -68.80 0.0008360893    1.672    0.402
       228  -9.6282    211.1627     16.1213   2.1594987807e+00   3.0384465167e+01    0.1781322    0.1608864 -52.55 0.0003191713    1.159    0.137
       229 -10.4965    199.2391     17.3396   3.4285837439e+00   3.3015508931e+01    0.2382142    0.1882133 -64.84 0.0003780692    1.084    0.078
       230  -9.4674     75.8382     14.8485   2.3261515669e+01   6.4184799498e+01    0.1718191    0.1591829 -69.06 0.0003020148    1.292    0.226
       231 -10.4164     15.8746    174.3262   8.6437109975e+01   3.5324413907e+01    0.2387815    0.1476907  81.13  0.001326075    1.380    0.275
       232 -10.4053      9.6963    155.3615   8.6787113817e+01   4.0535370398e+01    0.2512078    0.1260432  75.41   0.00120391    1.833    0.454
       233 -11.5972      8.7235    166.7867   8.7778680571e+01   3.7778386770e+01    0.3348218    0.1919325  29.97  0.001464729    1.854    0.461
       234 -11.8832     11.5246    162.3052   8.6766540245e+01   3.8649569028e+01    0.4446322    0.2629948 -88.60  0.002182428    1.431    0.301
       235 -11.6302     13.7878    157.9403   8.5858537658e+01   3.9549012797e+01    0.5020972    0.1962927  89.54  0.002069104    2.472    0.595
       236 -10.3398     18.1576    164.8713   8.5197704186e+01   3.7432308928e+01    0.2139079    0.1511537  70.05  0.001238548    1.206    0.170
       237 -10.4258    205.0936    163.3038   3.9085812060e+01   8.3103739921e+00    0.2345151    0.1687012 -22.58   0.00068181    1.299    0.230
       238  -9.7890     55.5902    158.7912   7.4342809537e+01   3.4871145950e+01    0.2109267    0.1252343 -86.49  0.000955792    1.759    0.432
       239  -9.4676     31.5156    157.0178   8.0898159152e+01   3.8118416468e+01    0.2106183   0.09433181  76.65 0.0008104386    2.653    0.623
       240  -9.3620    104.0000    154.9822   6.0307234411e+01   2.8427795347e+01     0.248432   0.08463763 -56.36 0.0008036509    2.951    0.661
       241 -10.8505    120.3952     11.6773   1.1118132721e+01   5.3611222438e+01    0.2465041    0.1190669  67.12 0.0008047111    1.899    0.473
       242 -11.2045     46.9891    148.1061   7.5435693749e+01   3.8703856073e+01     0.781689     0.426221 -51.95   0.00351806    1.935    0.483
       243 -10.9419    186.6950     15.0778   3.9074871883e+00   3.6284446740e+01    0.2480284    0.1868881 -69.39 0.0004043831    1.190    0.160
       244  -9.2728     65.9248     10.5093   2.4277855512e+01   6.6853744955e+01     0.202819    0.1236858  53.56 0.0005839909    1.575    0.365
       245 -12.6542     22.8813    148.8486   8.2566780867e+01   4.1063815017e+01    0.5769735    0.3040586 -43.67  0.001495132    2.476    0.596
       246  -9.5716      4.5114    153.5347   8.8077099826e+01   4.1394904921e+01    0.1320008    0.1030463  79.03  7.37766e-05    1.031    0.030
       247  -9.7362     61.2721    152.0921   7.1809980729e+01   3.5840522207e+01    0.2083731    0.1764579  89.50 0.0004673108    1.084    0.077
       248 -11.9039      4.3267    143.0038   8.7436454964e+01   4.4077470201e+01    0.7964004    0.3449839  55.92   0.00350686    2.201    0.546
       249  -9.9468     16.2487    147.8430   8.4384545697e+01   4.1910178239e+01     0.210171    0.1519791  75.72 0.0006358985    1.199    0.166
       250  -9.2488    104.1767    146.9055   5.8708551468e+01   3.0366503398e+01    0.1942722     0.177193 -15.03 0.0002298975    1.273    0.214
       251 -10.6247     33.0644    144.4557   7.9125498292e+01   4.1214169924e+01    0.2735199    0.2344722  76.95 0.0007782897    1.055    0.052
       252 -10.3309     40.6130    139.1126   7.6180002777e+01   4.1812541467e+01    0.4203402    0.2366066 -71.97   0.00175426    1.590    0.371
       253 -10.8768     80.2381    138.6201   6.3977466413e+01   3.6534107991e+01    0.2880132    0.2538722  56.59 0.0004075592    1.129    0.114
       254 -11.8535     23.1140    136.5524   8.1274207524e+01   4.4255911386e+01    0.5816914    0.3819619  55.71  0.001388957    1.493    0.330
       255 -10.8976     30.0908    132.8571   7.8670996475e+01   4.4580454163e+01    0.3377537     0.275341 -38.28  0.001051247    1.466    0.318
       256 -11.1499     12.6326    135.7760   8.4409727786e+01   4.5334948955e+01    0.5576026    0.2669049 -58.25  0.002604038    1.970    0.492
       257  -9.7110     32.0275    137.5189   7.8630864206e+01   4.3149496897e+01    0.1934923    0.1378036  30.44 0.0007888256    1.555    0.357
       258  -8.9817    103.6998    131.2899   5.5556381669e+01   3.4323012345e+01    0.1570165    0.1205547  78.06 0.0002361327    1.562    0.360
       259  -9.4340     22.8543    126.8879   8.0276741376e+01   4.6842041023e+01    0.1877376     0.140412  75.65  0.000413737    1.255    0.203
       260 -10.7393     10.4131    126.5986   8.4261500004e+01   4.7908120244e+01    0.2473461    0.2070966 -76.62  0.001155385    1.095    0.087
       261  -9.6858      2.1569    125.9059   8.6823279443e+01   4.8639381871e+01    0.2183038    0.1472735  73.27  0.001224272    1.335    0.251
       262 -10.7933    104.6061    122.4488   5.3246062126e+01   3.6352254822e+01    0.3952021     0.337107  55.47  0.001482702    1.209    0.173
       263  -9.6253     49.9782    122.6892   7.0669871129e+01   4.5097979604e+01    0.2203145    0.1206727  -5.46 0.0007043278    4.228    0.763
