#   1 NUMBER                 Running object number                                     
#   2 MAG_AUTO               Kron-like elliptical aperture magnitude                    [mag]
#   3 X_IMAGE                Object position along x                                    [pixel]
#   4 Y_IMAGE                Object position along y                                    [pixel]
#   5 X_WORLD                Barycenter position along world x axis                     [deg]
#   6 Y_WORLD                Barycenter position along world y axis                     [deg]
#   7 A_WORLD                Profile RMS along major axis (world units)                 [deg]
#   8 B_WORLD                Profile RMS along minor axis (world units)                 [deg]
#   9 THETA_WORLD            Position angle (CCW/world-x)                               [deg]
#  10 FWHM_WORLD             FWHM assuming a gaussian core                              [deg]
#  11 ELONGATION             A_IMAGE/B_IMAGE                                           
#  12 ELLIPTICITY            1 - B_IMAGE/A_IMAGE                                       
         1 -16.3799     51.3209    149.4586   1.1628961166e+02   3.8353200210e+01      3.02137      2.02669  81.80  0.008674265    1.398    0.285
         2 -13.0589    126.6849     12.2111   5.5193066421e+01   5.2523601131e+01    0.5203915    0.2613135  54.18  0.002246432    1.816    0.449
         3 -12.0608    107.3335      7.9176   5.7517697223e+01   5.7719251628e+01    0.2464759    0.1985285  -7.36 0.0009623527    1.230    0.187
         4 -11.2337    110.0622      2.8231   5.4562482606e+01   5.7543567105e+01    0.3222038    0.1655729  15.35  0.001303686    2.536    0.606
         5 -12.9393     57.7321      4.2992   7.1088678449e+01   6.8498942565e+01    0.8605301    0.3101752  27.74  0.002306208    7.159    0.860
         6  -9.9375    142.7765      2.3772   4.8428764433e+01   4.9291331775e+01    0.1428887   0.09762628 -48.06 0.0005145246    1.602    0.376
         7 -12.4418    112.9447    151.2942   1.0151722166e+02   2.8815564044e+01    0.3766789    0.2196062  64.44  0.001573571    2.207    0.547
         8 -16.0800    165.0295    115.2149   8.1267286833e+01   2.5868334778e+01     2.615874     1.464999  38.28   0.01002445    1.952    0.488
         9 -17.7589    224.7608    170.7061   8.2127837289e+01   4.2259739155e+00     9.391014     1.577299 -36.08   0.02680503    5.786    0.827
        10 -11.7400     88.4830     67.3518   8.7709377418e+01   5.2189131601e+01    0.4059787    0.2419717 -41.59  0.001213605    1.557    0.358
        11 -10.7958     85.4177     49.3560   8.2216937478e+01   5.6380543215e+01    0.2730557    0.1302374 -36.43  0.001014492    2.004    0.501
        12 -12.1170    243.6052    137.1008   7.1826951082e+01   5.5922661420e+00    0.2178592    0.1686171 -15.22  0.001250142    1.144    0.126
        13 -15.6850    184.1712     45.9210   5.7100093786e+01   3.3264020932e+01     1.501255     1.111681  64.88  0.007261653    1.382    0.276
        14 -10.5686     56.1516     40.8660   8.9838483445e+01   6.2862454611e+01    0.1924524    0.1674708 -45.98   0.00047099    1.179    0.152
        15 -11.0937     86.7641     38.5345   7.7345871411e+01   5.8077389463e+01    0.2656433    0.1590201 -26.38   0.00060249    1.694    0.410
        16 -15.3195     68.2048    142.6002   1.1115539349e+02   3.7800957329e+01     1.320488    0.7345136 -81.45  0.006203104    1.960    0.490
        17 -12.7229    104.1586    124.7717   9.8512255413e+01   3.6330406913e+01    0.4767196     0.332353  22.54  0.001212024    1.930    0.482
        18 -12.3732    101.5347     22.1889   6.5545322294e+01   5.7421379704e+01     0.318665    0.2286908  -4.27  0.001436063    1.479    0.324
        19 -11.7865    144.9479     19.7039   5.4698302139e+01   4.7002760438e+01    0.3848824    0.2483592  27.37  0.001151197    1.817    0.450
        20 -18.0795    193.8439     66.7641   6.1888574807e+01   2.7638263783e+01     13.18657     11.25105  -5.36     0.067201    1.274    0.215
        21 -12.9646     11.3496    206.1117   1.2903081281e+02   3.0650652492e+01    0.2374009    0.1864679  55.04   0.00191527    1.304    0.233
        22 -16.2970     15.0081    167.8101   1.2625740191e+02   3.8002064869e+01     2.106416     1.247953 -50.90  0.007230014    2.271    0.560
        23 -16.0355     79.1017    136.9201   1.0744867579e+02   3.7583574745e+01     1.714052     1.415258  15.76  0.005091444    1.616    0.381
        24 -12.3751    100.6214    143.8204   1.0317274948e+02   3.2591086096e+01    0.2857567    0.2283336 -82.12 0.0007501761    1.266    0.210
