#   1 NUMBER                 Running object number                                     
#   2 MAG_AUTO               Kron-like elliptical aperture magnitude                    [mag]
#   3 X_IMAGE                Object position along x                                    [pixel]
#   4 Y_IMAGE                Object position along y                                    [pixel]
#   5 X_WORLD                Barycenter position along world x axis                     [deg]
#   6 Y_WORLD                Barycenter position along world y axis                     [deg]
#   7 A_WORLD                Profile RMS along major axis (world units)                 [deg]
#   8 B_WORLD                Profile RMS along minor axis (world units)                 [deg]
#   9 THETA_WORLD            Position angle (CCW/world-x)                               [deg]
#  10 FWHM_WORLD             FWHM assuming a gaussian core                              [deg]
#  11 ELONGATION             A_IMAGE/B_IMAGE                                           
#  12 ELLIPTICITY            1 - B_IMAGE/A_IMAGE                                       
         1 -17.2436    204.5128    156.0649   1.0230439006e+02   9.6753926850e+00     4.004941     2.405168 -42.42   0.01383439    1.764    0.433
         2 -16.6161     99.9412    155.8177   1.2534242686e+02   3.0577792994e+01     3.026028     1.948578 -68.73   0.01509709    1.594    0.372
         3 -14.1413     85.2738     12.0015   8.6873245179e+01   6.1711143431e+01    0.8295472    0.6434447  10.73  0.004119959    1.214    0.177
         4 -11.9084    188.7592      2.0824   6.3614778797e+01   3.7363821962e+01    0.4946748    0.1775976  80.57  0.001731329    3.093    0.677
         5 -12.3220    194.5011    234.5102   1.1825768972e+02  -3.2927124633e-01    0.4210177    0.1725655  44.56   0.00205108    2.025    0.506
         6 -14.9440    229.4689    244.9355   1.1378662060e+02  -7.0585544944e+00    0.8502637    0.6053004   0.29  0.004533376    1.423    0.297
         7 -12.7676    168.0655    250.1483   1.2503066496e+02   1.9378756642e+00    0.6287975     0.138275  43.22  0.002382488    3.437    0.709
         8 -12.8868    139.0784    248.5630   1.2993182618e+02   6.7802650627e+00    0.3102478    0.2840852 -42.13  0.002374694    1.487    0.327
         9 -11.8840    125.0295    249.5187   1.3249863837e+02   8.8369204899e+00    0.1671865    0.1430366  69.72 0.0009891925    1.205    0.170
        10 -19.8012     52.0563    145.0254   1.3542184653e+02   3.9958295189e+01     18.56664     3.408911 -66.74   0.05540236    4.985    0.799
        11 -11.9150    187.4936    232.4864   1.1921530210e+02   1.0981676393e+00    0.2436033    0.1940946  36.87  0.001093783    1.027    0.026
        12 -11.6450    144.4886    231.5044   1.2694664401e+02   8.4555482521e+00    0.1242158   0.09818508  49.32 0.0002100904    1.014    0.014
        13 -13.4754    125.4297    229.2961   1.3022029804e+02   1.1939673116e+01    0.3416782    0.2547303  82.14   0.00218854    1.501    0.334
        14 -11.8120     11.2608    249.4516   1.5123460422e+02   2.3662317311e+01    0.1914418    0.1043644 -74.78  0.001425356    1.896    0.473
        15 -11.6134    110.1405    222.8806   1.3236251846e+02   1.5473793006e+01    0.1936659     0.139373  65.63 0.0006159886    1.243    0.195
        16 -12.2825    187.2056    219.8854   1.1738506963e+02   2.8868155494e+00    0.2669304    0.2162315 -41.75  0.001729155    1.508    0.337
        17  -9.0577     23.5432    221.4582   1.4798219137e+02   2.7249113109e+01     0.103525   0.07898459  75.90 9.559895e-05    1.143    0.125
        18 -12.1848    112.2462    212.0702   1.3070120648e+02   1.7064117425e+01    0.4482808     0.253353  80.23  0.002098411    2.629    0.620
        19 -13.0151    117.7644    217.3046   1.3025719754e+02   1.5228086681e+01    0.3683052    0.3140996  49.25  0.001379317    1.149    0.130
        20 -11.8120    122.4875    218.5173   1.2949259752e+02   1.4241487655e+01     0.204147    0.1443279  29.52 0.0008788566    1.681    0.405
        21 -12.1289    197.6835    216.6019   1.1494118197e+02   1.5330266105e+00    0.5770085    0.2005297  35.54  0.002286031    2.867    0.651
        22 -13.2369    166.9838    180.5141   1.1473826324e+02   1.2979280968e+01     0.741577    0.4128104  25.59  0.003016149    2.587    0.613
        23 -12.1856    158.8069    177.4219   1.1588129275e+02   1.5147778807e+01    0.4214047    0.3934734 -49.27  0.001834234    1.184    0.155
        24 -14.2084    133.7532    210.8091   1.2630056265e+02   1.3689328454e+01    0.8033672    0.5397532  45.50  0.004628806    1.256    0.204
        25 -15.2225    138.5745    196.8396   1.2332946620e+02   1.5348686549e+01     1.188345    0.7982171 -69.52  0.004404873    1.844    0.458
        26 -14.4615    151.4925    204.0069   1.2180349775e+02   1.1743102381e+01    0.8868755    0.6689538  25.55  0.003136155    1.498    0.332
        27 -13.3512    150.8766    196.6235   1.2078350014e+02   1.3148493940e+01    0.5609284    0.4250521  50.36   0.00194287    1.160    0.138
        28 -11.6348    169.5198    210.2431   1.1922860185e+02   7.4619882115e+00    0.2543752    0.1597946  43.35  0.001169642    1.339    0.253
        29 -12.2477    189.6217    235.1889   1.1922372371e+02   3.8742330712e-01     0.588768    0.3072786 -17.51  0.002498086    4.206    0.762
        30 -12.2741    224.4536    205.0868   1.0816992734e+02  -1.5151101620e+00       0.4946    0.2451874  38.06  0.002299483    1.752    0.429
        31 -13.0272     91.9983    203.1649   1.3368105542e+02   2.1934563769e+01    0.4247452     0.228339 -84.44  0.001851655    2.362    0.577
        32 -12.3441     89.8421    197.1254   1.3342146412e+02   2.3450216259e+01    0.3634613    0.1442298  53.09  0.001148435    2.376    0.579
        33 -11.1169     12.2118    203.8531   1.4900166515e+02   3.1700780686e+01    0.1772392   0.09375167 -71.09   0.00115202    1.799    0.444
        34 -14.9984    147.9947    181.1490   1.1882759925e+02   1.6537039308e+01     1.383936    0.9818273  69.14  0.005440262    1.659    0.397
        35 -12.9167     30.0746    201.3605   1.4559642662e+02   3.0368171537e+01    0.3562869    0.2196056  87.32  0.001417849    1.324    0.245
        36 -11.0624     25.0752    196.6006   1.4621433738e+02   3.1838106196e+01    0.3354077    0.1370028 -80.99  0.001566594    2.151    0.535
        37 -12.7660    196.9206    192.9325   1.1105151590e+02   5.1519547328e+00    0.6598805    0.4251458 -10.70  0.003169421    2.210    0.547
        38 -16.1170    168.9874    136.6164   1.0526993413e+02   2.0928409260e+01     2.908509     1.622647 -40.27  0.009867732    1.870    0.465
        39 -15.8954    188.2751    153.4034   1.0494733171e+02   1.3548151989e+01     2.978271      1.54061 -21.95   0.01041609    3.334    0.700
        40 -13.3898    241.9781    242.3353   1.1133048801e+02  -8.6304182741e+00    0.4201816    0.2334307  15.72  0.002135533    1.843    0.457
        41 -15.8629    116.1047    182.0180   1.2583388184e+02   2.2210434104e+01     1.391469     1.302369 -21.78  0.005154192    1.399    0.285
        42 -12.3266    241.4976    238.4724   1.1081030453e+02  -8.1601976599e+00    0.2202074    0.1639704  32.52   0.00128498    1.224    0.183
        43 -15.9528    222.0150    155.2617   9.8857312850e+01   6.2444093750e+00     1.983439     1.323155 -54.87   0.00820369    2.045    0.511
        44 -14.4360    103.4682    135.3572   1.2070710062e+02   3.4581703452e+01     1.386798    0.4772775 -57.15  0.004772513    2.995    0.666
        45 -11.7839    242.0880    131.2525   9.0063141286e+01   5.9905407451e+00    0.3371092    0.1974193 -16.15  0.001495109    2.051    0.512
        46 -14.2048    191.1843    124.3832   9.7673916173e+01   1.8247748176e+01     1.389866    0.6845254  38.75  0.004824962    2.279    0.561
        47 -14.1796    114.9742    121.1037   1.1464455769e+02   3.5677214403e+01     2.058348     0.777199 -50.03  0.007279045    2.599    0.615
        48 -13.8040    109.9787    112.2836   1.1388452558e+02   3.8619919131e+01    0.7414991    0.4367408  34.56    0.0030061    1.950    0.487
        49 -13.1543    226.3311    117.6624   8.9507919544e+01   1.1482481127e+01    0.7310538    0.5895905 -18.02  0.002538005    1.255    0.203
        50 -14.4841    214.4852    108.7901   8.9385859054e+01   1.5641363673e+01     1.236763    0.9195474 -67.99  0.003821176    1.737    0.424
        51 -14.5251    203.7454     91.1907   8.6751626778e+01   2.1214882704e+01     1.473852    0.9622423 -48.64  0.005336135    1.585    0.369
        52 -11.1462    244.4776    119.9944   8.7096748639e+01   7.2505568687e+00    0.2213718    0.1282071 -32.34    0.0010345    1.597    0.374
        53 -12.5757     10.8413    103.7543   1.4101030790e+02   5.3256542874e+01    0.5843795    0.3405778  63.21  0.003398524    1.959    0.490
        54 -12.7767      8.2357     97.2543   1.4092775310e+02   5.4883946052e+01    0.5398867    0.3806268  75.77  0.003123049    1.475    0.322
        55 -13.5103    187.0777     89.7407   8.9469627568e+01   2.5586994975e+01     1.207685     0.606963 -23.27    0.0041833    2.743    0.635
        56 -14.5803    192.9209     77.1802   8.4869546341e+01   2.6293242636e+01     1.342734    0.7857285  54.83  0.004149359    1.697    0.411
        57 -13.8394    186.7553     69.4313   8.3783249635e+01   2.9155329625e+01     0.779537    0.6443131 -68.88   0.00245686    1.314    0.239
        58 -12.9286     16.6241     84.5117   1.3637472030e+02   5.7192061729e+01    0.5653182    0.3296628 -59.91  0.002279987    1.336    0.251
        59 -12.7236    172.8731     73.6611   8.7696477600e+01   3.2004300769e+01    0.4708645    0.3637015 -43.61   0.00155345    1.300    0.231
        60 -13.6417    172.2621     67.4696   8.5968529853e+01   3.3213367720e+01    0.7729853    0.5788751 -79.92  0.003265296    1.665    0.400
        61 -12.6331     93.0267     62.0322   1.0440794199e+02   5.2476993425e+01     0.526904    0.3208376  32.21  0.002427161    1.850    0.459
        62 -12.5222    248.1063     57.8399   7.1663358222e+01   1.5813622158e+01    0.4578705    0.1753149 -36.77  0.001837881    2.236    0.553
        63 -13.6675     22.2219     48.7757   1.2635374215e+02   6.4464160719e+01    0.6487297    0.5327204 -81.16  0.002960309    1.490    0.329
        64 -12.3128    159.5995     48.4215   8.2534819393e+01   3.9511666333e+01    0.3151748    0.2855985 -87.85  0.001024543    1.157    0.136
        65 -11.7762     13.3405     36.3774   1.2652040819e+02   6.7555375744e+01    0.3618292    0.2067005 -59.11  0.002192148    1.535    0.349
        66 -13.5349    172.0962     33.0821   7.5319009328e+01   3.8359654937e+01    0.6178472    0.5258721  65.30  0.002351805    1.112    0.101
        67 -12.8678    176.1253     26.0086   7.2457033234e+01   3.8167474568e+01    0.5536254    0.3820975  14.36  0.001549841    1.961    0.490
        68 -10.4456     17.6123    238.1220   1.4978248391e+02   2.4914227969e+01    0.1182451   0.07691475 -80.66 0.0005505261    1.516    0.340
