#   1 NUMBER                 Running object number                                     
#   2 MAG_AUTO               Kron-like elliptical aperture magnitude                    [mag]
#   3 X_IMAGE                Object position along x                                    [pixel]
#   4 Y_IMAGE                Object position along y                                    [pixel]
#   5 X_WORLD                Barycenter position along world x axis                     [deg]
#   6 Y_WORLD                Barycenter position along world y axis                     [deg]
#   7 A_WORLD                Profile RMS along major axis (world units)                 [deg]
#   8 B_WORLD                Profile RMS along minor axis (world units)                 [deg]
#   9 THETA_WORLD            Position angle (CCW/world-x)                               [deg]
#  10 FWHM_WORLD             FWHM assuming a gaussian core                              [deg]
#  11 ELONGATION             A_IMAGE/B_IMAGE                                           
#  12 ELLIPTICITY            1 - B_IMAGE/A_IMAGE                                       
         1 -16.8277    242.9842    111.2936   1.4316674057e+01   1.4060488411e+01     7.551914     1.489066 -43.48   0.02721837    4.151    0.759
         2 -14.9130    247.1868     63.4436   4.6964202638e+00   1.9872656485e+01     1.766267    0.7321826 -48.70  0.009749112    1.878    0.468
         3 -14.0702     44.1606     23.5837   3.2570338838e+01   7.0300446687e+01     1.181777    0.9882712 -31.82  0.006836781    1.292    0.226
         4 -12.7814    178.6757     23.1457   1.2270485519e+00   3.7861055226e+01    0.4794599    0.3163693 -70.71  0.002623281    1.338    0.253
         5 -13.0201     40.1678     10.4190   2.6614217636e+01   7.3064383240e+01    0.7017553    0.3487144 -39.61  0.003267646    2.262    0.558
         6 -14.1202    158.8641      3.7007   3.5748996566e+02   4.4450643539e+01     1.892882    0.4147977  76.43   0.00654164    4.003    0.750
         7 -14.2030    165.2029     10.8553   3.5902873576e+02   4.2262520756e+01     0.826185    0.4576173  75.53  0.004426477    1.695    0.410
         8 -11.7633     78.0139     13.7852   1.3382502513e+01   6.3825730626e+01    0.3134112    0.1986577   6.12  0.001422201    2.436    0.589
         9 -13.6801    156.5537     12.0495   1.0575644648e-01   4.4171227716e+01    0.7218593    0.5360153  49.17  0.004218582    1.690    0.408
        10 -10.7175    231.5078      9.2047   3.5477375261e+02   2.8800196276e+01    0.1881506    0.1339019 -76.84  0.001167958    1.289    0.224
        11 -13.6303      6.8439      4.6422   5.0227794124e+01   7.9542267846e+01     1.054431    0.4556203  38.66  0.004853111    2.439    0.590
        12 -11.4511    227.3690     14.4416   3.5604082495e+02   2.9000271672e+01    0.4581347    0.1505627 -46.45  0.002398631    2.033    0.508
        13 -11.3057     85.8388      3.3611   6.3903424009e+00   6.2866377675e+01    0.3481592    0.1991615  61.59  0.001413589    1.498    0.332
        14 -11.0794    234.8948     29.0068   3.5864911250e+02   2.6061956230e+01    0.2416639    0.1562075  84.70  0.001405408    1.683    0.406
        15 -12.2662    203.2060    194.9542   3.5074133908e+01   6.7472213067e+00    0.5370237    0.2613967 -26.21  0.002590045    2.050    0.512
        16 -10.6812    102.1263    192.3261   5.6541812066e+01   2.0625321558e+01    0.2889887     0.125567  21.31  0.001091665    2.536    0.606
        17 -13.1165    195.9048    185.1990   3.4720093683e+01   9.1295330044e+00    0.4676431    0.3283945 -21.39  0.002951144    1.248    0.199
        18 -10.6394    102.3336    172.6609   5.3533545722e+01   2.5006534452e+01    0.1531918    0.1087195  61.85 0.0007051641    1.748    0.428
        19 -12.6449    237.9993    168.8836   2.5328297450e+01   6.5413177079e+00     0.260915    0.1949721 -37.59  0.001853279    1.300    0.231
        20 -10.8574     61.6622    170.3287   6.5161983714e+01   3.1296761854e+01    0.1629777     0.100176  56.54 0.0007051886    1.731    0.422
        21  -9.8271    173.5161    144.4612   3.1297075137e+01   1.9366340991e+01    0.1338657    0.1207448 -26.53 0.0002675812    1.011    0.011
        22 -10.9909     53.5433    143.6685   6.4254694301e+01   3.9387921783e+01    0.2862967    0.2153889 -44.54  0.001364356    1.454    0.312
        23 -10.8926     40.1119    140.1135   6.8602875312e+01   4.1980755004e+01    0.2932146    0.2112337 -84.41  0.001391414    1.420    0.296
        24 -10.7869     12.2205    140.8090   7.8969052510e+01   4.4335039280e+01    0.2721313   0.09790252  52.54 0.0009467988    2.783    0.641
        25 -11.2267    220.3945    137.2346   2.2086966305e+01   1.3411700596e+01    0.2283823    0.1692375 -12.07  0.001460231    1.445    0.308
        26 -13.8848    246.6410    225.8768   3.3022974610e+01  -1.6444802676e+00     0.784616    0.4500456  -7.89  0.004669571    1.467    0.318
        27 -13.8564    246.8897     80.6226   8.0554177589e+00   1.7690903679e+01    0.7109454    0.5708796 -42.62  0.005284186    1.094    0.086
        28 -10.4824     59.1840    115.9805   5.7357365622e+01   4.6184831164e+01    0.2476021     0.163116  52.08  0.001057081    1.597    0.374
        29 -12.1802    112.2795    100.4692   3.5324420427e+01   4.0202326128e+01    0.4142465    0.3673198 -56.79  0.002133308    1.120    0.107
        30 -13.3553     95.9261    110.8779   4.3014542804e+01   4.1103535075e+01    0.6235343     0.585871 -13.26  0.003241319    1.174    0.148
        31 -11.2065    108.0970    108.6653   3.8698363335e+01   3.9203127815e+01    0.3760515    0.2561037  63.47  0.001608115    1.773    0.436
        32 -12.9897    104.0754    105.3272   3.9038800374e+01   4.0800676269e+01    0.7132142    0.3806553  32.60  0.002684369    2.219    0.549
        33 -12.6876    148.4957    109.0571   2.8526904598e+01   3.0806203186e+01    0.5678677    0.3756764 -45.67  0.002725418    1.432    0.302
        34 -11.5647     69.0645    104.8373   5.1018747265e+01   4.7581280739e+01    0.3019319    0.2444788 -43.65  0.001443068    1.301    0.232
        35 -13.0674     92.3278    101.0348   4.1643388547e+01   4.4197765871e+01     0.546643    0.3824649  26.16   0.00237557    1.680    0.405
        36 -12.4314     99.8622     94.8726   3.7501239696e+01   4.4097857423e+01    0.3953412    0.2844643 -30.13  0.001741859    1.710    0.415
        37 -10.5071     30.5912    101.2579   6.6721884168e+01   5.3912050685e+01     0.225678    0.1281725 -57.21 0.0009521135    1.678    0.404
        38 -11.1637     46.7277     99.8387   5.9125372567e+01   5.2368006481e+01    0.2668043    0.1926819 -43.18  0.001223321    1.463    0.316
        39 -10.7607    147.3272     95.9540   2.5473047222e+01   3.3620543925e+01    0.2124305    0.1860482 -48.47 0.0009112108    1.084    0.078
        40 -11.6593      2.7363     83.5887   7.8024931920e+01   6.0895641726e+01      0.34885    0.1816481 -64.94  0.001192545    1.719    0.418
        41 -10.1567     83.5174     88.5175   4.1182979430e+01   4.8963557588e+01     0.155458    0.1527039  57.87 0.0004060092    1.034    0.033
        42 -11.3999     20.2837     88.0333   6.9441207379e+01   5.8554645228e+01    0.2167734    0.1919138 -71.80 0.0008622407    1.095    0.087
        43 -13.1231    158.0321    224.6066   4.8132534009e+01   7.3766472015e+00    0.6742074    0.4332051 -39.30  0.004111404    1.609    0.379
        44 -11.3621    100.6901     84.5793   3.4233196177e+01   4.6228752438e+01    0.4003698    0.1902223 -44.66  0.001492796    2.159    0.537
        45 -13.0414     39.5104     82.6414   5.8487665334e+01   5.7955488506e+01    0.8411378    0.3635321  42.96  0.003070153    2.411    0.585
        46 -10.8035    144.7903     80.6420   2.1895231530e+01   3.7059084753e+01    0.2946057    0.2304118 -63.29  0.001521074    1.281    0.219
        47 -10.8507    102.2137    136.5923   4.6942553474e+01   3.3641170355e+01     0.224498    0.1482336  23.57 0.0009585138    1.711    0.415
        48 -12.2921      5.3924     76.4514   7.5667982668e+01   6.2721445163e+01    0.4570974    0.3009996  54.60  0.002055208    1.660    0.397
        49 -11.4473     57.5556     76.2941   4.8021282744e+01   5.6826277050e+01    0.2922315    0.1544917 -61.02   0.00113449    2.078    0.519
        50 -13.0808     15.6079     73.7714   6.9366513777e+01   6.2808752611e+01    0.8147477    0.4699117  28.61  0.003736558    1.729    0.422
        51 -12.7709     88.1051    112.7629   4.6058138218e+01   4.2130607101e+01    0.7811659     0.485685  82.09  0.002735114    2.882    0.653
        52 -10.6246     83.7125     69.0122   3.4881978669e+01   5.3325245350e+01    0.2223978    0.2097163 -60.13  0.001179713    1.087    0.080
        53 -10.4996     74.2182     69.4129   3.8615605886e+01   5.5257273954e+01    0.2219899     0.140686  53.15   0.00094446    1.631    0.387
        54 -11.4841    196.7099     68.0437   1.0510172291e+01   2.8103103313e+01    0.1842371    0.1485982 -46.41 0.0005804094    1.078    0.072
        55 -10.8535    179.6028     65.9346   1.2163070361e+01   3.1896098986e+01    0.2537145    0.1943837  83.99  0.001462389    1.379    0.275
        56 -11.8834    199.7765     63.6538   9.1319466550e+00   2.8140769405e+01    0.2497873    0.1798259 -47.69  0.000968526    1.145    0.126
        57  -9.9940    132.4927     63.5016   1.9441506313e+01   4.2965324875e+01    0.1481854    0.1349244 -79.33 -5.258832e-05    1.014    0.013
        58 -12.3372    195.7759     56.6669   7.9266053391e+00   2.9921401504e+01    0.3237878    0.1954336 -57.63   0.00143881    1.512    0.339
        59 -12.9819    199.1671     51.5554   6.3607160629e+00   2.9945868793e+01    0.3866685    0.2306294 -52.60   0.00217109    1.412    0.292
        60 -10.9944    164.5038     53.0568   1.0862588661e+01   3.7135544870e+01    0.2114856     0.177415 -18.95   0.00114021    1.488    0.328
        61 -11.7556     85.2196     47.5353   2.6329566005e+01   5.7174689970e+01    0.5009053    0.3586608  51.60  0.002058926    1.316    0.240
        62 -12.9638     81.5305     38.8522   2.3956900821e+01   5.9522475165e+01    0.7666593    0.4632288 -46.07  0.003501676    1.778    0.438
        63 -12.6102    180.9447     46.3809   7.0237760009e+00   3.4436951900e+01    0.7193401    0.2120062  59.44  0.002780004    3.418    0.707
        64 -11.8959    181.1205     40.0604   5.3818663990e+00   3.5242165131e+01    0.3840506    0.1904706 -46.01  0.001909707    1.693    0.409
        65 -12.4495    133.4403    119.6886   3.4586818730e+01   3.1624359071e+01    0.3379498    0.2947535  23.40  0.001563539    1.258    0.205
        66 -13.2390    197.6568     41.6623   4.1590021346e+00   3.1555141887e+01    0.4783995    0.3768445  -4.82   0.00288619    1.898    0.473
        67 -12.8526    191.8509     42.6300   4.9417339486e+00   3.2623688788e+01    0.3650633    0.2383022 -75.22  0.001924921    1.511    0.338
        68 -10.1108    175.5071     39.5114   5.8408856500e+00   3.6547717456e+01    0.1320181     0.110981 -64.76 0.0008104892    1.016    0.016
        69 -13.2259     96.2584     35.3342   1.8071357478e+01   5.6448261141e+01    0.6409142    0.4071408 -53.33  0.003001202    1.720    0.419
        70 -11.5214      2.8080     41.1617   7.0787465751e+01   7.1967889063e+01    0.3024272     0.295147  55.24  0.001945166    1.158    0.136
        71 -12.8238     86.4480     32.4039   1.9604458162e+01   5.9319914644e+01    0.4915753    0.1977861 -43.72  0.001858018    2.666    0.625
        72 -10.5806    111.4433    228.2351   5.8816298508e+01   1.2248958476e+01    0.2628205    0.1834998  -4.69  0.001498347    1.550    0.355
        73 -11.1120    144.2214     26.8061   5.9372568559e+00   4.5497412575e+01    0.3112661    0.1818468 -69.36  0.001492905    1.760    0.432
        74 -11.1671     90.3475     28.0771   1.6616768884e+01   5.8957998175e+01    0.2910716    0.2315642  50.45  0.001565223    1.236    0.191
        75 -13.3382     75.5327     26.0607   2.0159555974e+01   6.2900285002e+01    0.5993659    0.3716159  43.95  0.002846363    1.617    0.382
        76 -13.2411    205.1163    220.2100   3.8672213075e+01   2.9027965152e+00    0.8885936     0.472534  -7.44  0.005014844    2.108    0.526
        77 -10.1486    102.9618     25.5075   1.2467304526e+01   5.6090943616e+01    0.2191876    0.1280615  66.15 0.0007621203    1.546    0.353
        78 -10.8130    224.3803     22.4682   3.5788557947e+02   2.8675337190e+01    0.2334069     0.144604 -54.12 0.0009312405    1.204    0.170
        79 -13.4302    197.0841    213.6682   3.9084243364e+01   4.6689891161e+00    0.6054292    0.3092009 -46.22  0.003374288    2.246    0.555
        80 -10.9839    128.6935     18.2560   5.2248670985e+00   5.0367748244e+01    0.2666031    0.2097258  75.23  0.001303249    1.167    0.143
        81 -14.3187    183.9250    215.8538   4.1801242240e+01   5.7935809615e+00      0.88836    0.6106552 -12.89  0.005769648    1.291    0.226
        82 -10.4936    116.9960     17.4912   6.7057374050e+00   5.3434638618e+01    0.2172142    0.1232446  73.06 0.0007599264    1.584    0.369
        83 -11.8369     50.0921    218.0075   7.3071197097e+01   2.1337745151e+01    0.3116849    0.2486638  25.66  0.001884415    1.130    0.115
        84 -11.0608    187.3057     19.2391   3.5953821521e+02   3.6420138289e+01    0.2422581     0.177231 -73.24   0.00127815    1.162    0.139
        85 -13.4686    245.2191    177.8199   2.5836547701e+01   4.5386613055e+00    0.7400753      0.24705 -33.99  0.003744484    2.395    0.582
        86 -13.8360    245.7750    200.8983   2.9432854553e+01   1.4786416619e+00    0.9960561    0.4685554 -23.55  0.006095599    1.857    0.462
        87 -13.8733    247.6627    189.0356   2.7316398180e+01   2.8163468796e+00    0.8855969    0.4620218 -33.07  0.004619342    1.467    0.318
        88 -11.9519    149.8626    218.5612   4.8988314647e+01   9.3315975873e+00    0.2461453    0.1633721   5.86  0.001421932    1.449    0.310
        89 -11.6959    137.6296    204.9941   4.9715055115e+01   1.3269110220e+01    0.3397853    0.2684212 -24.01  0.002052705    1.260    0.206
        90 -11.7123    151.9740    202.0000   4.6095708650e+01   1.1939944074e+01    0.3597358   0.06647712  31.45  0.001063242    5.043    0.802
