#   1 NUMBER                 Running object number                                     
#   2 MAG_AUTO               Kron-like elliptical aperture magnitude                    [mag]
#   3 X_IMAGE                Object position along x                                    [pixel]
#   4 Y_IMAGE                Object position along y                                    [pixel]
#   5 X_WORLD                Barycenter position along world x axis                     [deg]
#   6 Y_WORLD                Barycenter position along world y axis                     [deg]
#   7 A_WORLD                Profile RMS along major axis (world units)                 [deg]
#   8 B_WORLD                Profile RMS along minor axis (world units)                 [deg]
#   9 THETA_WORLD            Position angle (CCW/world-x)                               [deg]
#  10 FWHM_WORLD             FWHM assuming a gaussian core                              [deg]
#  11 ELONGATION             A_IMAGE/B_IMAGE                                           
#  12 ELLIPTICITY            1 - B_IMAGE/A_IMAGE                                       
         1 -16.7495    127.9257    156.0275   4.8652477224e+01   2.4272451318e+01     3.968092     2.264825 -52.49   0.01604502    1.781    0.439
         2  99.0000    102.2984    202.0573   6.4055307682e+01   1.7705597171e+01     13.59903     8.693367 -88.67    0.0567092    2.315    0.568
         3 -18.5281      5.5742     78.3417   7.3022022225e+01   6.0205365193e+01     13.91081    0.6695512 -64.27   0.02401942   15.690    0.936
         4 -16.5830    225.6956     62.6462   8.5508017520e+00   2.1856266745e+01      1.47545    0.9704192 -65.26  0.008357942    1.372    0.271
         5 -13.5745     48.2625     53.1639   4.7080396917e+01   6.0956587783e+01    0.3962634    0.2272912  25.79  0.002018649    1.674    0.403
         6 -12.7036    164.6044    235.4656   5.4547109001e+01   5.0510061450e-01    0.3609926    0.2596214 -33.48  0.001741341    1.450    0.310
         7 -12.7386    150.6027    231.0942   5.6974215532e+01   3.5020113452e+00    0.4241152    0.2836215   5.24  0.001878382    1.827    0.453
         8 -14.1725    148.7190    243.1923   5.9261079549e+01   1.4881106360e+00    0.9408141    0.6169193  36.95  0.005021486    1.378    0.274
         9 -13.0225    170.4192    244.5582   5.4725548254e+01  -1.9921395713e+00    0.5126167     0.259508 -47.96  0.002457569    2.234    0.552
        10 -12.1221     43.5294    216.6800   8.0669133347e+01   2.2612048836e+01     0.229756    0.2127538  -4.36  0.001432967    1.381    0.276
        11 -12.8246    174.2460    211.2147   4.8300547247e+01   3.6184524136e+00    0.3987474     0.320875  27.35  0.001819126    1.188    0.158
        12 -12.3879    234.4928    208.0177   3.5735623759e+01  -4.7116207953e+00    0.2922091    0.2069445 -31.20  0.001780366    1.204    0.170
        13 -13.4997    207.9443    238.2276   4.5968209443e+01  -6.1633765205e+00    0.6885618    0.2750971 -37.02  0.003123847    2.433    0.589
        14 -13.2885    146.8773    203.7565   5.3237788295e+01   9.7467950356e+00    0.4784954    0.4394989  42.17    0.0022759    1.129    0.114
        15 -12.9506    165.0646    214.2556   5.0883140958e+01   4.5087455155e+00     0.591781    0.3161168 -40.48  0.002651128    1.928    0.481
        16 -11.9154    185.8065    203.1892   4.4333148300e+01   3.3155606099e+00    0.2035777    0.1565837  -8.83   0.00108283    1.345    0.257
        17 -17.3353     24.5499    190.9212   8.2847198506e+01   3.0987558853e+01     3.711248     2.314088  57.72   0.01941868    1.572    0.364
        18 -14.4046    238.4470    195.9205   3.2860489944e+01  -3.2139674312e+00    0.6741684    0.3341096 -45.39  0.003352021    1.931    0.482
        19 -12.0862     29.8208    230.2995   8.4994835993e+01   2.1074623406e+01    0.2759452    0.1535111  60.47  0.001446372    1.654    0.396
        20 -12.2135    206.4382    196.4629   3.8848989612e+01   1.3262049952e+00    0.2552466    0.2349469 -67.57  0.001545073    1.439    0.305
        21 -14.5069    119.9751    191.7876   5.7774936023e+01   1.7154371772e+01    0.7704336    0.5608401 -43.34  0.002706902    1.445    0.308
        22 -11.7184    181.6542    192.3030   4.3167498448e+01   6.1618255197e+00    0.1378191    0.1161875  76.60 0.0006679243    1.688    0.407
        23 -13.3735    164.7819    186.3573   4.5773463057e+01   1.0350603013e+01    0.5865716    0.3987486 -58.25  0.002714759    1.719    0.418
        24 -12.8491    227.0279    198.8363   3.5406559299e+01  -2.1410336943e+00      0.37429    0.2576581 -43.88  0.001999188    1.438    0.304
        25 -14.3184    246.8521    181.6572   2.8849294218e+01  -1.9400377439e+00    0.4888954    0.2295405 -36.72  0.002422245    1.799    0.444
        26 -15.1918     62.1747    172.1335   7.0294312664e+01   3.1331966447e+01     1.388997     1.023857  42.38   0.00698451    1.357    0.263
        27 -13.0908     65.7623    162.7932   6.7752543710e+01   3.3258690936e+01    0.4830481    0.3564025  76.46  0.001691533    1.577    0.366
        28 -13.9123    167.3358    174.2298   4.2764168983e+01   1.2500817482e+01    0.8763915    0.6001753 -69.70  0.003789293    2.106    0.525
        29 -12.7678    175.7483    198.9870   4.5726036352e+01   5.8090969925e+00    0.3921622    0.3202895  31.62  0.001760794    1.215    0.177
        30 -14.0702    189.2414    212.1043   4.5237856975e+01   1.0703173303e+00    0.6170762    0.3843737 -34.61  0.002934864    1.564    0.361
        31 -13.9425    110.7877    161.7812   5.4530867776e+01   2.6116244600e+01    0.8280013    0.5986536  42.37    0.0037963    1.374    0.272
        32 -11.4331     39.4823    159.4674   7.5044161903e+01   3.7447960314e+01    0.1419609    0.1294634 -83.98 9.523238e-05    1.027    0.027
        33 -13.2447    171.6291    153.2919   3.7379879172e+01   1.6212580197e+01    0.5525072    0.3776358  16.09  0.002382874    2.025    0.506
        34 -14.1379    163.8065    153.4592   3.9180209658e+01   1.7727025760e+01    0.6562114    0.4428883 -59.52  0.002908967    1.688    0.408
        35 -12.6419     91.2435    143.8934   5.6468700767e+01   3.4113040354e+01    0.5149316     0.308028 -51.84  0.002148426    1.636    0.389
        36 -12.7499     91.0013    149.7203   5.7763484139e+01   3.2678598972e+01    0.4075542    0.3469665 -27.66  0.001556005    1.282    0.220
        37 -12.8825     86.8746    149.1494   5.8884560070e+01   3.3523559493e+01    0.4302842     0.358671 -57.64  0.001195197    1.184    0.156
        38 -13.9327    154.6559    143.1627   3.9024100208e+01   2.1866072421e+01    0.7657275    0.6314096 -70.43  0.003739398    1.382    0.277
        39 -13.1052     70.0065    144.6851   6.3182194689e+01   3.7342967908e+01      0.51575    0.3573843  60.68  0.001826597    1.740    0.425
        40 -13.9670    183.0776    219.2267   4.7808663185e+01   6.9137283837e-01    0.7567896    0.4364244 -32.65  0.003650595    1.786    0.440
        41 -13.7056    110.9712    136.9018   4.9070274924e+01   3.2208109740e+01    0.7514279    0.5036857 -81.84  0.002908823    2.337    0.572
        42 -13.2968    156.9393    220.0136   5.3716040197e+01   4.6792022031e+00    0.6485872    0.4476521 -16.26   0.00317004    1.749    0.428
        43 -14.1043     27.8952    128.6596   7.4004471550e+01   4.6566917646e+01    0.6672618    0.5473576 -83.06  0.003797278    1.246    0.198
        44 -12.8260    148.1262    219.0293   5.5579295910e+01   6.3151598157e+00    0.4579532    0.2908012  28.33  0.002009518    1.502    0.334
        45 -13.0965    132.2651    125.7457   4.0517243390e+01   3.0486563138e+01    0.5323271    0.3601767 -53.73   0.00208093    1.538    0.350
        46 -14.1903     92.9087    120.1992   5.0509184004e+01   3.9648292634e+01    0.8188715    0.5382338 -56.50  0.003604569    1.591    0.372
        47 -14.0165     45.6292    114.7589   6.5229965458e+01   4.8184923533e+01    0.7192501    0.3459991  50.54  0.002705899    2.991    0.666
        48 -14.2117     32.8679    118.3301   7.0476968888e+01   4.8686677797e+01    0.4138096    0.3154726 -23.68  0.002243472    1.393    0.282
        49 -15.0169    208.9448    214.2098   4.1616876143e+01  -2.2548357257e+00    0.9669219    0.6627353  30.37  0.005452228    1.472    0.321
        50 -16.4046    142.5868    182.2746   5.0271943071e+01   1.5302693639e+01     3.131258     1.656282 -44.22   0.01268651    1.929    0.482
        51 -14.1129     81.2607     87.3349   4.5509235384e+01   4.9117500087e+01    0.3285792    0.2803133 -41.80  0.001770085    1.200    0.167
        52 -16.4547     56.4088     84.7196   5.3768836848e+01   5.3709129036e+01     1.290181    0.6474869  41.17  0.005560272    2.177    0.541
        53 -16.4204     54.9825     74.8222   5.1413879293e+01   5.5957877674e+01     1.079133    0.6261517  37.07  0.005206781    1.756    0.431
        54 -15.2919    142.6699     74.7666   2.4624813855e+01   3.8373406816e+01    0.8410046    0.4938313 -60.92  0.003528066    2.244    0.554
        55 -15.2403    246.5656     73.4782   8.3982597259e+00   1.6265435859e+01    0.7146412    0.4223502 -51.35  0.003498318    1.379    0.275
        56 -15.0384    184.0926     75.2480   1.6904545903e+01   2.8744741039e+01    0.6454546    0.5163479 -81.94  0.003509673    1.233    0.189
        57 -16.5667    204.0298     70.9953   1.2971638196e+01   2.5058748057e+01     1.203052    0.8989549 -84.73   0.00691634    1.318    0.241
        58 -15.9597    197.4373     54.9185   1.0320460351e+01   2.8904329169e+01    0.9769509    0.6179834 -88.31  0.005141855    1.680    0.405
        59 -13.0329    187.9097    240.7148   5.0423726347e+01  -3.8386880959e+00    0.4184519    0.3094983  16.38  0.002488757    1.194    0.163
        60 -16.2884     87.9392     61.8720   3.5374764238e+01   5.2609516780e+01     1.247244     0.579649  34.23  0.004972241    2.357    0.576
        61 -13.8278    102.1675     81.1783   3.6968321141e+01   4.6260108469e+01    0.3210768    0.2780585  82.34  0.001687138    1.417    0.294
        62 -14.8296    119.5588     56.8807   2.4864883209e+01   4.6590765171e+01     0.451104     0.387822 -81.28  0.002540485    1.343    0.255
        63 -14.8139    177.7850     54.9143   1.3063681439e+01   3.3312652418e+01    0.6241224    0.3461433 -65.14  0.002836526    2.175    0.540
