#   1 NUMBER                 Running object number                                     
#   2 MAG_AUTO               Kron-like elliptical aperture magnitude                    [mag]
#   3 X_IMAGE                Object position along x                                    [pixel]
#   4 Y_IMAGE                Object position along y                                    [pixel]
#   5 X_WORLD                Barycenter position along world x axis                     [deg]
#   6 Y_WORLD                Barycenter position along world y axis                     [deg]
#   7 A_WORLD                Profile RMS along major axis (world units)                 [deg]
#   8 B_WORLD                Profile RMS along minor axis (world units)                 [deg]
#   9 THETA_WORLD            Position angle (CCW/world-x)                               [deg]
#  10 FWHM_WORLD             FWHM assuming a gaussian core                              [deg]
#  11 ELONGATION             A_IMAGE/B_IMAGE                                           
#  12 ELLIPTICITY            1 - B_IMAGE/A_IMAGE                                       
         1 -13.4998      4.9088     83.3535   1.2589237179e+02   5.8102767816e+01     2.328261    0.5181023 -76.69  0.008598733    3.420    0.708
         2 -12.6637    159.6608     51.8465   6.6094768867e+01   3.8303537811e+01     1.185496     1.018239   6.12  0.003892665    1.285    0.222
         3 -13.1864    172.8982     22.1274   5.3675964602e+01   3.8737072736e+01     1.087186    0.9648348  89.35  0.003887234    1.136    0.119
         4 -11.1551    171.9764      2.5617   4.6988782476e+01   4.0980644225e+01    0.5090495    0.2493953  72.35 0.0005181145    1.953    0.488
         5 -12.1140    178.8845      4.4681   4.6906783022e+01   3.8914783669e+01    0.5856838    0.5181774  85.28  0.003260005    1.097    0.088
         6  -9.2033    138.8438      2.1079   5.1113741407e+01   5.0246898737e+01    0.2200127    0.1950189 -65.68 0.0003799152    1.173    0.148
         7  -9.7670    156.6514    232.2021   1.0445991846e+02   9.8570621968e+00    0.2278354    0.1724012 -17.32 0.0009330316    1.753    0.430
         8  -8.6664    239.2536    249.9034   9.3180232303e+01  -2.7332019796e+00    0.1323827   0.08882324  15.57 0.0003935779    1.088    0.081
         9 -15.2940     56.1679    144.8843   1.1621382630e+02   3.9125485946e+01      5.19645     3.055295  14.08   0.02485127    2.666    0.625
        10 -11.1412    152.2079    219.3831   1.0378143140e+02   1.2093722373e+01    0.4094886     0.263956  21.41  0.001015118    1.607    0.378
        11  -9.5699    154.0700    214.8544   1.0288737431e+02   1.2413138498e+01    0.1717384    0.1557062  80.16 0.0004169716    1.511    0.338
        12 -10.4921     15.0238    218.8194   1.2982511102e+02   2.9167140676e+01    0.4090952    0.1206556 -76.11  0.002226468    3.484    0.713
        13 -12.3938     11.2084    207.1700   1.3020854476e+02   3.1471493190e+01     0.447359    0.4139372  35.91  0.003422038    1.509    0.337
        14 -10.6066     13.6880    199.8141   1.2950871060e+02   3.2541759317e+01    0.2329692    0.1477076 -77.43   0.00108267    1.709    0.415
        15 -12.2458    187.7554    213.1263   9.6563589479e+01   7.6245250093e+00    0.5525398     0.322403 -27.77   0.00345721    2.104    0.525
        16 -11.1175    165.8405    216.3042   1.0090442058e+02   1.0483936121e+01    0.2356992    0.2151218 -22.15 0.0005433931    1.397    0.284
        17 -14.3977     46.8721    245.1104   1.2509798240e+02   2.1942206770e+01    0.3073916    0.2907775  -2.91  0.002251715    1.739    0.425
        18 -10.3738    183.1193    206.4336   9.6445069913e+01   9.1130946558e+00    0.1964464    0.1732461  16.10 0.0004336556    1.200    0.167
        19 -10.0534    159.4525    229.2827   1.0363065874e+02   9.8137894932e+00    0.2400026    0.1734606  34.75 0.0008653374    1.017    0.017
        20  -9.4534    139.1809    198.7730   1.0372351679e+02   1.6935476623e+01    0.2083066    0.1768242  -8.50            0    1.469    0.319
        21 -11.0061    158.5401    224.2978   1.0321097756e+02   1.0552827478e+01    0.3417345    0.2630643 -28.38  0.001594922    1.685    0.407
        22 -10.2001    133.3543    198.1678   1.0481170232e+02   1.7924001887e+01    0.2518077    0.1971263 -28.36 0.0004055737    1.693    0.409
        23 -10.4137     23.4748    191.9784   1.2724506172e+02   3.3067217465e+01    0.2303026    0.1934287 -65.00 0.0009866359    1.587    0.370
        24  -9.5006    240.9103    189.9501   8.4141116784e+01   2.3200182616e+00    0.1716262    0.1336836  12.96  0.001149261    1.100    0.091
        25 -10.9268    187.5156    229.6975   9.8800528921e+01   5.8144667557e+00    0.2492125    0.1882473 -24.57  0.001078334    1.641    0.390
        26  -9.4777     15.1267    188.4238   1.2883246183e+02   3.4487323213e+01    0.1768659    0.1554588 -82.62 0.0005403134    1.413    0.292
        27  -8.4755     18.5372    186.4787   1.2804740086e+02   3.4546459799e+01    0.1080178   0.08203357  62.50 -3.155146e-05    1.049    0.047
        28  -9.5855    222.9883    187.9994   8.6681234838e+01   5.1662575235e+00     0.170924    0.1297186  17.35  0.001181066    1.006    0.006
        29  -9.9098    228.9044    184.9014   8.5192188243e+01   4.6078771325e+00    0.2465257     0.148219  42.70 0.0009833481    1.684    0.406
        30 -10.8538    138.2151    227.0078   1.0721708080e+02   1.3102002538e+01    0.4072863    0.2410013  64.56  0.001819186    2.614    0.617
        31 -10.0241    154.5055    225.9448   1.0413175086e+02   1.0926290743e+01    0.2365285    0.2060328  57.12  0.001546035    1.405    0.288
        32 -10.8286    144.1078    179.3596   1.0001993323e+02   1.9167023144e+01    0.3374765    0.2944802 -11.50  0.001789319    1.355    0.262
        33 -11.2526    138.2294    173.0343   1.0030270006e+02   2.1191062000e+01    0.4802854    0.3438572 -86.02  0.002153896    2.191    0.544
        34  -9.8901    229.5027    179.8605   8.4227499168e+01   5.0640645924e+00     0.202421    0.1350273  30.02  0.001298885    1.252    0.201
        35 -11.6124    187.3391    176.2140   9.0948300126e+01   1.2335177230e+01    0.5827517    0.3409641 -41.94  0.001733273    2.075    0.518
        36  -9.6106    186.8122    166.2430   8.9296557815e+01   1.3807995832e+01    0.3037758     0.271278   4.57  0.001323144    1.126    0.112
        37  -9.5745    128.2114    177.9376   1.0317988570e+02   2.2015019195e+01    0.2532008    0.2071179 -36.89 0.0009502681    1.508    0.337
        38 -10.9816    125.2570    172.9008   1.0310081523e+02   2.3368971545e+01    0.4195466     0.294905  57.87 0.0007853864    1.454    0.312
        39  -9.9426    239.0150    175.2819   8.1905800999e+01   4.1087495906e+00    0.1703738    0.1250625  19.60 0.0006411218    1.092    0.084
        40  -9.5921    229.9759    174.9754   8.3290540868e+01   5.5298683399e+00    0.1492817     0.145085  21.60 0.0003117172    1.558    0.358
        41 -10.4218    197.6529    172.0531   8.8322115736e+01   1.1148206385e+01    0.2690104    0.2026156  39.46 0.0003336705    1.260    0.206
        42  -9.7006    193.6990    172.3199   8.9092630426e+01   1.1783169458e+01     0.233866    0.2055312 -56.14 0.0009683729    1.651    0.394
        43 -10.2368    150.1134    173.9600   9.7936314187e+01   1.9024482366e+01    0.2610041    0.1608966  44.51 0.0007927484    1.411    0.291
        44 -12.3644    175.0538    221.1223   9.9868427084e+01   8.5501504132e+00    0.4516152    0.3781791 -43.73  0.003456957    1.674    0.403
        45 -10.6373    142.3953    171.6383   9.9195421512e+01   2.0720032643e+01    0.2625057    0.1962735  60.29  0.001080013    1.494    0.331
        46  -8.6799      9.5581    169.2269   1.2933028585e+02   3.8654777135e+01    0.1344731   0.08924825 -78.75 0.0003473263    1.507    0.337
        47  -9.6101    121.0082    157.8993   1.0178100695e+02   2.6809747305e+01    0.2522046    0.1954442 -38.06 0.0006245471    1.566    0.361
        48 -18.9035     72.9156    223.6035   1.1919895979e+02   2.2251529116e+01     4.026403     2.663382  42.80   0.01681366    1.156    0.135
        49 -10.0889    188.1795    154.6532   8.6872244817e+01   1.5227843503e+01     0.627975    0.2885823  36.84  0.002833215    2.012    0.503
        50  -8.5475    218.0167    155.2077   8.1594620953e+01   9.8337338767e+00    0.1692004    0.1381915  23.80 0.0003546304    1.093    0.085
        51 -11.1086    133.9629    146.7885   9.6864982100e+01   2.6614402192e+01     1.058137    0.3184362 -55.55  0.003159934    5.228    0.809
        52  -9.8717    143.3724    145.6395   9.4490202115e+01   2.5084483714e+01    0.4895928    0.2299545 -62.83  0.001623184    4.497    0.778
        53  -9.3262      5.4696    226.0946   1.3171443988e+02   2.8830911240e+01     0.250785    0.1160211  71.12  0.001770773    1.726    0.421
        54  -9.4858      8.0015    149.9809   1.2893626146e+02   4.2720871768e+01    0.1722187    0.1363295  73.61 0.0004168818    1.056    0.053
        55 -10.6516     27.8446    146.0698   1.2372564669e+02   4.1890679614e+01    0.3494051    0.3283116  68.09  0.001640803    1.241    0.194
        56 -10.1805     10.4513    145.1201   1.2810950277e+02   4.3568875904e+01    0.2525784    0.2185532  -9.07  0.000723949    1.672    0.402
        57 -11.1942    118.1387    134.4268   9.8392614044e+01   3.1921716700e+01    0.3966146    0.3776018 -24.31  0.001370185    1.194    0.162
        58 -11.2728    108.3691    133.1812   1.0065826052e+02   3.3921412293e+01    0.3910868    0.2904802  41.26 0.0005955857    1.263    0.208
        59 -10.1821    135.3468    122.4049   9.1641228727e+01   3.1045840917e+01    0.3938541    0.2142081 -52.23  0.001687896    2.061    0.515
        60 -11.1806    144.9262    222.3382   1.0546832431e+02   1.2761708671e+01    0.4735676    0.1750888  35.40  0.002351073    2.156    0.536
        61  -9.2528    160.6398    128.8158   8.7191785759e+01   2.4723921658e+01    0.2733405    0.2269837 -82.16  0.001437809    1.634    0.388
        62 -10.1971    121.5380    127.0247   9.6074227554e+01   3.2804351994e+01    0.2845329    0.2057786  43.01 0.0007576233    1.291    0.226
        63 -10.1425    110.7365    122.1026   9.7887427330e+01   3.5842228821e+01    0.3021608    0.2497241 -48.81 0.0009496292    1.294    0.227
        64  -8.9793    114.9241    117.0779   9.5709531006e+01   3.6130289533e+01    0.2202266    0.1850182  69.92 0.0003714066    1.256    0.204
        65 -11.8804     70.9446    115.3787   1.0797108108e+02   4.3888121146e+01    0.9650862    0.5307415 -80.07  0.004255603    2.188    0.543
        66 -11.5307     60.2361    109.4209   1.1027561220e+02   4.6750860097e+01    0.8269405    0.3521087  34.93  0.003057537    2.322    0.569
        67 -11.6802     63.6605    105.6557   1.0854127197e+02   4.7192044888e+01    0.6595387    0.5318236 -29.52  0.002407728    1.592    0.372
        68 -10.2561    135.6458    129.3428   9.3055907938e+01   2.9629651871e+01    0.5153992    0.1406556 -50.99  0.001519577    4.532    0.779
        69  -8.3215    161.2657    105.9871   8.1676931778e+01   2.8658026094e+01    0.1891134    0.1823117   1.30 0.0002496065    1.038    0.037
        70  -9.3175    217.6797    100.4775   6.9636038440e+01   1.7200883698e+01    0.2237729    0.1869154  -3.83  0.000569566    1.125    0.111
        71 -10.5612    116.6917    246.5350   1.1293363054e+02   1.3474263890e+01    0.2338561     0.166414  18.21 0.0005137025    1.708    0.415
        72 -11.6533    149.1662     65.6448   7.2874953791e+01   3.8732298254e+01    0.6038392    0.5311092 -43.51  0.001080907    1.152    0.132
        73 -10.2766    119.7942     63.3406   7.9567642355e+01   4.6291967204e+01    0.2602018    0.2464674 -28.80 0.0002630558    1.067    0.063
        74 -10.9871    186.6562    245.0879   1.0080789396e+02   4.3429054333e+00    0.2936304    0.1109177  38.73  0.001222787    1.900    0.474
        75 -11.5389    164.7258     42.5042   6.1981308153e+01   3.8344088164e+01     0.496763    0.4871674 -64.19  0.000734747    1.024    0.024
        76  -7.7893    216.0000     51.9978   5.7141121276e+01   2.4033935780e+01     0.237864   0.07601889 -26.20 0.0007976158    2.909    0.656
        77  -8.8924    172.0058     49.9732   6.3158006285e+01   3.5354834315e+01    0.2102284    0.2079484  11.41            0    1.015    0.015
        78  -8.3722    105.5631     84.8122   9.0429300861e+01   4.4947749168e+01    0.1991467    0.1821201  37.89  0.001061568    1.123    0.110
        79  -8.4322    128.0129     91.0148   8.5781514956e+01   3.8905352453e+01    0.1729865    0.1628535  48.91            0    1.040    0.039
        80  -8.6287     29.7322    245.3721   1.2804207298e+02   2.3643617572e+01    0.1159768    0.0684774  39.83  0.000650643    1.329    0.248
        81 -10.9421    189.6031     15.1162   4.9261176847e+01   3.4988570521e+01    0.2969258    0.2086334  62.25  0.001465747    1.420    0.296
        82  -8.9656     14.9857     17.9914   1.0854823892e+02   7.3083808401e+01    0.1790137    0.1503005 -51.10            0    1.027    0.026
        83 -10.9747    165.3152    224.1609   1.0197877044e+02   9.5948992720e+00    0.2800508    0.1818168  43.67  0.001864235    1.336    0.251
        84 -10.7786    150.8341    229.1878   1.0516133654e+02   1.1043376359e+01    0.3093702    0.2384428  39.68  0.001314283    1.111    0.100
