#   1 NUMBER                 Running object number                                     
#   2 MAG_AUTO               Kron-like elliptical aperture magnitude                    [mag]
#   3 X_IMAGE                Object position along x                                    [pixel]
#   4 Y_IMAGE                Object position along y                                    [pixel]
#   5 X_WORLD                Barycenter position along world x axis                     [deg]
#   6 Y_WORLD                Barycenter position along world y axis                     [deg]
#   7 A_WORLD                Profile RMS along major axis (world units)                 [deg]
#   8 B_WORLD                Profile RMS along minor axis (world units)                 [deg]
#   9 THETA_WORLD            Position angle (CCW/world-x)                               [deg]
#  10 FWHM_WORLD             FWHM assuming a gaussian core                              [deg]
#  11 ELONGATION             A_IMAGE/B_IMAGE                                           
#  12 ELLIPTICITY            1 - B_IMAGE/A_IMAGE                                       
         1 -13.8951    245.0424    158.3358   9.2725783693e+01   1.5257231652e-01     2.586394     1.034678 -45.69  0.009897624    2.657    0.624
         2 -12.7117    248.8610    132.9374   8.6520930455e+01   3.8148629421e+00      1.20656    0.7507229 -35.10  0.005882745    1.481    0.325
         3 -14.2831    200.4886     17.0864   6.5757668776e+01   3.3253483741e+01     2.460066     1.546488  29.94   0.01062607    2.458    0.593
         4 -13.6830    205.5834     10.2545   6.3499792308e+01   3.2765103212e+01      1.25816    0.6899515  48.69  0.001451975    2.058    0.514
         5 -13.2009      3.9018     10.8635   1.1667542121e+02   7.0736217898e+01     1.422871    0.3296036 -43.06  0.006768441    3.086    0.676
         6  -9.6154    199.8079    245.7693   1.1766040176e+02  -5.6554491428e+00    0.1578489    0.1352307  52.80 0.0003974473    1.315    0.240
         7  -9.7985    204.9960    250.2505   1.1740355334e+02  -7.1344834535e+00    0.1653937   0.08754119  39.82 0.0008821521    1.563    0.360
         8 -11.1895    149.9777    248.4928   1.2731425068e+02   2.4479024683e+00     0.421295    0.2762374  51.31  0.002472172    1.291    0.225
         9 -10.3652    143.4058    249.1675   1.2861966934e+02   3.4576547056e+00    0.2561471    0.1780666  63.82  0.000857758    1.448    0.309
        10 -10.2140    135.7054    250.6988   1.3022961225e+02   4.5049245051e+00    0.2188214     0.179976 -63.59 0.0001668925    1.441    0.306
        11 -10.7643    132.7113    249.3643   1.3061622201e+02   5.2285063948e+00    0.3531279    0.2036981  65.93  0.001829423    2.007    0.502
        12 -11.2628     98.8464    247.4325   1.3655153234e+02   1.1054156556e+01     0.626104    0.2865061  58.28  0.003118503    2.047    0.511
        13 -11.0456     96.5087    239.1552   1.3610183019e+02   1.2927984414e+01    0.4264483    0.2606408 -84.65  0.001918736    1.814    0.449
        14 -12.6939    112.8325    247.8089   1.3406915116e+02   8.7690609081e+00     1.729514    0.3942294  47.07   0.00630994    3.496    0.714
        15 -12.3671    125.3450    241.8718   1.3106535820e+02   7.7508413489e+00     0.609139    0.5148625   9.05  0.003805886    1.770    0.435
        16 -12.0681    109.8777    230.1422   1.3255938701e+02   1.2477746721e+01    0.8184444    0.3411128  46.41  0.002438204    2.042    0.510
        17 -11.1626     98.5975    231.2503   1.3483797543e+02   1.4091968398e+01    0.4010782    0.3192111 -70.69 0.0009748328    1.348    0.258
        18 -10.3538     92.6874    226.0873   1.3537236301e+02   1.6026308531e+01    0.2478146    0.1672141  66.00  0.000389724    1.311    0.237
        19 -11.9500     98.5589    223.6038   1.3395296370e+02   1.5587407602e+01    0.5380101    0.2713999  39.32  0.001269365    2.003    0.501
        20 -10.1505     87.8755    250.6140   1.3880685492e+02   1.2159933375e+01    0.4000228    0.1184524  42.33  0.001488731    2.921    0.658
        21 -10.3712     88.7121    247.3843   1.3834855766e+02   1.2614399760e+01    0.3319349    0.1482764  48.30  0.001610581    1.818    0.450
        22 -10.6551     80.8193    245.7532   1.3958150591e+02   1.4084408674e+01    0.5201464     0.250007  88.10  0.002433576    2.898    0.655
        23  -8.7928     74.7203    250.6055   1.4107700986e+02   1.4084782183e+01    0.2191563   0.09878807  40.62  0.001143982    2.174    0.540
        24 -14.9429     15.5354    170.5257   1.4489091786e+02   3.7692342702e+01     2.946481      1.08059 -59.03    0.0144969    2.411    0.585
        25 -14.5297     51.8851    217.2504   1.4214222605e+02   2.3645627550e+01     1.807788     1.286926  82.24   0.01192646    1.130    0.115
        26 -14.3275     27.2341    247.2905   1.4861757674e+02   2.0821166912e+01     1.424443    0.8128206  48.11  0.009778998    1.610    0.379
        27 -14.6346      8.1501    210.3427   1.4939303598e+02   2.9972296723e+01     2.079262    0.8388129 -71.22   0.01187021    2.022    0.505
        28 -12.5682     13.8257    248.8427   1.5076717176e+02   2.2030322464e+01    0.2967741     0.205979  69.21 0.0009922072    1.115    0.103
        29 -12.1918    136.1700    227.8183   1.2714788146e+02   8.4181442616e+00    0.5987014    0.4247793 -21.63   0.00300602    2.508    0.601
        30 -11.1632    144.2077    244.6933   1.2789090740e+02   4.0600868335e+00    0.5664606    0.1326998  45.61  0.001973746    3.506    0.715
        31 -11.4793    135.5530    241.0471   1.2904313168e+02   6.1640310492e+00    0.4150248    0.3064729  18.89  0.001630832    1.961    0.490
        32 -11.9993    135.0951    236.9144   1.2859033483e+02   6.9658724230e+00    0.4288706    0.3767603  38.50 0.0008981691    1.231    0.188
        33 -10.1809    223.2268    244.5752   1.1319985231e+02  -9.3267182924e+00    0.1814557   0.09600849  30.70 0.0006814064    1.695    0.410
        34 -10.4392    152.6607    243.5677   1.2615225874e+02   2.7885960451e+00    0.2184862    0.1581037 -58.66  0.001309805    1.663    0.399
        35 -10.5225    165.5164    241.7838   1.2347492601e+02   8.4024569385e-01    0.3017356    0.1801002  30.92 0.0007223579    1.767    0.434
        36  -9.9099     83.5831    242.2533   1.3875791298e+02   1.4321905376e+01    0.1992595    0.1372281 -60.98  0.000934126    1.695    0.410
        37 -11.1292     89.7542    236.0146   1.3700838271e+02   1.4561752558e+01    0.3337706    0.2172353  81.87  0.001966847    1.528    0.345
        38 -10.0554     83.5179    238.4396   1.3839343201e+02   1.5045074743e+01    0.3876157    0.1379544  41.74  0.001749797    2.560    0.609
        39 -10.0985     86.2331    237.0267   1.3775793549e+02   1.4904871432e+01    0.2573847    0.1523509  86.89  0.001420337    1.833    0.454
        40 -10.6689    173.1775    239.9302   1.2175235629e+02  -2.0537872421e-01     0.262424    0.2060811 -59.99 0.0008451713    1.595    0.373
        41 -10.9135    145.6225    240.8559   1.2711373483e+02   4.4614266072e+00    0.2978465    0.1565641  50.95  0.001042157    1.665    0.399
        42 -10.1374    115.7871    239.9833   1.3262431125e+02   9.6784600041e+00    0.2199899    0.1583769  60.00 0.0006255758    1.169    0.145
        43 -10.3045    165.8670    235.1255   1.2243148357e+02   1.8620258399e+00    0.2526233    0.2041219 -48.66  0.001558534    1.457    0.314
        44 -10.5577    161.9739    232.9583   1.2285900892e+02   2.9177439620e+00    0.3330418    0.2261722  75.84  0.001692316    2.126    0.530
        45 -10.9027    103.8503    238.4688   1.3467181847e+02   1.1895045514e+01    0.4299661    0.3275615  25.34  0.002556756    1.889    0.471
        46 -10.2120     69.9983    234.0806   1.4040638538e+02   1.7841382757e+01    0.4403151    0.3179236  26.29  0.002627311    2.188    0.543
        47 -11.4217    122.1098    232.4970   1.3050446311e+02   9.9886037399e+00    0.3448223    0.3194394 -69.27   0.00179495    1.279    0.218
        48  -9.1785     78.0429    233.5379   1.3889892921e+02   1.6789111272e+01    0.1749763    0.1350781 -86.95 0.0003798662    1.206    0.171
        49 -10.9768    156.6609    231.6239   1.2369135619e+02   4.0949692745e+00    0.2340458    0.2084553  39.00 0.0004392667    1.109    0.098
        50 -10.8039    141.8261    230.7711   1.2645559462e+02   6.8841077479e+00    0.3121138    0.2506078 -11.01 0.0009503305    1.908    0.476
        51  -9.6625     93.8370    217.5806   1.3415213706e+02   1.7546704115e+01    0.2914647    0.1846916  89.30  0.001554355    1.714    0.417
        52 -11.6136    243.9799    230.2785   1.0706075178e+02  -1.0711594597e+01    0.3923651    0.2129695   2.75  0.001741125    2.902    0.655
        53 -10.5678    165.4700    227.3108   1.2131934526e+02   3.2502468351e+00    0.3988116    0.2498968 -66.95  0.001583036    2.312    0.567
        54 -11.0984    161.4917    223.0057   1.2143219426e+02   4.7258947093e+00    0.5025836     0.315126  20.24  0.001973063    2.387    0.581
        55 -10.1337    179.9623    228.3880   1.1866487986e+02   4.4789590787e-01    0.2762462    0.2044644  73.06  0.001029667    1.863    0.463
        56 -10.2044     84.6864    229.6602   1.3727555783e+02   1.6554444777e+01    0.2069471    0.1999318  -3.18 0.0007813487    1.606    0.377
        57 -10.4289     79.8285    228.4537   1.3805420795e+02   1.7516629392e+01    0.3789144    0.2861296 -41.15  0.002262382    2.123    0.529
        58 -10.1806     78.9579    224.5515   1.3780877078e+02   1.8418361602e+01    0.2089055    0.1969589  15.65 0.0008141613    1.628    0.386
        59 -10.7521     77.6666    221.0566   1.3768150682e+02   1.9310908373e+01    0.2664475    0.1796463  69.73 0.0003827948    1.300    0.231
        60  -8.9566    197.9899    227.9370   1.1512395325e+02  -2.7001065160e+00    0.1566024    0.1410145  21.76  0.001001776    1.060    0.057
        61  -9.9144    190.8362    228.1196   1.1652316241e+02  -1.4587211801e+00    0.1836186    0.1609868  48.36 0.0002759404    1.161    0.139
        62 -11.3517    132.0953    224.2504   1.2745231522e+02   9.7997031790e+00    0.3421015    0.2729636  79.74  0.001850444    1.296    0.228
        63  -9.3186    220.1865    223.8893   1.1024557523e+02  -5.9455066337e+00    0.2133454    0.1812231 -64.25  0.001092305    1.723    0.420
        64 -10.7048    149.6601    222.8670   1.2376188220e+02   6.9099166380e+00    0.3278293    0.2511952   1.86  0.001559676    2.015    0.504
        65 -11.8923    142.1280    221.5481   1.2506711107e+02   8.5167482768e+00    0.3555232     0.343085  50.37 2.726489e-05    1.159    0.137
        66 -11.4136    137.7473    214.4070   1.2488293590e+02   1.0668168656e+01    0.6029643    0.3495322  36.79  0.001203505    1.763    0.433
        67  -8.6373     73.4655    225.4719   1.3893287778e+02   1.9035862038e+01    0.1269644   0.09548674  73.08 0.0001002507    1.070    0.066
        68  -9.8322    110.5204    222.2034   1.3144135620e+02   1.3904906031e+01    0.3039933    0.2227196 -46.85 0.0009097763    1.745    0.427
        69 -10.4567    105.1948    219.1912   1.3210839932e+02   1.5386042059e+01    0.3708645    0.2130897  75.23 0.0004411881    2.189    0.543
        70 -11.1796     70.4462    219.1546   1.3885333956e+02   2.0741588862e+01    0.5099185    0.3009446 -76.37  0.002230384    1.611    0.379
        71 -10.0135     35.2056    219.3294   1.4533412140e+02   2.5271435081e+01    0.3320352    0.1406694 -58.91  0.001719242    2.597    0.615
        72 -13.4368     46.1650    248.6208   1.4568366843e+02   1.8292022902e+01     1.835892    0.9040325  36.32   0.01031429    2.510    0.602
        73  -9.3031    177.2260    220.3894   1.1789500070e+02   2.2877678960e+00    0.1991758    0.1132283  50.42  0.000951478    1.696    0.410
        74 -10.6375    246.4994    218.9755   1.0458423927e+02  -9.5795401972e+00     0.203278    0.1523855  27.47 0.0009697517    1.205    0.170
        75 -10.8715    117.3550    224.3245   1.3037152833e+02   1.2339542380e+01    0.2320423    0.2037493  64.78 0.0002779338    1.071    0.066
        76  -8.9302     89.5278    218.5177   1.3510868765e+02   1.8031992431e+01    0.1311256    0.1043612  72.49 0.0008093742    1.044    0.042
        77  -9.5919    101.1962    216.1686   1.3251900781e+02   1.6650733063e+01     0.209865    0.1919458   6.95  0.001147383    1.606    0.377
        78  -9.8304    102.0643    212.0491   1.3181407837e+02   1.7350437301e+01     0.376443    0.1882397  60.70  0.001520841    2.167    0.539
        79  -9.0617    183.2220    214.0065   1.1562515419e+02   2.2749319821e+00    0.1630708    0.1131502 -43.26 0.0003847043    1.605    0.377
        80 -10.1872     88.1664    212.9469   1.3471558318e+02   1.9385872998e+01    0.2420051    0.1689041 -77.98 0.0007424543    1.384    0.278
        81 -13.3974     13.9419    238.9387   1.5019763990e+02   2.3834213655e+01    0.5397289    0.3706051  74.62  0.004153459    1.037    0.035
        82  -9.0022    152.0343    212.0105   1.2158926922e+02   8.4930086042e+00    0.2112406    0.1554108  73.58 0.0005578093    1.609    0.379
        83  -9.7866     68.2923    211.3627   1.3844622894e+02   2.2656273908e+01    0.2306919    0.1870183 -62.34  0.001352498    1.437    0.304
        84 -10.6599     72.6924    210.1025   1.3744775341e+02   2.2294436419e+01    0.4063572     0.276115  53.47  0.002386678    1.332    0.249
        85  -9.5994     33.4382    211.3394   1.4500684609e+02   2.7104919160e+01    0.1613849    0.1268042  44.99 0.0009913647    1.516    0.340
        86 -10.0601    109.0308    208.1373   1.2986444660e+02   1.6994699648e+01    0.3350618    0.1670454 -63.72  0.001411081    2.144    0.534
        87 -10.0807    135.3543    208.1714   1.2441874182e+02   1.2330945885e+01    0.3266547    0.2160989  30.29    0.0016031    1.802    0.445
        88  -8.7959    197.7258    208.0169   1.1168981276e+02   5.8965268782e-01    0.1536458    0.1204733 -38.36 0.0003077866    1.381    0.276
        89 -11.5351     92.5706    204.8598   1.3281307285e+02   2.0391034091e+01    0.6257434    0.3676708  52.31  0.001655728    1.549    0.355
        90 -11.9069    247.3709    205.4449   1.0189887734e+02  -7.7936060596e+00     0.518841    0.3610333  25.21  0.003013027    1.361    0.265
        91 -10.4582    174.8302    205.9473   1.1590330202e+02   5.3015943300e+00    0.2959572    0.2252927 -21.56  0.001555686    1.646    0.392
        92  -9.4700    125.7070    205.9288   1.2608267877e+02   1.4534887778e+01    0.1901981    0.1651482  85.62 0.0004462367    1.121    0.108
        93  -9.4275    149.5799    204.5494   1.2087402550e+02   1.0395478486e+01    0.2739848    0.1991301 -14.74  0.001061782    2.238    0.553
        94 -10.8826    102.2702    202.4957   1.3048392298e+02   1.9315173703e+01    0.4403618    0.2552398  59.46   0.00136382    1.710    0.415
        95 -10.5842     99.2490    196.7816   1.3031855379e+02   2.1042659253e+01    0.6020256    0.2857009  44.27  0.002722162    1.983    0.496
        96  -9.0704     76.2197    203.3938   1.3597048355e+02   2.3206066380e+01    0.3164395    0.2165365  29.37  0.001725418    1.979    0.495
        97 -10.0983    166.9594    203.2351   1.1703920552e+02   7.3214560792e+00    0.2065047    0.1776718  26.27            0    1.215    0.177
        98 -10.6414    169.6887    200.1981   1.1593496027e+02   7.3686910475e+00    0.2447148    0.2189804  43.56 0.0003183548    1.029    0.028
        99  -9.7156    133.1485    202.7444   1.2402703006e+02   1.3831393868e+01    0.2155516    0.1952076 -74.53 0.0002737545    1.152    0.132
       100  -8.6370    224.7472    202.6642   1.0548955795e+02  -3.4843618543e+00    0.1331529   0.09618314  -0.69 0.0002321556    1.565    0.361
       101  -9.6508    138.1198    201.8026   1.2282699499e+02   1.3100991315e+01    0.2037876    0.1718545  68.72 0.0003379888    1.141    0.123
       102 -10.4353    197.2096    200.8802   1.1046991516e+02   1.9191430984e+00    0.3126794    0.1858119  37.51  0.001262179    1.591    0.372
       103 -10.9034    115.2844    200.2314   1.2741628334e+02   1.7570907647e+01    0.2385987     0.224858  82.21 0.0002247226    1.130    0.115
       104 -10.3847    119.9968    199.1008   1.2624315807e+02   1.6975599198e+01    0.4550413    0.2420551  62.02  0.001653677    2.239    0.553
       105 -10.8699     53.7632    198.3956   1.3992631399e+02   2.7376921010e+01    0.5956146    0.1882959  49.11  0.002512674    2.935    0.659
       106 -10.7718     56.2920    194.1887   1.3896206875e+02   2.7966187925e+01     0.391439    0.2118492 -81.11  0.001322429    1.761    0.432
       107 -10.1208     44.1367    199.4469   1.4192978349e+02   2.8349387446e+01    0.2745265    0.2099465  54.90  0.001016977    1.310    0.236
       108  -8.8120    158.5428    199.5069   1.1813611604e+02   9.6674700313e+00    0.1415642    0.1299345  53.27 7.411223e-05    1.005    0.005
       109  -9.1034     86.2722    199.2745   1.3339057150e+02   2.2578318913e+01    0.1899618    0.1648534 -76.29 0.0001836294    1.182    0.154
       110  -9.6875     85.7758    195.9871   1.3306307069e+02   2.3370774957e+01     0.205822    0.1706291  73.63 0.0002064092    1.046    0.044
       111  -8.5510    149.7176    198.7338   1.1986141443e+02   1.1523184309e+01    0.1302782    0.1107456  10.11 0.0001933138    1.489    0.328
       112 -10.1365    133.9029    197.6053   1.2303664980e+02   1.4749252239e+01    0.3152476    0.2175454 -81.50  0.001251771    1.804    0.446
       113 -11.8888     69.2176    194.7981   1.3637612399e+02   2.6080604584e+01    0.4595005     0.376177 -17.78  0.002652169    2.119    0.528
       114 -11.9090     73.6318    187.6384   1.3454754696e+02   2.7037704934e+01    0.3453162    0.2719897 -61.56 0.0008574252    1.327    0.246
       115 -10.1276     77.3168    188.7330   1.3390104227e+02   2.6254348059e+01    0.1949944     0.145498 -70.20 0.0002342275    1.252    0.201
       116 -10.3337    112.9299    193.9679   1.2696772547e+02   1.9322301878e+01    0.4860529    0.2746161 -65.24  0.001499924    1.881    0.468
       117  -9.1551    107.2273    196.2062   1.2853261371e+02   1.9826503158e+01    0.1923676    0.1445707  75.16 0.0004774301    1.314    0.239
       118 -10.5815    248.7957    193.8737   9.9401042646e+01  -6.2996126176e+00    0.3639826    0.1985427  15.52  0.001540611    2.783    0.641
       119  -9.9661    159.6369    194.1279   1.1694724825e+02   1.0516481319e+01    0.3108239    0.2215497  59.43  0.001030848    1.467    0.318
       120 -10.8824    120.6138    192.8092   1.2512101793e+02   1.8203877509e+01    0.3927506    0.2861536 -56.49 0.0009041055    1.432    0.301
       121 -10.7629     38.7842    192.5545   1.4230823688e+02   3.0469421679e+01    0.2668356    0.1716168 -68.42  0.001637462    1.407    0.289
       122  -9.4092     82.0313    194.2671   1.3362645202e+02   2.4321732268e+01    0.1782378    0.1679053 -88.39 0.0002108593    1.234    0.189
       123  -9.1983     84.7037    192.3345   1.3280201630e+02   2.4339308943e+01    0.1610611    0.1278611  39.60 0.0003361313    1.428    0.300
       124 -10.9962     25.9786    192.8592   1.4483382975e+02   3.1813069216e+01    0.2642035    0.1606104  81.61 0.0009926262    1.401    0.286
       125 -14.4998      4.0361    244.1995   1.5199303352e+02   2.3891785158e+01      1.33846     0.495538 -80.02  0.003597163    2.209    0.547
       126  -9.5136     47.4037    192.9835   1.4063127842e+02   2.9351926456e+01     0.186213    0.1229691 -63.38     0.001111    1.485    0.327
       127 -10.3093    191.4556    191.3537   1.0980586862e+02   4.7502588700e+00    0.2712291    0.2448327  16.38 0.0006176472    1.108    0.097
       128 -10.4692    171.7518    189.7535   1.1357559773e+02   8.9780177858e+00    0.4045272    0.2992959 -80.39  0.001931119    1.887    0.470
       129  -9.3154    135.3169    190.1283   1.2147415037e+02   1.6050832883e+01    0.1929109    0.1735235 -83.03 0.0004378416    1.115    0.103
       130 -10.8548     31.2028    189.9767   1.4355793077e+02   3.1876908553e+01    0.4580105    0.2695144  62.88  0.002040687    1.572    0.364
       131 -10.8121     26.0198    184.3246   1.4405649401e+02   3.3654085210e+01    0.2772247    0.1860254  73.27  0.001399126    1.302    0.232
       132  -9.9990     29.8710    183.0470   1.4316331664e+02   3.3531931173e+01    0.3886628      0.20636  62.06  0.002159836    1.848    0.459
       133 -11.1277    249.9038    187.6127   9.7961621429e+01  -5.5225869908e+00    0.3847871    0.2180151 -26.14  0.001899177    1.780    0.438
       134  -9.7188     42.2947    189.0646   1.4125508792e+02   3.0823321211e+01    0.1708231    0.1297666  88.74 0.0006806937    1.044    0.042
       135  -8.9626    150.7246    187.3206   1.1762048759e+02   1.3655262356e+01    0.1444095    0.1108769  82.81 0.0002652057    1.575    0.365
       136  -9.6698    175.7373    187.0062   1.1221092006e+02   8.7157305377e+00    0.1960451    0.1860186 -43.29 0.0003981545    1.116    0.104
       137  -9.2133     67.9035    186.5443   1.3563318441e+02   2.8096315871e+01     0.182707    0.1237443  41.53  0.001018799    1.581    0.367
       138  -8.9949    154.5016    185.4881   1.1646167817e+02   1.3286059091e+01    0.1456551    0.1367732  56.63  7.71776e-05    1.012    0.012
       139  -9.9534    143.2508    184.9726   1.1882471301e+02   1.5615049002e+01    0.2263846    0.1918055  74.24 0.0004790536    1.207    0.172
       140 -10.2751    140.1512    183.1251   1.1917245555e+02   1.6613049565e+01    0.2373101    0.2154994  35.41 0.0003791036    1.184    0.155
       141  -9.8719     86.1216    183.5638   1.3127070818e+02   2.6078887680e+01    0.3504381    0.2056183  31.90  0.001192973    2.130    0.531
       142  -9.4786     36.9138    184.1252   1.4184111993e+02   3.2528202481e+01     0.237152    0.1500687  48.03 0.0003528005    1.601    0.376
       143 -10.5405     54.3350    182.0564   1.3797743959e+02   3.0911309501e+01    0.2213981    0.2095013  23.49 0.0006031416    1.480    0.324
       144 -12.6595    248.3326    171.9250   9.5029948067e+01  -2.7357968755e+00    0.8668136    0.5061857 -31.51  0.004276073    1.624    0.384
       145 -10.1872    169.5388    248.8051   1.2372152518e+02  -9.5434581211e-01    0.2954292    0.1867022  17.58 0.0007643775    2.346    0.574
       146  -9.2635    104.0876    180.7066   1.2682772054e+02   2.3785133381e+01    0.1862581    0.1652531  65.23 0.0003302329    1.080    0.074
       147 -13.0745    248.3136    114.0364   8.2364071051e+01   7.2275423269e+00     1.328405    0.6497692 -31.93  0.005516498    2.105    0.525
       148  -9.4421    175.8342    179.8312   1.1077936034e+02   1.0113266251e+01    0.1976626    0.1734483  85.74  0.000344741    1.308    0.235
       149  -9.3818    170.0863    180.1165   1.1206245202e+02   1.1234197137e+01    0.2109229    0.1918082  13.99            0    1.200    0.167
       150  -9.2291     48.1357    179.8161   1.3903399054e+02   3.2182878967e+01    0.1825578    0.1374713  73.42  0.000462663    1.192    0.161
       151 -11.5028     83.0793    175.7424   1.3080198660e+02   2.8328784571e+01    0.3553436    0.3454849 -85.41  0.001247458    1.234    0.190
       152  -9.9438    179.4770    176.1040   1.0925387186e+02   1.0105766753e+01    0.3935795    0.1451649 -48.08 0.0009511143    2.922    0.658
       153  -9.5141    114.9782    176.3240   1.2362528578e+02   2.2854479768e+01    0.2649128     0.189681 -88.77 0.0009619434    1.607    0.378
       154 -11.7643     68.8312    174.4236   1.3382455427e+02   3.0717118710e+01    0.4560039    0.3129214 -50.56  0.002492295    1.623    0.384
       155 -10.9796     68.9912    166.7936   1.3270061429e+02   3.2456881460e+01    0.3573659    0.1994272 -56.17 0.0002487586    1.701    0.412
       156  -9.6562     30.0516    177.5408   1.4258046252e+02   3.4728109958e+01    0.2716006    0.1154418  34.06  0.001190975    2.718    0.632
       157 -10.2932     76.3518    175.1100   1.3222970257e+02   2.9482830487e+01    0.4042929    0.2111925  64.01  0.001432626    2.328    0.571
       158 -10.7761     95.5684    172.8880   1.2750183109e+02   2.6998264812e+01     0.293047     0.223936 -66.47  0.001169671    1.241    0.194
       159 -10.2245     80.8489    163.7609   1.2946166576e+02   3.1443401099e+01    0.2437837    0.2044663  86.50  0.001414594    1.098    0.089
       160 -12.6707     88.3522    167.0805   1.2823257539e+02   2.9508316432e+01    0.8544923    0.6667086 -60.51  0.004752442    1.240    0.194
       161 -10.7799     89.9486    160.6458   1.2677565764e+02   3.0755295585e+01    0.3384064    0.2437165 -68.41 0.0006633863    1.303    0.233
       162  -8.5799     42.2963    174.2818   1.3964548163e+02   3.4117490387e+01    0.1136984   0.08842789 -50.88 0.0003421158    1.540    0.351
       163 -11.1044     28.8935    171.3148   1.4218069754e+02   3.6234186533e+01    0.3744839    0.2712672 -73.62  0.001381622    1.162    0.140
       164  -9.3445    154.8012    172.3814   1.1386462965e+02   1.5980220125e+01    0.1983367    0.1386191  36.02 0.0002557225    1.503    0.334
       165  -9.0171    100.6153    170.7211   1.2597422686e+02   2.6652089958e+01    0.1932836    0.1280737 -70.97 0.0008524198    1.529    0.346
       166  -9.2441    167.0179    170.2608   1.1073666541e+02   1.3894236935e+01    0.2031922    0.1995988  71.56  0.001128688    1.023    0.022
       167 -10.6671     43.7521    168.6965   1.3866935927e+02   3.5218064197e+01    0.3560064    0.2891376 -75.21  0.001775241    1.113    0.101
       168  -9.9275     48.0292    168.5143   1.3769803281e+02   3.4760461377e+01    0.2765199    0.1765248  64.00  0.001547118    1.586    0.369
       169  -9.6610    107.0789    168.3216   1.2405110993e+02   2.6086966181e+01    0.1999883    0.1697607  58.66 0.0004240473    1.146    0.127
       170  -9.2499     58.3174    167.4564   1.3524296290e+02   3.3731890151e+01    0.1664158    0.1136325  55.99 0.0007226626    1.472    0.321
       171  -9.7641     66.0201    181.8886   1.3544371345e+02   2.9405174390e+01    0.2132027    0.1707345 -64.83 0.0007326281    1.261    0.207
       172  -9.2063    136.4208    165.4806   1.1666491451e+02   2.1212177520e+01    0.1495809    0.1400042  84.37 3.101698e-05    1.024    0.024
       173  -9.1291     53.8447    164.8581   1.3591134291e+02   3.4896293160e+01    0.1777078    0.1282229  88.48 0.0003463675    1.278    0.218
       174 -10.6361     46.8173    163.0738   1.3727825431e+02   3.6151979340e+01    0.2366546    0.1767477  72.19  0.001440073    1.289    0.224
       175 -13.4959     30.8719    227.6740   1.4671477356e+02   2.4116318005e+01      1.61872    0.8786362  48.52   0.01029222    1.670    0.401
       176  -8.4812    154.3137    161.6561   1.1177537920e+02   1.8392235578e+01    0.1583526     0.119467  87.37 0.0007047204    1.709    0.415
       177  -9.0438    123.0677    160.8043   1.1887355893e+02   2.4877936383e+01    0.1917707    0.1137259  45.13 0.0003841506    1.675    0.403
       178 -11.1723     95.9881    157.5234   1.2476695092e+02   3.0498994610e+01    0.4510586     0.244129 -62.02  0.001034158    1.795    0.443
       179 -10.8571     73.4526    157.7307   1.3025676633e+02   3.3944367046e+01    0.4480933    0.3389366  88.53   0.00249067    1.306    0.234
       180  -9.7788     79.0497    158.9142   1.2910311666e+02   3.2848457119e+01    0.2093044    0.1807635 -85.54 0.0004497766    1.030    0.029
       181  -9.2085     52.2991    158.4194   1.3538734363e+02   3.6577151114e+01    0.1661839    0.1137498  53.61 0.0009375655    1.517    0.341
       182  -9.7642     47.5889    157.8002   1.3640258408e+02   3.7279762379e+01    0.2105137    0.1752147  54.75 0.0007204129    1.296    0.228
       183 -11.2551    133.5207    142.8053   1.1258121073e+02   2.6925393325e+01     1.116849    0.2944841 -52.12  0.003043717    4.126    0.758
       184  -9.9816    132.1647    152.3275   1.1497556001e+02   2.5031773797e+01     0.261246    0.2117396 -63.02 0.0003476336    1.237    0.192
       185  -9.2998    228.4308    155.1208   9.4989220756e+01   3.9714218984e+00    0.2185778    0.1346102 -37.69 0.0005655508    1.553    0.356
       186  -8.7569    124.6547    154.3031   1.1719133107e+02   2.6062558767e+01    0.1573121    0.1146198  79.46 0.0003448906    1.687    0.407
       187 -11.4602    113.9961    150.8636   1.1908517170e+02   2.8882428711e+01    0.3731364    0.3310749 -36.63  0.002008332    1.274    0.215
       188 -10.8229    101.4958    150.9871   1.2219464068e+02   3.1096485063e+01    0.3993985    0.3318186 -83.27  0.001874966    1.195    0.163
       189 -10.0879     96.3375    152.3236   1.2372471132e+02   3.1661370939e+01    0.2643857     0.216267  -8.37  0.001351717    1.772    0.436
       190  -9.6647    104.2448    145.9454   1.2051414771e+02   3.1798602304e+01    0.3244704    0.2503451 -34.52  0.001620201    1.548    0.354
       191  -9.1976    104.2822    142.3054   1.1976212577e+02   3.2645469932e+01    0.2856371     0.179217 -35.78 0.0009864105    2.017    0.504
       192  -9.7925     53.0019    146.2820   1.3343982365e+02   3.9323572161e+01    0.2067267    0.1707144 -70.08 0.0001823123    1.055    0.052
       193  -9.9997     60.4298    151.1172   1.3236555527e+02   3.7267761165e+01     0.306038    0.1745276  58.79  0.001018552    2.014    0.503
       194 -11.3988     55.9849    150.3876   1.3333668673e+02   3.7999456124e+01     0.577302    0.3633864 -49.73  0.002483139    1.631    0.387
       195  -8.6429    148.6681    152.6912   1.1115363149e+02   2.1549050899e+01    0.1535064    0.1247853   0.22 0.0007041404    1.669    0.401
       196 -10.3862     90.2542    149.9026   1.2478265961e+02   3.3232078512e+01    0.2400364    0.2179586  70.50 0.0003514223    1.103    0.093
       197 -11.6652     59.4037    135.5932   1.3006459544e+02   4.1043966345e+01    0.6408546      0.26946 -70.64   0.00249453    2.704    0.630
       198 -13.1090     67.4320    144.2274   1.2950002932e+02   3.7963882479e+01    0.8299339    0.5637003  87.83  0.004252449    1.672    0.402
       199 -12.0800     74.1016    139.1753   1.2689627058e+02   3.8226317091e+01    0.6748267    0.5042175 -87.49  0.002957627    1.424    0.298
       200 -11.6507     33.0496    136.7013   1.3697262453e+02   4.3706936615e+01    0.3778227    0.1788241 -40.72  0.001705366    2.828    0.646
       201 -11.1501     35.1681    148.9165   1.3813473675e+02   4.0685739129e+01    0.2436067    0.1609719  49.46  0.001173188    1.644    0.392
       202 -13.8026     24.6571    154.9559   1.4131022496e+02   4.0332247932e+01     1.498885    0.8090135  43.33  0.008553909    2.014    0.504
       203 -11.8800     42.7514    237.5129   1.4543304112e+02   2.0793952025e+01    0.4039136     0.260134  63.95  0.002753353    1.211    0.174
       204  -8.8536    142.4790    147.4841   1.1146550136e+02   2.4011931782e+01    0.1525195    0.1488253  89.95 0.0001922383    1.025    0.025
       205 -11.8405     37.4767    143.2056   1.3680155461e+02   4.1766297075e+01    0.4028679     0.208429 -76.37  0.001231295    1.797    0.444
       206 -12.6532      8.8327    143.0277   1.4357428658e+02   4.4349607867e+01    0.4493692     0.281984 -49.09  0.002824986    1.701    0.412
       207 -10.8969      2.4949    138.8332   1.4457961175e+02   4.5736947541e+01    0.3331659    0.2042112  64.11   0.00210068    1.763    0.433
       208 -11.1277     42.7151    141.1423   1.3521131510e+02   4.1692694814e+01    0.3689159     0.174339  59.38  0.001248691    2.910    0.656
       209 -13.2050     44.3463    228.4507   1.4445696351e+02   2.2350751305e+01    0.5629753    0.3997906  78.71 0.0008418036    1.070    0.066
       210 -11.4810     26.1657    138.9806   1.3898535934e+02   4.3828056728e+01     0.296189    0.1271272 -61.38  0.001479457    1.821    0.451
       211 -11.5257      2.3459    144.6075   1.4520780405e+02   4.4474253606e+01     0.421564    0.1620812 -72.78  0.002168222    1.941    0.485
       212 -10.6828    112.1392    136.2556   1.1646987033e+02   3.2628144206e+01    0.3957389    0.3296287  25.53  0.001322978    1.412    0.292
       213  -9.8285    134.4775    155.5413   1.1509844996e+02   2.3837359458e+01    0.3027468    0.1478045 -50.99 0.0007238831    2.047    0.512
       214 -12.7101     45.8008    131.7672   1.3295903031e+02   4.3535230086e+01    0.6574014    0.4619713  70.98  0.003722571    1.633    0.388
       215 -12.2872     19.5679    133.2716   1.3985143984e+02   4.5694282249e+01    0.3777787    0.1941484  53.81  0.001786015    2.327    0.570
       216 -11.5986      2.4756    132.0309   1.4384499989e+02   4.7239257409e+01    0.3780831    0.1931549 -78.03  0.002034929    1.563    0.360
       217 -11.2364      2.3831    125.5690   1.4312406647e+02   4.8669730896e+01     0.297444    0.1378854  89.49  0.001470268    2.433    0.589
       218 -10.8057    135.0571    179.5893   1.1966253555e+02   1.8365266496e+01    0.3934329    0.2860129 -61.44  0.001963946    1.429    0.300
       219 -11.9627     67.9437    128.3891   1.2647936962e+02   4.1619120965e+01      0.47947    0.3644862  63.02  0.002651838    1.487    0.327
       220  -8.8289    161.7201    129.7136   1.0280224484e+02   2.3728452433e+01    0.1510761    0.1260526   1.64 0.0001893677    1.519    0.341
       221 -12.6831     10.2821    118.9441   1.4028821197e+02   4.9608239583e+01    0.4157198     0.342477  22.30  0.002380252    1.598    0.374
       222 -12.1679     31.3893    126.6474   1.3590608776e+02   4.6169524913e+01    0.3631238     0.240426  48.30  0.001810209    1.745    0.427
       223 -11.7296     25.0625    125.9949   1.3745317203e+02   4.6881975919e+01    0.2885973    0.1806311  34.72  0.001723331    1.913    0.477
       224 -13.1272     18.2445    122.7006   1.3874471413e+02   4.8183899355e+01    0.7379254    0.3896381 -32.69  0.003751009    2.697    0.629
       225  -9.8987    117.2313    128.9861   1.1351694792e+02   3.3339212300e+01    0.2513697    0.1728232 -24.28 0.0008307424    2.051    0.512
       226  -9.5340    106.1491    128.5197   1.1629624097e+02   3.5526029417e+01    0.3823077    0.2263326 -74.19  0.001198135    2.482    0.597
       227 -10.4481    238.9190    121.7826   8.5628356979e+01   7.8297991123e+00    0.2699189    0.1995154 -13.25  0.001312471    1.677    0.404
       228 -10.9404     38.4401    121.9429   1.3327510287e+02   4.6570004943e+01     0.220537    0.1654848  59.10 0.0008647143    1.539    0.350
       229 -10.6491     55.2423    120.8953   1.2849671081e+02   4.4977851502e+01    0.2393554    0.2047468   8.48  0.001462627    1.469    0.319
       230 -10.5493    209.7683    125.8216   9.1750173499e+01   1.3487261052e+01    0.3108928    0.2570387 -34.49 0.0005018662    1.197    0.164
       231 -12.1975     31.0389    117.4306   1.3452837631e+02   4.8299265901e+01    0.4602063    0.2854407 -46.91  0.001734219    1.523    0.343
       232  -9.7318     47.5094    119.4789   1.3036441808e+02   4.6188359431e+01    0.1317713    0.1094373 -58.48 -3.126216e-05    1.054    0.051
       233 -11.7166     15.4913    114.7506   1.3831696555e+02   5.0168867533e+01    0.3239405    0.1895119 -68.92  0.001924762    1.347    0.258
       234 -11.4705    168.2400    113.3889   9.7214264923e+01   2.5667828903e+01    0.3970604    0.3296367 -78.89 0.0007234231    1.384    0.277
       235  -8.6277     81.7317    114.3019   1.1969720945e+02   4.2897571892e+01    0.1360206    0.1070183 -89.10 0.0001580817    1.527    0.345
       236 -11.6473      2.1639    110.4968   1.4127272204e+02   5.1985573584e+01    0.6051342   0.06452394 -69.13   0.00162313    7.015    0.857
       237 -10.0893    129.5088    179.7853   1.2094339028e+02   1.9386189690e+01    0.3709124    0.1756772  57.72  0.001366894    2.627    0.619
       238  -9.5934    204.4760    110.9584   8.9127825345e+01   1.7566436838e+01    0.3994954    0.1909177  35.45   0.00130995    3.221    0.690
       239 -10.5233     69.9126    111.0563   1.2232344579e+02   4.5355145467e+01    0.1996066    0.1963583 -67.16  0.001255609    1.111    0.100
       240 -10.3686     54.9827    111.2360   1.2665261724e+02   4.7222638987e+01    0.2103546    0.1446527 -34.99 0.0004142325    1.593    0.372
       241 -12.8180    248.4576    101.4298   7.9481685508e+01   9.3768707583e+00     0.926694    0.5538918 -36.44  0.004413309    1.560    0.359
       242  -9.4092    114.4870    107.0851   1.0883294768e+02   3.8794802864e+01    0.2190892    0.1436538 -48.26 0.0003406318    1.469    0.319
       243 -10.0368     62.5038    107.0763   1.2358226451e+02   4.7239154359e+01    0.2131356    0.1186423 -56.70 0.0009076829    1.577    0.366
       244 -11.1412     27.9525    106.5621   1.3352269162e+02   5.1009299285e+01    0.2649888    0.1889105 -41.36  0.001238272    1.384    0.277
       245  -9.8039    134.5718    104.7533   1.0295156066e+02   3.5144527553e+01    0.3112072    0.1478658 -39.46  0.001146978    2.177    0.541
       246  -9.2856     63.1735     99.6081   1.2167225784e+02   4.8817988344e+01    0.1729529    0.1287286  10.44 0.0006644691    1.685    0.407
       247  -9.2748     21.8371     98.1590   1.3378549379e+02   5.3351938545e+01    0.1624071    0.1117169 -47.28  0.000246679    1.262    0.208
       248  -9.7268     45.5706     90.1079   1.2484610645e+02   5.2947964539e+01    0.2908888    0.1428334  23.42  0.001397139    2.547    0.607
       249  -8.7799     24.0000     89.9946   1.3156220191e+02   5.4947057105e+01    0.2084498   0.05601818 -61.39 0.0008064969    2.971    0.663
       250 -11.9938    248.0071    142.5069   8.8777928506e+01   2.3159575360e+00     0.733583    0.5745312 -23.99  0.003536629    1.246    0.197
       251  -9.6671    183.8733    250.1987   1.2126777065e+02  -3.6047222456e+00    0.1685097    0.1337819  17.86 0.0006358013    1.328    0.247
       252  -8.8192    124.0061     51.0559   8.9574139224e+01   4.7361676548e+01     0.165863    0.1568039   9.76            0    1.032    0.031
       253 -11.7646    249.6476    241.9964   1.0809734541e+02  -1.3053908272e+01    0.4495504    0.2035625 -34.90  0.002375589    2.353    0.575
       254 -12.0348    245.1225    240.6853   1.0866180886e+02  -1.2220340970e+01    0.4108865    0.2258804  16.03   0.00215978    2.073    0.517
