#   1 NUMBER                 Running object number                                     
#   2 MAG_AUTO               Kron-like elliptical aperture magnitude                    [mag]
#   3 X_IMAGE                Object position along x                                    [pixel]
#   4 Y_IMAGE                Object position along y                                    [pixel]
#   5 X_WORLD                Barycenter position along world x axis                     [deg]
#   6 Y_WORLD                Barycenter position along world y axis                     [deg]
#   7 A_WORLD                Profile RMS along major axis (world units)                 [deg]
#   8 B_WORLD                Profile RMS along minor axis (world units)                 [deg]
#   9 THETA_WORLD            Position angle (CCW/world-x)                               [deg]
#  10 FWHM_WORLD             FWHM assuming a gaussian core                              [deg]
#  11 ELONGATION             A_IMAGE/B_IMAGE                                           
#  12 ELLIPTICITY            1 - B_IMAGE/A_IMAGE                                       
         1 -14.7211     67.8794    143.7602   1.3397850986e+02   3.7798835282e+01     5.598873     1.978451  48.43  0.007364982    3.065    0.674
         2 -13.9260    172.6584     32.8792   7.8145698318e+01   3.8129262456e+01       1.0369    0.8204823  23.26  0.002126002    1.356    0.262
         3 -14.6104    181.8926     24.6993   7.4143570716e+01   3.6724259868e+01       2.1878     1.325604  -2.02  0.005862807    1.954    0.488
         4 -14.5991    189.9567     11.1866   6.8885755566e+01   3.6037004111e+01     1.680436     1.059582  45.71   0.00330743    1.676    0.403
         5 -12.7651    125.6550    244.5250   1.3297122736e+02   1.2904875904e+01    0.3915224     0.272713  42.87  0.002808586    1.179    0.152
         6 -13.0587    198.7339    249.4000   1.2110667346e+02   3.2279895412e+00      1.04271    0.1397097  35.46   0.00348767    5.989    0.833
         7 -12.2351    163.2354    249.6708   1.2700881740e+02   7.6098807914e+00    0.3953733     0.145885  35.81  0.002231294    1.985    0.496
         8 -13.3261    177.0497    249.4391   1.2466697851e+02   5.9102256370e+00    0.8697608    0.2711758  31.81  0.004334343    2.625    0.619
         9 -19.4158     22.6432    137.8084   1.4527702367e+02   4.3723151409e+01     17.73706     1.824055 -76.18   0.03940199   10.748    0.907
        10 -12.0687     47.4294    173.6110   1.4217688086e+02   3.3868500315e+01    0.4311835    0.3023531 -59.68  0.002010708    1.571    0.364
        11 -12.0499     99.0140    162.9654   1.2893539178e+02   2.9644815981e+01     1.494026    0.8130583  55.52  0.002559746    2.124    0.529
        12 -13.1969     94.3314    170.5537   1.3106721175e+02   2.8828276346e+01     1.803266    0.2238846  40.68 0.0004510053    5.534    0.819
        13 -13.7355     83.1582    166.6663   1.3316764599e+02   3.1083836843e+01    0.5233399    0.4437085 -55.55  0.001580034    1.296    0.228
        14 -11.1464    204.2667    199.8579   1.1320414762e+02   7.8559888447e+00    0.2381892    0.1246416  17.23  0.001250163    2.091    0.522
        15 -10.0069    124.3060    209.4200   1.2952993564e+02   1.8002890959e+01    0.1684833     0.131726  72.49 0.0003317011    1.639    0.390
        16 -10.5444    108.6955    146.6723   1.2402789824e+02   3.1436166149e+01    0.2669314    0.2537643  44.45 0.0008790899    1.005    0.005
        17 -10.2782    110.6628    142.9789   1.2289050262e+02   3.1870732922e+01    0.3343252    0.2165942 -27.08 0.0009806074    2.128    0.530
        18 -12.4370     98.1772    146.2805   1.2657648987e+02   3.3123670630e+01    0.2513025    0.2302698  26.91 0.0004412493    1.122    0.109
        19 -11.0106    230.2049    166.7074   1.0295926978e+02   7.9532887426e+00    0.2726983     0.148101 -40.70  0.001417165    2.391    0.582
        20 -10.6294    116.3726    133.4892   1.1966626676e+02   3.2859419176e+01    0.2914309    0.2335384 -21.24   0.00075244    1.450    0.310
        21 -11.2497    104.7588    130.5489   1.2207451605e+02   3.5389138711e+01    0.3066653    0.2861107   5.53  0.000817923    1.142    0.124
        22 -12.0378     46.6403    131.1430   1.3808055884e+02   4.3025146889e+01    0.4157843    0.2101548  40.44  0.000986858    1.914    0.477
        23 -10.5809    135.8651    128.9930   1.1392465303e+02   3.0313204388e+01    0.3344182   0.09432838 -45.56  0.001069778    3.644    0.726
        24 -16.7877     68.1413    212.7585   1.4093035904e+02   2.4463897685e+01     7.123319     2.500371  43.62   0.03758495    2.178    0.541
        25 -10.3106    161.0915    128.1818   1.0796209841e+02   2.5715069358e+01    0.2607836     0.205175  61.21  0.001359432    1.608    0.378
        26 -10.7404    120.0798    126.9585   1.1738700827e+02   3.3550454940e+01    0.2259158    0.1702786  -9.60 0.0009399294    1.715    0.417
        27 -10.1727    111.1936    121.8903   1.1861125277e+02   3.6140520589e+01    0.2233585    0.1944621  37.56  0.000365862    1.137    0.121
        28  -9.4299      2.4538    170.2924   1.5198114106e+02   3.8411187963e+01     0.145741   0.07970191  77.47 0.0009312171    1.535    0.348
        29 -10.0197    168.4205    113.1994   1.0281959309e+02   2.6866802647e+01    0.3016371     0.238136 -78.35  0.001111113    1.998    0.500
        30 -10.1721    135.0000    112.4913   1.1032652511e+02   3.3686269680e+01    0.3243399   0.08162642 -43.81 0.0009413082    3.988    0.749
        31  -9.6918    205.3715    110.1204   9.4929808005e+01   1.9883824900e+01     0.246815     0.176924  29.43 0.0008946455    1.395    0.283
        32 -11.0159    133.7637    144.6316   1.1763416273e+02   2.7701967668e+01    0.8913249    0.2311914 -53.34  0.002382936    6.231    0.840
        33 -11.9758    193.6708    195.7914   1.1442337538e+02   9.9029361355e+00    0.9013342    0.5389968 -61.14  0.003415558    6.326    0.842
        34  -9.4970    103.8730    185.9057   1.3089719464e+02   2.4680893395e+01    0.1943363     0.125276  59.37  0.001103323    1.719    0.418
