#   1 NUMBER                 Running object number                                     
#   2 MAG_AUTO               Kron-like elliptical aperture magnitude                    [mag]
#   3 X_IMAGE                Object position along x                                    [pixel]
#   4 Y_IMAGE                Object position along y                                    [pixel]
#   5 X_WORLD                Barycenter position along world x axis                     [deg]
#   6 Y_WORLD                Barycenter position along world y axis                     [deg]
#   7 A_WORLD                Profile RMS along major axis (world units)                 [deg]
#   8 B_WORLD                Profile RMS along minor axis (world units)                 [deg]
#   9 THETA_WORLD            Position angle (CCW/world-x)                               [deg]
#  10 FWHM_WORLD             FWHM assuming a gaussian core                              [deg]
#  11 ELONGATION             A_IMAGE/B_IMAGE                                           
#  12 ELLIPTICITY            1 - B_IMAGE/A_IMAGE                                       
         1 -15.2756     29.9460    181.0954   1.3666119521e+02   3.3762627680e+01     10.13107     4.012389  87.84    0.0223537    4.479    0.777
         2 -12.9549    198.2627     34.0100   6.2776937030e+01   3.2010604938e+01     1.202086    0.8504712  59.79  0.006968344    1.406    0.289
         3 -13.7786    213.3371     16.8723   5.7386274353e+01   3.0664513122e+01     1.264248    0.9643543  40.94  0.007838025    1.907    0.476
         4 -11.3579      2.0390     14.9728   1.1060069201e+02   7.0854208125e+01    0.4198086    0.1381236 -43.64  0.002118551    2.643    0.622
         5 -11.2746      2.1110      6.5234   1.0701759741e+02   7.1957235012e+01    0.5839278    0.1399745 -42.56  0.002659939    3.942    0.746
         6  -9.2607     55.9074    240.8277   1.3715458358e+02   1.6930400197e+01    0.1722474    0.1515963  73.74 0.0002599778    1.176    0.150
         7 -11.2271    139.5034    248.8108   1.2102037267e+02   2.3396314041e+00     0.323986    0.2573192 -74.71  0.001616846    1.523    0.343
         8 -11.1461     92.4915    248.9504   1.3069159451e+02   9.9361065708e+00    0.5317882     0.275106  73.08  0.002276209    2.814    0.645
         9  -8.5565     62.8288    250.5855   1.3670721111e+02   1.3968148824e+01    0.1722291   0.09139565  52.48 0.0003898612    1.581    0.367
        10 -10.6595     24.1382    246.0937   1.4354526075e+02   1.9808474226e+01    0.3406962    0.1479371  46.71  0.001305467    1.937    0.484
        11 -11.0280     18.6484    243.3855   1.4434532858e+02   2.0983519557e+01    0.3359814    0.1625357  49.73 0.0009985432    1.741    0.426
        12 -10.3559     30.6890    245.0900   1.4228801193e+02   1.9247413706e+01    0.2811469    0.2606398 -37.02  0.002036174    1.735    0.424
        13 -10.4817     29.0602    249.1334   1.4287284106e+02   1.8615678526e+01    0.4484063    0.1537412  40.46  0.002183142    2.547    0.607
        14 -11.1938     39.2250    246.8049   1.4084537537e+02   1.7854715707e+01    0.5984397    0.4683228  42.92   0.00405701    1.436    0.304
        15 -12.1414     12.6772    238.8141   1.4511407505e+02   2.2575695348e+01    0.7305603    0.3010514 -88.23  0.003640193    2.262    0.558
        16 -10.5602     18.2987    250.1685   1.4484494210e+02   1.9646613811e+01    0.3812723    0.1439335  37.10   0.00194811    2.635    0.620
        17  -8.9473      8.4669    250.5007   1.4655344899e+02   2.0651290297e+01    0.1136766   0.08157706  76.19 5.823375e-05    1.016    0.016
        18 -10.6117      2.2272    248.3445   1.4748508452e+02   2.1728198149e+01    0.3923199    0.1795513 -83.82  0.002131966    1.813    0.448
        19 -14.5653     92.1670    228.0162   1.2827251546e+02   1.4353256606e+01     5.527756    0.7032702  42.76   0.01477815    5.469    0.817
        20  -9.8186      2.3106    221.6900   1.4589937443e+02   2.7239818107e+01    0.1862378   0.09297216 -85.86 0.0006767683    1.624    0.384
        21 -11.3979    178.8123    249.5167   1.1305842421e+02  -4.2880358883e+00    0.5817119     0.147837  33.63  0.001756598    4.619    0.783
        22 -11.1933      5.8466    224.7803   1.4544647213e+02   2.6234114270e+01    0.3346298    0.1656798 -83.35  0.001172712    1.653    0.395
        23 -12.5470     30.9262    224.6312   1.4064664383e+02   2.3572948500e+01      0.32529    0.2857843 -70.07 0.0007623269    1.374    0.272
        24  -8.3980      1.4320    235.4345   1.4689677588e+02   2.4426962639e+01    0.1142115   0.08211264  79.34 0.0001703092    1.007    0.007
        25 -13.1238     10.0933    206.8367   1.4335869932e+02   2.9759352975e+01    0.8113968    0.6288443  43.05  0.002937695    1.473    0.321
        26  -9.2197     40.3459    229.0059   1.3915866922e+02   2.1483150173e+01    0.2277687    0.1340574  63.94 0.0007339389    1.511    0.338
        27 -10.6013    226.6210    202.0700   9.5149184833e+01  -3.8985188183e+00    0.4603809    0.2736653 -59.45  0.001133569    2.731    0.634
        28  -9.3411    192.0155    192.9970   1.0026528082e+02   3.8757480957e+00    0.3702219    0.1880727 -63.92  0.001140424    4.405    0.773
        29 -11.5048     58.9580    192.3990   1.3120899881e+02   2.7527736068e+01    0.4174584    0.2581246 -45.16  0.001610388    1.991    0.498
        30  -8.1995    168.6526    214.3396   1.0930534786e+02   3.9048446137e+00    0.1457115    0.1119139  74.56 0.0007046591    1.787    0.441
        31  -8.3467    181.5174    192.4718   1.0239602457e+02   5.9601889732e+00    0.1455244    0.1397028   2.99 6.047583e-05    1.009    0.009
        32 -11.5380     65.0425    185.1592   1.2877602187e+02   2.8454685388e+01    0.3037463    0.2562422 -53.72 0.0005122796    1.285    0.222
        33 -10.8029     75.4413    173.4437   1.2440322470e+02   2.9844897634e+01    0.2603387    0.2429822 -71.58 0.0003405856    1.094    0.086
        34 -13.1354     62.1655    170.6970   1.2737320290e+02   3.2431764329e+01     0.573876     0.290827 -45.44  0.001923312    2.275    0.560
        35 -11.7957     83.2147    164.7101   1.2089333292e+02   3.0826997680e+01    0.7304199    0.6089801  67.31  0.003886675    1.228    0.185
        36 -12.7966     66.1332    142.3085   1.2144168717e+02   3.8972013628e+01     1.630533    0.9127705  83.04  0.004743234    3.543    0.718
        37  -9.8717     96.6799    149.5375   1.1433868813e+02   3.2370622797e+01    0.3433863    0.2940954 -27.66 0.0008651098    1.340    0.254
        38  -9.0408     99.5394    145.5669   1.1271749230e+02   3.2846758146e+01    0.2707018    0.2133498 -23.47  0.001285136    1.573    0.364
        39 -11.9017     84.9446    148.4362   1.1734764194e+02   3.4615993974e+01    0.3189439    0.2550327 -45.85 0.0004511406    1.256    0.204
        40 -10.0916     19.4930    234.4877   1.4358533320e+02   2.2742983822e+01    0.1881577      0.10471  40.06  0.000634519    1.823    0.451
        41  -9.3344    108.5723    135.5347   1.0798884432e+02   3.3627467910e+01    0.3514249    0.2364678 -13.62  0.001358692    2.505    0.601
        42 -10.4420     95.7932    132.4210   1.1085615675e+02   3.6715746066e+01    0.2916202    0.2402979 -21.36  0.000798162    1.420    0.296
        43 -10.5084     46.7580    234.9778   1.3842105843e+02   1.9380979682e+01    0.5948702    0.2420613  68.13  0.002185172    3.245    0.692
        44  -9.1540    106.1091    122.7008   1.0560920813e+02   3.7131414827e+01    0.1989771    0.1900831  23.76  0.000297479    1.095    0.087
        45 -10.1696     53.4201    117.6865   1.2026268004e+02   4.6606310282e+01    0.2667372    0.1269345 -62.28 0.0006271453    2.049    0.512
        46  -9.9841    167.8477    112.8163   8.7489608342e+01   2.6011506335e+01    0.3668703    0.2826323 -81.33  0.001160794    1.572    0.364
        47  -9.1233    203.7070    111.4412   8.0044361082e+01   1.8136863260e+01     0.196967    0.1410152  43.03 0.0009394976    1.589    0.371
        48 -13.6087     37.6288    216.5892   1.3858596748e+02   2.4572294133e+01    0.9264236    0.7002213  87.19  0.002737849    1.090    0.083
        49 -10.0936     12.9994     61.5136   1.2104991238e+02   6.2451114258e+01    0.1585976    0.1081797   9.51 0.0006012379    1.570    0.363
        50 -11.1181    152.0170    228.5158   1.1531996742e+02   4.0694235684e+00    0.3766074    0.2395522  23.26  0.001770648    1.860    0.462
        51 -10.8641    162.4869    248.2771   1.1619656258e+02  -1.3980873242e+00    0.3690046    0.2162397 -24.67  0.001672517    2.662    0.624
        52 -11.7216    127.3031    246.8146   1.2327832183e+02   4.7480887592e+00     0.511273    0.3331059  81.24  0.002488737    2.230    0.551
        53 -11.2247     16.7735     25.4123   1.0767543738e+02   6.8176058842e+01    0.2288835    0.1845799  11.88 0.0005278654    1.327    0.246
        54 -12.2444    105.3381    243.1476   1.2737500411e+02   9.0727912161e+00    0.4870853    0.3094643  50.06  0.002318427    1.373    0.272
