#   1 NUMBER                 Running object number                                     
#   2 MAG_AUTO               Kron-like elliptical aperture magnitude                    [mag]
#   3 X_IMAGE                Object position along x                                    [pixel]
#   4 Y_IMAGE                Object position along y                                    [pixel]
#   5 X_WORLD                Barycenter position along world x axis                     [deg]
#   6 Y_WORLD                Barycenter position along world y axis                     [deg]
#   7 A_WORLD                Profile RMS along major axis (world units)                 [deg]
#   8 B_WORLD                Profile RMS along minor axis (world units)                 [deg]
#   9 THETA_WORLD            Position angle (CCW/world-x)                               [deg]
#  10 FWHM_WORLD             FWHM assuming a gaussian core                              [deg]
#  11 ELONGATION             A_IMAGE/B_IMAGE                                           
#  12 ELLIPTICITY            1 - B_IMAGE/A_IMAGE                                       
         1 -18.7220    240.5146    145.7917   1.3930083345e+01   8.9443476679e+00     6.004056     4.280939 -40.52   0.02786251    1.237    0.192
         2 -13.0812     11.9226     62.6784   5.9649733140e+01   6.5534197105e+01     1.876377    0.2854931 -59.67   0.00576876    3.907    0.744
         3 -13.1287      5.7063     54.6965   6.1594845291e+01   6.7940679916e+01      2.03648    0.3729311 -58.24  0.006815534    3.465    0.711
         4 -12.5096    218.8453     37.3171   3.5405592103e+02   2.7805720827e+01     1.438063    0.4275791 -51.22  0.006092789    2.854    0.650
         5 -13.7634    193.1214     11.0365   3.4976969010e+02   3.6011590813e+01     2.908575    0.9648542 -68.35   0.01102889    3.752    0.733
         6 -14.2980    230.0480      6.8814   3.4684916451e+02   2.9114766658e+01     2.989177      1.23439  86.60   0.01640075    2.515    0.602
         7  -9.5787     47.0777     13.3525   1.7417137284e+01   7.0437540114e+01    0.2215084    0.1772471  -4.93 0.0008185568    1.394    0.283
         8 -10.7485    126.8829      5.7149   3.5405285772e+02   5.2006405138e+01    0.3566048    0.2418013  41.81  0.001181484    1.801    0.445
         9 -10.1298    152.9893    200.7117   3.8803588298e+01   1.1917618621e+01    0.2561927    0.1911055 -41.48  0.001040007    1.383    0.277
        10 -11.4178    152.3793    195.1014   3.8041050671e+01   1.3017933194e+01    0.4199752     0.313266 -18.41  0.001978405    1.375    0.273
        11  -8.7341    228.5018    237.4959   3.0625875192e+01  -2.1433794848e+00    0.1056959    0.0744132  -7.52 -0.0001194612    1.026    0.025
        12  -9.5032    245.3522    233.2747   2.7497528715e+01  -3.1491136158e+00    0.1732879    0.1255967   5.83 0.0007234451    1.240    0.193
        13  -9.1021      1.9555    202.9756   7.6727465897e+01   2.9615527254e+01    0.1864336    0.1529151  54.38 0.0003181294    1.023    0.022
        14 -10.5174     79.3277    191.1410   5.5151510084e+01   2.4155312719e+01    0.3143675    0.2203429 -32.94  0.001060412    1.767    0.434
        15 -10.6539    113.1208    153.0716   3.9998824358e+01   2.7887299465e+01    0.4477311    0.3061655 -39.42  0.002108542    1.569    0.362
        16 -11.4219     68.0395    144.1594   5.1695728092e+01   3.7342532805e+01    0.8158581    0.4137781  55.29  0.003063175    2.386    0.581
        17 -11.0622    120.9521    136.1421   3.4465289942e+01   3.0382943873e+01    0.7197452    0.2644262 -50.64  0.001876857    2.699    0.629
        18 -10.9989    125.3486    131.1176   3.2217699586e+01   3.0693260550e+01    0.4765218    0.2500165 -45.53 0.0006286823    1.887    0.470
        19 -12.3016    119.1830    122.4316   3.1833209772e+01   3.3836931189e+01    0.7333369    0.6104856 -27.70  0.003702701    1.341    0.254
        20 -10.6368    124.6935    124.0023   3.0757050927e+01   3.2408642056e+01    0.3830377    0.2618918 -45.54 0.0009577202    1.441    0.306
        21 -10.2114    112.0759    136.8198   3.6993050599e+01   3.1854842298e+01    0.2931768    0.2293343 -52.84 0.0005450033    1.277    0.217
        22 -10.0431    106.8240    128.6345   3.6676364364e+01   3.4752605154e+01    0.5581738    0.2355859 -42.98  0.001933822    2.636    0.621
        23  -8.9241     86.2519    115.9470   4.0051936383e+01   4.1634842031e+01    0.2269963    0.1885693 -57.84  0.001117699    1.196    0.164
        24 -12.0486    114.4343    110.5576   3.0219140106e+01   3.7474784922e+01     1.171359    0.6730371 -33.85  0.004607676    2.193    0.544
        25 -11.5312    124.9887    106.0121   2.6251425792e+01   3.6303301756e+01    0.5380894    0.3771463 -56.32  0.002506897    1.456    0.313
        26 -11.8457    119.9969    101.9791   2.6488130747e+01   3.8223839098e+01     0.476907    0.4193062  83.18  0.002470124    1.214    0.176
        27  -9.3131     87.3086    108.9675   3.8015807592e+01   4.3169122258e+01     0.218003    0.1949819 -55.89 0.0004246309    1.112    0.101
        28 -12.6754     50.3517     92.6833   4.7785360216e+01   5.3524510313e+01    0.5784344    0.5040729 -56.84 0.0009305653    1.122    0.108
        29 -12.9986     66.2258    100.7485   4.3420870874e+01   4.8968786274e+01     0.988131    0.6981929  56.82  0.001482284    1.561    0.359
        30 -13.9399     60.1093     94.8656   4.4314607892e+01   5.1469053794e+01     2.354734     1.098129  38.45  0.005736571    2.105    0.525
        31 -10.9824    155.2141    103.1173   1.8625557700e+01   3.0572621849e+01    0.4796478     0.332302 -63.71  0.002295223    1.649    0.393
        32  -9.3511     49.7229    105.9992   5.1095678843e+01   5.0112801655e+01    0.2086176    0.1878932 -68.22 0.0002338768    1.079    0.073
        33  -9.7563     56.2598    232.0275   6.4965794702e+01   1.8123392044e+01    0.2080371    0.1786624  18.43 0.0005603838    1.208    0.172
        34  -9.1206     96.7892    104.1926   3.3750345192e+01   4.2494376214e+01    0.2268199    0.2075007  81.59 0.0005181069    1.124    0.110
        35 -10.0821    110.3991    102.9884   2.9381847801e+01   4.0009398155e+01    0.2899525    0.2113263  62.83   0.00061313    1.539    0.350
        36 -11.6253    165.3418    100.4302   1.5997939537e+01   2.8996566381e+01    0.5313791    0.3635373 -18.32  0.001064741    2.014    0.504
        37  -9.2058    130.3009     98.3344   2.2907543080e+01   3.6798845147e+01    0.1490474    0.1214637  -3.95 0.0004541396    1.656    0.396
        38 -16.3191    206.9607    177.1959   2.4586693518e+01   8.5879899948e+00     1.958619     1.696408 -25.03   0.01019049    1.148    0.129
        39 -16.2168    178.5072    173.7298   2.9052840082e+01   1.3109076679e+01     3.331003     2.150663  34.95  0.009341977    1.611    0.379
        40 -13.7322     24.4184     87.2445   5.8310815504e+01   5.8106906918e+01      1.18029    0.9952133  16.78  0.003840314    1.257    0.205
        41  -9.7486    117.0886     92.0627   2.4542257998e+01   4.0972438618e+01     0.422616    0.2148371 -50.68   0.00165869    1.992    0.498
        42  -9.6244    105.1150    104.9445   3.1425215757e+01   4.0648372476e+01    0.3148946    0.2097088 -44.72 0.0007811346    1.521    0.342
        43 -15.3513    227.5497    167.5457   1.9649813397e+01   7.4158845254e+00    0.8091804    0.6379552  50.62  0.003245921    1.843    0.457
        44 -10.2922    162.3194     81.4350   1.1721646036e+01   3.3038701986e+01    0.4297708    0.2564608  60.14  0.002031945    1.797    0.444
        45 -12.9922      6.3620     86.5901   6.6979028930e+01   5.9677584282e+01     1.516999    0.6908604 -74.99   0.00643735    2.015    0.504
        46  -9.6372    222.7060    227.6021   3.0113701149e+01  -3.6851970690e-01    0.2629408    0.1406487  38.28  0.001608504    2.483    0.597
        47  -8.5813    128.4060     78.4853   1.7782048956e+01   4.1175660137e+01    0.1477543    0.1395079 -67.52 0.0001338271    1.028    0.027
        48 -10.6301    115.1148     98.7869   2.6939020357e+01   3.9951538551e+01    0.5621243     0.370584 -80.05   0.00222865    2.341    0.573
        49  -9.9588     38.0462     72.4867   4.8049517143e+01   6.0353854462e+01    0.2721193    0.2001335 -53.88 0.0005165362    1.311    0.237
        50  -9.5836    227.9287     71.1038   5.8910668651e-01   2.1709388179e+01    0.1734941    0.1461248 -47.69 0.0005117057    1.090    0.083
        51  -9.2921    236.9675     71.5403   3.5982439631e+02   2.0110914100e+01    0.2116274     0.199094 -55.53  0.001080607    1.247    0.198
        52  -9.7410    233.0047     69.9809   3.5986895862e+02   2.0990264234e+01    0.3423752    0.1814733  43.80  0.001782367    2.962    0.662
        53 -10.2374    169.8610     70.2351   7.5358517863e+00   3.3272169410e+01    0.2515782     0.203178 -29.55  0.001404865    1.349    0.259
        54 -10.6846    150.0300    227.3277   4.3302965716e+01   7.7357809419e+00    0.2096181     0.178013 -40.72 0.0007087952    1.364    0.267
        55 -10.5496    193.9199    223.6902   3.4372471981e+01   3.1642795547e+00    0.3262486      0.21991  -5.50  0.001328304    1.341    0.254
        56  -9.0678    209.4409     64.2376   9.6815947346e-01   2.6048262182e+01    0.2862225    0.1927499   8.22  0.001091384    3.212    0.689
        57 -10.4056    219.4304     61.7602   3.5940061853e+02   2.4518908489e+01    0.3669013    0.2085969 -49.68  0.001438854    1.436    0.304
        58  -9.9557    226.1991     60.6244   3.5852019928e+02   2.3445064443e+01    0.2094211    0.1728733 -49.80 0.0004112944    1.077    0.071
        59 -12.0847    227.3081     48.5548   3.5583936997e+02   2.4825851014e+01     1.160199    0.2838198 -45.82  0.004777981    2.939    0.660
        60  -9.6391    200.7189    218.2627   3.2370295299e+01   3.1832452130e+00    0.1688724     0.144357  -6.14 0.0003165807    1.193    0.162
        61  -8.8858    152.4767    212.9817   4.0773176157e+01   9.8326009933e+00    0.1680996    0.1186881 -41.93 0.0003083655    1.489    0.328
        62  -9.1716    207.3821     50.8610   3.5810741551e+02   2.8292450688e+01    0.1640728    0.1583823 -61.30 0.0002712865    1.265    0.210
        63  -9.8687    163.5382    202.5107   3.6903644319e+01   1.0181898013e+01    0.2843989    0.1235352 -52.26  0.001247654    2.827    0.646
        64 -10.2123    250.4066     39.3898   3.5233365090e+02   2.1954902154e+01    0.2205468    0.1066778 -37.89 0.0008786899    1.562    0.360
        65  -9.8746    165.1378    220.2071   3.9258811712e+01   7.0455364537e+00    0.1964395    0.1650291 -84.04  0.001188061    2.090    0.521
        66 -12.0590    159.5646    197.2624   3.6880493165e+01   1.1632676159e+01    0.5801623    0.4186676  19.97  0.001571972    1.310    0.237
