#   1 NUMBER                 Running object number                                     
#   2 MAG_AUTO               Kron-like elliptical aperture magnitude                    [mag]
#   3 X_IMAGE                Object position along x                                    [pixel]
#   4 Y_IMAGE                Object position along y                                    [pixel]
#   5 X_WORLD                Barycenter position along world x axis                     [deg]
#   6 Y_WORLD                Barycenter position along world y axis                     [deg]
#   7 A_WORLD                Profile RMS along major axis (world units)                 [deg]
#   8 B_WORLD                Profile RMS along minor axis (world units)                 [deg]
#   9 THETA_WORLD            Position angle (CCW/world-x)                               [deg]
#  10 FWHM_WORLD             FWHM assuming a gaussian core                              [deg]
#  11 ELONGATION             A_IMAGE/B_IMAGE                                           
#  12 ELLIPTICITY            1 - B_IMAGE/A_IMAGE                                       
         1 -12.0845     76.6751     24.3832   9.5276249281e+01   6.1777304025e+01    0.4708805    0.3584405 -41.87  0.001196398    1.486    0.327
         2 -11.3139     90.2416     16.0032   8.7167019029e+01   6.0246775171e+01    0.4077463    0.2379627  -8.75 0.0003549402    1.977    0.494
         3 -10.0568     87.9002      8.4182   8.4439472979e+01   6.1569350565e+01     0.365041    0.1775968  -7.94  0.001117115    2.651    0.623
         4  -9.6052     26.2789     16.4431   1.1279221762e+02   7.0066686620e+01    0.2605741     0.211426 -20.66   0.00113399    1.067    0.063
         5 -11.4939     42.3330     17.7381   1.0583636970e+02   6.8044527772e+01    0.6309361    0.3814091  16.35  0.003604933    1.832    0.454
         6 -11.9631     39.7027      3.5976   9.9948863840e+01   7.0368027920e+01    0.7138867    0.4239162  45.75  0.004160685    2.199    0.545
         7 -12.0187     30.0713      7.1287   1.0642369304e+02   7.1084449260e+01     0.374727    0.3002098 -19.24  0.001623331    1.109    0.098
         8 -11.4116     39.7000     10.6020   1.0358120431e+02   6.9426445945e+01    0.2293563    0.1964585 -23.41 0.0002364888    1.250    0.200
         9  -9.9047    109.5394     12.0568   8.0236706033e+01   5.6493973230e+01    0.2418604    0.1342108 -14.60  0.001122787    1.992    0.498
        10 -10.8835    190.2368     14.5363   6.7060779852e+01   3.5736248393e+01    0.3020676    0.1752561 -21.09  0.001389487    1.961    0.490
        11 -10.6320    212.4784     12.1249   6.3918498913e+01   3.0244343665e+01    0.2875404    0.2163564 -70.60 0.0008103304    1.259    0.205
        12 -10.6297     66.9700     10.9626   9.2522935511e+01   6.5251607150e+01    0.4585042    0.3287431 -78.09  0.002089267    3.707    0.730
        13 -11.1744     70.9930      7.0911   8.9201255714e+01   6.4985652129e+01    0.3072782    0.2723578 -28.24  0.001520668    1.324    0.245
        14 -10.7434     66.3179      6.3465   9.0482507056e+01   6.5904885932e+01     0.322586    0.1982481  26.90  0.001339385    1.573    0.364
        15 -10.1627    184.5832     11.8184   6.6957352641e+01   3.7505835820e+01    0.1910582    0.1225003 -42.09  0.000458658    1.585    0.369
        16 -10.0301    119.0098     11.9908   7.8003918143e+01   5.4290040761e+01     0.204577    0.1864799  41.15 0.0003571071    1.026    0.025
        17 -11.3981     22.1130      9.4296   1.1161603779e+02   7.1581981422e+01    0.3000033    0.1879258 -15.10  0.001000778    1.505    0.336
        18 -11.2883      3.6574      8.5782   1.2122898366e+02   7.3200339226e+01    0.3673806    0.3076887  47.96  0.002793333    1.935    0.483
        19 -10.0796      7.8436      5.1738   1.1731626155e+02   7.3467248008e+01    0.2041131    0.1687445 -12.67  0.001617752    1.205    0.170
        20 -10.3849      9.7868      1.5517   1.1442253421e+02   7.3879104469e+01    0.2109631    0.1278291  12.71  0.001123745    1.724    0.420
        21  -9.9541     15.5643      8.4705   1.1461563859e+02   7.2329769898e+01    0.1995253    0.1308111 -20.63 0.0006802232    1.291    0.226
        22 -10.4536     11.9764      7.4981   1.1610764625e+02   7.2780485506e+01    0.3835468    0.2156215 -45.43  0.002346512    1.539    0.350
        23 -11.7170    151.0971      7.5122   7.0284458986e+01   4.6706613023e+01    0.4363088    0.3443603  23.05  0.002120426    1.402    0.287
        24  -9.8897     90.2924      2.7128   8.1130646574e+01   6.1635550655e+01    0.3948854    0.2545209 -88.02  0.001213946    3.111    0.679
        25 -11.0766     55.1641      7.8394   9.5496134553e+01   6.7584509720e+01    0.3632484    0.2431466 -49.47 0.0003588994    2.274    0.560
        26 -11.9332     57.9910      4.6820   9.2755900887e+01   6.7507452005e+01    0.6623439    0.3947706  53.97  0.003508566    2.194    0.544
        27 -10.0576     76.4533      8.5483   8.8065452329e+01   6.3810800567e+01    0.3190542    0.1874899  20.23  0.001619109    1.870    0.465
        28 -11.7271     80.5618      1.7629   8.3496521204e+01   6.3712312937e+01    0.4201264    0.2117883  42.90  0.001018137    1.759    0.431
        29 -10.0851    210.4745      7.9801   6.3015795183e+01   3.1189537199e+01    0.1981708    0.1320405 -29.43  0.001028158    1.580    0.367
        30 -10.1103    218.5376      7.0046   6.2000555385e+01   2.9259366447e+01    0.1875743    0.1299402 -29.50 0.0003544464    1.523    0.344
        31  -8.8177    184.3280      7.3172   6.5650003351e+01   3.8023895927e+01    0.1455721   0.09696566  41.39 0.0007045944    1.679    0.404
        32 -10.7012    190.9871      5.7277   6.4420693994e+01   3.6437489736e+01    0.2635017     0.160794 -45.53  0.001296141    1.647    0.393
        33 -10.7505    120.0047      4.6600   7.4861527468e+01   5.4749701130e+01     0.445433    0.1842203  47.50  0.001199608    2.112    0.526
        34  -9.5731    235.5192      4.5304   5.9953156091e+01   2.5368123976e+01    0.1310192    0.1122677 -73.33  6.17711e-05    1.019    0.019
        35 -10.1965    175.5135      3.4666   6.5553962327e+01   4.0699906666e+01    0.2850078    0.1234343   4.82 0.0008105062    5.839    0.829
        36 -10.8997     92.8222      8.9989   8.3288977893e+01   6.0486625295e+01     0.328568    0.2057924  -5.02  0.001220131    1.732    0.423
        37 -11.5248    129.6707      3.0491   7.2339488418e+01   5.2534861914e+01    0.4914263    0.2724983  89.80  0.002047939    2.628    0.619
        38 -10.1438    199.1660      3.1666   6.2833471668e+01   3.4564674196e+01    0.1967695    0.1453541 -67.92 0.0007651401    1.309    0.236
        39 -10.9517     18.8834      2.6669   1.0991571893e+02   7.2905582053e+01    0.3158951    0.1753346   9.77  0.001901497    2.012    0.503
        40  -9.9032    146.8289      2.1705   6.9099666508e+01   4.8282050280e+01    0.1953452    0.1451104  43.66 0.0005439997    1.294    0.227
        41 -10.1979      1.9640      2.8318   1.1960900216e+02   7.4248058803e+01     0.163291    0.1059338 -24.52 0.0006179165    1.233    0.189
        42 -11.5871     34.9365     13.0781   1.0702641088e+02   6.9651985105e+01    0.3878231    0.2450844 -42.61  0.001487109    1.604    0.377
        43 -10.3860      3.2614    118.9972   1.4479559259e+02   5.0330300539e+01    0.1758257     0.151908  84.62 0.0005553622    1.174    0.148
        44 -12.9751      8.4920    246.4559   1.5153509063e+02   2.4435228498e+01    0.4770769    0.3245783  39.55  0.003834874    1.779    0.438
        45 -12.5841      9.4223    232.3559   1.5082596733e+02   2.6743156324e+01    0.3808239    0.3026087 -68.59  0.003180227    1.760    0.432
        46 -12.3163      8.7097    227.9938   1.5075357612e+02   2.7580371597e+01    0.3648465    0.2381333  54.90  0.001910703    1.288    0.224
        47 -10.2039     33.7330    114.7606   1.3600120612e+02   4.8908918089e+01    0.1839221    0.0833086  43.10 0.0008909053    2.400    0.583
        48 -10.5625      3.4676    113.9110   1.4422927844e+02   5.1450660299e+01    0.2630092    0.1471205  -5.27  0.001444443    3.103    0.678
        49  -9.4067     96.2923    113.6597   1.1797274624e+02   4.0809827233e+01    0.1486301    0.1106612  87.19 0.0007026954    1.651    0.394
        50  -9.7841    248.6963    111.6654   8.4511448997e+01   7.6667168595e+00    0.1419365    0.1042894   6.77  0.000703777    1.663    0.399
        51 -10.6886     12.1428    108.7130   1.4126275521e+02   5.2049757679e+01    0.2172261    0.1727358  45.85  0.001524139    1.465    0.318
        52 -11.1078      5.7869    108.7886   1.4304454884e+02   5.2451018754e+01    0.2442296    0.1581032 -56.18 0.0009630215    1.421    0.296
        53 -10.6418     58.2108    107.4563   1.2763043994e+02   4.7942271813e+01    0.3067678    0.2043649 -16.39  0.001463361    2.467    0.595
        54  -9.2127     79.6324    107.2817   1.2127270856e+02   4.5008308873e+01    0.1435958    0.1046956  75.09 0.0007015025    1.690    0.408
        55  -9.9445    113.4995    102.5094   1.1045151098e+02   4.0104370405e+01    0.1489016    0.1443562 -60.81 6.506476e-06    1.014    0.014
        56 -10.8511     61.3655    100.2417   1.2518648719e+02   4.9213402186e+01    0.4702979    0.2353966  24.82  0.002055175    2.687    0.628
        57 -11.5680     18.2837     94.8875   1.3753701895e+02   5.4743877639e+01    0.3926696     0.246721  76.57  0.002230793    1.842    0.457
        58 -10.3147     20.3228     91.3458   1.3633272490e+02   5.5394426322e+01    0.1754997    0.1526628   1.40 0.0009498649    1.470    0.320
        59 -10.4808     78.7992     94.8235   1.1856496682e+02   4.7981667957e+01    0.2080063      0.17895 -35.56 0.0003586674    1.205    0.170
        60  -9.6891      3.4870     95.4716   1.4211291838e+02   5.5562240985e+01    0.1164066   0.08938591 -77.66 0.0001622065    1.048    0.046
        61 -10.8023     84.3675     93.7163   1.1658280695e+02   4.7346617108e+01    0.3004654    0.2513025   6.64  0.001393206    1.470    0.320
        62 -11.0679     27.2370     90.7485   1.3402831167e+02   5.4987884717e+01    0.5225521    0.2582801  55.07  0.002487121    2.801    0.643
        63 -10.2277     25.3071     84.9140   1.3358461836e+02   5.6459629551e+01    0.2358825    0.1403141 -63.51 0.0005218428    1.346    0.257
        64 -11.6249     11.1518     88.0886   1.3872201205e+02   5.6752783675e+01    0.5724055    0.1994796 -68.54  0.002692376    2.192    0.544
        65  -9.3263     16.0491     89.4661   1.3738171323e+02   5.6122648684e+01    0.2228599    0.1725232   1.51  0.001137791    1.705    0.414
        66  -9.7273     19.1816     87.1639   1.3599483191e+02   5.6418774575e+01    0.1896598    0.1318235 -56.09 0.0009375085    1.202    0.168
        67 -10.4692     76.4629     89.2571   1.1787039963e+02   4.9589003221e+01    0.2469883    0.2310482 -50.37 0.0004859014    1.031    0.030
        68 -10.0976     44.3106     89.7247   1.2831111792e+02   5.3618999749e+01    0.2822821    0.1482511  47.02  0.001376866    2.308    0.567
        69 -10.1778      1.7010     89.6506   1.4190221891e+02   5.6951104924e+01    0.2119088    0.1163167 -71.06 0.0005300925    1.374    0.272
        70 -10.8812    104.0564     87.6784   1.0905325908e+02   4.5169269083e+01    0.2441117    0.1987077 -61.51 0.0004336617    1.285    0.222
        71 -11.0666     54.5152     84.6152   1.2379843075e+02   5.3621186206e+01     0.392016    0.2003003 -53.44 0.0007604494    1.666    0.400
        72  -9.9007    123.9859     86.5626   1.0313769755e+02   4.1311944631e+01    0.2380062    0.2062516 -45.18 0.0006576333    1.137    0.120
        73  -9.1758    114.2217     86.3128   1.0574815305e+02   4.3431632498e+01    0.1433173    0.1142414 -17.89            0    1.482    0.325
        74  -9.9606    100.4144     83.1777   1.0881989227e+02   4.6819637085e+01    0.2143752    0.1348912 -56.82 0.0009177984    1.714    0.417
        75  -9.7536     78.1102     83.2823   1.1574677679e+02   5.0653611217e+01    0.1802585    0.1752355  51.15 0.0003161675    1.125    0.111
        76 -10.7709      4.0349     82.6679   1.4018820457e+02   5.8368591893e+01    0.2377534    0.1286951 -63.38   0.00101109    1.379    0.275
        77 -11.7593     63.5823     80.7705   1.1980955218e+02   5.3318902296e+01    0.4597672    0.4046887 -52.96  0.002811368    1.026    0.025
        78  -9.9764    250.3729     80.7997   7.6939708903e+01   1.1990183266e+01    0.1967518    0.1254317 -23.31 0.0007223918    1.632    0.387
        79 -10.0964     89.3123     80.3668   1.1137716950e+02   4.9431645625e+01    0.2794619    0.1838793 -57.15   0.00071763    1.580    0.367
        80  -9.4154     65.8101     75.1726   1.1752945865e+02   5.4231737028e+01    0.1810283    0.1456928 -25.99  0.001027256    1.309    0.236
        81  -9.1476    164.3043     79.6110   9.1255788094e+01   3.3119230920e+01    0.1680717    0.1203099 -69.39 0.0007014553    1.804    0.446
        82  -8.8919    124.6339     79.3099   1.0077742524e+02   4.2630358311e+01    0.1576479    0.1217545 -86.14 0.0007038001    1.757    0.431
        83  -9.3134     38.4202     92.3787   1.3075354043e+02   5.3611922426e+01    0.1244234    0.1050808 -61.24 8.263379e-05    1.030    0.029
        84  -9.9081    176.8950     77.1367   8.7908481394e+01   3.0376712638e+01    0.2469347    0.2160754 -82.72  0.001232108    1.243    0.195
        85 -10.8077     15.3652     76.2066   1.3531538008e+02   5.9117614662e+01    0.2042632    0.1811805 -67.83 0.0009411331    1.126    0.112
        86  -9.7734     75.0076     75.7226   1.1460879399e+02   5.2765695543e+01    0.1768435     0.171005  -6.68 0.0001854368    1.096    0.088
        87 -10.1266    224.0367     74.2383   7.8964577366e+01   1.9042225045e+01     0.228997    0.1983017 -37.67 0.0003355304    1.104    0.094
        88  -9.7306    151.2982     75.2976   9.2868071119e+01   3.7137111131e+01    0.1556952    0.1224206  16.19 0.0002488845    1.573    0.364
        89 -10.8928     55.5762     75.6279   1.2115752567e+02   5.5477926083e+01    0.2852539    0.2547256  -2.13 0.0007577965    1.256    0.204
        90 -10.2835     32.3987     73.1681   1.2869373846e+02   5.8471657188e+01    0.2280553    0.1674985  73.50 0.0006525189    1.793    0.442
        91 -11.1331     35.9675     72.2163   1.2719463514e+02   5.8353115120e+01    0.4626683    0.3148967 -69.76  0.001959875    1.445    0.308
        92  -9.5955    136.5567     74.2970   9.6115340691e+01   4.0874281574e+01    0.2031146    0.1496747 -25.12 0.0009251838    1.494    0.331
        93 -11.1497      3.8961     73.7798   1.3884346373e+02   6.0322250991e+01    0.2823384    0.1952147  15.08  0.001276399    1.872    0.466
        94  -9.2546     48.9410     74.0000   1.2303883649e+02   5.6618205707e+01    0.1865894   0.07511564  30.12 0.0006074589    2.881    0.653
        95  -9.5538    216.8327     72.2405   7.9524831650e+01   2.1105745318e+01    0.1970221    0.1737962  18.49 0.0004996877    1.310    0.237
        96 -10.2669    105.9152     71.4104   1.0356436581e+02   4.8152585632e+01    0.2538489    0.2031499 -33.81 0.0004372401    1.228    0.186
        97  -9.4880     92.4620     72.4539   1.0798992515e+02   5.0519979404e+01    0.2157299    0.1782514 -77.87  0.000870285    1.517    0.341
        98  -9.4816     90.5729     69.4626   1.0763678652e+02   5.1467191819e+01    0.2106205    0.1722053 -71.93 0.0001032139    1.505    0.336
        99 -10.7186     79.3936     70.8013   1.1168042438e+02   5.3106543381e+01    0.5250447    0.3454418  65.92  0.002361794    2.423    0.587
       100 -10.3124     10.4511     68.9869   1.3568250364e+02   6.1000545722e+01    0.2729986     0.151463 -66.91  0.001608915    1.438    0.304
       101 -10.2450     46.5403     69.4842   1.2269779544e+02   5.7863847406e+01    0.3483102    0.1845084  22.14  0.001708674    2.375    0.579
       102 -11.3771     17.0340     64.3359   1.3230885980e+02   6.1586761260e+01    0.3109112    0.2486213 -53.20  0.002170393    1.035    0.033
       103 -10.9001     34.5964     64.9710   1.2588556924e+02   6.0045068307e+01    0.2634469    0.2223931 -30.33  0.000596976    1.184    0.155
       104 -11.0576     39.4016     62.7196   1.2348177424e+02   6.0057340174e+01    0.3902721    0.2191262 -39.29  0.001469075    1.666    0.400
       105 -10.7143     41.0359     59.0335   1.2181569325e+02   6.0660179115e+01    0.2957057    0.2068712  -5.30  0.001703936    1.762    0.432
       106  -9.1841    127.2674     61.6829   9.4399987461e+01   4.5343804969e+01    0.2259835     0.152001  54.64 0.0005183367    1.526    0.345
       107  -9.7391    133.3724     64.1655   9.3660106159e+01   4.3476830924e+01    0.3386839    0.2833985 -53.61  0.001710434    1.279    0.218
       108 -10.0981    130.3141     63.9675   9.4373231549e+01   4.4230377626e+01    0.4189858    0.2121598 -58.71  0.001352003    3.465    0.711
       109 -10.2810     71.2844     58.1402   1.1035675982e+02   5.6938756777e+01    0.3881868    0.1825009 -36.78 0.0009248588    2.147    0.534
       110 -11.3573      6.8639     63.8270   1.3599234152e+02   6.2313432405e+01    0.2462999    0.1484451 -31.89  0.001470186    1.771    0.435
       111 -10.7546     62.8365     61.9192   1.1459913642e+02   5.7420880044e+01    0.2090454    0.1768022 -33.46 0.0006230117    1.066    0.062
       112 -10.4978     60.6040     57.8487   1.1409770351e+02   5.8548170965e+01    0.2495285    0.2156886 -66.90 0.0008038975    1.352    0.260
       113 -10.9593     53.5066     61.9025   1.1798648413e+02   5.8647508316e+01    0.4146795    0.3022369  43.81  0.002290307    1.642    0.391
       114 -10.2118     54.5220     58.4679   1.1654463966e+02   5.9222890852e+01    0.3459266    0.2428131  54.89  0.001876875    1.971    0.493
       115 -11.6486      9.9504     48.3566   1.3134182329e+02   6.5379884394e+01     1.103747    0.4027781 -27.52  0.004436087    4.311    0.768
       116 -12.8007     20.9056     57.3982   1.2919163012e+02   6.2785384930e+01    0.3994177     0.292634  23.35 0.0009483999    1.653    0.395
       117 -10.7560     20.0173     51.5443   1.2802618167e+02   6.4064881685e+01    0.3733028    0.1597973 -48.19  0.001378666    1.797    0.444
       118 -11.7687     17.6723     45.2046   1.2724557559e+02   6.5519566500e+01     0.476517     0.379657 -27.82  0.003205076    1.206    0.171
       119 -10.5694      2.2844     59.7452   1.3691187177e+02   6.3414967176e+01    0.2300208    0.1629826  74.88  0.001515692    1.778    0.437
       120  -9.4842    178.0714     59.1102   8.2329799008e+01   3.3064133326e+01    0.2051305    0.1749646 -72.39 0.0003549457    1.253    0.202
       121  -9.5881    119.0010     59.4754   9.5858386672e+01   4.7611671780e+01    0.2022567    0.1348577  78.71 0.0006195256    2.448    0.591
       122  -9.0411    158.2869     57.3560   8.5685421150e+01   3.8465193872e+01    0.1582966    0.1189166  17.93 0.0007023153    1.674    0.403
       123 -10.9512      7.6244     55.7776   1.3402988539e+02   6.3975751495e+01    0.2100731    0.1898672 -37.76 0.0009202486    1.207    0.171
       124 -10.6801    114.7339     54.1246   9.5172852985e+01   4.9488828622e+01    0.3350697    0.2480414  40.07  0.001011267    1.355    0.262
       125 -11.2192    105.9300     53.7517   9.7562979502e+01   5.1440600823e+01    0.3813702    0.3513462  13.59  0.002167232    1.067    0.063
       126 -11.5750     87.3782     53.9123   1.0339796204e+02   5.5037640572e+01     0.425332    0.2970232  39.84  0.001687118    1.493    0.330
       127  -9.8052     76.8578     54.7457   1.0724099781e+02   5.6704006996e+01    0.1768946    0.1671896  17.34 0.0004328307    1.128    0.114
       128  -9.2414    162.5000     54.4791   8.3900443590e+01   3.7836332834e+01    0.1519385    0.1476101  57.33 0.0001995974    1.015    0.014
       129 -10.2226     34.5597     53.4532   1.2270081543e+02   6.2452124349e+01     0.281176    0.1486701 -37.76  0.001008683    1.763    0.433
       130 -10.2170    169.7659     52.9392   8.1992183133e+01   3.6185837071e+01    0.2389034    0.2089806  63.93 0.0003219591    1.115    0.103
       131 -11.7590     66.5346     52.4167   1.1008676046e+02   5.8762801583e+01    0.5681499    0.2375538  34.74   0.00240258    2.668    0.625
       132  -9.2146    176.4553     52.4377   8.0596216925e+01   3.4512290226e+01    0.1504492     0.145339  73.73 5.444222e-05    1.012    0.012
       133  -8.8664     59.3234     49.2905   1.1166143500e+02   6.0390567148e+01    0.1323619    0.0927591 -15.00 0.0007012929    1.610    0.379
       134 -10.4623     38.1227     48.9176   1.1986534278e+02   6.3011010614e+01    0.1929276    0.1455674 -33.47 0.0008895702    1.161    0.139
       135  -9.2352    146.4544     48.4306   8.5295361114e+01   4.2872542714e+01    0.1487278    0.1441564  78.81 -4.946532e-06    1.057    0.054
       136 -10.5210     77.7817     46.0037   1.0373227103e+02   5.8146315290e+01    0.3105266     0.216723  30.57  0.001070042    1.507    0.336
       137 -10.6619     68.5106     46.7377   1.0731534082e+02   5.9520911891e+01    0.2288263    0.1933778  -6.77 0.0001987445    1.156    0.135
       138  -9.6799     91.0524     44.6882   9.8789493148e+01   5.5970512135e+01    0.1870637    0.1701817  12.23 0.0004411962    1.062    0.058
       139 -10.8485     25.8338     43.6619   1.2330319370e+02   6.5194607817e+01    0.3109527    0.2538342  85.89  0.001757094    1.769    0.435
       140 -10.5269     22.5128     38.6665   1.2314412090e+02   6.6440413183e+01    0.2362253    0.2103599  52.75   0.00135925    1.547    0.354
       141 -11.1298     26.7218     34.9627   1.2000877957e+02   6.6787033775e+01    0.3754814     0.181461 -36.55  0.001301007    1.830    0.453
       142 -10.2737     70.5503     41.9049   1.0473774144e+02   6.0058864689e+01    0.2912709    0.2127858 -46.41  0.001625945    1.427    0.299
       143 -10.3714      4.0416     41.1547   1.3201982461e+02   6.7158953840e+01    0.3775472    0.1260481 -34.58  0.001704383    3.216    0.689
       144  -9.0724    183.3060     41.6757   7.6143425743e+01   3.4257660727e+01    0.1572431    0.1093167 -65.50 0.0006670967    1.645    0.392
       145 -10.8994    139.7311     40.6427   8.4104068913e+01   4.5710319324e+01    0.2803535    0.2373432 -50.85 0.0008948976    1.281    0.219
       146 -10.5502     36.0853     40.1812   1.1776765044e+02   6.4910033233e+01    0.3972203    0.1538834 -44.25  0.001861753    2.108    0.526
       147  -9.3281     51.3881     40.1539   1.1141409157e+02   6.3144154297e+01    0.1696555    0.1098076 -51.10 0.0006417962    1.592    0.372
       148  -9.5970     43.7035     40.4517   1.1466482902e+02   6.4028636175e+01    0.1649452    0.1134452   7.79 0.0009535201    1.670    0.401
       149  -9.2439    134.4918     39.5621   8.4911127492e+01   4.7161329305e+01    0.1455546    0.1400853  46.01 7.743426e-05    1.029    0.028
       150  -9.3730    102.2341     38.9548   9.3130859418e+01   5.4642736295e+01    0.1866882    0.1137742 -32.96 0.0008761701    1.619    0.382
       151 -10.6480     13.0069     37.8011   1.2710650258e+02   6.7300781094e+01    0.3082722    0.1047224 -50.08  0.001524599    2.082    0.520
       152 -10.0364    130.9687     37.4610   8.4975135209e+01   4.8319651556e+01    0.2857685    0.2172768  21.71 0.0006451764    1.464    0.317
       153 -11.0618    134.4677     34.0245   8.2922960863e+01   4.7934932736e+01    0.2600327    0.1868316  36.84 0.0003063736    1.415    0.293
       154 -11.8804    121.4848     35.8599   8.6690945476e+01   5.0809397193e+01    0.5319872    0.5026416 -19.59  0.003078843    1.088    0.081
       155 -10.2016     70.1981     35.0275   1.0212460985e+02   6.1273869081e+01    0.3486194    0.1513938 -30.75  0.001461137    2.422    0.587
       156 -10.7468      1.7719     29.0040   1.2965061266e+02   6.9644699478e+01    0.2192259    0.1160734 -52.66   0.00137986    1.386    0.278
       157 -10.6519      1.4778     35.8970   1.3176656207e+02   6.8327062883e+01    0.2279227    0.1086256 -60.32 0.0007306391    1.630    0.386
       158 -11.7054     50.6029     33.8669   1.0927966607e+02   6.4358755336e+01    0.3093778    0.2186407  35.17 0.0006292564    1.590    0.371
       159 -11.3808    145.0341     33.1671   8.0346125286e+01   4.5398126157e+01    0.2642404     0.246409  70.62 0.0002697775    1.078    0.072
       160 -10.3324    141.1176     30.3184   8.0150808547e+01   4.6758959494e+01    0.3792526    0.2578532  -3.77  0.001758269    1.818    0.450
       161  -9.8709    138.8624     26.8538   7.9377178860e+01   4.7759957997e+01    0.5459854    0.1764546  58.94 0.0008295316    2.781    0.640
       162 -11.1125     20.6214     31.2269   1.2146268197e+02   6.7998571124e+01    0.4847598    0.2486526  -4.42  0.002454766    2.815    0.645
       163  -9.8891    166.6239     30.9742   7.5564005564e+01   4.0071008003e+01    0.3341676    0.1446743 -25.97  0.001258886    2.498    0.600
       164 -11.4899     43.6340     29.0544   1.1024893015e+02   6.6062448214e+01    0.4685524    0.2704152 -36.16   0.00225494    1.485    0.327
       165 -10.4820    151.2785     29.7782   7.7933986863e+01   4.4230271167e+01    0.2634878    0.2229958  44.28 0.0006542082    1.150    0.130
       166 -10.2895    104.5043     29.3440   8.8667968520e+01   5.5547542042e+01    0.3239153    0.1749978  25.92  0.001315694    2.483    0.597
       167  -9.3745    187.4926     29.5131   7.1849039296e+01   3.4737032989e+01    0.2778497    0.1091171  54.83  0.001031547    2.364    0.577
       168  -9.1897    162.2995     29.3000   7.5762588837e+01   4.1417147455e+01    0.1501869    0.1069623  33.28 0.0006397397    1.580    0.367
       169 -10.0114     69.7963     28.4893   9.9524810932e+01   6.2370483021e+01    0.2302055    0.1678584 -28.29 0.0006413551    1.263    0.208
       170 -10.2378      7.3266     28.2496   1.2673975875e+02   6.9482505568e+01    0.1870061    0.1432287  20.53 0.0008973786    1.604    0.377
       171 -10.1417    195.3202    249.6992   1.2024780545e+02  -2.3403244116e+00    0.1081835   0.08005951  56.77 0.0003139929    1.625    0.384
       172  -9.4853    229.4947     26.0100   6.5793183431e+01   2.4407067110e+01    0.1899153     0.120394   7.59 0.0008101481    2.736    0.634
       173  -9.9706    200.8937     24.8069   6.8694153152e+01   3.1792076233e+01    0.4306223    0.1380061 -29.22  0.001027119    3.046    0.672
       174 -10.2640    113.9676     25.2149   8.4482659115e+01   5.3971378583e+01    0.2371802    0.1991441 -19.59 0.0007019621    1.212    0.175
       175  -9.7932    153.3783     25.5725   7.6102084198e+01   4.4199724013e+01    0.2684989    0.1400308  69.52  0.000774693    1.978    0.494
       176 -10.0958     59.1081     24.5079   1.0186059554e+02   6.4677566651e+01    0.2469793    0.1623023 -24.69  0.001088378    1.394    0.282
       177  -9.9890     52.2393     23.6253   1.0425462121e+02   6.5815913050e+01    0.3112804    0.1514939 -27.54  0.001496372    2.091    0.522
       178  -9.7208     84.7258     21.3528   9.1247682053e+01   6.0681088947e+01    0.2799913     0.125691  33.92  0.001152799    2.544    0.607
       179  -9.9532     89.3791     22.8531   9.0428978199e+01   5.9568486017e+01    0.2467805    0.1784664 -15.79  0.001041313    1.365    0.267
       180 -12.8894      5.3628    240.7391   1.5179191588e+02   2.5701009779e+01    0.4335722    0.2619957  46.68   0.00339904    1.531    0.347
       181  -9.5335     87.2398     12.5686   8.6531340213e+01   6.1252590658e+01    0.2257431    0.1611392  60.35 0.0007581139    1.629    0.386
       182 -11.1349     33.2432    247.7037   1.4777704303e+02   2.1595811734e+01      0.26255    0.1258757  31.66   0.00148878    3.032    0.670
       183  -9.5329    125.4175     21.9145   8.0449161158e+01   5.1669365826e+01    0.2023972     0.103625 -48.50  0.000804667    2.546    0.607
       184  -9.6915    110.6537     22.0287   8.4052844837e+01   5.5120380926e+01    0.1855213    0.1632027  -7.38  0.000427757    1.134    0.118
       185 -11.1323     13.3027     20.4588   1.2098517562e+02   7.0505399177e+01    0.2888702    0.2472811  26.61  0.001298083    1.524    0.344
       186 -10.5459     13.4565     16.1109   1.1914544600e+02   7.1246722837e+01    0.3145901    0.1683623  27.50  0.001829226    2.182    0.542
       187 -10.6702     30.9786     19.7151   1.1197957340e+02   6.9053716474e+01     0.244029    0.1870664 -46.50  0.001638713    1.422    0.297
       188  -9.7220    217.5057    245.0000   1.1580201949e+02  -5.2532376241e+00    0.2595311   0.05186507  41.93 0.0009361284    3.946    0.747
       189  -9.1200     22.5799     21.4331   1.1676528566e+02   6.9582621400e+01    0.1185306   0.08662836 -27.74 1.472553e-05    1.096    0.087
       190  -9.5443    130.5007     20.5713   7.8822855142e+01   5.0583584349e+01    0.1411607    0.1303969  46.38 0.0008062582    1.019    0.019
       191 -10.0403    100.9830     19.9196   8.5763887858e+01   5.7519788812e+01    0.2035533    0.1657587 -63.49 0.0006352784    1.663    0.399
       192 -11.9175      4.2382    232.6289   1.5165322410e+02   2.7199669013e+01    0.2945786    0.1861593  81.12  0.001017577    1.175    0.149
       193  -9.6771    202.4973    240.0538   1.1765743721e+02  -2.3218747817e+00    0.1469372    0.1153185 -26.94 0.0008114941    1.537    0.349
       194  -9.2224     60.0602    241.0000   1.4299447583e+02   1.9495282104e+01    0.2836789   0.04984064  39.41  0.001035869    4.795    0.791
       195 -12.3136     26.3353    235.9844   1.4828351451e+02   2.4356304862e+01    0.3089837    0.2166927  72.01   0.00165714    1.051    0.049
       196  -9.6233    148.7627     18.6164   7.4534670448e+01   4.6187876004e+01    0.1922322    0.1317822  75.41 0.0003123793    1.505    0.335
       197 -11.3443    108.3089     16.6931   8.2467718726e+01   5.6273535207e+01    0.2289247     0.218418  -0.81 0.0003065738    1.109    0.098
       198  -9.1624    210.6478    235.7117   1.1560090164e+02  -3.1025189140e+00    0.1229837   0.07605341  19.61 0.0003804548    1.669    0.401
       199 -10.8159     20.0903     16.7953   1.1603741413e+02   7.0587489198e+01    0.1889603    0.1447274   7.23 0.0003913841    1.358    0.263
       200  -8.9719    155.5696    235.5155   1.2541901052e+02   6.0079756807e+00    0.1218752   0.09678791  45.44 4.290479e-05    1.010    0.010
       201  -9.6633    175.4903     15.4979   6.9275630126e+01   3.9518620060e+01    0.1429012    0.1307761  80.90 0.0008105912    1.011    0.010
       202  -9.0553      1.2791     15.3056   1.2525966817e+02   7.2185814316e+01    0.1131469   0.05848489 -34.55 0.0002212264    1.552    0.356
       203 -10.3770    155.9875     14.1864   7.1779321550e+01   4.4782513131e+01    0.2901436    0.1758803  48.07  0.001365146    1.577    0.366
       204  -9.8331    144.0806     14.4898   7.3921100666e+01   4.7828274989e+01     0.211336    0.1300859  63.37 0.0004107663    1.493    0.330
       205  -9.1768     62.9838     14.3165   9.5631116914e+01   6.5504265880e+01     0.178109    0.1066736  66.79 0.0007047176    4.267    0.766
       206  -9.8622    249.1464    234.1590   1.0887662923e+02  -8.8284239419e+00    0.1740393     0.117954  18.74  0.000548771    1.176    0.150
       207  -8.9186     79.7105    231.3637   1.3882204625e+02   1.8525782665e+01    0.1227482   0.06817991  68.55 0.0007025364    1.699    0.411
       208  -9.2003    124.4660    230.4939   1.3053769893e+02   1.1898963146e+01    0.1226711   0.09700288  53.66   9.7838e-05    1.011    0.011
       209  -9.1253    209.5241    229.5008   1.1485042822e+02  -2.1602528577e+00    0.1223202   0.09585445  27.55 0.0008101339    1.018    0.018
       210  -9.5109    140.0826    227.0573   1.2720843077e+02   9.8904708494e+00    0.2019311    0.1293346  65.52  0.001087381    1.755    0.430
       211  -9.4760    109.7119    226.6513   1.3285755229e+02   1.4888880414e+01    0.1054043   0.09465519   7.68 0.0007023888    1.660    0.398
       212 -10.4948     32.5209    225.2503   1.4666654359e+02   2.5580734540e+01    0.2684135   0.09559673  48.49  0.001501795    2.094    0.522
       213 -11.7320      7.7255    217.6587   1.5045649357e+02   2.9538088495e+01    0.2493003    0.1703125  81.48  0.001281804    1.113    0.102
       214  -9.7508    209.1839    212.1152   1.1211142602e+02   1.6200361706e-01    0.1946926    0.1496408  16.33 0.0008248575    1.234    0.190
       215 -10.5938     15.8648    212.1657   1.4880242059e+02   2.9763113649e+01    0.1332219    0.1108882  87.53 0.0008540808    1.333    0.250
       216  -9.8510    246.8369    206.9298   1.0465109197e+02  -5.4312217207e+00     0.189387    0.1361955   5.25 0.0008057803    1.268    0.212
       217  -9.6161    197.3846    204.1616   1.1293510170e+02   3.3686229354e+00    0.1602902    0.1238189 -50.21 0.0005533565    1.648    0.393
       218 -10.7431      9.5736    203.3964   1.4944550276e+02   3.2039041474e+01    0.1963561    0.1356164  76.64 0.0007938209    1.020    0.019
       219  -8.9952    181.5224    199.5080   1.1516475128e+02   6.9813706654e+00    0.1334023    0.1153865  39.50  -1.8105e-05    1.035    0.034
       220  -9.4975     23.2057    197.5773   1.4662875841e+02   3.1836652497e+01    0.1282106    0.1023657  38.01 0.0004564153    1.599    0.375
       221  -9.3996      6.5318    191.4901   1.4936365689e+02   3.4640141583e+01    0.1114149   0.07585942  75.98 5.423445e-05    1.059    0.056
       222 -10.1493     15.4653    185.4316   1.4731848326e+02   3.5036551820e+01    0.2478619   0.08861014 -81.80  0.001239736    2.414    0.586
       223  -9.1230    250.4765    183.4747   9.9681167819e+01  -3.0825173280e+00     0.128079    0.1049667   7.37 0.0006555985    1.024    0.024
       224  -9.1370     21.6607    179.6835   1.4570519092e+02   3.5624378023e+01    0.1036167   0.07950795 -55.11 0.0003577667    1.704    0.413
       225 -10.6818      4.6851    167.4297   1.4830353461e+02   3.9702600532e+01    0.2720927    0.1372466  62.63  0.001661809    1.726    0.421
       226  -9.3166     41.6992    158.3414   1.3949135622e+02   3.8141006167e+01    0.1311889   0.07699809  72.90 0.0007037173    1.672    0.402
       227  -9.2126    247.4713    155.5446   9.4513430495e+01   1.3024603463e+00    0.1334296    0.1167703  -0.78 0.0001008235    1.003    0.003
       228  -9.4183    243.0000    154.9596   9.5132127021e+01   2.2195082123e+00    0.2149743   0.07185027 -33.86 0.0006104355    2.878    0.653
       229 -10.0463      3.1706    153.7892   1.4770625824e+02   4.2711560230e+01    0.2210326   0.05577097  36.68  0.001041092    3.455    0.711
       230 -10.2758     22.0185    143.2558   1.4253090056e+02   4.3475129081e+01    0.2195063    0.1414591 -81.06  0.001039722    1.245    0.197
       231 -10.6943     12.9474    130.6468   1.4348510562e+02   4.7048728176e+01    0.3821373    0.1631414  64.33  0.001339814    2.772    0.639
       232  -9.9970     29.1130    128.7372   1.3915118553e+02   4.6122095878e+01    0.2548694    0.1425473 -86.96  0.001042398    1.690    0.408
       233  -9.5474     21.1350    126.1576   1.4091710111e+02   4.7409041744e+01    0.1600127    0.1169772  76.67 0.0004405104    1.281    0.219
       234 -10.8130     24.1202    122.2125   1.3965721510e+02   4.8056921722e+01    0.2447956     0.178371  89.09 0.0003882217    1.206    0.171
       235 -10.4793     22.0000    118.0461   1.3970519036e+02   4.9185748875e+01    0.2385274    0.1435558 -73.71  0.001195901    1.335    0.251
       236  -9.0725     75.3559    119.7530   1.2512543335e+02   4.2753175751e+01    0.1384038   0.09906383  70.17 0.0002667017    1.596    0.373
