#   1 NUMBER                 Running object number                                     
#   2 MAG_AUTO               Kron-like elliptical aperture magnitude                    [mag]
#   3 X_IMAGE                Object position along x                                    [pixel]
#   4 Y_IMAGE                Object position along y                                    [pixel]
#   5 X_WORLD                Barycenter position along world x axis                     [deg]
#   6 Y_WORLD                Barycenter position along world y axis                     [deg]
#   7 A_WORLD                Profile RMS along major axis (world units)                 [deg]
#   8 B_WORLD                Profile RMS along minor axis (world units)                 [deg]
#   9 THETA_WORLD            Position angle (CCW/world-x)                               [deg]
#  10 FWHM_WORLD             FWHM assuming a gaussian core                              [deg]
#  11 ELONGATION             A_IMAGE/B_IMAGE                                           
#  12 ELLIPTICITY            1 - B_IMAGE/A_IMAGE                                       
         1 -13.8079     68.8606    144.2138   7.6960904699e+01   3.7370126903e+01     3.552202      1.90301 -89.22    0.0100113    4.701    0.787
         2 -13.2443    210.3283     50.1549   2.4965148328e+01   2.8380987052e+01     0.894167    0.7862712  84.66  0.005789461    1.293    0.226
         3 -13.2883    222.9899     40.5315   2.2167292421e+01   2.7395657744e+01    0.6816074    0.6270672  66.60  0.003248227    1.572    0.364
         4 -11.2515    248.9850     20.2148   1.7175789497e+01   2.5548056503e+01    0.3402633     0.216581 -48.41  0.002750118    1.384    0.277
         5 -11.3630    248.4642     15.1883   1.6438908134e+01   2.6168072064e+01     0.324349    0.3040626 -27.75  0.002992759    1.906    0.475
         6 -10.3744      2.7527     10.3459   6.9691425185e+01   7.4207015708e+01     0.200168    0.1499598 -13.32  0.001376824    1.216    0.178
         7  -9.7397    158.0311      8.9576   2.1688528817e+01   4.3312438592e+01    0.1783113    0.1375889 -88.95 0.0006566969    1.009    0.009
         8 -12.6550    126.6618    227.9038   7.4309435227e+01   8.7707180965e+00     0.863659    0.7071038  35.94  0.003913019    1.324    0.244
         9  -9.0775    141.6536    250.3213   7.3941907048e+01   2.5690270792e+00    0.1256008   0.09622187  45.65 0.0007049541    1.735    0.424
        10 -11.0460     72.8534    243.9415   9.0102183844e+01   1.1877667765e+01    0.6581874    0.4485173  80.43  0.003308171    2.034    0.508
        11 -14.4770     52.8411    238.2291   9.4752188804e+01   1.5380416115e+01     3.779084     2.462752  61.32   0.01240825    1.747    0.428
        12 -15.1440      9.8859    149.8809   9.8970536942e+01   4.2227762654e+01     8.832628     2.127502 -79.10  0.007310699    5.477    0.817
        13 -15.8245      7.8514    228.4486   1.0575324652e+02   2.1962402531e+01     2.525085     1.404635  21.01  0.008667732    1.725    0.420
        14 -13.5760     19.5796    226.4839   1.0258032814e+02   2.1432240570e+01    0.4556943    0.3830054  33.52  0.001161886    1.095    0.087
        15 -10.3060     42.6153    247.7366   9.8201937068e+01   1.4317512155e+01    0.4154493    0.3367865  63.09  0.002130026    1.279    0.218
        16  -9.2638     76.6926    231.0686   8.7669439034e+01   1.4306842011e+01    0.2800583    0.1940299   8.10  0.001209899    1.454    0.312
        17 -10.5881     70.8112    227.6655   8.8860145860e+01   1.5790037617e+01    0.4499767     0.395065  -6.54  0.002574923    1.156    0.135
        18 -10.5698    141.9577    227.6960   7.0594273872e+01   6.8937057603e+00    0.1978786    0.1652008   5.14 0.0007716235    1.052    0.049
        19  -9.3757    167.3809    225.7950   6.4571307016e+01   4.1812974072e+00    0.1859159    0.1046559 -35.42 0.0006775293    1.634    0.388
        20 -12.3384    113.7952    229.2364   7.7719696402e+01   1.0118218151e+01     1.322487    0.3161076  31.78  0.004275059    3.409    0.707
        21 -10.0719     94.9089    219.7303   8.1334676882e+01   1.4649817360e+01    0.2306643    0.2205233  -8.94 0.0005079598    1.094    0.086
        22  -8.8054    142.5622    218.0088   6.8948180585e+01   8.7834874892e+00    0.1996179    0.1322101 -48.93 0.0008267865    1.572    0.364
        23  -9.1197    132.3525    213.0532   7.0630183114e+01   1.1171956812e+01    0.2323022     0.169153 -52.54 0.0006656578    1.495    0.331
        24  -9.4736    131.4096    208.7148   7.0166518546e+01   1.2236453449e+01    0.2643079    0.1423407 -57.93  0.001132077    2.166    0.538
        25  -8.3230    167.9683    205.0158   6.1061057703e+01   8.0978416816e+00     0.160506    0.1348851 -21.91 0.0003519593    1.042    0.040
        26 -10.8548    135.0771    198.8026   6.7608691487e+01   1.3889903035e+01    0.3852899     0.239181  13.50  0.001532642    1.749    0.428
        27 -10.8994    129.7834    202.7705   6.9598127881e+01   1.3765764845e+01    0.3415755    0.3090879  39.67 0.0005903834    1.255    0.203
        28 -11.4023    128.3839    198.2654   6.9197355437e+01   1.4967788630e+01    0.3657897    0.3084474 -30.42 0.0002962499    1.143    0.125
        29 -10.6324     95.7645    202.2311   7.8571507079e+01   1.8662103884e+01     0.445581    0.2991037 -10.48  0.001989956    1.781    0.438
        30 -10.7991    102.2130    200.5905   7.6527600615e+01   1.8160327355e+01    0.4557374     0.312698  36.91  0.002170089    1.434    0.303
        31 -11.1335     74.9515    199.2717   8.4100857850e+01   2.2179183469e+01    0.3375748    0.2868244 -52.36 0.0001770579    1.229    0.186
        32 -10.1929    193.4281    195.5663   5.4313003989e+01   6.6610235760e+00    0.4453327     0.223464 -62.22  0.001620391    4.371    0.771
        33 -10.8228    118.3203    192.8637   7.0894840228e+01   1.7665003351e+01    0.4164983    0.2115361  23.96  0.001678924    2.005    0.501
        34 -10.9903    111.3933    197.2063   7.3476965758e+01   1.7657828630e+01    0.4916835    0.2871445 -15.24  0.001911146    2.446    0.591
        35 -10.9566    116.7051    196.4345   7.1926064415e+01   1.7071526932e+01    0.5081428    0.1947386  29.88  0.001834081    2.469    0.595
        36 -15.4564      6.6074    207.8040   1.0483635130e+02   2.7099962779e+01     1.945205     1.666988 -51.36   0.01162757    1.258    0.205
        37 -10.3262     82.5681    195.4232   8.1316771556e+01   2.2138026760e+01    0.3880794     0.336134 -16.81  0.001214335    1.175    0.149
        38 -10.7207    163.5285    192.7155   5.9907073889e+01   1.1152464478e+01    0.4889424      0.24715 -59.36  0.001983055    2.740    0.635
        39 -10.4346     76.9505    183.9317   8.1241244593e+01   2.5825115101e+01    0.5547649    0.3469775  74.27  0.002039896    2.532    0.605
        40 -10.1765     80.0798    181.6519   7.9929705969e+01   2.5979243025e+01    0.2976987    0.2546774 -69.96 0.0004610831    1.286    0.223
        41  -8.3052     94.2768    183.7118   7.6039274162e+01   2.3420874718e+01    0.1482721    0.1176119  60.26 0.0002041107    1.516    0.340
        42 -10.4571     99.0162    180.9439   7.4192658055e+01   2.3406130151e+01    0.3269968    0.3025563  11.91 0.0006938581    1.026    0.025
        43  -9.1037    179.7457    175.5807   5.3448644666e+01   1.2283354924e+01    0.1707172    0.1261733  44.53 0.0009403368    1.616    0.381
        44  -9.7066    182.5004    173.0143   5.2440094223e+01   1.2388982758e+01    0.2105924    0.1172489 -43.87  0.001033163    1.596    0.374
        45  -8.3930     70.3335    173.2835   8.1612713302e+01   2.9503929623e+01    0.1613716     0.115228 -20.24 0.0003351899    1.617    0.382
        46 -10.4676    230.2668    171.6143   4.4066474314e+01   6.4069722738e+00    0.1917402    0.1487337   8.96  0.001317285    1.533    0.348
        47 -10.9361    102.4210    171.2605   7.1480690968e+01   2.5279923355e+01    0.6087988    0.2570205  39.64   0.00217846    2.358    0.576
        48 -12.9111     60.5457    128.9464   7.6853199750e+01   4.2541632230e+01     1.319791    0.9953629  38.42  0.002831723    1.334    0.250
        49 -12.0247     71.0411    160.5181   7.9238018509e+01   3.2771019598e+01     1.324256    0.8021548  81.80  0.004743434    2.875    0.652
        50 -13.0761     74.6652    154.0335   7.6872386334e+01   3.3946928614e+01     2.482958     1.064843  55.68 0.0006717492    5.177    0.807
        51 -12.7217     61.7331    148.7781   8.0281174081e+01   3.7180460579e+01    0.7721906    0.5504044  23.40  0.001068945    1.377    0.274
        52  -9.0823    110.4306    167.1833   6.8427515656e+01   2.4999403689e+01    0.2577261    0.1915907 -62.01 0.0007740262    1.495    0.331
        53 -11.9768     59.6329    165.6197   8.3855797928e+01   3.2959717592e+01    0.8371938    0.4978933  14.45  0.001450837    1.810    0.448
        54 -10.2225    229.8407    165.8375   4.3166104432e+01   7.4207000625e+00    0.1587108    0.1236668 -53.65 0.0007859762    1.337    0.252
        55 -10.5666    245.5392    158.9618   3.9869318158e+01   6.6951244251e+00    0.3081197    0.1598737 -53.80  0.001236741    1.954    0.488
        56 -10.4082    247.2153    164.2571   4.0503869353e+01   5.6661398601e+00    0.2511655    0.1357024 -49.97 0.0009619844    1.632    0.387
        57 -10.0297     54.0149    160.5282   8.4930951300e+01   3.5039645343e+01    0.4122894     0.256214 -78.05 0.0008820842    1.924    0.480
        58  -9.9552    235.5014    160.4947   4.1470306299e+01   7.6243235646e+00    0.1166344   0.09029216 -38.07 0.0008106386    1.013    0.013
        59  -9.2702     49.9526    157.4345   8.5832404692e+01   3.6372255022e+01    0.3822634    0.2265083  71.62  0.001435579    2.531    0.605
        60 -10.3483    133.6498    145.0069   5.7740819991e+01   2.6194084148e+01     1.107822    0.2703778 -55.08  0.002468924    6.832    0.854
        61 -11.2590     83.6101    142.8179   7.1732462338e+01   3.5444837763e+01    0.5943977    0.4343161  85.48  0.002042308    1.956    0.489
        62  -8.7838     40.4834    146.0259   8.7377866359e+01   4.0559334382e+01    0.2370014    0.1495266 -65.80  0.001036016    1.602    0.376
        63 -14.5904     42.4192    178.3256   9.1305817577e+01   3.1576170627e+01     7.933232     1.430397  39.46   0.02017644    4.945    0.798
        64 -10.2671    112.0502    245.5773   8.0356425290e+01   6.9267583313e+00    0.2865956    0.1945275 -55.69 0.0007501831    1.707    0.414
        65 -10.6435     98.3025    135.4010   6.5491063092e+01   3.4781038599e+01    0.6236607    0.3877882   0.27  0.002266803    2.717    0.632
        66 -11.4663     64.7316    161.2794   8.1452264043e+01   3.3445144248e+01    0.3999455     0.298513 -22.90    0.0018427    1.485    0.327
        67 -11.6761     84.9397    134.3481   6.9505695638e+01   3.7347629368e+01    0.3390014    0.2988337 -23.56 0.0004645895    1.166    0.143
        68 -10.9924     17.1026    133.2408   9.4251402286e+01   4.6224627451e+01    0.4439063    0.3397297 -41.61  0.001210789    1.243    0.195
        69  -9.5924    105.1679    130.1643   6.2253837044e+01   3.4782646894e+01    0.3570675    0.2871662  65.19  0.001719635    1.482    0.325
        70  -9.4833    108.6729    127.6472   6.0656199877e+01   3.4715077126e+01    0.3288796    0.2429863  -7.95   0.00109674    1.805    0.446
        71 -11.4851     81.2050    148.9743   7.3757266850e+01   3.4259271058e+01    0.7921674    0.4697036  18.47 0.0006266747    1.873    0.466
        72  -9.6378     43.4393    129.2553   8.3367763613e+01   4.4713752080e+01    0.2056838    0.1507443 -79.96 0.0006037723    1.612    0.380
        73  -8.2388    164.3577    126.6976   4.6969472065e+01   2.4451875437e+01    0.1392115    0.1066475 -88.14 0.0007038362    1.715    0.417
        74 -10.3623     95.6261    123.2127   6.3557942531e+01   3.8156487054e+01    0.3434768    0.2718306   2.06  0.001490168    1.488    0.328
        75  -9.1122     40.6834    123.3402   8.3320986054e+01   4.6590523136e+01    0.1570882    0.1138542  59.21 0.0007048578    1.707    0.414
        76 -10.1587     32.4158    118.2195   8.5678814115e+01   4.8837025484e+01    0.2641362    0.2424547  21.29 0.0003719504    1.112    0.101
        77  -8.9718    105.9454    116.9711   5.8949449026e+01   3.7644474760e+01    0.2147297    0.2093323  31.67  0.001175788    1.008    0.008
        78  -8.2464    183.3797    116.3012   4.1351547642e+01   2.2995921882e+01    0.1267266    0.1022364  -0.85 0.0006690259    1.770    0.435
        79  -9.7207     22.7403    115.0455   8.9123060142e+01   5.0591349505e+01    0.3988313    0.1913379  55.08  0.001395319    3.257    0.693
        80  -9.3215     76.4754    111.6371   6.7154901519e+01   4.4286865128e+01    0.3022589    0.2125624  56.87 0.0008912991    1.728    0.421
        81  -9.6567    205.5054    110.1513   3.6758610108e+01   2.0294903104e+01    0.2101999     0.189587 -82.45 0.0005894254    1.154    0.134
        82  -9.9967     40.0108    110.9949   8.1093219225e+01   4.9839020722e+01     0.183192    0.1693367  -7.62 0.0005011165    1.009    0.009
        83  -9.5014     24.1436    105.1040   8.6669821268e+01   5.3012087649e+01    0.2344717    0.1786829 -29.72 0.0008885999    1.249    0.199
        84  -8.5873    134.3149    104.6596   4.8524477158e+01   3.4571691164e+01    0.1475988    0.1115014 -87.28  0.000704774    1.703    0.413
        85  -8.7395    128.5168    103.5238   4.9634057588e+01   3.5974523671e+01    0.1434318    0.1368668  79.33 -3.183011e-05    1.035    0.034
        86  -8.9680     65.6664    103.7122   6.9137374788e+01   4.7956962347e+01     0.156254    0.1146683  -9.33  0.000295288    1.626    0.385
        87  -9.7626    250.0000    101.9835   3.0071332979e+01   1.4896315710e+01    0.1831119   0.04742139 -43.49 0.0008045576    2.957    0.662
        88  -9.4378    128.1079     97.8758   4.8357029470e+01   3.7159206396e+01    0.2245868    0.1889749 -89.82 0.0006753561    1.329    0.248
        89 -10.4853     45.7399     91.0375   7.3950188110e+01   5.3908853236e+01    0.3284659    0.1861739  36.35  0.001430185    1.722    0.419
        90  -8.1286     81.6691     85.3530   5.8396588436e+01   4.9079695520e+01     0.150376     0.116117  76.23 9.906345e-05    1.779    0.438
        91 -12.5863    200.2026     56.8919   2.7240791065e+01   2.9316097701e+01    0.6208183    0.4994231  49.38  0.001050894    1.686    0.407
        92 -14.9860      5.1649    245.1403   1.0729679831e+02   1.8353919193e+01     1.839555    0.6195934  25.56  0.007918582    2.461    0.594
        93  -9.5003    111.7992    239.4670   7.9620226824e+01   8.2086972933e+00    0.2186698    0.1867033 -42.82 0.0004229067    1.286    0.223
        94  -8.2748     32.6667     57.3063   7.0194817377e+01   6.2788439352e+01    0.1310527    0.1022513  51.13 0.0007039754    1.666    0.400
        95 -11.5468     13.3020     60.1197   8.1429083295e+01   6.4401630041e+01    0.3718872    0.3409424 -48.54 0.0005231368    1.290    0.225
        96  -9.6105     81.9895     48.0360   4.6832112297e+01   5.5512105792e+01    0.2313039     0.179942  60.67 0.0004432171    1.268    0.211
        97  -8.6206     78.7186     45.6890   4.7084260528e+01   5.6540364031e+01    0.1930134    0.1155758  56.73 0.0004023951    1.605    0.377
        98  -9.9922     63.2370     57.9187   5.6695257153e+01   5.7700430631e+01    0.3862934    0.2596142  65.60  0.001500966    2.246    0.555
        99  -9.0160     72.1699     41.1482   4.7679250966e+01   5.8543730883e+01    0.1968302    0.1589626  36.68 0.0004088411    1.111    0.100
       100  -9.8090     21.4266     40.2867   7.0282789882e+01   6.7334340312e+01    0.2194054    0.1371612  39.40  0.001004609    1.756    0.431
       101 -10.3201     19.7471     35.8768   6.9580051582e+01   6.8292802014e+01     0.294326    0.1340489  36.08  0.001168155    2.107    0.525
       102 -15.3683     30.4640    185.2518   9.5906688790e+01   3.0932907825e+01     8.903773     2.700235  48.75     0.018146    4.287    0.767
       103 -13.7476      3.8370    237.8477   1.0725995357e+02   2.0103634448e+01    0.5575284    0.4266405   3.00  0.002155457    1.486    0.327
       104  -8.2904     77.2223    239.3773   8.8474369217e+01   1.2376629597e+01    0.1367732   0.09611491 -30.25 0.0002528094    1.601    0.375
       105  -9.1144     60.4594     21.0346   4.4249536685e+01   6.3473044587e+01    0.1978019    0.1395009  47.21 0.0004724321    1.140    0.123
       106  -9.2900    189.3456     15.0564   2.0176489344e+01   3.6397026528e+01    0.1543852    0.1157981 -67.25 0.0007016747    1.118    0.106
       107 -13.4728      3.4407    176.8898   1.0358658798e+02   3.5356470956e+01     1.361297    0.7206571  82.41  0.001218861    2.072    0.517
