#   1 NUMBER                 Running object number                                     
#   2 MAG_AUTO               Kron-like elliptical aperture magnitude                    [mag]
#   3 X_IMAGE                Object position along x                                    [pixel]
#   4 Y_IMAGE                Object position along y                                    [pixel]
#   5 X_WORLD                Barycenter position along world x axis                     [deg]
#   6 Y_WORLD                Barycenter position along world y axis                     [deg]
#   7 A_WORLD                Profile RMS along major axis (world units)                 [deg]
#   8 B_WORLD                Profile RMS along minor axis (world units)                 [deg]
#   9 THETA_WORLD            Position angle (CCW/world-x)                               [deg]
#  10 FWHM_WORLD             FWHM assuming a gaussian core                              [deg]
#  11 ELONGATION             A_IMAGE/B_IMAGE                                           
#  12 ELLIPTICITY            1 - B_IMAGE/A_IMAGE                                       
         1 -13.8165    190.0390     44.0934   4.4934586911e+01   3.2319018653e+01     1.245656    0.9951825  23.71  0.004367149    1.672    0.402
         2 -13.5647    215.0650     14.3271   3.4811000980e+01   3.0151746464e+01    0.8691086    0.7477405 -65.00  0.003980588    1.095    0.087
         3 -11.0377     40.8347      4.1492   6.7244124860e+01   6.9500037888e+01    0.1754319    0.1155439  11.28  0.001091846    1.351    0.260
         4  -9.5889     67.8922    196.2132   1.0910970576e+02   2.4838402998e+01    0.3420928    0.2207721 -51.18  0.001273761    1.731    0.422
         5 -19.6998     23.5524    157.8579   1.1561227287e+02   3.9089902995e+01     19.62639     4.869911 -74.48   0.06450986    3.915    0.745
         6 -11.3452     52.8493    199.6768   1.1295207259e+02   2.5990075985e+01    0.3642271    0.2396031 -42.80  0.001196517    2.042    0.510
         7 -10.1500     75.1717    249.6508   1.1303937999e+02   1.2740513240e+01    0.3139588    0.1354532 -59.16  0.001405171    2.603    0.616
         8 -10.6987    192.5482    194.3466   8.0357063736e+01   4.4964896609e+00    0.8633313    0.4453813 -63.36  0.002268178    7.536    0.867
         9 -10.2326     82.8559    194.8327   1.0541229416e+02   2.3044499039e+01    0.3840706    0.2140471  45.04  0.001832496    1.682    0.406
        10 -12.3909    130.7365    191.2599   9.3474796531e+01   1.6063663980e+01    0.4280921    0.3474725  40.21  0.001469516    1.169    0.144
        11 -12.3608    125.0335    188.9489   9.4426765816e+01   1.7563562579e+01    0.5302243    0.3217304 -72.93  0.001994931    2.327    0.570
        12 -12.2577     98.7196    181.7552   9.9636759306e+01   2.3631640726e+01    0.8882849    0.3449116 -54.02  0.003365796    2.537    0.606
        13  -9.8681     94.1678    187.8523   1.0170192375e+02   2.2936262304e+01    0.3426053    0.2153491 -52.51  0.001502388    1.649    0.393
        14 -10.3433     91.3376    183.9088   1.0180061320e+02   2.4295835796e+01    0.2918286    0.2431055  38.79  0.001015841    1.212    0.175
        15  -9.7545     87.0182    181.4742   1.0250338578e+02   2.5533917336e+01    0.3324741    0.2007613  65.09  0.001470566    2.022    0.506
        16 -12.3097     59.8600    190.1064   1.1027655679e+02   2.7314020569e+01    0.4894652    0.3493219 -50.82  0.002099301    1.573    0.364
        17  -9.4751     75.5743    243.9384   1.1244739517e+02   1.3757344643e+01     0.170039    0.1326815  57.42 0.0006641535    1.047    0.045
        18 -10.1190     77.7961    185.9777   1.0542860124e+02   2.5837024248e+01     0.339807    0.1935242 -66.69 0.0008252527    1.740    0.425
        19  -9.9468     80.8060    184.2028   1.0444165352e+02   2.5817801115e+01    0.3281466     0.168756  64.62   0.00126989    2.745    0.636
        20 -11.1657    146.0963    184.0458   8.8576515155e+01   1.4860604118e+01    0.3631111    0.2392225  58.09  0.001630004    1.866    0.464
        21 -10.1577    184.5707    181.6557   7.9532675954e+01   8.2720456861e+00    0.4196731     0.244623 -59.05  0.001637488    2.553    0.608
        22  -9.8744    180.1890    175.6544   7.9251467812e+01   1.0248520835e+01    0.2459273    0.1974919 -51.16 0.0008390128    1.371    0.271
        23 -11.2409     67.4656    249.3561   1.1450119571e+02   1.3810343448e+01    0.1883062     0.169206 -68.69  0.001368506    1.374    0.272
        24 -10.5102    137.4302    173.2222   8.8564067946e+01   1.8820518020e+01    0.2101646    0.1456394 -62.80 0.0006235897    1.659    0.397
        25  -9.6406     71.5263    240.3180   1.1292075261e+02   1.4993638293e+01    0.1812701    0.1135829 -76.84 0.0006165491    1.699    0.411
        26 -10.3034    191.7691    168.0304   7.5213820058e+01   9.5698528097e+00    0.2741343     0.218281  43.12 0.0008825146    1.332    0.249
        27 -10.9926    153.1630    237.2996   9.5793320721e+01   3.4169767608e+00    0.3044927    0.1889284 -68.39  0.001483506    2.663    0.625
        28 -10.9366     90.7230    154.9057   9.7085467241e+01   3.1399700699e+01    0.2768998    0.2456258 -56.00 0.0003232488    1.106    0.096
        29 -11.3078    133.7995    146.4154   8.3856581891e+01   2.5633803158e+01    0.8843876    0.2558362 -53.58  0.002365161    4.215    0.763
        30  -9.4028    109.6009    147.8253   9.0543983905e+01   2.9901967772e+01    0.2486175    0.1886356 -74.65 0.0006329197    1.509    0.337
        31 -11.6505     96.2902    149.0196   9.4428210287e+01   3.1934692475e+01    0.6030419    0.4556764 -24.49  0.001971684    1.672    0.402
        32  -9.6295    174.8046    148.8091   7.4621219508e+01   1.6766290674e+01    0.2074168    0.1857995 -86.53 0.0006341332    1.356    0.262
        33  -9.8756     86.8109    143.5879   9.6003933055e+01   3.4833995892e+01    0.2078044     0.136261  47.50 0.0005705474    1.611    0.379
        34 -10.4721    153.1981    138.9776   7.7315311672e+01   2.3354836532e+01    0.3951367    0.2935538 -77.21  0.001713952    1.881    0.468
        35 -11.1610    107.7730    135.8467   8.8437505027e+01   3.3135936940e+01    0.4584736    0.3158957 -36.20  0.002047488    1.589    0.371
        36 -10.6824    105.6455    130.6022   8.7836696153e+01   3.4794132757e+01    0.3931772    0.3419748 -69.83  0.001143523    1.200    0.167
        37 -11.7077     96.0065    135.1551   9.1619975910e+01   3.5397667540e+01    0.2989061    0.2801605 -20.90 0.0003271503    1.140    0.123
        38  -9.6210     83.4562    239.1895   1.1041354949e+02   1.3586374169e+01    0.1502137    0.1166638 -77.94  0.000333293    1.374    0.272
        39  -9.9121    112.5407    150.7771   9.0370529630e+01   2.8656076860e+01    0.3220825    0.2409134  79.79  0.001337688    1.739    0.425
        40  -9.6060    160.5114    128.0077   7.2922225733e+01   2.4183715815e+01    0.2282306    0.1349299 -64.45  0.000810535    2.586    0.613
        41 -10.2938    115.0127    127.6945   8.4510299493e+01   3.3722697841e+01    0.3025641    0.2632873  -5.48 0.0007949884    1.313    0.238
        42 -10.0134    102.7901    123.2598   8.6918796367e+01   3.7085015977e+01    0.2864877    0.2307659 -30.16 0.0007648634    1.334    0.251
        43  -9.7781    120.5578    122.8067   8.1771672163e+01   3.3776683903e+01    0.2607115    0.1949206  47.05  0.001202663    1.389    0.280
        44 -10.2692    135.0000    120.4756   7.7309386079e+01   3.1327752725e+01    0.3536359   0.08863045 -45.75 0.0009314441    3.908    0.744
        45  -9.2288    234.1495    120.1596   5.6808768054e+01   1.0333555232e+01    0.1883638    0.1484506 -54.31 0.0003562975    1.301    0.232
        46  -9.3278    110.0867    117.4731   8.3369805551e+01   3.7083262940e+01     0.217368    0.1546908  38.81 0.0003646676    1.453    0.312
        47  -9.9047    165.7860    112.7494   6.7842722270e+01   2.6219499519e+01    0.3810835    0.2136057  44.62 0.0008539472    1.847    0.459
        48 -11.9131     61.2562    112.4835   9.7264221505e+01   4.6310781744e+01    0.3956841    0.2817373 -46.93  0.001034382    1.289    0.224
        49 -11.4405    118.8540    110.2016   7.8976673338e+01   3.7010749700e+01    0.5434232    0.3903577  71.04  0.002005167    1.942    0.485
        50  -9.8351    205.4850    110.2255   5.9270818813e+01   1.7920400172e+01    0.2495269    0.2087979  51.30 0.0005837089    1.292    0.226
        51 -10.1018    167.0989    224.8076   9.1012130285e+01   3.3426310198e+00    0.2351963    0.1872313 -29.64 0.0006904117    1.354    0.262
        52  -9.8919     76.4970    212.3293   1.0902874394e+02   2.0057050788e+01    0.5809673    0.2163235 -73.27  0.002145046    3.569    0.720
        53 -12.8612    174.3100     57.9115   5.1141446411e+01   3.4123134198e+01    0.5488271    0.5196861 -79.22 0.0007362242    1.012    0.012
        54 -11.4433    150.4388    247.2140   9.7729889702e+01   2.1880757866e+00     0.290491    0.2343429 -26.32  0.001439677    1.453    0.312
        55 -12.3387    195.1542     38.3936   4.2770731882e+01   3.1862097492e+01    0.4676481    0.4441948  43.07  0.001220089    1.244    0.196
        56 -11.2017    249.1141    244.6436   7.8693927425e+01  -1.1325803740e+01    0.2715698    0.1297729 -21.84   0.00149341    2.058    0.514
        57 -11.7100     63.3702    201.4732   1.1075751011e+02   2.4243228140e+01    0.2370746    0.2127709 -68.94 0.0002538083    1.212    0.175
